steady_timestamp,sequence,battery,flags,EEG-ch1,EEG-ch2,EEG-ch3,EEG-ch4,EEG-ch5,EEG-ch6,EEG-ch7,EEG-ch8,EEG-ch9,EEG-ch10
4148642821,27176,-2,0,-8549.3766510069,43373.3979644479,13569.0261306466,31366.9596275003,52207.6082303830,14654.3725195562,47046.4849397830,58901.2042650453,61773.6324540372,16073.7343539524
4148642821,27176,-2,0,-8550.5082468114,43377.0239381011,13567.0184606708,31369.6730238918,52215.1278670196,14648.7875467145,47064.9555035602,58906.7527347966,61774.9709006877,16077.4941722707
4148642821,27176,-2,0,-8546.3103914075,43376.5250625313,13567.0914668517,31367.4463353732,52217.3058847509,14648.6050312621,47067.3403721375,58904.4773754907,61775.8834779495,16082.3125802125
4148642821,27176,-2,0,-8543.5361565319,43371.1347728388,13568.0527149007,31364.4652496516,52211.7330796060,14652.3040110963,47047.4340201352,58901.4232835881,61776.3701858224,16081.8745431269
4148642821,27176,-2,0,-8540.2265429961,43373.9090077144,13571.3014899525,31366.7892797448,52214.2396251515,14652.6082035169,47055.3430230701,58906.7283994029,61780.2881841994,16084.9164673327
4148642821,27176,-2,0,-8546.6510869186,43373.3127905701,13569.8413663337,31364.2827341993,52214.9696869609,14648.1548264797,47061.5120453593,58904.5868847621,61777.1610861159,16086.6442802815
4148642821,27176,-2,0,-8553.1608047188,43370.9400896896,13568.7827767101,31360.5229158810,52207.8394166227,14650.7465459029,47044.5137728977,58894.7918888196,61774.4720251180,16082.3734186967
4148642821,27176,-2,0,-8554.3167359170,43372.0595177973,13569.3181553703,31361.1556361158,52207.0363486323,14651.4766077123,47046.0469026974,58897.2862666683,61773.0605722865,16079.4775068528
4148671400,27177,-2,0,-8551.5303333446,43373.9090077144,13568.2595657467,31362.3359027076,52207.8515843195,14644.9060514279,47060.3926172516,58898.5760425315,61771.7342933328,16079.3801652782
4148671400,27177,-2,0,-8552.2847305476,43368.0441778458,13567.2496469104,31358.6977613575,52198.9935010324,14644.9425545184,47043.9905619343,58893.1249143549,61766.9523884814,16076.9222905200
4148671400,27177,-2,0,-8553.3189847775,43368.7012334742,13567.8336963579,31359.5008293478,52197.6550543819,14648.4103481129,47035.3636648868,58894.7067149418,61768.4611828875,16073.7465216492
4148671400,27177,-2,0,-8558.4050820495,43375.2596220618,13570.5470927495,31364.4530819548,52207.2431994783,14651.6712908615,47058.2632703076,58900.4498678423,61772.0749888439,16076.7397750676
4148671400,27177,-2,0,-8554.4870836725,43376.7684164678,13572.2384026078,31363.6865170549,52211.6357380314,14656.1125002019,47058.5187919409,58902.1533453975,61776.3580181255,16079.3801652782
4148671400,27177,-2,0,-8546.1643790457,43375.7341622379,13576.6309411609,31363.6865170549,52209.6280680556,14657.6699653952,47041.6056933570,58902.6400532704,61779.3877746345,16078.1268925055
4148671400,27177,-2,0,-8541.3824741942,43377.6688260327,13578.7237850145,31364.2827341993,52212.0129366329,14653.7884701087,47053.1041668547,58906.4972131633,61780.9817429183,16079.3801652782
4148671400,27177,-2,0,-8538.6082393186,43377.5958198518,13577.3975060608,31367.1421429526,52214.0327743055,14652.5230296391,47059.8815739851,58905.9618345031,61777.5626201110,16081.7163630682
4148757857,27178,-2,0,-8540.2265429961,43374.8702557634,13575.9495501388,31366.2417333878,52209.4090495128,14655.2120906370,47043.8567172692,58899.8779860916,61774.0826588197,16077.6036815421
4148757857,27178,-2,0,-8545.4708203267,43378.1433662088,13575.9373824420,31368.6509373587,52213.7650849754,14654.1656687102,47051.8022232946,58905.6941451730,61776.0781610986,16075.7906947154
4148757857,27178,-2,0,-8547.9043596913,43378.3745524484,13574.3920849455,31366.7527766543,52216.5879906383,14650.2598380300,47064.6269757460,58906.7162317061,61777.8546448348,16076.6789365835
4148757857,27178,-2,0,-8549.9120296671,43373.0085981495,13573.2239860505,31361.6910147760,52211.0151854934,14649.9434779126,47047.3610139543,58901.4719543754,61775.2872608051,16075.4013284171
4148757857,27178,-2,0,-8546.8336023709,43374.9797650348,13577.2271583052,31362.0803810743,52209.3847141192,14649.3959315556,47044.4772698072,58904.6842263366,61777.0637445413,16078.0782217182
4148757857,27178,-2,0,-8546.4685714662,43376.5128948345,13575.4871776596,31361.6423439887,52214.7019976308,14643.1782384791,47062.2786102592,58905.6454743857,61776.8933967858,16081.0714751366
4148757857,27178,-2,0,-8549.9728681512,43373.3857967510,13574.3799172487,31357.1281284674,52210.9178439189,14648.8605528954,47053.3353530943,58899.1965950695,61775.3602669861,16081.3756675572
4148757857,27178,-2,0,-8548.2693905960,43373.5561445066,13577.0081397624,31361.2286422967,52208.7154907939,14652.7785512724,47041.8247118998,58897.0064096414,61776.8447259985,16081.8015369460
4148784007,27179,-2,0,-8545.6533357791,43375.0527712158,13577.6043569068,31365.9497086640,52212.0007689361,14646.4391812276,47054.0654149037,58901.5327928595,61775.5792855289,16080.6577734446
4148784007,27179,-2,0,-8546.7362607963,43374.1523616509,13577.1906552148,31366.3512426592,52210.2364528968,14644.6383620978,47055.1361722241,58898.6247133188,61772.7442121691,16082.8479588728
4148784007,27179,-2,0,-8545.9575281997,43374.6634049174,13579.6363622762,31365.9497086640,52207.8515843195,14649.8461363381,47040.6931160953,58898.1501731427,61775.1169130496,16085.4883490833
4148784007,27179,-2,0,-8544.0471997985,43376.2695408981,13577.7016984813,31367.9087078525,52211.5505641537,14643.0200584204,47053.3840238816,58902.3723639403,61777.3314338714,16084.6974487898
4148784007,27179,-2,0,-8548.8899431340,43374.3957155873,13573.8567062853,31364.5625912262,52212.7551661391,14633.8699504095,47063.5805538192,58898.4908686538,61774.8005529322,16078.9299604958
4148784007,27179,-2,0,-8558.0522188417,43364.4182041925,13574.9396313025,31355.1691292789,52199.9669167782,14633.7726088349,47042.5791091028,58888.4525187748,61768.4368474938,16073.9898755857
4148784007,27179,-2,0,-8560.7899506268,43361.4979569550,13575.6818608087,31352.7842607016,52197.2900234772,14632.2394790353,47037.2374901976,58886.9680597624,61766.5873575767,16072.1647210622
4148784007,27179,-2,0,-8557.2978216386,43364.4912103735,13575.7061962024,31354.6459183155,52203.5563873410,14631.3147340767,47054.7711413194,58890.3263440856,61767.4147609607,16076.3260733757
4148798962,27180,-2,0,-8557.7480264211,43363.5177946276,13575.4385068723,31350.1803735815,52200.5874693162,14633.1033855097,47043.6133633328,58886.9072212783,61764.1903213026,16073.6613477714
4148798962,27180,-2,0,-8555.9350395945,43366.1825202319,13579.6606976698,31350.5697398798,52202.3882884460,14642.3264997015,47034.6336030775,58887.9171401146,61767.2930839925,16074.2332295221
4148798962,27180,-2,0,-8552.7105999364,43374.7120757047,13582.5322741200,31356.3858989612,52209.9565958698,14642.2413258237,47055.4525323415,58896.3615217098,61773.8271371864,16078.1147248086
4148798962,27180,-2,0,-8555.5943440834,43371.9986793132,13580.1352378459,31355.0717877043,52206.4644668817,14635.3544094219,47054.2479303560,58893.6237899246,61771.7221256360,16079.5018422464
4148798962,27180,-2,0,-8557.8088649052,43364.1991856497,13577.5191830290,31349.8275103736,52194.6739686602,14628.6621761693,47034.9621308917,58886.4448487991,61767.2079101147,16075.6811854440
4148798962,27180,-2,0,-8553.8665311346,43361.9481617375,13577.6651953909,31349.4503117721,52194.1264223032,14622.9311909657,47048.0789080668,58886.5056872832,61767.5242702321,16074.0872171602
4148798962,27180,-2,0,-8552.6862645428,43360.1838456981,13578.1762386574,31346.1528659331,52193.5545405525,14620.5828254789,47056.6693020238,58885.1550729358,61765.7721218896,16075.7541916250
4148798962,27180,-2,0,-8559.9747149397,43352.5912028806,13579.4416791270,31340.4948869104,52183.4675198863,14623.2475510831,47034.1955659918,58879.2415722799,61764.2024889994,16072.9556213557
4148807669,27181,-2,0,-8561.1793169252,43353.5889540201,13582.9703112057,31342.9770970623,52184.2462524830,14621.7509243739,47036.4222545104,58880.0446402702,61764.8473769310,16073.6978508619
4148807669,27181,-2,0,-8562.5907697566,43355.5601209054,13579.7823746381,31345.6783257570,52188.8943126693,14620.2664653615,47052.7999744341,58884.3033341582,61761.5864341825,16075.2553160552
4148807669,27181,-2,0,-8564.1725703436,43355.3289346658,13582.0212308535,31345.5323133951,52186.5094440920,14627.5305803648,47042.8589661298,58878.2681565340,61759.8221181432,16078.3702464419
4148807669,27181,-2,0,-8561.3131615902,43358.8940698349,13587.3141789715,31350.0465289164,52189.2471758772,14629.1975548295,47040.6322776112,58881.8454594000,61762.2921605982,16081.2418228921
4148807669,27181,-2,0,-8562.3230804265,43363.4447884467,13592.3759408498,31353.4413163300,52194.4427824206,14623.6004142910,47059.0906736916,58886.0068117134,61764.4093398454,16083.3468344425
4148807669,27181,-2,0,-8569.4776861584,43360.5123735124,13592.5584563022,31350.9591061781,52189.7217160533,14616.9203487352,47049.3078454459,58881.6751116445,61760.4913414684,16081.0958105303
4148807669,27181,-2,0,-8568.9301398014,43358.6507158984,13594.1280891923,31348.0510266375,52185.2440036225,14618.8306771364,47032.0297159573,58880.9937206224,61757.6441004119,16074.8781174537
4148807669,27181,-2,0,-8558.3442435654,43363.4691238403,13598.4597892613,31351.9446896208,52194.9173225967,14618.5873231999,47051.7048817200,58887.6737861782,61760.8685400699,16076.2287318011
4148841541,27182,-2,0,-8554.2680651297,43363.9558317133,13603.2295264159,31350.5332367893,52198.3972838881,14619.6824159140,47058.3727795790,58886.5421903736,61761.4039187301,16080.2319040558
4148841541,27182,-2,0,-8558.9404607097,43361.1450937472,13610.8221692334,31349.9856904323,52195.0876703522,14624.8658547606,47043.5160217582,58885.5444392342,61764.7256999628,16081.9718847015
4148841541,27182,-2,0,-8560.6317705681,43362.4470373072,13615.1538693024,31351.9568573176,52196.7668125138,14624.5251592495,47048.8454729667,58888.2335002320,61768.0596488923,16081.4486737381
4148841541,27182,-2,0,-8560.8142860205,43364.9657505496,13616.2611297132,31353.3074716650,52201.2810280351,14622.1889614595,47063.6048892129,58887.7954631464,61767.3782578702,16082.4464248776
4148841541,27182,-2,0,-8561.5565155267,43362.8972420897,13618.5364890191,31349.9856904323,52199.6018858735,14620.5828254789,47050.4029381600,58883.6706139234,61764.6770291755,16080.3900841145
4148841541,27182,-2,0,-8558.9891314970,43362.5808819723,13620.5684943886,31351.4823171415,52199.9060782941,14620.0717822123,47047.4583555288,58884.1329864027,61764.6040229946,16076.2287318011
4148841541,27182,-2,0,-8555.1928100883,43364.7954027940,13618.0741165399,31354.4999059536,52203.9335859425,14615.3142127545,47062.7896535257,58886.0311471071,61761.0267201286,16074.4157449745
4148841541,27182,-2,0,-8554.8764499709,43359.6241316443,13618.8893522270,31352.2853851318,52197.8010667437,14616.9325164320,47049.1009945999,58882.4903473316,61756.9748770866,16072.6149258447
4148851641,27183,-2,0,-8554.6452637312,43359.3321069205,13627.1877214602,31352.7599253079,52195.8785706457,14621.2398811073,47038.6246076354,58882.6606950871,61758.2646529498,16072.4689134828
4148851641,27183,-2,0,-8553.9030342250,43365.2334398797,13630.9597074754,31356.6170852008,52201.8529097858,14615.3263804514,47058.2024318235,58888.8905558605,61759.6396026908,16076.2530671947
4148851641,27183,-2,0,-8553.7570218632,43363.7368131704,13631.8601170403,31354.5485767409,52199.9669167782,14611.2258666220,47058.2876057013,58885.3132529945,61755.1618902600,16079.5748484274
4148851641,27183,-2,0,-8555.8742011104,43360.7070566615,13637.4937606693,31351.8716834399,52195.8298998584,14612.3574624266,47038.9653031464,58880.9693852287,61756.7193554533,16079.5870161242
4148851641,27183,-2,0,-8555.8863688072,43363.6881423831,13641.0345604448,31355.3638124280,52200.3319476829,14609.3277059177,47049.2470069618,58885.6052777183,61765.2245755325,16080.8524565938
4148851641,27183,-2,0,-8560.0598888175,43364.9049120654,13640.4383433004,31355.9600295724,52204.4811322995,14604.5092979758,47060.9401636087,58888.8662204668,61765.7842895864,16079.2098175227
4148851641,27183,-2,0,-8560.7291121427,43363.1892668134,13642.3486717016,31354.7310921932,52201.1471833700,14605.5922229930,47045.0856546484,58885.1794083295,61759.5057580258,16075.1336390870
4148851641,27183,-2,0,-8557.2004800641,43361.4127830773,13643.4559321125,31351.2389632051,52197.8497375310,14602.1731001858,47042.6156121933,58881.0058883192,61751.6940966654,16073.3206522604
4148880755,27184,-2,0,-8554.5722575503,43358.1396726319,13643.7357891394,31344.4858914683,52191.9240691782,14595.5417054173,47051.4615277836,58873.6565994381,61741.1568712168,16071.5685039179
4148880755,27184,-2,0,-8558.0522188417,43350.1941666065,13644.9647265186,31337.0270933159,52181.1434897931,14590.1149126342,47032.1148898351,58864.7620130606,61734.0144331817,16069.0254552819
4148880755,27184,-2,0,-8558.5267590178,43347.7119564546,13649.4789420399,31338.0370121522,52178.7221181254,14592.7796382385,47022.5875832227,58864.2266344004,61737.1050281747,16071.5198331306
4148880755,27184,-2,0,-8558.3564112622,43351.8246379808,13651.7421336489,31344.5102268620,52186.6676241507,14588.9103106488,47043.5525248487,58870.9797061371,61741.5340698183,16075.3891607203
4148880755,27184,-2,0,-8563.5520178056,43349.2207508607,13649.2842588907,31341.6143150181,52184.9763142923,14583.6295302276,47039.7440357431,58866.3559813444,61737.9811023460,16074.0263786761
4148880755,27184,-2,0,-8569.2221645251,43343.3680886888,13649.4667743431,31336.3700376874,52175.3394984086,14580.5997737187,47020.8110994866,58859.2743817934,61732.9923466486,16068.8307721327
4148880755,27184,-2,0,-8568.7841274395,43343.3559209920,13653.4942819914,31337.9518382744,52176.9456343892,14583.2158285356,47032.9422932191,58862.0972874564,61737.1050281747,16069.6703432135
4148880755,27184,-2,0,-8567.1536560652,43343.3802563857,13657.0715848574,31338.8279124457,52177.6026900176,14587.1216592158,47039.9022158018,58865.0297023907,61741.1082004295,16072.5419196637
4148913156,27185,-2,0,-8568.7597920459,43339.5839349769,13660.4420368773,31336.3457022938,52174.3904180564,14588.5817828345,47025.7998551840,58861.6592503707,61742.3371378086,16074.6712666077
4148913156,27185,-2,0,-8569.0761521633,43342.4555114271,13664.1896874988,31339.3754588027,52180.3647571965,14588.2897581108,47036.5195960850,58869.9454519072,61745.4642358921,16077.8957062658
4148913156,27185,-2,0,-8569.9522263345,43344.7552061266,13663.9950043496,31340.3732099422,52188.4197724932,14585.6615355970,47052.7878067373,58872.1356373353,61746.0482853396,16079.3801652782
4148913156,27185,-2,0,-8572.4222687896,43340.0949782435,13667.1707732204,31334.8369078877,52181.3016698518,14586.1482434700,47037.1401486230,58865.9179442588,61740.9013495835,16076.0583840456
4148913156,27185,-2,0,-8571.3880145596,43340.2774936958,13676.0045211139,31336.9784225286,52180.1214032600,14589.8593910009,47032.4190822557,58867.2563909093,61743.1402057989,16075.3526576298
4148913156,27185,-2,0,-8571.4488530437,43342.9665546937,13678.3893896912,31340.0690175216,52185.0006496860,14587.5718639982,47052.2159249866,58869.5682533056,61743.5904105814,16074.1237202507
4148913156,27185,-2,0,-8571.5705300120,43343.8912996522,13679.7156686449,31340.1176883089,52185.4630221653,14589.4091862185,47047.6287032844,58867.3537324839,61743.5052367036,16072.3350688177
4148913156,27185,-2,0,-8568.4312642316,43346.0328142931,13684.0960395011,31341.3952964753,52184.2219170893,14587.9733979934,47036.9576331706,58867.5849187235,61746.3768131538,16072.0795471845
4148966969,27186,-2,0,-8568.0540656301,43341.4577602876,13680.2388796083,31337.0149256190,52179.6955338712,14576.1342289847,47046.3024243307,58866.2464720730,61742.4588147768,16068.9524491010
4148966969,27186,-2,0,-8574.5637834304,43333.1107202671,13677.0874461311,31329.3492766206,52171.6283508776,14570.5614238398,47041.3015009364,58859.0553632506,61737.0806927811,16064.9736122399
4148966969,27186,-2,0,-8582.1442585511,43325.9804499289,13682.3682265523,31322.5597017934,52161.6508394828,14577.5943526034,47019.8620191344,58850.7813294110,61732.1284401742,16065.0466184208
4148966969,27186,-2,0,-8582.2050970352,43332.1616399149,13689.5593353746,31326.4290293831,52167.9172033466,14582.2302450930,47032.2852375906,58856.9138486098,61737.6404068349,16072.3350688177
4148966969,27186,-2,0,-8577.6543784234,43336.7610293140,13694.7062711308,31330.3956985474,52174.0132194549,14577.9715512049,47049.3078454459,58859.6637480918,61739.5629029330,16078.0660540213
4148966969,27186,-2,0,-8578.2992663550,43334.3639930399,13696.8721211652,31329.8724875840,52167.9172033466,14576.1342289847,47033.8670381776,58856.4514761305,61737.6404068349,16077.8470354785
4148966969,27186,-2,0,-8576.6201241935,43336.9922155536,13700.2669085788,31333.5592997213,52168.2822342513,14577.9958865986,47033.1856471555,58858.7511708300,61740.0982815932,16077.1899798501
4148966969,27186,-2,0,-8571.0473190486,43340.9953878084,13701.4836782611,31339.0347632917,52176.5927711813,14580.1495689362,47051.5588693582,58863.4965725910,61741.5097344246,16077.3359922120
4148981577,27187,-2,0,-8562.9801360550,43341.6281080432,13702.5301001879,31341.4196318690,52176.4467588195,14583.3496732007,47045.1951639198,58860.2356298424,61739.5142321457,16075.0971359965
4148981577,27187,-2,0,-8558.0643865385,43343.1369024492,13708.3584269661,31342.9284262750,52176.1547340957,14583.1671577483,47038.8801292687,58861.7930950358,61742.3858085959,16072.6270935415
4148981577,27187,-2,0,-8561.5200124362,43346.3370067136,13714.8803124632,31341.7846627736,52180.4986018615,14577.9350481145,47056.5962958429,58865.7354288064,61746.3159746697,16076.1192225297
4148981577,27187,-2,0,-8571.6192007993,43339.8881273975,13716.2187591137,31332.9265794865,52175.7045293133,14571.8755350966,47050.7679690647,58859.7367542727,61741.6557467865,16075.9975455614
4148981577,27187,-2,0,-8581.3533582576,43332.2224783990,13716.6324608057,31326.1005015689,52167.9537064371,14573.2504848376,47029.3163195658,58852.4239684821,61736.5331464241,16070.2422249642
4148981577,27187,-2,0,-8581.4263644385,43333.3540742036,13713.4323565413,31327.4146128257,52169.9857118065,14569.1256356147,47039.6466941685,58852.3631299980,61733.6494022770,16069.0132875851
4148981577,27187,-2,0,-8578.2019247805,43333.8286143797,13710.6216185752,31328.7773948699,52173.0763067995,14563.2729734428,47047.7990510399,58853.0931918074,61729.8409131714,16070.8019390180
4148981577,27187,-2,0,-8580.5624579641,43329.6185912789,13709.8185505848,31324.9324026739,52166.3962412437,14561.6303343717,47027.9778729153,58847.6663990243,61725.7160639485,16068.4900766217
4149029540,27188,-2,0,-8581.2560166830,43331.9304536753,13714.1137475633,31329.1180903810,52166.5787566961,14562.5307439366,47031.0928033020,58850.4771369904,61727.0301752053,16069.7311816976
4149029540,27188,-2,0,-8581.8400661305,43332.3319876704,13716.0849144487,31328.4488670557,52168.1240541926,14562.2022161224,47048.1154111573,58851.6939066727,61729.1473544525,16070.9357836831
4149029540,27188,-2,0,-8580.2582655435,43330.4824977533,13719.3823602877,31324.6890487374,52165.8243594930,14566.2540591644,47036.4952606914,58847.9097529608,61728.3807895527,16067.7113440250
4149029540,27188,-2,0,-8576.9121489172,43333.5487573527,13724.9186623421,31325.9058184197,52168.0510480116,14572.9097893266,47033.4411687888,58850.2946215381,61731.8607508440,16065.4359847191
4149029540,27188,-2,0,-8574.5151126431,43338.6591900184,13729.5180517412,31328.6313825080,52177.0064728733,14571.1576409841,47053.3231853975,58855.6119050497,61733.9900977881,16068.1615488075
4149029540,27188,-2,0,-8579.6742160960,43333.5852604432,13733.0953546071,31326.6602156227,52171.4458354252,14567.8845305387,47044.2582512644,58850.1851122667,61730.1694409857,16067.6991763282
4149029540,27188,-2,0,-8580.8301472942,43336.6393523457,13742.3063011021,31330.4200339410,52172.2489034156,14575.5866826276,47029.4623319277,58854.7601662721,61733.3208744628,16069.7190140008
4149029540,27188,-2,0,-8573.7972185306,43344.6213614616,13747.7087584915,31335.7616528463,52180.9609743408,14572.5812615124,47048.6264544238,58863.3870633196,61737.8959284682,16075.6203469599
4149039349,27189,-2,0,-8570.4754372979,43344.4023429188,13746.2851379632,31332.9874179707,52180.5472726488,14566.6069223723,47053.3475207911,58860.3938099011,61735.4867244973,16076.8857874295
4149039349,27189,-2,0,-8567.3240038208,43340.5816861164,13746.6136657774,31328.9599103223,52175.3029953181,14570.6222623239,47031.4091634194,58856.3906376464,61735.8274200083,16076.2043964074
4149039349,27189,-2,0,-8563.9778871944,43344.0859828014,13752.4906633429,31332.3546977359,52177.8217085605,14575.9395458355,47036.7264469310,58860.0044436028,61742.6413302292,16082.3855863935
4149039349,27189,-2,0,-8564.7809551848,43346.9818946453,13758.3311578179,31336.5890562302,52184.1124078179,14574.6862730627,47052.5079497104,58865.5650810509,61745.2817204398,16088.1287392939
4149039349,27189,-2,0,-8571.3515114691,43340.2774936958,13757.4672513435,31331.6854744106,52175.8140385847,14569.5393373066,47036.2762421486,58856.7921716416,61739.9522692313,16081.3634998604
4149039349,27189,-2,0,-8570.2929218456,43340.4235060577,13759.5600951970,31333.2429396039,52173.2953253423,14570.8169454730,47034.8404539234,58855.1373648736,61738.2974624634,16075.0849682997
4149039349,27189,-2,0,-8566.6426127987,43343.2585794174,13760.6795233047,31335.0802618242,52176.5562680909,14570.1598898446,47053.7125516958,58858.6659969523,61738.7841703363,16077.0804705787
4149039349,27189,-2,0,-8575.3546837239,43338.5983515342,13761.9449637743,31331.1257603567,52168.6594328528,14569.2229771892,47041.4353456015,58850.6718201396,61734.1726132404,16077.3359922120
4149083219,27190,-2,0,-8578.4452787169,43336.0309675046,13767.7976259462,31330.7120586648,52164.1573850283,14572.5204230283,47026.3352338442,58849.6619013033,61735.0243520180,16078.7717804371
4149083219,27190,-2,0,-8572.1667471563,43339.2067363754,13770.2311653108,31331.5881328360,52169.7423578700,14564.7330970616,47043.5525248487,58853.4095519248,61734.7323272943,16078.7961158307
4149083219,27190,-2,0,-8565.7422032338,43337.8804574217,13770.8638855455,31329.2275996524,52170.8252828873,14557.1161188504,47045.8643872450,58851.2193664966,61730.1086025015,16080.5482641732
4149083219,27190,-2,0,-8565.1703214831,43334.3031545557,13773.0540709737,31327.5971282781,52167.8685325593,14555.2666289333,47028.9999594484,58847.4960512688,61726.6529766038,16080.1710655717
4149083219,27190,-2,0,-8566.3140849844,43335.4834211476,13774.8183870130,31329.6169659507,52167.8685325593,14553.6726606495,47039.4276756257,58848.7979948289,61727.0788459926,16078.6744388625
4149083219,27190,-2,0,-8570.9134743835,43333.3905772940,13773.3582633942,31328.0108299701,52168.8906190924,14549.2314513091,47048.4196035779,58847.0945172737,61723.9030771218,16077.9078739626
4149083219,27190,-2,0,-8574.3082617971,43326.3333131367,13770.4136807631,31323.3992728742,52158.2560520692,14550.8132518961,47031.4091634194,58837.8105645978,61719.6078801433,16074.0385463729
4149083219,27190,-2,0,-8575.5493668731,43323.5834136547,13770.0973206457,31321.5254475634,52153.9851904843,14548.1728616855,47031.7498589304,58835.2675159618,61717.6610486517,16071.8483609448
4149103188,27191,-2,0,-8578.0072416313,43320.5414894490,13767.8462967335,31318.4105171768,52152.1843713545,14544.3400371863,47046.2659212402,58830.0475740247,61715.3370185585,16072.3229011209
4149103188,27191,-2,0,-8581.5602091036,43315.6379076294,13770.7422085773,31313.9449724427,52147.2929572317,14550.3022086296,47031.4091634194,58824.4869365766,61714.5461182650,16075.3161545394
4149103188,27191,-2,0,-8584.0667546491,43315.6014045389,13774.3925176242,31315.3077544869,52145.4191319210,14557.4081435742,47021.2978073595,58826.7987989730,61716.8093098741,16077.3116568183
4149103188,27191,-2,0,-8587.4737097595,43321.5879113758,13776.8260569888,31318.7268772942,52150.4565584057,14550.3508794169,47041.5813579634,58829.8407231787,61719.0725014831,16079.8425377575
4149103188,27191,-2,0,-8590.4061246939,43319.7992599428,13776.8138892920,31313.7989600809,52146.6115662096,14540.3977034157,47038.9409677528,58822.4914342977,61712.6722929543,16073.6978508619
4149103188,27191,-2,0,-8593.5210550805,43314.0804424360,13778.2740129107,31309.7471170388,52139.1892711476,14537.9033255670,47018.3288893347,58815.5558471086,61708.6569530027,16064.0732026750
4149103188,27191,-2,0,-8596.9401778878,43314.9321812136,13777.6534603727,31311.7304516210,52142.8760832850,14534.8492336644,47030.2897353117,58818.7559513730,61708.6569530027,16060.4715644154
4149103188,27191,-2,0,-8601.5273995900,43309.0308482545,13773.1027417610,31306.7173605299,52140.8805810060,14530.0064903289,47032.4190822557,58815.2151515976,61705.5298549192,16057.9893542635
4149148245,27192,-2,0,-8605.2993856052,43299.4427031580,13768.9778925380,31298.8691960791,52129.8201445939,14531.4179431604,47009.7019922872,58807.8780304133,61699.6650250505,16053.2682878962
4149148245,27192,-2,0,-8603.5107341722,43305.6117254472,13774.4046853210,31303.3347408131,52135.8309868245,14540.8965789854,47020.8354348802,58818.4030881652,61708.1580774330,16056.6874107034
4149148245,27192,-2,0,-8600.0429405776,43312.2187848221,13779.9409873755,31309.6011046770,52144.8594178671,14542.3201995137,47041.6786995379,58826.2269172223,61716.7241359963,16065.2413015700
4149148245,27192,-2,0,-8598.3637984161,43312.3769648808,13785.7814818505,31309.8322909166,52142.1703568692,14540.4585418998,47027.7101835852,58822.8442975055,61714.1324165730,16066.2025496190
4149148245,27192,-2,0,-8596.2344514721,43313.6059022599,13789.2492754450,31312.1319856161,52139.6394759301,14537.7938162956,47019.2049635060,58820.4837643219,61713.2806777954,16064.2070473400
4149148245,27192,-2,0,-8594.9690110025,43313.6302376536,13787.1077608042,31312.6065257922,52142.0851829915,14532.0263280015,47033.6723550284,58820.0822303267,61709.7642134136,16062.6982529340
4149148245,27192,-2,0,-8595.2732034231,43311.6590707682,13786.3776989948,31312.8012089414,52141.7444874804,14536.1633449213,47031.2023125734,58819.4251746983,61709.2044993597,16060.9217691978
4149148245,27192,-2,0,-8589.9072491241,43313.8492561964,13790.8919145161,31315.5876115138,52141.2942826980,14535.1534260850,47022.8309371592,58820.4107581410,61711.6623741180,16056.5170629479
4149192911,27193,-2,0,-8586.3664493487,43316.3192986514,13789.5291324719,31318.7147095973,52141.7688228741,14523.4115986509,47037.5660180118,58820.2282426886,61706.8074630856,16053.0005985661
4149192911,27193,-2,0,-8588.6661440482,43311.8780893111,13783.8954888429,31316.9138904675,52137.5101289860,14519.3475879120,47035.9477143343,58814.6067667564,61701.6848627232,16051.5039718569
4149192911,27193,-2,0,-8584.0302515587,43311.0750213207,13784.7593953173,31317.6926230642,52134.9549126532,14526.5995352185,47017.8786845523,58811.1146377682,61699.8110374124,16051.9176735488
4149192911,27193,-2,0,-8578.2505955678,43315.9177646563,13788.7260644816,31323.8981484439,52143.6548158816,14534.4233642756,47032.1270575319,58819.9970564490,61706.9899785380,16056.6630753098
4149192911,27193,-2,0,-8576.4132733475,43321.0038619283,13794.3840435043,31324.2631793486,52152.4642283814,14529.5441178496,47045.5966979149,58823.9880610069,61710.3360951643,16060.6054090804
4149192911,27193,-2,0,-8579.0171604676,43316.6113233752,13802.5972388598,31317.6074491865,52146.9522617207,14530.3106827495,47022.7700986751,58819.9483856617,61711.6137033307,16057.0767770018
4149192911,27193,-2,0,-8582.7648110891,43314.1412809201,13808.0605347333,31315.3199221837,52145.6746535542,14527.5972863580,47017.3676412857,58821.1894907376,61712.9886530717,16053.4021325612
4149192911,27193,-2,0,-8585.1983504537,43317.8524284511,13808.9852796918,31318.8972250497,52152.7075823179,14523.5576110127,47036.8967946865,58826.1539110414,61712.2220881718,16057.3079632414
4149201732,27194,-2,0,-8590.2236092415,43314.5793180058,13802.4147234074,31313.3244199048,52146.9279263270,14524.3971820935,47030.1923937371,58819.8388763903,61704.1305697846,16054.1930328547
4149201732,27194,-2,0,-8586.1961015931,43317.1588697322,13802.1592017742,31314.6141957680,52147.8770066792,14530.5662043828,47023.5731666654,58821.0069752853,61706.3815936968,16051.5648103410
4149201732,27194,-2,0,-8581.5602091036,43320.1399554538,13802.9987728549,31316.9017227707,52154.1068674525,14525.3705978394,47040.9608054254,58823.3553407721,61707.9998973743,16050.5062207174
4149201732,27194,-2,0,-8577.7638876948,43320.3954770871,13810.5792479756,31319.0919081989,52154.0095258780,14527.4391062993,47040.7904576699,58825.4116815352,61710.5551137071,16052.8667539010
4149201732,27194,-2,0,-8577.5205337584,43319.0326950430,13817.3323197124,31318.6173680228,52151.4908126356,14531.9168187301,47022.3807323768,58823.9028871291,61714.5339505682,16053.7671634659
4149201732,27194,-2,0,-8574.3082617971,43324.6785063688,13820.2525669499,31321.9026461650,52157.5259902598,14533.3769423489,47035.6800250042,58829.5486984550,61719.7782278989,16056.9429323367
4149201732,27194,-2,0,-8575.2330067557,43325.3477296941,13816.9794565045,31321.8053045904,52159.0834554531,14527.8163049008,47046.0347350006,58829.4270214868,61715.4586955267,16058.4395590459
4149201732,27194,-2,0,-8577.7517199980,43320.8943526569,13816.9672888077,31321.4767767761,52152.7440854084,14526.6482060058,47028.5132515755,58824.3287565179,61712.1612496877,16057.1619508795
4149229447,27195,-2,0,-8579.0658312549,43319.4828998254,13814.1687185384,31321.9026461650,52149.7873350804,14523.8253003428,47028.3672392136,58823.3431730753,61709.9467288659,16055.6044856862
4149229447,27195,-2,0,-8578.3601048392,43324.1309600118,13817.7703567980,31326.0883338720,52155.2871340444,14524.0929896729,47048.2492558223,58830.3274310516,61713.8403918493,16057.3931371192
4149229447,27195,-2,0,-8576.6931303744,43325.2868912099,13826.7136139628,31326.0883338720,52155.3966433158,14531.9654895174,47038.7827876941,58830.1205802057,61716.1644219424,16059.2304593394
4149229447,27195,-2,0,-8572.9211443593,43328.3288154157,13835.6568711277,31328.8990718381,52157.5868287439,14532.2453465443,47032.7962808572,58833.8560631303,61720.5569604955,16060.4228936281
4149229447,27195,-2,0,-8570.0130648186,43330.4581623597,13834.5739461105,31331.2109342345,52161.4926594241,14522.2921705432,47049.4295224142,58838.0782539279,61720.0945880163,16061.3233031930
4149229447,27195,-2,0,-8574.0162370734,43321.0647004124,13828.5509361831,31323.4722790551,52152.7805884988,14517.2182409680,47039.0018062369,58828.2345871981,61711.9909019322,16056.3467151924
4149229447,27195,-2,0,-8582.4606186685,43315.8325907785,13829.2931656893,31319.7976346146,52144.6647347179,14519.1772401565,47020.6042486406,58823.9150548260,61710.0197350469,16054.3512129134
4149229447,27195,-2,0,-8589.8220752464,43315.0660258787,13827.8695451610,31316.8895550739,52149.0937763615,14515.2227386890,47031.9810451701,58824.0123964005,61709.7277103231,16053.7063249818
4149260687,27196,-2,0,-8590.2479446352,43314.4698087343,13829.8407120463,31315.6484499980,52152.2938806259,14513.2272364101,47037.9188812197,58821.3963415836,61707.5496925918,16056.6752430066
4149260687,27196,-2,0,-8590.5034662685,43310.1746117559,13833.4666856996,31312.7768735477,52148.2785406744,14514.3709999114,47018.4992370902,58816.9551322432,61702.6826138626,16054.7284115149
4149260687,27196,-2,0,-8585.8067352948,43311.6834061619,13837.5793672257,31316.0013132058,52149.8481735645,14512.5458453880,47024.0720422351,58819.4495100919,61702.5122661071,16056.3832182829
4149260687,27196,-2,0,-8587.0965111580,43310.2719533304,13833.6735365456,31317.1572444040,52148.3637145521,14511.0857217692,47034.7309446520,58816.6874429131,61699.2513233586,16058.8532607379
4149260687,27196,-2,0,-8590.8076586890,43305.5143838727,13833.9290581789,31314.5411895871,52142.7179032263,14516.1109805571,47019.0467834473,58811.2484824333,61695.9417098227,16058.6464098919
4149260687,27196,-2,0,-8590.0289260924,43307.9114201468,13840.6821299156,31316.7070396216,52145.0297656226,14517.7292842345,47018.6817525426,58815.4706732308,61699.1418140872,16058.9506023125
4149260687,27196,-2,0,-8588.9338333783,43309.2498667973,13839.6600433825,31318.3496786927,52151.5029803324,14509.6377658473,47037.4443410436,58818.3300819842,61699.8718758965,16058.5855714078
4149260687,27196,-2,0,-8588.3619516276,43304.5774712173,13840.0372419840,31315.3807606679,52148.0838575252,14504.8558609959,47026.8341094140,58813.2926554995,61695.5766789180,16051.4674687664
4149313507,27197,-2,0,-8591.2213603810,43299.0046660724,13841.5703717837,31312.6065257922,52141.5133012408,14504.7706871181,47011.2229543901,58809.5085017876,61690.8921156412,16043.6436397092
4149313507,27197,-2,0,-8588.7756533196,43302.5332981510,13843.4563647912,31314.7723758267,52151.1622848214,14507.1433879986,47029.1824749008,58817.2593246638,61693.6785182137,16046.7707377927
4149313507,27197,-2,0,-8583.8355684095,43305.9645886551,13845.7195564003,31318.4470202672,52157.1244562646,14515.7581173492,47037.6755272832,58820.1674042045,61698.0832244636,16051.7351580965
4149313507,27197,-2,0,-8579.6255453087,43308.4589665038,13853.0810129782,31324.5065332851,52160.3123928322,14528.1813358055,47028.4767484850,58825.5941969875,61705.6515318874,16060.0578627234
4149313507,27197,-2,0,-8575.0504913033,43314.9565166073,13856.7191543282,31332.9265794865,52168.1605572830,14532.0141603047,47044.0514004184,58836.6546333996,61714.1567519667,16070.5220819911
4149313507,27197,-2,0,-8579.9419054261,43312.0484370666,13850.9394983373,31330.3226923664,52165.7756887057,14526.7698829740,47050.2447581013,58836.3017701917,61711.8448895703,16069.3539830961
4149313507,27197,-2,0,-8587.2546912167,43305.6725639314,13847.9462449189,31323.3019312996,52156.4917360298,14524.3606790031,47028.4037423041,58827.5531961760,61705.7488734620,16062.0777003960
4149313507,27197,-2,0,-8588.2767777499,43303.3728692318,13842.4099428644,31320.8683919350,52153.9365196970,14523.1317416239,47026.1162153014,58824.6937874226,61702.9868062832,16052.8180831137
4149319224,27198,-2,0,-8586.2934431677,43303.5432169873,13834.4157660518,31320.6858764827,52152.3668868069,14521.9149719416,47040.4740975525,58822.9416390801,61701.1373163661,16050.0073451476
4149319224,27198,-2,0,-8588.3132808403,43295.6220463556,13825.3508319187,31315.8187977535,52142.1581891724,14525.9424795900,47024.4979116239,58815.0691392357,61696.1120575782,16047.2817810593
4149319224,27198,-2,0,-8587.1208465517,43293.4683640180,13816.6995994776,31315.9769778122,52139.7733205951,14538.5603811954,47014.8124249529,58817.1133123019,61698.3387460968,16049.6423142429
4149319224,27198,-2,0,-8584.6021333093,43299.9780818182,13801.4048045711,31321.4889444730,52146.1856968208,14543.6951492547,47033.9035412681,58825.4968554129,61702.6461107722,16053.0249339597
4149319224,27198,-2,0,-8582.2537678225,43299.7347278818,13781.3281048133,31320.6493733922,52147.3659634126,14548.2458678665,47036.0207205153,58826.5311096429,61702.7677877404,16054.0470204929
4149319224,27198,-2,0,-8583.5557113826,43296.8631514315,13760.0833061604,31318.1914986340,52143.8860021213,14555.2787966301,47019.2779696869,58827.5653638728,61702.9503031927,16054.9474300577
4149319224,27198,-2,0,-8586.4881263169,43296.7293067665,13735.0786891893,31315.9039716312,52143.4966358229,14554.7434179699,47027.6006743138,58830.6924619563,61704.6537807479,16053.7671634659
4149319224,27198,-2,0,-8589.7247336718,43292.4097743944,13708.2854207852,31311.1342344766,52138.7877371525,14557.2012927282,47030.0707167689,58828.4657734377,61704.2035759655,16050.7739100475
4149355566,27199,-2,0,-8592.0730991586,43287.1654970637,13679.3993085275,31307.0215529505,52130.4041940415,14566.1688852867,47010.1521970697,58821.9317202438,61701.7213658136,16049.8856681794
4149355566,27199,-2,0,-8592.8153286648,43293.3345193529,13653.4699465978,31314.6872019489,52135.2591050738,14573.7858634978,47019.8255160439,58829.3905183963,61708.5474437313,16052.5382260868
4149355566,27199,-2,0,-8594.4701354327,43296.8874868252,13625.2773930590,31317.6439522769,52140.8927487028,14568.9674555560,47035.3758325837,58833.7952246462,61708.4622698535,16052.9154246883
4149355566,27199,-2,0,-8594.4944708264,43288.4066021396,13599.1168448897,31311.7061162273,52132.1928454744,14567.5925058150,47015.8223437892,58826.2147495255,61704.5442714765,16049.9343389667
4149355566,27199,-2,0,-8590.3331185129,43282.2740829408,13572.7251104808,31307.7516147599,52127.4839468039,14570.2207283287,47005.1026028882,58825.2656691733,61704.7024515352,16046.9045824578
4149355566,27199,-2,0,-8588.7026471387,43282.5904430582,13545.7128235338,31309.7227816452,52129.3212690242,14571.3279887396,47022.6727571005,58828.5387796187,61707.6592018632,16050.9564254998
4149355566,27199,-2,0,-8595.2123649389,43279.9500528477,13520.6352003817,31305.4762554540,52124.6610411410,14572.4230814537,47016.9539395937,58824.7302905131,61705.6515318874,16049.3016187319
4149355566,27199,-2,0,-8601.4300580155,43278.7454508622,13502.2133073918,31304.0891380162,52119.2099129643,14574.1143913121,47001.8781632301,58823.3918438626,61706.9413077507,16048.6323954066
4149386808,27200,-2,0,-8604.8005100354,43275.9225451993,13485.0933579619,31303.3225731163,52120.4753534339,14568.1035490815,47010.3468802189,58823.7812101609,61704.1305697846,16048.1943583210
4149386808,27200,-2,0,-8608.4873221728,43271.5300066462,13468.0829178035,31300.9498722358,52119.5141053849,14565.5726681424,47010.6389049426,58822.3210865422,61702.8042908309,16045.5174650200
4149386808,27200,-2,0,-8611.3223955325,43268.4272439563,13455.5136869854,31300.8281952676,52113.2477415211,14572.2040629109,46991.3774408719,58820.2039072950,61703.3640048847,16044.7995709074
4149386808,27200,-2,0,-8609.2173839821,43274.5232600646,13446.6556036983,31304.3324919526,52120.7673781577,14574.6741053659,47004.1778579296,58827.8087178093,61707.1846616871,16050.6278976856
4149386808,27200,-2,0,-8605.8956027495,43278.7332831654,13436.8971108463,31307.9219625154,52128.6885487894,14571.8877027935,47021.0422857262,58831.6537100054,61708.5474437313,16051.1267732553
4149386808,27200,-2,0,-8604.9708577909,43274.5597631551,13429.0246110018,31305.5249262413,52122.1058248082,14571.3158210428,47003.7033177535,58824.0123964005,61706.4789352714,16043.4367888632
4149386808,27200,-2,0,-8603.0240262993,43275.5453465978,13423.1597811332,31305.2572369112,52118.3946772772,14573.2869879281,46998.2765249705,58826.3485941905,61707.3185063522,16040.3948646575
4149386808,27200,-2,0,-8603.4012249008,43278.8306247400,13419.0227642134,31307.9219625154,52123.7606315761,14573.9197081629,47012.5370656470,58828.6482888901,61709.1071577851,16045.7851543501
4149429398,27201,-2,0,-8603.4133925976,43275.5818496882,13414.1191823937,31305.1112245493,52121.2662537274,14571.6686842506,46999.1039283545,58826.8839728508,61705.3595071637,16047.5738057830
4149429398,27201,-2,0,-8601.4543934091,43277.7233643291,13413.5107975526,31306.1211433856,52123.6389546079,14570.3180699033,46988.0313242456,58827.4801899951,61707.8052142251,16049.5571403652
4149429398,27201,-2,0,-8600.6148223283,43279.0739786764,13408.2665202219,31307.8367886376,52128.1775055228,14560.0363660879,47004.2265287169,58829.8528908756,61706.1625751540,16049.7274881207
4149429398,27201,-2,0,-8601.1015302012,43275.8373713215,13402.5842058056,31308.5911858407,52127.0094066279,14560.4500677799,47003.8006593281,58826.9083082444,61703.1571540387,16048.2186937147
4149429398,27201,-2,0,-8602.4521445486,43273.5620120156,13400.9659021281,31310.0878125499,52121.7407939035,14567.2639780007,46986.5468652332,58823.2945022880,61701.1251486693,16044.7387324233
4149429398,27201,-2,0,-8595.5773958436,43281.6900334933,13398.3741827048,31318.5078587513,52128.0558285546,14570.3424052969,47003.0219267315,58828.6361211933,61702.9746385864,16046.1258498611
4149429398,27201,-2,0,-8595.5408927532,43284.4399329753,13392.2294958092,31318.6052003259,52130.3068524669,14566.7529347342,47014.8854311338,58830.0354063279,61702.4270922294,16047.5859734799
4149429398,27201,-2,0,-8601.0893625044,43279.7188666080,13392.2173281124,31311.4140915036,52123.9309793316,14567.7385181768,46995.6361347599,58823.6838685863,61699.8962112902,16048.3160352892
4149447159,27202,-2,0,-8603.2065417516,43279.0131401923,13396.6463697560,31307.5325962171,52121.9841478400,14564.8791094234,46993.3607754540,58824.2314149434,61700.2369068012,16049.8613327858
4149447159,27202,-2,0,-8602.5494861232,43278.4412584416,13395.6972894038,31306.1941495665,52122.9210604953,14559.0872857357,47005.9908447562,58824.7911289972,61699.6771927474,16050.2750344777
4149447159,27202,-2,0,-8599.1668664064,43277.3948365148,13396.9870652670,31305.1112245493,52121.6312846321,14562.5550793303,46992.5820428574,58820.0943980236,61696.9272932654,16046.7829054896
4149447159,27202,-2,0,-8596.1006068070,43281.5805242219,13398.7635490032,31310.4893465450,52124.1743332681,14569.0526294337,46988.9682369010,58823.4283469530,61699.4460065077,16043.6923104965
4149447159,27202,-2,0,-8593.3993781123,43288.3214282618,13398.8243874873,31316.5245241692,52135.6606390690,14571.7903612189,47010.0548554951,58830.6072880786,61705.0431470463,16046.7098993086
4149447159,27202,-2,0,-8593.5697258678,43289.3313470982,13399.0677414237,31315.8187977535,52137.5222966829,14576.8521230972,47005.4432983992,58830.8993128023,61709.8007165041,16053.8036665564
4149447159,27202,-2,0,-8598.2664568415,43289.5625333378,13405.6869684954,31316.0256485995,52133.9206584233,14578.8962961635,46991.8884841385,58832.9434858686,61715.3248508617,16058.9384346157
4149447159,27202,-2,0,-8598.0596059955,43294.1984258273,13411.6491399387,31318.2523371181,52138.6052217001,14573.5668449550,47007.6943223115,58836.5451241282,61719.9972464417,16060.6419121709
4149479258,27203,-2,0,-8598.0839413892,43290.6332906582,13407.7919800458,31311.4262592004,52132.3145224427,14560.0850368752,47012.1598670455,58829.7677169978,61713.5848702160,16058.8654284347
4149479258,27203,-2,0,-8598.7653324112,43281.6656980997,13402.6693796833,31303.5172562655,52120.4023472530,14558.9412733739,46989.5279509548,58819.8388763903,61704.3130852369,16055.0812747228
4149479258,27203,-2,0,-8592.7544901807,43281.5196857378,13401.6837962407,31304.3324919526,52121.0715705783,14560.3040554180,46994.1030049602,58820.1065657204,61703.9845574227,16056.3710505860
4149479258,27203,-2,0,-8592.6936516966,43282.5052691805,13399.3110953602,31306.8998759823,52124.1134947840,14561.0584526210,47008.4122164240,58823.7082039800,61704.3374206306,16057.7216649334
4149479258,27203,-2,0,-8598.3394630224,43281.4831826474,13401.5864546661,31306.2063172634,52119.4167638103,14564.5019108219,46993.9691602952,58820.3377519600,61703.6560296085,16054.6432376372
4149479258,27203,-2,0,-8601.7585858297,43283.2231632930,13405.3341052875,31306.1454787792,52119.8426331991,14562.1535453351,46989.3819385929,58821.7735401851,61706.1869105476,16052.1001890012
4149479258,27203,-2,0,-8597.4755565480,43288.4309375333,13407.7311415617,31310.6718619974,52125.4762768282,14560.6204155354,47006.9642605021,58826.5432773397,61709.1436608756,16057.6243233588
4149479258,27203,-2,0,-8597.5850658194,43285.9000565941,13408.1935140409,31308.4330057820,52123.3225944905,14564.1733830077,46995.6239670631,58824.2070795497,61706.9048046602,16058.0258573540
4149514472,27204,-2,0,-8600.0307728808,43286.6301184035,13409.8848238993,31308.5546827502,52119.2829191453,14571.6686842506,46982.4828544943,58822.9903098674,61709.0098162106,16055.3246286593
4149514472,27204,-2,0,-8602.1357844312,43290.8523092010,13407.0984213269,31309.2725768627,52124.8922273807,14566.3270653454,46999.1891022322,58826.7987989730,61708.8638038487,16053.4629710454
4149514472,27204,-2,0,-8602.8415108469,43292.4341097880,13407.1105890237,31305.8047832682,52126.5105310581,14562.1778807288,47004.5550565311,58825.0101475400,61705.7002026747,16053.4751387422
4149514472,27204,-2,0,-8602.5008153359,43289.7085456997,13411.5639660609,31301.0593815073,52119.9034716833,14561.7885144304,46987.0700761966,58819.7902056030,61703.1936571292,16049.0095940082
4149514472,27204,-2,0,-8601.1988717758,43293.0181592355,13415.8226599489,31302.8602006370,52121.5582784512,14566.2540591644,46994.6992221046,58824.7302905131,61707.2576678681,16049.6666496366
4149514472,27204,-2,0,-8599.2520402842,43296.0965865317,13422.2472038714,31306.1089756888,52129.3942752051,14574.6254345786,47004.1656902328,58831.2765114038,61714.9233168665,16056.4318890701
4149514472,27204,-2,0,-8597.7554135749,43297.3985300918,13429.9006851731,31306.8877082854,52131.0734173667,14579.7358672443,46989.0290753851,58831.6415423085,61718.3911104611,16060.6297444741
4149514472,27204,-2,0,-8591.7689067380,43305.3197007235,13438.0895451349,31313.6894508095,52141.3307857885,14579.6871964570,46997.5464631611,58839.2828559133,61725.2536914692,16066.7014251887
4149545220,27205,-2,0,-8589.7977398527,43307.3152030025,13436.5685830320,31316.1473255677,52144.4700515688,14571.4618334047,47016.2603808748,58842.2274385445,61722.9418290728,16066.3728973745
4149545220,27205,-2,0,-8589.2866965862,43303.6405585619,13433.8551866405,31315.3685929710,52137.7048121352,14571.9972120649,47006.8912543211,58837.7740615073,61718.8291475467,16061.7491725818
4149545220,27205,-2,0,-8585.0036673045,43303.9325832857,13438.0408743476,31319.7367961305,52134.5047078708,14580.8431276551,46997.6073016452,58838.9421604023,61720.5082897082,16057.0767770018
4149545220,27205,-2,0,-8574.4542741590,43315.5649014484,13443.5771764021,31332.1600145867,52144.5308900529,14588.4479381695,47022.5875832227,58847.9705914449,61726.7138150879,16059.5468194568
4149545220,27205,-2,0,-8565.5475200846,43324.4229847355,13453.6520293714,31339.8499989788,52153.9000166066,14594.2154264636,47029.6935181673,58853.1783656851,61732.2744525360,16063.2823023815
4149545220,27205,-2,0,-8561.5200124362,43326.6861763446,13458.1297418023,31341.9550105292,52153.7783396383,14597.6710523613,47017.7448398872,58851.9007575187,61730.4492980126,16059.8510118774
4149545220,27205,-2,0,-8555.5821763866,43335.1548933333,13464.7854719644,31347.9415173660,52162.2348889303,14600.8954920194,47034.1468952045,58861.0630332264,61736.5453141209,16059.3764717013
4149545220,27205,-2,0,-8552.2482274571,43337.5640973043,13468.3871102240,31347.2601263440,52165.4471608915,14600.0802563322,47039.3911725352,58860.2356298424,61738.6868287617,16057.6729941461
4149567456,27206,-2,0,-8549.1698001609,43339.6812765515,13476.1622684939,31346.8464246520,52163.7801864268,14607.4295452133,47019.0224480536,58859.5542388204,61740.8161757057,16058.0136896571
4149567456,27206,-2,0,-8544.1810444635,43347.7606272419,13482.6476509005,31352.2853851318,52171.3728292443,14607.0645143086,47025.2888119174,58866.2829751634,61744.5273232367,16060.6540798677
4149567456,27206,-2,0,-8538.8394255582,43355.0369099420,13482.8423340497,31356.3980666580,52180.7176204043,14602.4042864254,47045.9738965164,58870.9188676530,61746.4254839411,16060.7879245328
4149567456,27206,-2,0,-8536.9899356412,43355.0125745484,13484.4728054240,31354.4512351663,52177.6270254113,14600.9319951098,47033.9765474490,58867.9012788409,61743.1645411926,16056.7117460971
4149567456,27206,-2,0,-8537.5861527855,43357.8598156050,13487.4173880551,31357.2619731324,52176.9578020860,14608.6463148956,47028.8661147834,58869.2762285819,61747.0338687823,16052.7694123264
4149567456,27206,-2,0,-8535.9921845017,43364.1261794688,13488.6949962215,31362.8591136710,52184.6112833877,14610.0334323334,47048.6872929080,58873.7539410127,61750.2704761372,16053.9740143119
4149567456,27206,-2,0,-8532.8650864182,43366.3772033810,13492.4548145398,31361.3259838713,52188.2980955250,14609.2060289494,47045.8643872450,58870.9797061371,61749.9784514134,16056.2250382242
4149567456,27206,-2,0,-8532.9380925991,43365.2456075765,13495.3750617773,31358.3570658465,52184.1489109084,14610.7513264459,47030.4844184608,58868.0472912028,61748.4939924010,16055.1542809037
4149603325,27207,2,0,-8530.0178453616,43368.8229104424,13498.5995014354,31362.3845734949,52188.3711017059,14619.3173850093,47045.2194993134,58872.0626311543,61752.7648539859,16060.5080675058
4149603325,27207,2,0,-8524.9925865737,43373.1789459050,13504.2574804581,31366.5824288988,52192.6906340781,14625.7905997191,47053.9802410259,58879.6309385782,61758.4471684022,16070.5099142943
4149603325,27207,2,0,-8524.2625247644,43371.9500085259,13511.1565645567,31366.9961305908,52188.8213064884,14626.1921337143,47037.3104963785,58877.2095669104,61760.6008507398,16067.5166608758
4149603325,27207,2,0,-8523.8609907692,43374.7485787952,13511.3755830995,31369.2836575935,52191.3765228212,14621.4345642565,47044.9761453770,58877.8909579325,61759.9559628082,16063.7446748607
4149603325,27207,2,0,-8522.1575132140,43376.6345718028,13508.8933729476,31369.0889744443,52194.1750930905,14618.9036833173,47058.6161335155,58877.2217346073,61754.9307040203,16062.0898680928
4149603325,27207,2,0,-8521.4152837078,43373.7629953525,13508.7230251921,31365.1709760673,52189.8312253247,14621.6900858898,47038.3447506085,58870.8336937752,61750.1122960785,16058.2327081999
4149603325,27207,2,0,-8518.5193718639,43374.5538956460,13510.5238443219,31366.9352921067,52188.9551511535,14625.1335440907,47032.1027221383,58874.1554750079,61751.2925626703,16060.2647135694
4149603325,27207,2,0,-8515.8059754724,43377.3281305217,13513.6509424054,31370.1232286743,52192.4716155353,14623.0163648435,47046.2780889370,58878.6331874387,61753.1177171937,16065.6428355651
4149634406,27208,2,0,-8517.6919684800,43376.4642240472,13515.9749724986,31369.0646390507,52191.3765228212,14624.8050162764,47040.3159174938,58875.0072137855,61752.7891893795,16066.5797482205
4149634406,27208,2,0,-8518.9817443432,43376.9265965265,13518.5058534377,31369.4783407427,52189.7703868406,14625.2552210589,47032.6259331017,58874.9098722109,61754.2736483919,16063.3918116529
4149634406,27208,2,0,-8515.4287768709,43378.8004218372,13515.0988983273,31372.1795694373,52194.2115961810,14619.1957080411,47048.0424049763,58876.5646789788,61755.7702751011,16061.5423217358
4149634406,27208,2,0,-8515.5139507487,43373.8481692303,13512.4098373294,31369.1741483221,52190.0624115643,14617.5287335763,47044.1487419930,58869.8116072421,61750.3921531054,16059.0844469775
4149634406,27208,2,0,-8523.3986182899,43368.6282272933,13511.8379555788,31361.8978656220,52180.0240616854,14619.0131925887,47022.8431048560,58864.7620130606,61746.7661794521,16058.6220744983
4149634406,27208,2,0,-8527.8154922367,43369.7233200073,13508.8933729476,31361.4841639300,52183.1511597689,14614.9613495467,47032.9544609159,58868.0229558091,61747.0460364791,16061.0677815597
4149634406,27208,2,0,-8526.8299087940,43369.8206615819,13507.1777276956,31359.2453077146,52186.0714070064,14611.0190157760,47044.6354498659,58866.9887015792,61745.2817204398,16059.4981486695
4149634406,27208,2,0,-8523.4716244709,43368.0928486331,13512.6410235691,31358.9167799003,52184.7451280527,14614.5598155515,47027.6615127979,58864.0806220385,61743.0185288307,16055.8113365322
4149697295,27209,2,0,-8520.9285758349,43368.4943826282,13515.5612708066,31362.5184181599,52188.4927786742,14617.0663610970,47030.7034370036,58866.9643661855,61746.0726207332,16056.9916031240
4149697295,27209,2,0,-8520.9772466222,43370.6358972691,13515.8654632272,31365.3413238229,52197.4238681422,14612.1141084901,47048.6751252111,58871.9774572766,61750.5868362546,16062.1507065769
4149697295,27209,2,0,-8525.2724436007,43364.1140117719,13513.4684269530,31358.3814012401,52191.2061750657,14607.5025513942,47034.5605968965,58866.6845091586,61746.9243595108,16058.8897638284
4149697295,27209,2,0,-8531.9646768533,43359.0765852873,13510.0128010553,31352.3462236160,52183.9907308497,14600.6156349924,47020.4460685819,58863.6790880433,61744.3813108749,16051.4918041600
4149697295,27209,2,0,-8536.6127370396,43355.0247422452,13503.2232262281,31350.3020505497,52182.0438993580,14591.0883283801,47034.5362615029,58863.2897217450,61738.7720026395,16052.1001890012
4149697295,27209,2,0,-8545.8358512314,43345.3879263614,13494.6936707552,31343.2447863924,52170.5697612540,14587.6083670887,47022.6605894037,58852.6308193281,61729.0743482716,16049.7153204239
4149697295,27209,2,0,-8547.8435212072,43342.2608282779,13495.2412171123,31342.5633953703,52164.3155650870,14592.7187997543,47005.2242798564,58850.2946215381,61729.3907083890,16052.4165491186
4149697295,27209,2,0,-8544.2662183413,43344.5848583711,13494.9735277822,31343.5003080257,52168.1848926767,14589.2753415534,47018.4018955156,58854.9426817245,61731.6660676949,16055.7139949576
4149708352,27210,2,0,-8543.7551750747,43342.8327100286,13492.7468392636,31340.0933529152,52168.6229297623,14583.6660333181,47024.9481164064,58852.5821485408,61728.8674974256,16054.4728898817
4149708352,27210,2,0,-8547.1742978820,43337.2355694901,13488.6949962215,31334.1920199561,52161.9185288129,14577.9593835081,47006.5262234165,58845.6222259581,61725.3145299533,16046.7098993086
4149708352,27210,2,0,-8546.1887144393,43334.1693098907,13487.3687172678,31334.7395663132,52157.8788534677,14573.6641865296,47010.5658987617,58845.4883812930,61723.9760833028,16044.2033537631
4149708352,27210,2,0,-8544.8381000920,43332.1373045213,13488.5854869501,31334.8734109782,52156.1145374283,14568.0427105974,47022.0887076530,58842.4829601778,61721.4086992731,16047.7563212354
4149708352,27210,2,0,-8548.8169369531,43325.1773819385,13488.8653439770,31329.6413013443,52148.0351867379,14567.6776796927,47004.0561809614,58833.4301937415,61716.4807820599,16046.6368931277
4149708352,27210,2,0,-8553.0634631443,43325.6397544178,13488.8775116739,31331.2596050218,52149.4466395694,14566.9111147929,46999.1525991418,58835.0484974190,61715.7385525536,16046.8194085800
4149708352,27210,2,0,-8557.7236910275,43328.7181817140,13484.3511284557,31331.7219775011,52153.5349857019,14560.5474093545,47019.0711188409,58837.7375584168,61713.7308825779,16048.5228861352
4149708352,27210,2,0,-8564.7201167006,43325.8587729606,13482.8545017465,31327.1590911925,52149.9211797454,14558.2477146549,47009.7628307714,58832.5784549639,61709.3018409343,16047.9023335973
4149737123,27211,2,0,-8570.2442510583,43321.1498742901,13483.6819051305,31323.0342419695,52141.1969411234,14557.4811497551,46990.0389942214,58827.5410284792,61707.7687111346,16044.8604093915
4149737123,27211,2,0,-8568.9788105887,43322.0989546423,13486.6994939426,31323.2532605123,52143.6913189721,14557.5541559360,47003.3017837584,58830.9966543769,61712.1977527782,16048.1700229274
4149737123,27211,2,0,-8566.5331035273,43320.9186880505,13488.8896793707,31320.6980441795,52144.5917285370,14558.1747084740,47005.3946276119,58830.1084125088,61710.5307783134,16051.7716611870
4149737123,27211,2,0,-8567.4821838795,43315.9299323531,13492.3453052684,31319.1527466830,52139.2136065413,14560.4257323863,46990.1606711896,58828.3197610759,61711.9787342354,16051.1024378617
4149737123,27211,2,0,-8564.7444520943,43316.7330003434,13490.3498029894,31321.9026461650,52140.7954071282,14552.5045617545,47000.8074059097,58829.9502324501,61713.4266901573,16051.4187979791
4149737123,27211,2,0,-8567.6768670286,43310.0651024844,13482.1852784212,31318.2280017244,52139.1284326635,14543.3787891373,47007.8281669765,58826.5797804302,61710.0562381373,16050.3358729619
4149737123,27211,2,0,-8570.9864805645,43305.6482285377,13480.9928441326,31315.0765682473,52133.5921306091,14548.1850293824,46990.6352113657,58821.0069752853,61708.8638038487,16049.0704324923
4149737123,27211,2,0,-8571.3150083787,43307.4855507580,13483.3777127099,31316.5123564724,52136.8165702671,14547.4306321794,46993.1417569112,58824.1705764592,61710.0927412278,16046.7098993086
4149781802,27212,2,0,-8572.4344364864,43307.4490476675,13483.7427436146,31312.9837243937,52138.3862031573,14535.8469848039,47010.3590479157,58823.3310053785,61706.0895689731,16045.2984464772
4149781802,27212,2,0,-8579.2970174945,43300.0267526055,13483.0126818052,31304.1499765003,52130.7327218557,14533.6567993758,46995.6483024567,58816.2372381307,61697.9615474953,16041.6724728239
4149781802,27212,2,0,-8582.8378172700,43297.1551761553,13485.4462211698,31301.5825924706,52128.1166670387,14538.0615056257,46979.3922595013,58814.5580959691,61696.4040823020,16040.4922062321
4149781802,27212,2,0,-8580.6476318419,43301.9005779162,13489.6075734832,31305.8899571460,52137.4492905019,14540.0448402078,46997.3639477088,58821.9317202438,61699.8232051092,16045.7973220469
4149781802,27212,2,0,-8582.3754447907,43302.1926026400,13490.1307844466,31306.8877082854,52139.1406003603,14541.0547590441,46996.2201842074,58822.2480803612,61697.7303612557,16046.1015144675
4149781802,27212,2,0,-8583.1785127810,43303.6040554715,13496.1902974645,31309.0413906231,52139.5177989618,14546.7249057636,46981.7406249881,58821.3355030995,61698.9836340285,16045.0794279343
4149781802,27212,2,0,-8581.4020290449,43307.4490476675,13501.1425500714,31314.3708418316,52145.2122810750,14546.1408563161,46995.9889979678,58827.2246683618,61701.4415087867,16050.1533575095
4149781802,27212,2,0,-8580.1244208785,43305.5265515695,13502.7730214457,31312.7403704573,52143.8494990308,14543.6586461642,47002.8029081886,58828.3927672568,61700.3099129822,16054.1078589770
4149793178,27213,2,0,-8579.5525391278,43301.4990439211,13506.3016535243,31309.5280984960,52138.0211722526,14543.6829815579,46984.4053505924,58823.6595331927,61699.1174786935,16053.4264679549
4149793178,27213,2,0,-8580.9396565656,43307.1691906406,13511.5824339455,31313.7746246872,52143.0099279500,14547.2846198175,46993.3364400604,58829.3540153058,61703.2909987038,16054.8622561800
4149793178,27213,2,0,-8580.7571411133,43314.0196039519,13515.2570783860,31317.2059151913,52150.6999123421,14546.4815518272,47014.9584373148,58833.3815229542,61707.3793448363,16057.1862862732
4149793178,27213,2,0,-8586.1595985027,43309.4323822497,13516.1088171636,31311.0977313862,52143.1681080087,14544.4008756704,47000.3085303399,58826.4581034620,61705.1648240145,16053.7428280723
4149793178,27213,2,0,-8588.8364918037,43304.3462849777,13517.0457298190,31306.5470127744,52136.6583902084,14545.7271546241,46988.7248829645,58824.2800857307,61702.6096076817,16053.0857724438
4149793178,27213,2,0,-8586.8044864343,43305.0398436966,13518.2138287140,31307.3744161584,52138.9824203016,14538.1223441098,47004.4212118661,58825.6550354716,61700.3464160726,16059.5346517600
4149793178,27213,2,0,-8587.6197221214,43302.3021119114,13519.5279399709,31304.0891380162,52135.1009250151,14534.8979044517,46999.8461578607,58821.2381615249,61696.2459022433,16060.6054090804
4149793178,27213,2,0,-8589.4205412512,43301.7302301607,13524.2490063382,31302.6046790038,52132.6795533473,14541.5536346139,46988.6640444804,58820.0578949331,61697.1219764145,16059.7901733933
4149822486,27214,2,0,-8590.4061246939,43304.3584526745,13526.6825457027,31302.6898528815,52135.9769991864,14539.6311385158,47001.6469769905,58822.5157696913,61698.5577646397,16057.4053048160
4149822486,27214,2,0,-8592.1826084300,43302.3872857892,13527.4126075121,31300.2928166074,52136.0013345800,14538.8280705255,47004.2021933233,58820.7879567425,61700.2247391044,16059.1209500680
4149822486,27214,2,0,-8592.4259623665,43299.0168337692,13533.6059651950,31299.4897486171,52133.2879381885,14542.1985225455,46986.3400143872,58817.9893864732,61703.4856818529,16062.1142034865
4149822486,27214,2,0,-8592.0244283713,43301.3773669529,13536.4897093420,31303.0548837862,52133.4826213377,14538.2318533812,46995.1250914934,58818.8411252508,61704.9579731685,16063.0997869291
4149822486,27214,2,0,-8595.2610357262,43299.2845230993,13534.8714056646,31302.0814680404,52134.3830309026,14531.7099678841,47009.3369613826,58816.6144367322,61700.7601177646,16062.2602158483
4149822486,27214,2,0,-8604.1069513165,43295.0136615145,13536.4532062516,31295.8272718734,52127.7394684372,14533.3526069552,46992.9105706716,58808.0118750784,61695.2481511038,16058.4882298332
4149822486,27214,2,0,-8604.8735162164,43295.7923941111,13541.3689557680,31296.9710353747,52126.0724939725,14535.8104817134,46989.6617956199,58809.4719986971,61697.0002994463,16060.3985582344
4149822486,27214,2,0,-8598.4489722938,43297.4228654854,13541.7461543695,31299.1855561965,52129.3821075083,14528.9965714926,47007.5118068591,58811.4431655824,61697.0368025368,16063.3188054719
4149852018,27215,2,0,-8599.4832265238,43290.2317566630,13539.8358259683,31294.9633653990,52122.3370110478,14522.4625182987,46997.7046432198,58804.6292553616,61691.2449788491,16061.1772908311
4149852018,27215,2,0,-8603.7905911991,43290.0127381202,13545.8831712893,31294.0872912277,52121.6556200258,14524.5675298490,46989.4062739866,58805.4323233519,61690.3932400715,16058.3665528650
4149852018,27215,2,0,-8604.6058268862,43293.4561963211,13550.4582252948,31294.4401544356,52126.9729035374,14520.9537238926,47008.2418686685,58808.8879492496,61692.0237114457,16059.3034655204
4149852018,27215,2,0,-8606.8081800112,43290.5359490836,13553.9868573734,31290.4248144840,52123.1035759477,14521.0023946799,47009.2396198080,58804.5562491807,61688.3855700957,16061.3476385866
4149852018,27215,2,0,-8605.5670749353,43286.8004661590,13559.1216254327,31291.0697024156,52115.7786224603,14527.4026032088,46991.4747824465,58800.7355923783,61689.2859796606,16059.0601115839
4149852018,27215,2,0,-8605.0681993655,43289.1244962522,13561.8228541274,31296.4356567145,52121.2905891211,14526.8915599422,47002.0850140761,58805.0429570536,61691.6343451474,16059.5954902441
4149852018,27215,2,0,-8604.3381375561,43293.5413701989,13564.7917721522,31301.0107107200,52127.9706546769,14524.8352191791,47015.8953499701,58805.7000126820,61694.3842446294,16062.4548989975
4149852018,27215,2,0,-8605.8225965685,43289.3191794013,13568.7219382260,31296.0949612035,52123.1035759477,14522.3651767241,46999.3107792005,58799.6283319674,61692.6077608932,16063.8663518290
4149909449,27216,2,0,-8605.3723917861,43286.7396276749,13567.9188702357,31295.0972100640,52117.9323047979,14517.8752965964,46996.7798982613,58798.4237299819,61689.0669611178,16062.3088866356
4149909449,27216,2,0,-8604.6544976735,43285.3646779339,13565.4974985679,31294.5618314038,52120.7917135513,14511.7792804881,47009.8966754364,58799.7500089356,61686.9741172642,16060.6905829582
4149909449,27216,2,0,-8604.2529636784,43280.2420775714,13566.0815480154,31290.0232804888,52114.4645112034,14512.7526962340,46995.8673209996,58794.4083900303,61682.9466096158,16057.8190065080
4149909449,27216,2,0,-8604.1312867102,43279.6336927303,13569.9265402115,31289.0742001367,52112.8462075259,14516.5125145523,46988.1895043043,58795.5034827444,61683.1412927650,16054.8865915736
4149909449,27216,2,0,-8602.1844552185,43283.7950450437,13570.7904466859,31291.6902549536,52122.1544955955,14514.0303044004,47009.8115015587,58801.0397847988,61687.1201296261,16056.8212553685
4149909449,27216,2,0,-8604.5814914926,43283.4421818358,13574.2095694932,31292.1769628265,52120.5848627053,14515.7702850461,47006.8669189275,58800.1880460212,61688.1300484624,16058.4882298332
4149909449,27216,2,0,-8609.5337440995,43281.3128348918,13582.6296156946,31292.0552858583,52117.0927337172,14518.5566876185,46990.8055591212,58800.5287415323,61689.6875136557,16055.0204362387
4149909449,27216,2,0,-8614.7415183398,43283.1014863248,13586.5476140716,31294.0751235309,52121.4487691798,14513.1785656228,47003.7519885408,58805.7121803788,61690.2837308001,16056.3588828892
4149914356,27217,2,0,-8617.2358961885,43281.0816486522,13584.4791056117,31291.7389257409,52121.4000983925,14509.3335734267,47010.6997434267,58802.2078836938,61686.9497818706,16057.4174725128
4149914356,27217,2,0,-8616.1164680808,43277.7720351164,13587.6913775730,31288.4414799019,52118.9178882406,14510.4164984440,46993.7379740555,58797.7910097471,61684.9786149853,16056.5292306447
4149914356,27217,2,0,-8610.3611474835,43280.7044500507,13590.8428110501,31289.9867773984,52122.5925326811,14504.6733455435,46996.7798982613,58800.9059401338,61685.2584720122,16054.9839331482
4149914356,27217,2,0,-8609.0227008330,43280.6314438697,13590.4777801454,31289.7069203714,52124.1499978745,14499.5385774843,47009.2396198080,58800.9302755274,61684.8691057138,16054.9474300577
4149914356,27217,2,0,-8609.6554210678,43278.1248983242,13594.5052877938,31286.9083501022,52119.2099129643,14503.3470665898,46993.2634338795,58796.5864077616,61684.4432363250,16052.9397600820
4149914356,27217,2,0,-8609.5945825837,43280.8626301094,13599.9077451832,31287.5167349433,52120.3901795562,14507.9707913825,46989.7469694976,58799.5309903928,61687.5459990149,16047.9996751718
4149914356,27217,2,0,-8609.6675887646,43287.1046585795,13601.6233904352,31291.6050810758,52123.9674824221,14505.0870472355,47007.6091484337,58805.2498078996,61687.7163467704,16049.1556063700
4149914356,27217,2,0,-8610.7018429945,43284.3912621880,13602.8401601175,31287.5897411243,52121.8746385686,14504.2961469420,46997.8871586722,58800.0785367498,61685.2341366185,16051.0537670744
4149940842,27218,2,0,-8608.9983654393,43281.7387042806,13607.8410835118,31288.0277782099,52116.2288272427,14505.8171090449,46982.6532022499,58796.7324201235,61683.4576528824,16051.2727856172
4149940842,27218,2,0,-8610.3246443930,43284.5981130340,13612.5256467886,31290.5951622395,52121.4122660893,14501.9477814552,46999.8583255575,58798.5819100406,61684.0417023299,16056.9064292462
4149940842,27218,2,0,-8610.0326196693,43284.9509762419,13615.3607201483,31290.8020130855,52121.5461107544,14502.4953278122,47007.4631360718,58799.0442825199,61681.7420076303,16062.2358804547
4149940842,27218,2,0,-8609.3025578599,43282.0428967012,13618.8041783492,31287.7479211830,52117.4577646218,14505.0262087514,46991.7789748671,58797.7666743535,61680.4400640703,16060.8730984105
4149940842,27218,2,0,-8608.4751544759,43284.9023054546,13621.7974317677,31289.5000695255,52120.4266826466,14506.2794815242,47001.9268340174,58801.3926480067,61683.7131745157,16061.5179863421
4149940842,27218,2,0,-8610.3733151803,43283.0771509312,13619.6559171268,31288.2711321463,52119.4410992040,14501.5949182473,47008.1810301844,58798.7157547056,61681.8758522954,16059.2791301267
4149940842,27218,2,0,-8612.1863020069,43277.1393148816,13622.0772887946,31284.0611090456,52111.3130777263,14507.3502388446,46989.3819385929,58793.4471419813,61680.8415980655,16055.7018272608
4149940842,27218,2,0,-8612.2836435815,43279.7675373953,13627.5770877586,31285.1562017597,52113.7344493940,14509.2362318521,46990.5257020943,58796.9271032727,61684.9786149853,16056.0181873782
4149975765,27219,2,0,-8605.1290378496,43287.1898324573,13635.6929415395,31288.0156105131,52122.5073588034,14503.2132219248,47012.8047549771,58802.0862067256,61685.1732981344,16060.0700304202
4149975765,27219,2,0,-8604.6301622799,43283.4178464422,13636.7758665567,31284.2922952852,52116.4356780887,14497.6039136894,47001.2454429953,58793.1794526512,61679.4301452340,16056.0060196813
4149975765,27219,2,0,-8607.7572603634,43278.9157986177,13638.5523502929,31282.3089607031,52109.9016248948,14496.4723178849,46987.2525916489,58790.2713731105,61676.3517179378,16052.8789215978
4149975765,27219,2,0,-8613.1232146623,43277.6990289354,13635.8024508109,31282.9538486347,52108.2833212173,14492.3596363587,46999.7488162861,58790.0158514772,61673.1759490670,16053.0736047470
4149975765,27219,2,0,-8614.2426427700,43274.1703968568,13632.7118558179,31280.5811477542,52105.4604155544,14494.8175111169,46997.5586308580,58786.0126792225,61671.6063161768,16053.2074494121
4149975765,27219,2,0,-8613.4882455670,43272.7954471158,13635.2062336666,31281.0313525367,52104.9250368942,14500.5606640174,46983.6266179957,58782.3623701756,61672.4823903481,16051.8811704584
4149975765,27219,2,0,-8607.1610432191,43281.0451455617,13643.1152366015,31290.5829945427,52116.3505042110,14504.4664946975,47002.2431941348,58791.5368135801,61678.6514126373,16056.3102121019
4149975765,27219,2,0,-8606.1876274732,43281.1059840458,13645.0620680931,31288.9403554716,52118.6136958200,14498.9788634304,47009.2517875048,58791.9626829689,61678.4202263977,16056.0425227718
4150031721,27220,2,0,-8611.0547062024,43273.4646704410,13647.2522535213,31282.6861593046,52108.4293335792,14497.3118889657,46986.3886851745,58783.5548044643,61673.5166445780,16052.9519277788
4150031721,27220,2,0,-8612.7095129703,43274.4502538837,13647.5199428514,31282.5279792459,52109.5365939901,14498.3948139829,46991.2800992973,58785.4894682591,61673.8938431795,16051.0537670744
4150031721,27220,2,0,-8608.8158499870,43278.1005629306,13647.4834397609,31284.8763447327,52116.2166595459,14496.6670010340,47012.2450409232,58787.9351753205,61673.3462968225,16049.3502895192
4150031721,27220,2,0,-8609.1078747107,43276.5917685245,13648.6272032623,31284.0489413488,52112.7732013450,14497.3605597529,47003.8371624186,58782.3136993883,61671.5333099959,16044.9090801788
4150031721,27220,2,0,-8608.4386513855,43278.7819539527,13653.0562449058,31287.1517040386,52113.3085800052,14501.1447134649,47001.8173247460,58786.4385486113,61672.2390364116,16045.9676698024
4150031721,27220,2,0,-8608.1222912681,43280.8869655030,13654.5528716150,31290.8141807823,52115.9489702158,14496.6304979436,47021.2734719659,58791.0987764945,61672.4945580449,16051.8324996711
4150031721,27220,2,0,-8602.8415108469,43281.5440211315,13659.4686211315,31291.1062055061,52115.9976410031,14497.3483920561,47021.4803228119,58788.6895725235,61674.0641909351,16056.3953859797
4150031721,27220,2,0,-8600.9433501425,43281.3736733759,13665.6254757239,31291.4955718044,52113.8561263622,14503.2010542280,47009.6289861063,58788.1298584697,61676.2908794537,16053.2196171089
4150044420,27221,2,0,-8600.7851700838,43284.7197900023,13667.9495058171,31292.1282920392,52117.4455969250,14503.2132219248,47023.8043529050,58789.7238267535,61676.8870965980,16053.1709463216
4150044420,27221,2,0,-8602.4764799422,43282.6999523296,13669.7016541596,31288.1251197845,52117.6402800742,14498.8571864622,47027.0896310472,58786.5723932764,61676.8627612043,16058.5855714078
4150044420,27221,2,0,-8608.6941730188,43274.1217260695,13671.1374423847,31282.5888177300,52105.8619495496,14493.1262012586,47003.6303115726,58779.5881353000,61671.2047821817,16056.8820938526
4150044420,27221,2,0,-8613.9749534399,43271.1284726510,13666.1851897778,31281.3477126541,52102.1021312313,14485.3632106855,47008.6677380573,58777.5074591433,61667.5909762253,16051.7473257933
4150044420,27221,2,0,-8615.6175925110,43268.9382872229,13660.9409124471,31279.7780797639,52105.6429310068,14480.6664797119,47023.4636573940,58776.8260681212,61661.6044693884,16047.9510043846
4150044420,27221,2,0,-8613.9627857431,43268.1352192326,13661.0382540217,31279.8632536417,52103.9637888452,14489.0378551261,47010.5293956712,58773.7963116123,61659.4994578380,16046.3205330103
4150044420,27221,2,0,-8608.2439682363,43275.8252036247,13669.4096294359,31285.6307419358,52111.2035684548,14495.3285543835,47011.6488237789,58781.0360912219,61667.3232868952,16048.5107184384
4150044420,27221,2,0,-8605.8712673558,43279.3903387938,13675.2622916077,31290.6681684205,52119.2707514485,14493.8927661584,47033.5628457570,58790.7580809834,61672.6527381036,16050.9929285903
4150073169,27222,2,0,-8609.6797564614,43277.1879856689,13681.0054445081,31288.9281877748,52117.4821000155,14495.5232375327,47026.1405506950,58789.5656466948,61675.0741097714,16050.4940530206
4150073169,27222,2,0,-8611.2250539579,43278.4412584416,13687.9045286067,31288.2346290559,52115.7056162793,14499.3317266383,47016.8809334128,58790.0766899614,61678.3593879136,16050.8469162284
4150073169,27222,2,0,-8608.8401853806,43283.9532251024,13688.8171058684,31288.9646908652,52121.0594028814,14496.5939948531,47032.4312499525,58789.8455037217,61678.4323940945,16055.0204362387
4150073169,27222,2,0,-8601.1258655949,43286.2894228924,13693.3069859961,31292.9191923327,52125.6952953710,14505.2330595974,47035.0959755567,58791.3177950373,61680.4643994639,16063.5864948020
4150073169,27222,2,0,-8599.2155371937,43283.6612003787,13697.9185430920,31293.1625462692,52119.7209562309,14499.5385774843,47014.0580277499,58787.5093059317,61676.7167488425,16064.1948796432
4150073169,27222,2,0,-8601.9167658884,43280.7774562316,13695.0591343386,31290.3031375158,52117.7254539519,14489.0743582165,47017.6596660095,58787.3511258730,61673.3827999130,16059.4981486695
4150073169,27222,2,0,-8607.5260741238,43274.8274524852,13683.9865302297,31281.0556879303,52110.7168605819,14479.7173993597,47021.9913660784,58779.7584830555,61663.3201146404,16049.6179788493
4150073169,27222,2,0,-8609.9839488820,43270.1550569052,13682.5750773983,31275.5437212695,52102.6375098915,14483.4285468907,47003.1314360029,58773.2122621648,61660.1686811633,16045.3714526581
4150100488,27223,2,0,-8611.6509233467,43269.7048521227,13688.1478825432,31276.3102861694,52104.1706396912,14482.1996095116,47003.2409452743,58776.4367018228,61662.2736927136,16042.9257455967
4150100488,27223,2,0,-8611.3710663198,43271.9315406413,13693.1488059374,31277.5878943358,52111.2400715453,14477.4785431443,47018.2315477601,58779.0770920334,61665.2669461321,16044.2885276409
4150100488,27223,2,0,-8612.5756683053,43268.6827655896,13699.0258035029,31275.4950504823,52105.7402725814,14479.4132069391,47003.9588393868,58774.5020380280,61664.8775798338,16040.2731876893
4150100488,27223,2,0,-8613.3300655083,43269.4858335799,13697.6021829746,31276.0182614456,52106.9935453541,14487.7359115660,46998.7997359339,58775.4997891675,61666.1065172129,16037.7909775374
4150100488,27223,2,0,-8608.7063407156,43277.4800103926,13697.6021829746,31281.8952590111,52117.4942677123,14492.2257916937,47024.9846194969,58782.7639041708,61670.7545773992,16038.6670517087
4150100488,27223,2,0,-8607.7572603634,43274.8639555757,13705.2678319731,31282.6131531237,52117.5429384996,14485.7404092870,47023.8165206019,58780.9509173442,61671.1439436976,16039.6526351513
4150100488,27223,2,0,-8608.7306761092,43268.8652810420,13713.0429902429,31280.1066075781,52108.6240167284,14486.8963404852,47006.4653849323,58775.7674784976,61667.4206284697,16041.7698143985
4150100488,27223,2,0,-8602.0627782503,43273.7688628616,13718.1899259990,31287.0178593736,52112.4568412276,14492.8828473221,47022.0035337752,58784.0658477308,61674.2953771747,16055.2516224783
4150147152,27224,2,0,-8594.2267814963,43279.1713202510,13722.0835889824,31290.6073299363,52117.0805660203,14497.7864291417,47033.7575289062,58786.0126792225,61675.1714513460,16062.8807683863
4150147152,27224,2,0,-8593.2898688409,43281.3371702855,13729.2381947143,31289.7799265524,52116.2896657268,14504.5516685753,47016.9661072905,58784.1753570022,61677.2642951995,16062.1385388801
4150147152,27224,2,0,-8595.2975388167,43283.1623248089,13735.2003661575,31288.7091692320,52118.0783171598,14501.7896013965,47018.3167216379,58785.9396730416,61678.8217603928,16059.4738132759
4150147152,27224,2,0,-8599.4345557365,43282.5661076646,13737.8407563681,31284.9128478232,52119.2099129643,14497.6647521735,47027.1017987441,58785.2704497163,61677.5441522264,16059.8996826647
4150147152,27224,2,0,-8606.0659505050,43278.4655938353,13737.7799178840,31280.2161168496,52112.6515243768,14500.8648564380,47007.0494343798,58778.6268872510,61676.4368918155,16062.8442652958
4150147152,27224,2,0,-8607.3313909746,43281.7995427647,13743.2675491511,31283.8177551091,52111.2887423326,14500.5606640174,47004.0683486582,58781.3767867330,61679.0529466325,16063.6595009830
4150147152,27224,2,0,-8602.3182998835,43287.5791987556,13745.0805359777,31290.4369821808,52119.5506084754,14494.7688403297,47027.4789973456,58787.7404921714,61679.9898592878,16062.8929360831
4150147152,27224,2,0,-8600.1646175459,43283.6246972882,13745.0196974936,31288.4536475987,52116.6425289347,14492.6394933856,47021.9670306848,58783.4817982833,61677.8726800407,16061.8343464595
4150165579,27225,2,0,-8599.4710588270,43281.0816486522,13748.2076340612,31285.4968972707,52111.9214625674,14495.4502313517,47006.1125217245,58780.4885448649,61676.7897550234,16058.5247329237
4150165579,27225,2,0,-8599.4832265238,43284.1479082516,13748.2198017581,31287.7235857893,52117.5794415901,14495.1582066280,47021.4073166309,58786.6332317605,61680.8781011559,16058.3908882586
4150165579,27225,2,0,-8598.6923262303,43286.0582366528,13749.8989439196,31287.4923995497,52119.1977452675,14496.2289639484,47027.0896310472,58787.8986722301,61680.6347472195,16058.3908882586
4150165579,27225,2,0,-8597.7919166654,43284.4521006721,13753.1477189713,31287.0665301609,52117.2144106854,14496.3871440071,47011.7461653535,58785.3799589877,61680.7320887940,16057.2471247573
4150165579,27225,2,0,-8592.9856764203,43286.0582366528,13755.6785999105,31290.0841189730,52120.6091980990,14495.5597406231,47023.1229618830,58788.1055230760,61682.2773862906,16058.6950806792
4150165579,27225,2,0,-8591.8540806158,43285.0361501197,13758.7083564194,31292.5298260344,52125.0990782266,14498.3826462861,47036.3249129358,58787.8743368364,61683.4333174887,16064.5355751542
4150165579,27225,2,0,-8592.5598070315,43283.1014863248,13763.6484413295,31291.6415841663,52122.8237189208,14502.7386817487,47020.2757208264,58785.3677912909,61684.0417023299,16065.2778046604
4150165579,27225,2,0,-8590.6859817208,43284.9996470292,13764.8895464055,31294.5131606165,52123.0305697667,14504.6976809372,47020.5312424597,58787.8743368364,61684.8812734107,16063.1727931101
4150197238,27226,2,0,-8589.4205412512,43286.2164167115,13759.3410766542,31293.5762479611,52124.9408981680,14498.2001308337,47034.7187769552,58786.0491823130,61681.1822935765,16059.7415026060
4150197238,27226,2,0,-8593.4237135060,43282.4444306964,13761.0567219063,31288.0034428162,52120.4753534339,14496.9833611514,47022.8796079465,58779.4786260286,61676.8262581139,16053.1709463216
4150197238,27226,2,0,-8596.0032652324,43283.5638588041,13769.3550911395,31288.5631568701,52118.3825095804,14498.4191493765,47013.2914628500,58780.7684018918,61679.1016174198,16055.3246286593
4150197238,27226,2,0,-8593.0830179949,43286.8369692494,13772.9323940054,31292.4446521566,52123.6632900015,14493.7345860997,47030.6791016100,58787.0469334524,61682.5207402270,16062.1263711833
4150197238,27226,2,0,-8590.5764724494,43288.1754159000,13776.6313738396,31293.0165339073,52128.3478532784,14497.1658766038,47033.5993488475,58790.1375284455,61683.8956899680,16069.2201384311
4150197238,27226,2,0,-8585.3443628155,43289.2705086140,13781.6444649307,31295.4744086655,52127.4231083198,14498.7111741003,47020.6772548215,58787.9716784110,61684.2607208727,16070.2422249642
4150197238,27226,2,0,-8579.1753405263,43292.9086499641,13782.4962037083,31299.7087671599,52131.6087960269,14497.7742614449,47033.9400443585,58791.0866087977,61686.4022355135,16069.5608339421
4150197238,27226,2,0,-8578.7251357439,43292.3246005166,13782.0946697131,31299.0638792283,52130.3555232542,14495.7787591660,47042.3357551664,58791.5003104896,61683.8591868775,16067.8451886901
4150227258,27227,2,0,-8585.9284122630,43285.0483178165,13782.0703343195,31292.1404597360,52121.4852722702,14493.2235428331,47017.1486227429,58783.7373199166,61678.5784064564,16059.8875149679
4150227258,27227,2,0,-8592.5233039411,43286.2650874988,13784.7837307110,31292.0552858583,52121.6677877226,14492.2136239968,47020.4339008851,58785.8788345574,61678.9799404515,16056.8212553685
4150227258,27227,2,0,-8596.8915071005,43286.6666214939,13781.4254463879,31289.1593740144,52124.1986686618,14483.0878513796,47034.4267522315,58784.7472387529,61676.0961963045,16054.1200266738
4150227258,27227,2,0,-8599.1668664064,43281.5926919188,13781.0360800895,31282.7956685760,52119.0639006025,14483.6353977367,47018.0490323078,58777.6048007178,61673.3827999130,16050.2141959936
4150227258,27227,2,0,-8602.5494861232,43279.5363511557,13786.1465127552,31281.0435202335,52113.7952878781,14483.2825345288,47007.4144652845,58775.1347582628,61670.6694035215,16046.8072408832
4150227258,27227,2,0,-8599.3737172524,43280.3029160555,13786.8644068677,31280.1796137591,52113.9169648464,14475.8115686795,47020.1175407677,58774.8792366295,61666.1186849097,16048.4012091670
4150227258,27227,2,0,-8596.2466191689,43279.0009724955,13789.8333248925,31280.5203092701,52108.2468181269,14479.5713869978,47014.9949404052,58770.5718719542,61662.9307483421,16052.2218659694
4150227258,27227,2,0,-8595.2853711199,43278.6481092876,13793.7269878759,31283.1728671775,52105.8132787623,14488.3686318008,47004.2751995042,58771.7399708492,61662.3710342882,16053.1222755343
4150264831,27228,2,0,-8594.3849615550,43284.2452498262,13795.9293410008,31287.6384119115,52113.2112384306,14492.0311085445,47023.9747006606,58778.0185024098,61668.4548826997,16056.4805598574
4150264831,27228,2,0,-8596.2222837752,43281.2154933172,13791.4272931763,31283.4040534172,52114.3063311447,14487.0423528471,47030.8251139719,58776.3393602483,61667.8951686458,16056.6752430066
4150264831,27228,2,0,-8600.3958037855,43270.2158953893,13785.8666557282,31275.9817583552,52105.9106203369,14486.5069741869,47005.9665093626,58766.7025443645,61662.7482328897,16048.0605136560
4150264831,27228,2,0,-8598.3516307193,43269.9482060592,13789.2614431418,31279.6929058862,52108.3684950951,14493.1992074395,47010.5415633680,58772.1293371475,61667.3719576825,16050.2141959936
4150264831,27228,2,0,-8593.1073533886,43276.0198867739,13795.0289314359,31282.3576314904,52114.1238156924,14495.4745667454,47027.3329849837,58775.9134908595,61673.1029428861,16056.5779014320
4150264831,27228,2,0,-8592.9613410267,43276.2997438008,13799.8960101651,31280.6176508447,52110.9237114279,14497.0076965451,47011.4176375393,58772.1293371475,61674.2710417811,16057.6851618429
4150264831,27228,2,0,-8596.1127745038,43276.5552654341,13798.6549050891,31282.6374885173,52110.3153265868,14496.4844855817,47005.8935031817,58772.2266787221,61673.4193030035,16056.3223797987
4150264831,27228,2,0,-8595.6625697214,43278.2709106861,13794.4935527757,31284.7425000677,52113.3085800052,14496.1437900706,47022.7092601910,58774.6602180867,61672.7622473750,16055.7139949576
4150313159,27229,2,0,-8592.8396640585,43276.3119114976,13790.1983557972,31284.9980217010,52110.1571465281,14500.0982915381,47014.2283755054,58770.8760643748,61669.5743108074,16049.3502895192
4150313159,27229,2,0,-8589.0798457402,43278.6602769844,13787.5944686771,31286.1417852023,52113.2477415211,14506.7905247907,47005.7353231230,58773.2609329520,61671.3386268467,16046.7829054896
4150313159,27229,2,0,-8588.2524423562,43283.2596663835,13778.7485530868,31288.7943431097,52119.0639006025,14509.1997287617,47024.1815515065,58779.3204459699,61672.5553965290,16047.9996751718
4150313159,27229,2,0,-8593.1073533886,43281.3980087696,13765.8629621513,31287.2368779164,52116.5695227538,14515.7946204397,47020.3487270073,58774.8427335390,61672.5310611354,16046.2475268293
4150313159,27229,2,0,-8592.7909932712,43280.2177421778,13753.1720543650,31288.3076352368,52112.4690089244,14533.1092530187,47003.5816407853,58775.5849630452,61676.2300409696,16047.6224765703
4150313159,27229,2,0,-8585.4417043901,43283.4786849263,13734.0322672625,31294.7200114625,52116.7033674188,14540.9209143791,47015.1044496766,58782.3258670851,61682.0827031414,16050.8347485316
4150313159,27229,2,0,-8579.3943590691,43285.1699947847,13711.6558728051,31296.6181721669,52121.4366014829,14541.4319576456,47029.8882013165,58787.1564427239,61681.1457904860,16054.9352623609
4150313159,27229,2,0,-8580.8909857783,43281.1789902268,13689.6688446461,31290.7290069046,52114.0143064209,14545.8975023797,47013.3766367278,58784.4552140292,61677.7996738597,16053.1709463216
4150320605,27230,2,0,-8581.4020290449,43282.0793997917,13665.4429602716,31289.8529327333,52112.3838350467,14549.9128423312,47013.8633446007,58789.0181003378,61679.8681823196,16052.5625614805
4150320605,27230,2,0,-8580.5989610546,43286.4232675575,13636.1066432315,31293.3693971152,52116.4965165728,14554.0011884637,47031.0076294242,58795.8928490427,61680.8415980655,16055.4341379307
4150320605,27230,2,0,-8580.8423149910,43284.4521006721,13606.2836183184,31295.2067193354,52113.1017291592,14561.0706203179,47016.1873746939,58795.4183088666,61682.6667525889,16056.0911935591
4150320605,27230,2,0,-8577.8977323599,43286.8856400367,13575.9373824420,31300.1833073360,52114.9877221668,14567.0084563675,47007.9741793384,58798.9104378548,61688.3977377925,16057.5269817842
4150320605,27230,2,0,-8574.4299387654,43290.5846198709,13542.5005515726,31304.6366843732,52121.8016323876,14563.0539549000,47027.4303265583,58805.6270065011,61690.7704386730,16055.5314795053
4150320605,27230,2,0,-8578.4696141106,43285.6323672640,13509.1488945809,31299.2220592870,52117.6402800742,14561.0949557115,47023.0621233988,58800.9059401338,61687.0714588388,16051.3092887077
4150320605,27230,2,0,-8581.3046874703,43277.2974949403,13485.9085936491,31294.3184774673,52110.5221774328,14569.3689895511,47004.3603733820,58797.6936681725,61686.2805585453,16049.0339294018
4150320605,27230,2,0,-8578.0680801154,43280.1447359968,13464.1162486392,31297.9931219079,52114.6105235653,14572.1553921236,47016.9296042001,58803.3516471952,61690.3080661937,16051.0902701649
4150373504,27231,2,0,-8572.4344364864,43283.9045543151,13445.6943556492,31302.6898528815,52118.6136958200,14574.4550868231,47026.2378922696,58806.2475590390,61693.0579656757,16054.7649146054
4150373504,27231,2,0,-8572.7264612101,43282.6999523296,13426.1043637643,31301.3514062310,52114.0264741178,14576.4384214052,47006.0395155435,58803.6558396158,61691.9750406584,16057.7703357207
4150373504,27231,2,0,-8577.2285090346,43285.3890133275,13407.3052721729,31303.6511009305,52114.2819957511,14575.0878070579,47010.5780664585,58806.5639191564,61693.4594996708,16061.3476385866
4150373504,27231,2,0,-8579.2240113136,43286.3137582861,13390.0149749875,31303.1157222703,52116.8493797807,14572.2040629109,47024.8386071350,58808.1457197434,61694.9804617737,16065.9591956825
4150373504,27231,2,0,-8579.9784085166,43280.1082329064,13378.5651722771,31300.3049843042,52110.0719726503,14575.5136764467,47008.7042411478,58802.4877407208,61692.6929347710,16064.2435504305
4150373504,27231,2,0,-8574.9653174256,43282.2740829408,13373.4060688241,31304.4663366177,52112.2621580784,14580.7701214742,47005.9421739690,58805.2498078996,61697.6695227716,16063.6838363766
4150373504,27231,2,0,-8575.3181806334,43286.7274599780,13366.3609723637,31307.6177700948,52119.1977452675,14576.2680736497,47025.0941287683,58809.2529801543,61698.3752491873,16063.1484577164
4150373504,27231,2,0,-8580.0027439103,43283.0771509312,13354.7164865041,31304.8678706128,52116.2044918491,14569.1013002210,47018.0977030951,58803.6436719189,61693.2161457344,16058.6950806792
4150381248,27232,2,0,-8580.2704332404,43279.8283758794,13346.5154588454,31304.9043737033,52111.2522392421,14570.0990513605,47000.1625179781,58800.4800707450,61690.5635878270,16053.2317848057
4150381248,27232,2,0,-8579.8567315484,43282.6756169360,13339.3365177199,31306.9120436791,52115.2797468905,14567.3248164849,47015.4938159750,58805.2376402027,61690.3567369810,16054.5215606689
4150381248,27232,2,0,-8583.9450776809,43279.2321587351,13329.7362049266,31303.4199146909,52112.9192137069,14565.5483327487,47017.4163120730,58803.2056348333,61687.6555082863,16056.1641997400
4150381248,27232,2,0,-8586.5367971042,43276.9446317324,13325.2341571021,31302.7750267593,52108.7456936966,14573.2018140503,47001.7686539587,58799.7500089356,61688.9209487559,16060.2647135694
4150381248,27232,2,0,-8587.5710513341,43283.5760265009,13325.0394739530,31310.3433341832,52114.9877221668,14571.0481317127,47014.0336923562,58807.1723039976,61694.1773937834,16062.4548989975
4150381248,27232,2,0,-8586.5733001946,43283.5760265009,13318.7487746955,31310.9395513275,52119.8913039864,14562.5064085430,47025.7025136094,58805.8825281344,61691.9507052648,16058.6220744983
4150381248,27232,2,0,-8584.6021333093,43280.0717298159,13316.2787322404,31308.9440490485,52114.0021387241,14566.1323821962,47007.8038315829,58800.2610522022,61688.8722779686,16053.5238095295
4150381248,27232,2,0,-8581.4750352258,43281.9090520362,13317.8361974338,31312.3753395526,52114.2819957511,14570.4275791747,47009.7628307714,58804.3007275474,61692.9606241011,16050.6400653824
4150417229,27233,2,0,-8582.6918049081,43282.7121200265,13312.6405908904,31311.7912901051,52116.2044918491,14561.8615206114,47025.3374827047,58804.8969446917,61688.9452841495,16052.6477353582
4150417229,27233,2,0,-8590.7833232954,43276.7256131896,13305.7171713981,31306.1333110824,52109.2445692664,14560.2432169339,47014.0945308403,58798.9469409453,61683.8470191807,16056.3467151924
4150417229,27233,2,0,-8596.2709545625,43274.2190676441,13303.6243275446,31306.7295282267,52104.9858753783,14559.9025214229,46999.1525991418,58795.6129920158,61682.2408832001,16056.0911935591
4150417229,27233,2,0,-8598.0231029050,43274.8031170916,13300.6797449134,31308.9562167453,52107.3464085620,14555.9601876522,47012.9385996421,58798.5454069501,61681.6690014494,16058.1962051095
4150417229,27233,2,0,-8599.6049034920,43271.5543420398,13301.0691112118,31304.0161318352,52103.5135840627,14558.2477146549,47009.0449366588,58794.1407007002,61681.1822935765,16061.5666571294
4150417229,27233,2,0,-8600.0794436681,43270.3984108416,13305.9118545473,31298.5771713554,52098.3544806098,14559.2819688849,46993.0322476398,58791.0866087977,61681.6203306621,16059.4129747918
4150417229,27233,2,0,-8602.5008153359,43272.9536271745,13303.3566382145,31298.1999727539,52101.8466095980,14557.1647896377,47002.3040326189,58793.9703529447,61683.8591868775,16053.2561201994
4150417229,27233,2,0,-8599.9090959126,43272.7832794189,13301.3002974514,31296.4964951986,52104.8398630165,14555.2179581460,47011.5028114170,58794.7734209350,61682.4599017429,16054.2660390357
4150450609,27234,2,0,-8596.6481531640,43269.9360383624,13302.3710547718,31294.9390300053,52098.5369960622,14561.9710298828,46992.6793844320,58792.0478568467,61682.0583677477,16055.5436472021
4150450609,27234,2,0,-8596.3804638339,43272.3695777270,13302.8699303416,31300.5970090280,52100.5446660380,14564.6965939711,46995.1494268870,58798.3385561041,61688.3977377925,16059.5346517600
4150450609,27234,2,0,-8595.1150233644,43276.7134454928,13300.4120555833,31303.4685854782,52107.3220731683,14563.7475136189,47015.2626297353,58802.3173929652,61690.9042833380,16064.0853703718
4150450609,27234,2,0,-8593.2411980536,43275.0829741185,13298.6720749376,31300.0372949741,52104.9493722879,14561.2896388607,47005.1147705850,58798.4358976787,61688.7992717877,16062.3332220293
4150450609,27234,2,0,-8588.8729948942,43277.1514825784,13301.4828129037,31301.7651079230,52105.5090863417,14560.3648939021,47000.8925797874,58799.0564502167,61689.9308675922,16059.4738132759
4150450609,27234,2,0,-8589.1163488306,43279.5485188525,13302.5170671337,31302.0571326467,52106.6406821462,14555.7290014126,47018.1463738824,58799.2024625786,61688.7019302131,16058.4882298332
4150450609,27234,2,0,-8597.2808733988,43272.6250993603,13301.5071482974,31295.2797255164,52100.5081629475,14552.4315555736,47008.9719304779,58794.1163653066,61684.2972239632,16055.0082685419
4150450609,27234,2,0,-8601.0406917171,43270.4957524162,13304.5977432904,31293.7952665040,52093.3170541251,14556.4225601315,46990.5622051848,58791.3542981278,61683.5793298506,16056.8334230653
4150478131,27235,2,0,-8603.7784235023,43271.6760190081,13302.2372101068,31295.2067193354,52098.3666483066,14551.7136614610,47003.9710070836,58794.7369178445,61684.4675717187,16056.9307646399
4150478131,27235,2,0,-8606.3458075319,43270.3132369639,13298.9154288741,31294.0751235309,52101.3477340283,14548.3310417442,47010.8092526981,58795.3209672920,61684.1268762076,16057.7460003270
4150478131,27235,2,0,-8609.3025578599,43266.2492262250,13295.3137906145,31292.6636706994,52097.5149095290,14557.4203112710,46991.6572978988,58792.7170801719,61682.8127649508,16055.8478396226
4150478131,27235,2,0,-8607.1123724318,43267.8796975993,13291.8825001104,31296.1071289003,52100.8975292458,14554.0255238574,46997.5707985548,58796.3795569156,61684.3215593568,16053.5603126199
4150478131,27235,2,0,-8602.6468276978,43271.0067956828,13291.5539722962,31297.3969047635,52104.8276953196,14548.3675448347,47013.4983136960,58799.2876364563,61680.7320887940,16052.9884308693
4150478131,27235,2,0,-8595.3827126945,43272.6250993603,13296.6157341746,31297.7741033651,52101.4694109965,14550.0223516026,47003.1922744870,58796.7202524267,61679.9898592878,16053.9131758278
4150478131,27235,2,0,-8595.8450851737,43272.4669193016,13300.2538755246,31301.6921017420,52100.6906783998,14552.4680586640,46999.7244808924,58798.4115622851,61680.0385300751,16054.4607221848
4150478131,27235,2,0,-8600.7486669934,43274.5354277615,13300.0470246786,31304.3689950431,52103.4892486691,14545.3986268099,47017.5258213444,58802.4634053271,61682.3017216842,16057.7094972366
4150508179,27236,2,0,-8608.5968314442,43267.1009650026,13296.2993740572,31298.2486435412,52095.6289165215,14542.7704042962,47005.0904351914,58795.6738304999,61677.8970154343,16055.2516224783
4150508179,27236,2,0,-8608.5603283537,43266.5777540392,13298.9519319646,31297.7254325778,52097.9651143115,14546.2016948002,46991.5112855370,58796.0145260110,61679.0772820261,16055.4098025370
4150508179,27236,2,0,-8603.6445788372,43275.5088435073,13299.4386398375,31299.8547795218,52111.0940591834,14545.7879931083,47011.1256128155,58803.9843674300,61684.9542795916,16058.7802545570
4150508179,27236,2,0,-8604.2772990720,43274.1338937663,13300.2538755246,31296.5329982891,52114.3184988415,14540.8844112886,47013.9971892657,58803.0961255619,61682.6545848921,16060.8852661073
4150508179,27236,2,0,-8612.7460160608,43267.0036234280,13300.7770864880,31289.7190880683,52105.6064279163,14539.6919770000,46990.0998327055,58796.6594139426,61677.7144999820,16055.9208458036
4150508179,27236,2,0,-8613.3787362956,43267.2956481518,13299.5481491089,31290.8871869633,52106.3608251193,14539.6068031222,46997.4126184961,58798.2047114391,61677.1304505345,16056.4197213733
4150508179,27236,2,0,-8608.9131915616,43267.7336852374,13292.6125619198,31293.0895400882,52106.9205391732,14546.0921855288,47008.1323593971,58798.1803760454,61676.1326993950,16058.2570435936
4150508179,27236,2,0,-8599.4345557365,43272.6494347539,13293.8536669958,31296.5573336828,52108.8308675744,14557.0552803663,46996.6947243835,58800.3583937767,61680.0263623783,16062.8807683863
4150544337,27237,2,0,-8590.3696216034,43279.0374755859,13302.5292348305,31301.6555986516,52113.2112384306,14554.9137657255,46998.4712081197,58807.7320180515,61685.5504967359,16069.1471322501
4150544337,27237,2,0,-8593.0343472076,43278.7454508622,13309.9880329830,31301.0107107200,52113.1747353402,14542.2471933328,47013.3523013341,58807.8658627165,61685.9885338216,16070.9357836831
4150544337,27237,2,0,-8603.5107341722,43268.0013745675,13309.8055175306,31290.3883113935,52102.7713545565,14534.6667182121,46994.1516757475,58796.2943830379,61678.0186924025,16063.6595009830
4150544337,27237,2,0,-8610.1786320312,43263.0612896574,13310.2800577067,31285.6672450262,52095.6654196119,14535.5184569897,46979.4165948949,58791.3542981278,61674.9159297127,16053.7549957691
4150544337,27237,2,0,-8611.2493893516,43268.5610886214,13308.8321017848,31286.9935239799,52100.9462000331,14531.9533218206,46995.7091409409,58794.1893714875,61674.1128617224,16054.8744238768
4150544337,27237,2,0,-8610.0326196693,43268.8409456483,13307.9560276135,31285.1683694565,52101.0435416077,14525.2610885679,46994.9425760410,58791.4881427928,61668.3088703378,16058.6464098919
4150544337,27237,2,0,-8608.3169744172,43265.0689596332,13306.9096056868,31283.1241963902,52094.6798361693,14523.8374680397,46977.4819311001,58786.9495918779,61663.5756362737,16058.0380250508
4150544337,27237,2,0,-8606.3458075319,43265.4218228411,13303.9650230556,31286.2026236864,52096.1521274849,14523.1925801080,46986.9849023188,58789.5048082107,61664.5003812322,16058.6464098919
4150575578,27238,2,0,-8609.3147255567,43265.1541335110,13300.1321985564,31284.1706183170,52096.9430277784,14521.8297980639,46992.3386889209,58787.1077719366,61663.1010960976,16058.9627700093
4150575578,27238,2,0,-8607.7085895761,43266.2248908314,13303.2957997304,31282.6496562141,52093.3657249124,14528.1691681086,46975.9731366941,58783.7859907039,61663.7824871197,16060.0700304202
4150575578,27238,2,0,-8602.6224923041,43270.7634417463,13306.5202393884,31286.9326854958,52099.6564241699,14527.8893110817,46986.1940020253,58789.9306775995,61667.6396470126,16061.2381293152
4150575578,27238,2,0,-8605.0438639719,43272.6737701475,13303.2349612462,31288.8916846843,52101.7371003266,14524.5310267586,47002.9124174600,58795.0289425683,61669.4404661424,16064.2557181273
4150575578,27238,2,0,-8608.4021482950,43269.9603737560,13307.0921211391,31287.3342194910,52098.6221699399,14527.7067956294,46989.3211001088,58792.1086953308,61670.7910804897,16064.1827119464
4150575578,27238,2,0,-8608.1222912681,43269.5953428513,13311.2778088462,31287.1395363418,52097.0768724434,14523.8861388270,46983.2980901815,58791.6463228515,61673.2732906416,16061.0677815597
4150575578,27238,2,0,-8608.8280176838,43268.2933992913,13309.2458034768,31284.9493509137,52099.8876104095,14512.9473793831,46999.8704932543,58791.3177950373,61667.7734916776,16056.6022368257
4150575578,27238,2,0,-8611.9672834641,43261.2361351340,13305.9970284250,31277.9529252405,52096.2616367563,14510.7936970455,46991.7789748671,58785.2582820195,61662.3466988946,16056.2250382242
4150611655,27239,2,0,-8615.3864062714,43252.6944119643,13302.4683963464,31271.9420830100,52085.8947590631,14514.6995277256,46974.9753855546,58778.9797504588,61659.2926069920,16054.4242190944
4150611655,27239,2,0,-8619.3044046484,43251.8913439740,13298.0880254901,31275.5802243600,52088.0971121881,14518.3741721662,46988.8100568423,58782.9707550168,61661.7383140534,16055.3124609624
4150611655,27239,2,0,-8619.5234231912,43253.8625108593,13302.8942657352,31278.7438255340,52091.3337195430,14523.6427848905,46997.9723325499,58786.0735177066,61665.6684801272,16059.4616455791
4150611655,27239,2,0,-8615.8487787506,43256.6367457349,13310.4747408559,31280.3377938178,52090.0804467702,14531.5031170381,46982.9817300641,58784.7594064497,61669.1727768123,16059.1574531585
4150611655,27239,2,0,-8608.9253592584,43263.2073020193,13316.4125769055,31283.2215379648,52094.6068299884,14529.8604779670,46993.5797939968,58787.8986722301,61671.4603038150,16058.2813789872
4150611655,27239,2,0,-8606.5648260747,43266.4804124647,13314.1493852964,31284.9128478232,52099.6199210794,14533.1457561092,47010.7605819108,58791.4881427928,61671.5576453895,16063.2579669878
4150611655,27239,2,0,-8613.7437672003,43262.3920663322,13314.0155406314,31282.2237868253,52096.7483446292,14535.1290906914,46991.4869501433,58788.9085910664,61670.4260495850,16063.5621594084
4150611655,27239,2,0,-8618.9637091373,43260.6642533833,13315.2931487978,31280.6663216320,52094.0349482377,14533.1092530187,46987.0579084998,58788.7017402204,61670.8154158833,16060.8609307137
4150645580,27240,2,0,-8624.6460235536,43258.5714095298,13313.0056217951,31276.4684662281,52094.2417990837,14528.2300065927,47001.0507598461,58788.7260756140,61668.8320813012,16056.8699261558
4150645580,27240,2,0,-8627.3107491579,43255.3591375685,13315.4269934628,31272.6843125162,52089.5085650195,14526.9889015168,46990.6717144562,58783.7008168261,61663.9284994816,16054.4485544880
4150645580,27240,2,0,-8620.8740375385,43258.3280555933,13323.3724994882,31275.3368704236,52088.8515093911,14533.8514825249,46981.1687432375,58785.6719837115,61668.9050874821,16058.6950806792
4150645580,27240,2,0,-8614.5955059779,43262.0148677306,13325.2098217085,31277.1255218565,52092.6478307999,14526.5386967344,46996.2201842074,58790.6972424993,61672.8960920401,16064.5720782447
4150645580,27240,2,0,-8612.5878360021,43258.0725339600,13324.0782259039,31272.8059894844,52089.1070310244,14525.4192686266,46992.3751920114,58786.5237224891,61670.2070310422,16068.7699336486
4150645580,27240,2,0,-8615.1187169413,43253.4974799546,13323.8592073611,31270.5914686626,52083.4855550922,14526.2101689201,46974.0384728992,58780.7440664982,61668.2601995505,16068.6117535899
4150645580,27240,2,0,-8616.4084928045,43255.9066839255,13321.6811896298,31272.7451510003,52087.6834104961,14520.0046435404,46988.0434919424,58782.0095069677,61667.9803425236,16065.9348602889
4150645580,27240,2,0,-8622.9303783016,43255.2739636907,13318.6027623336,31272.1732692496,52087.1723672295,14514.4075030019,46997.4126184961,58781.4254575203,61663.3687854277,16064.2435504305
4150667195,27241,2,0,-8629.1237359845,43247.5109731177,13317.1669741085,31264.8239803685,52075.1141796780,14513.0082178672,46976.5815215352,58772.7863927760,61655.0704161945,16060.7149183518
4150667195,27241,2,0,-8626.8118735881,43250.0296863600,13319.1624763875,31267.5130413664,52073.4593729101,14513.9329628258,46980.0979859170,58774.9644105073,61658.8180668159,16059.4129747918
4150667195,27241,2,0,-8629.7442885224,43250.8692574408,13316.8627816879,31269.4598728581,52076.7933218396,14510.5868461995,46996.6703889899,58777.4101175687,61656.9807445957,16059.5589871536
4150667195,27241,2,0,-8629.7564562193,43250.4798911425,13320.0872213460,31271.1998535038,52077.9370853409,14516.6950300046,46987.3012624362,58775.4632860770,61657.2240985321,16058.8654284347
4150667195,27241,2,0,-8620.3994973624,43254.1180324926,13325.4531756449,31274.1201007413,52080.4314631896,14517.6197749631,46981.5216064453,58779.9409985078,61660.2538550410,16058.5125652269
4150667195,27241,2,0,-8611.0790415961,43259.5326575788,13327.2053239874,31278.0624345119,52087.4157211660,14510.1853122043,46999.0552575672,58785.8788345574,61661.2759415742,16058.3422174714
4150667195,27241,2,0,-8613.8776118653,43255.4686468399,13326.0493927893,31274.9110010348,52083.1691949748,14510.1123060234,46992.1683411654,58782.1433516328,61655.3502732214,16057.0037708208
4150667195,27241,2,0,-8613.8046056844,43253.8381754656,13329.9430557726,31273.0980142081,52080.1394384659,14513.2880748942,46975.9001305131,58777.4344529623,61653.9388203899,16059.4494778822
4150741852,27242,2,0,-8614.8510276112,43254.2640448544,13329.3225032346,31274.6068086142,52082.1227730480,14507.7517728397,46988.0921627297,58777.5682976274,61652.0284919887,16060.9461045915
4150741852,27242,2,0,-8613.5004132638,43255.8336777446,13328.0570627650,31274.9718395189,52085.4323865839,14514.5778507574,46996.1228426328,58778.1280116812,61653.3182678520,16063.1606254132
4150741852,27242,2,0,-8608.6698376251,43257.3303044538,13333.1674954307,31278.3787946293,52087.4035534692,14521.4647671592,46981.2174140247,58779.5272968159,61658.7937314223,16063.0267807482
4150741852,27242,2,0,-8606.6256645589,43262.1852154862,13336.2824258173,31284.0124382583,52093.8280973917,14523.5697787096,46993.1539246081,58785.5259713496,61664.3665365672,16061.4814832517
4150741852,27242,2,0,-8606.5161552875,43264.8621087872,13335.1264946192,31286.4824807134,52100.0336227714,14520.8563823180,47010.9796004537,58788.5800632521,61665.8753309732,16063.6108301957
4150741852,27242,2,0,-8607.1367078254,43262.6475879654,13339.2270084485,31284.0976121361,52097.6974249814,14522.4260152082,47001.1602691175,58785.5503067432,61664.7315674719,16067.6748409345
4150741852,27242,2,0,-8608.0857881776,43264.2050531588,13344.3617765078,31281.0556879303,52096.0426182135,14518.8852154327,46995.6969732440,58784.9905926894,61663.9771702689,16066.4094004650
4150741852,27242,2,0,-8608.2561359331,43266.3709031933,13345.5663784933,31278.4152977198,52098.6708407272,14514.1398136718,47008.5825641795,58787.0104303620,61664.2813626894,16069.0741260692
4150753065,27243,2,0,-8612.0159542514,43259.5934960629,13344.4956211728,31270.6644748435,52091.1025333033,14513.8477889480,46995.7213086377,58777.1545959354,61658.1001727034,16067.2733069394
4150753065,27243,2,0,-8613.8897795622,43258.8269311630,13348.3892841562,31270.9199964768,52087.4643919533,14516.9505516379,46981.6676188072,58776.1203417054,61659.8644887427,16065.7645125333
4150753065,27243,2,0,-8610.3368120899,43263.3533143812,13350.6159726748,31277.4053788835,52095.5437426437,14518.0578120488,47002.2066910443,58784.4552140292,61662.8090713738,16066.9812822156
4150753065,27243,2,0,-8609.4972410091,43267.2348096677,13353.7430707583,31280.0944398813,52101.9317834758,14525.5652809885,47009.2882905953,58786.6940702446,61667.2016099269,16074.2453972189
4150753065,27243,2,0,-8610.6531722073,43266.6385925234,13358.9508449985,31278.6708193530,52098.5734991526,14532.3305204221,46991.8884841385,58784.9784249925,61670.2800372231,16072.0187087003
4150753065,27243,2,0,-8607.7085895761,43271.5056712525,13362.5159801676,31279.1331918323,52100.2891444047,14528.0839942309,46998.9214129021,58788.3367093157,61673.8208369986,16072.4080749987
4150753065,27243,2,0,-8610.2273028184,43268.5489209246,13361.7494152678,31271.5040459243,52098.4396544876,14515.9406328016,47005.5893107611,58785.3191205036,61669.2092799027,16071.3373176783
4150753065,27243,2,0,-8612.1741343101,43265.1176304205,13364.7061655957,31264.8848188526,52093.2805510347,14515.8067881365,46989.8443110722,58781.1942712806,61662.9550837357,16067.7600148123
4150764156,27244,2,0,-8610.3003089994,43267.8675299025,13369.1838780266,31267.6955568187,52096.6266676610,14520.6008606848,46992.0709995908,58783.1167673786,61663.5269654864,16069.9380325436
4150764156,27244,2,0,-8604.4354791307,43274.6206016392,13373.6494227606,31275.4463796950,52108.5266751538,14520.8928854085,47013.4374752119,58789.8820068122,61668.6373981520,16076.1313902265
4150764156,27244,2,0,-8607.5260741238,43270.1672246020,13374.8053539588,31272.9033310590,52103.4284101850,14518.1551536234,47000.5032134891,58785.3677912909,61666.3377034525,16074.6834343046
4150764156,27244,2,0,-8610.7383460850,43268.4759147436,13377.0077070837,31271.3945366529,52099.6442564731,14522.6693691447,46988.1651689106,58785.5259713496,61667.7004854967,16073.6248446810
4150764156,27244,2,0,-8610.8843584469,43271.6395159176,13377.4092410789,31273.8767468048,52107.5775948016,14521.1484070418,47007.8890054606,58792.8752602306,61669.5743108074,16073.9655401920
4150764156,27244,2,0,-8608.8158499870,43271.8098636731,13381.4124133336,31273.7185667461,52110.6803574915,14523.6062818000,47007.8768377638,58792.1817015117,61669.0389321472,16073.9533724952
4150764156,27244,2,0,-8604.1556221038,43271.0067956828,13391.5237693935,31277.2228634311,52106.6650175399,14523.1560770176,46992.2291796495,58791.2569565532,61671.9835147783,16075.5716761726
4150764156,27244,2,0,-8600.2376237268,43272.6859378444,13397.9239779224,31281.1895325954,52108.0764703714,14518.4350106503,47005.8813354848,58794.5422346954,61672.7622473750,16077.0926382755
4150782890,27245,2,0,-8607.5990803047,43267.2956481518,13396.8897236924,31278.1354406928,52105.3995770703,14511.4507526739,47013.2549597595,58788.0811876824,61667.8464978585,16075.0241298156
4150782890,27245,2,0,-8615.6297602078,43264.5214132762,13397.5954501082,31275.5193858759,52099.2305547811,14516.8532100633,46999.6758101051,58782.2163578137,61664.6342258973,16070.9114482894
4150782890,27245,2,0,-8611.2372216548,43268.4515793500,13400.2115049251,31278.9993471673,52103.5987579405,14521.3917609783,47008.4000487272,58787.5214736285,61665.8023247923,16071.3373176783
4150782890,27245,2,0,-8599.8969282158,43272.5399254825,13403.7401370037,31282.6861593046,52110.1814819217,14515.2714094763,47027.2234757123,58794.0798622161,61668.7469074234,16073.5640061968
4150782890,27245,2,0,-8599.1668664064,43264.6917610317,13405.5287884367,31277.4418819739,52101.3599017251,14513.0203855641,47007.6821546146,58787.3024550857,61665.8388278828,16071.6171747052
4150782890,27245,2,0,-8601.4057226218,43261.0779550753,13408.2908556155,31275.0813487903,52097.7704311623,14513.8356212512,46995.2589361584,58787.6431505968,61666.6053927826,16069.4756600643
4150782890,27245,2,0,-8600.0064374872,43265.4339905379,13412.2210216893,31277.8677513627,52103.0877146739,14516.6828623078,47015.4694805813,58793.2767942258,61669.6594846852,16071.6658454925
4150782890,27245,2,0,-8597.5485627289,43267.8796975993,13417.1611065994,31278.0624345119,52105.0588815593,14523.5211079223,47016.0900331193,58794.6152408763,61673.7478308177,16071.2643114973
4150843614,27246,2,0,-8596.8306686164,43267.4294928169,13423.3666319791,31278.1476083897,52102.6740129820,14524.0686542793,47006.1246894213,58794.3475515462,61675.4756437665,16067.5896670568
4150843614,27246,2,0,-8595.8450851737,43271.9437083382,13429.0611140923,31284.1706183170,52105.1197200434,14520.1384882055,47022.4172354672,58799.7986797229,61676.8992642948,16070.1327156928
4150843614,27246,2,0,-8596.5994823768,43272.5277577857,13433.0521186502,31285.6185742389,52104.2558135689,14518.7878738581,47028.5254192723,58796.0388614046,61672.8960920401,16076.6424334931
4150843614,27246,2,0,-8600.0551082745,43268.9017841324,13437.3716510224,31279.8997567322,52095.7384257929,14516.8167069728,47007.4996391623,58787.2294489048,61667.2259453206,16076.4112472534
4150843614,27246,2,0,-8598.5584815652,43271.0311310764,13442.9687915609,31282.7591654855,52098.4518221844,14520.9902269831,47017.5136536476,58789.6873236630,61667.8830009490,16075.7055208377
4150843614,27246,2,0,-8595.2245326358,43273.5376766220,13446.2419020063,31284.6451584931,52105.3022354957,14524.0686542793,47033.9522120554,58794.2015391843,61671.5333099959,16077.7131908135
4150843614,27246,2,0,-8593.4358812028,43272.8562855999,13453.2869984668,31284.3287983757,52104.3774905372,14529.2642608227,47018.3410570315,58791.8531736975,61676.5342333901,16078.0660540213
4150843614,27246,2,0,-8591.7445713444,43274.3894153996,13461.1716660080,31284.3166306789,52101.5545848743,14529.4711116687,47014.1432016276,58794.6274085731,61679.3571390530,16079.5626807306
4150870734,27247,2,0,-8588.8973302878,43280.3150837523,13467.7908930797,31287.1638717355,52106.3121543320,14531.1502538303,47032.4312499525,58797.4868173265,61682.5937464080,16083.3468344425
4150870734,27247,2,0,-8586.0014184440,43284.9631439387,13476.9531687874,31289.8042619460,52108.1738119459,14539.5581323349,47029.6935181673,58799.6891704515,61686.4022355135,16089.5280244285
4150870734,27247,2,0,-8585.6363875393,43287.6765403302,13486.2127860696,31291.1913793838,52108.5996813347,14542.8555781739,47020.3122239169,58800.2245491117,61689.3468181447,16088.7736272255
4150870734,27247,2,0,-8584.8211518521,43291.0713277438,13491.2623802512,31293.9899496531,52114.8782128954,14540.3612003252,47035.7408634883,58803.9235289459,61690.9772895190,16087.7880437829
4150870734,27247,2,0,-8581.3776936513,43288.6377883792,13492.5156530239,31291.6659195599,52112.7366982545,14537.1610960608,47034.4875907156,58799.1416240945,61687.5825021054,16086.9119696116
4150870734,27247,2,0,-8581.0369981402,43285.8148827163,13495.9834466185,31289.0985355303,52108.0156318872,14537.4044499972,47018.7425910267,58796.6837493362,61685.1124596503,16083.9187161932
4150870734,27247,2,0,-8578.4939495042,43290.8888122915,13498.5021598608,31293.6005833548,52113.8561263622,14536.4310342514,47031.0197971210,58802.8649393223,61689.9552029858,16084.8312934549
4150870734,27247,2,0,-8580.5867933578,43290.8158061105,13500.8748607413,31291.1305408997,52118.0174786757,14527.8649756881,47041.9342211712,58801.0641201925,61687.6798436799,16084.1985732201
4150883111,27248,2,0,-8585.6850583266,43284.2452498262,13504.3669897295,31286.9083501022,52110.7046928851,14530.9190675906,47020.1053730709,58793.6296574337,61683.9808638458,16081.0714751366
4150883111,27248,2,0,-8588.4227901117,43284.8901377578,13508.3214911969,31291.0210316283,52111.4104193008,14531.4666139477,47020.7015902152,58798.2533822264,61687.9962037973,16082.2882448189
4150883111,27248,2,0,-8585.5512136615,43286.9829816113,13509.4774223951,31294.9998684894,52117.2144106854,14526.1249950424,47038.4785952735,58802.1470452097,61689.2494765701,16086.9363050053
4150883111,27248,2,0,-8586.7801510406,43283.9532251024,13509.4652546983,31289.0985355303,52112.9435491005,14524.7378776046,47028.8661147834,58796.7810909108,61684.7839318361,16087.4230128782
4150883111,27248,2,0,-8587.6927283024,43281.9455551266,13514.6973643321,31285.5212326644,52110.3153265868,14527.9501495658,47020.1418761613,58796.9757740600,61685.5261613423,16089.3090058857
4150883111,27248,2,0,-8585.6607229329,43287.2750063351,13521.7181253990,31287.6140765179,52116.9102182648,14531.4422785540,47038.6367753322,58802.4147345398,61690.7704386730,16094.2369230990
4150883111,27248,2,0,-8587.6440575151,43287.4940248779,13526.2810117076,31286.4581453197,52114.9512190763,14535.3481092342,47032.5285915271,58799.4701519087,61690.6000909174,16094.9061464243
4150883111,27248,2,0,-8588.1064299943,43286.9708139145,13531.2819351018,31286.5554868943,52110.2058173154,14538.3413626526,47014.8245926497,58795.8806813459,61690.4419108588,16088.3112547463
4150921545,27249,2,0,-8586.5002940137,43289.8788934552,13532.9975803539,31287.4437287624,52113.1260645529,14532.7807252045,47026.6637616584,58798.4115622851,61689.2616442669,16085.0503119977
4150921545,27249,2,0,-8583.4096990207,43291.7892218564,13534.3360270044,31288.1007843908,52118.9057205438,14530.8338937129,47036.0572236057,58799.0929533072,61687.4121543498,16085.9263861690
4150921545,27249,2,0,-8582.6309664240,43286.9708139145,13538.6068885892,31286.1661205960,52112.8462075259,14532.9024021728,47016.0900331193,58793.2767942258,61686.1588815771,16086.9241373084
4150921545,27249,2,0,-8579.5038683405,43289.0393223744,13542.8290793868,31290.0354481857,52116.4113426951,14534.2530165201,47021.0544534231,58798.6062454342,61687.6798436799,16089.7592106682
4150921545,27249,2,0,-8584.6264687030,43291.6918802818,13542.3180361202,31293.0652046946,52118.4676834581,14528.0718265340,47035.3271617964,58800.2002137180,61686.9011110833,16089.1508258270
4150921545,27249,2,0,-8585.1983504537,43290.9009799883,13548.2072013825,31290.8506838728,52115.2310761032,14527.1105784850,47024.1328807193,58796.1727060697,61686.7550987214,16086.7659572497
4150921545,27249,2,0,-8585.7702322043,43292.2150912452,13554.6074099114,31289.3783925572,52112.0553072325,14522.9613938684,47021.4194843277,58793.2889619226,61685.8790245502,16086.5834417974
4150921545,27249,2,0,-8590.2844477256,43288.3335959587,13552.5632368451,31284.3044629821,52111.3739162104,14516.0623097698,47033.6845227253,58792.5589001132,61681.3769767257,16083.6266914694
4150980832,27250,2,0,-8594.6891539756,43279.4755126716,13551.6506595834,31276.9916771915,52104.2558135689,14516.6950300046,47021.5411612960,58783.0072581072,61675.4756437665,16085.2084920564
4150980832,27250,2,0,-8596.3682961371,43274.4989246710,13552.5267337547,31275.7870752060,52101.4572432997,14517.3034148457,47007.0129312894,58783.0559288945,61676.3517179378,16086.3157524673
4150980832,27250,2,0,-8596.3561284403,43276.6526070086,13551.9183489135,31275.4342119981,52104.2193104785,14512.5823484784,47023.9747006606,58785.5746421369,61676.0353578204,16084.0160577678
4150980832,27250,2,0,-8597.1226933401,43275.3993342359,13550.0323559060,31272.4774616702,52103.9881242388,14510.6476846836,47026.5785877807,58780.4033709871,61671.6428192673,16082.4342571808
4150980832,27250,2,0,-8600.7243315997,43271.4204973748,13550.6407407471,31270.2021023643,52096.2373013626,14509.7716105123,47004.4455472597,58773.1757590743,61671.5941484800,16078.4675880165
4150980832,27250,2,0,-8604.1921251943,43270.7391063527,13551.3099640724,31269.4963759485,52096.9551954752,14506.7418540034,47009.0206012652,58775.7796461944,61670.8762543675,16076.6667688867
4150980832,27250,2,0,-8608.4873221728,43267.2834804550,13552.3077152119,31269.9465807310,52099.1088778128,14504.6246747562,47020.4339008851,58775.0495843850,61669.6473169883,16075.5838438695
4150980832,27250,2,0,-8612.5148298212,43261.4916567673,13553.9868573734,31266.2110978063,52093.6455819393,14507.4719158128,47001.6226415968,58769.8296424480,61663.2106053690,16072.0187087003
4150991829,27251,2,0,-8608.8766884711,43267.1131326995,13559.6448363961,31272.0759276750,52099.0237039351,14516.3543344936,47004.6889011962,58776.0838386150,61668.9537582694,16075.0849682997
4150991829,27251,2,0,-8606.6499999525,43272.9414594776,13562.2730589099,31276.1156030202,52106.1539742733,14509.6255981505,47022.5267447386,58779.9653339015,61670.3043726168,16077.5428430580
4150991829,27251,2,0,-8607.2097140064,43266.5412509488,13563.3681516239,31269.1678481343,52096.4684876023,14501.3758997045,47006.5992295974,58771.4479461254,61664.0015056625,16076.3990795566
4150991829,27251,2,0,-8611.2493893516,43259.7638438184,13563.4898285921,31262.5851241531,52086.4058023297,14502.4953278122,46991.2679316005,58763.0644030144,61659.4264516571,16071.6415100988
4150991829,27251,2,0,-8606.6865030430,43262.1000416084,13564.2442257952,31265.3106882414,52092.0637813524,14505.5859228053,47010.5780664585,58767.1770845406,61661.1420969091,16074.4765834586
4150991829,27251,2,0,-8602.1722875217,43263.4019851685,13569.0748014339,31268.2066000853,52096.6023322673,14509.9541259647,47014.8245926497,58767.5907862326,61660.6432213394,16078.6257680752
4150991829,27251,2,0,-8601.2110394726,43264.5579163666,13574.6476065788,31269.6788914009,52094.8501839248,14506.6080093384,47001.3914553572,58768.9414005799,61662.2980281073,16079.3801652782
4150991829,27251,2,0,-8603.1092001770,43263.5601652272,13569.8657017274,31269.9100776405,52092.5748246189,14493.6250768283,47009.0206012652,58770.2068410495,61658.1610111875,16074.6834343046
4151007792,27252,2,0,-8605.7739257813,43258.3523909869,13564.4632443380,31268.1335939044,52091.9056012937,14487.2857067835,47012.4883948597,58765.3884331076,61649.6557911082,16071.2521438005
4151007792,27252,2,0,-8610.6166691168,43256.5515718571,13566.1180511059,31267.8537368774,52090.7618377923,14497.4335659339,46995.4657870044,58763.0157322271,61651.2497593921,16068.3440642598
4151007792,27252,2,0,-8604.7883423386,43266.7359340979,13576.1442332880,31273.8645791080,52102.0534604440,14507.8369467175,47001.5983062032,58773.1270882870,61660.9352460631,16072.6879320256
4151007792,27252,2,0,-8598.3516307193,43276.4092530722,13586.1217446828,31277.7704097881,52112.4690089244,14506.7296863066,47022.1373784403,58778.9919181557,61665.6563124304,16077.3359922120
4151007792,27252,2,0,-8603.7297527150,43272.3939131206,13588.9933211330,31271.8569091322,52102.9295346153,14502.9090295042,47005.4189630056,58770.0729963844,61661.7504817503,16075.4499992044
4151007792,27252,2,0,-8608.7306761092,43267.9648714771,13591.7067175245,31269.4477051612,52095.2760533136,14499.7575960271,46995.1007560997,58766.2401718852,61659.8644887427,16074.3427387935
4151007792,27252,2,0,-8603.6445788372,43269.2303119466,13591.8770652801,31270.9443318705,52097.0647047466,14492.7976734443,47013.3766367278,58768.6250404625,61660.2051842537,16077.9443770531
4151007792,27252,2,0,-8602.8171754533,43267.6728467533,13592.4002762435,31268.1944323885,52093.1832094601,14491.8364253953,47009.7384953777,58764.5001912395,61654.5715406247,16076.4720857375
4151035366,27253,2,0,-8605.1533732433,43266.0910461663,13596.7684794029,31266.5152902269,52088.0849444913,14497.8472676259,46991.9736580162,58760.4483481975,61653.0384108250,16073.2598137763
4151035366,27253,2,0,-8602.1966229153,43274.1460614631,13602.7549862398,31274.0835976508,52099.0967101160,14505.0505441450,47010.3225448252,58768.9414005799,61660.5458797648,16077.5063399675
4151035366,27253,2,0,-8599.0330217413,43278.7819539527,13608.1087728419,31277.5270558517,52104.0246273293,14502.9090295042,47018.1098707919,58772.6038773236,61664.9262506210,16081.5095122222
4151035366,27253,2,0,-8601.0771948076,43274.5597631551,13612.7811684219,31274.5824732205,52096.9916985657,14501.1812165553,47002.2188587411,58768.6372081593,61663.0645930071,16078.5405941974
4151035366,27253,2,0,-8604.5206530085,43275.9833836834,13615.7744218403,31272.3071139146,52097.1742140180,14494.1726231853,47010.4442217934,58769.6714623893,61662.4440404692,16073.8803663142
4151035366,27253,2,0,-8608.1344589649,43272.0045468223,13613.3895532630,31268.2552708726,52096.4684876023,14490.6804941971,47024.1450484161,58766.7877182422,61658.5625451826,16073.0651306271
4151035366,27253,2,0,-8607.3192232778,43267.5876728756,13615.1295339087,31264.3859432829,52091.0903656065,14495.9247715278,47008.3148748494,58762.2491673273,61657.7351417987,16073.4301615318
