steady_timestamp,sequence,battery,flags,EEG-ch1,EEG-ch2,EEG-ch3,EEG-ch4,EEG-ch5,EEG-ch6,EEG-ch7,EEG-ch8,EEG-ch9,EEG-ch10
8534266154,9063,-2,0,55802.9679584132,58887.8197985401,39246.5897422820,56727.6034076854,56552.9117843984,62835.7872128023,65314.3470556356,58656.1590187281,68157.0738966827,28395.5715602474
8534266154,9063,-2,0,55812.8967990207,58967.8102374541,39294.8589955786,56801.4491597038,56632.6101985887,62826.8804587279,65349.4630286666,58747.4654156874,68163.5227759988,28388.5994699679
8534266154,9063,-2,0,55806.3140750395,59013.5972805988,39308.1704559029,56822.9251445963,56684.8947918369,62805.8060078305,65346.8956446369,58784.6133940879,68146.1594726325,28392.2741144084
8534266154,9063,-2,0,55788.9021008859,58971.3753726232,39270.0490617567,56770.3850297149,56648.5255460331,62788.7833999753,65309.4556415127,58727.4373867169,68123.3572087863,28399.2827077784
8534266154,9063,-2,0,55784.0106867631,58891.8594738853,39223.7023045581,56701.8443935112,56566.2354124195,62807.2782991461,65282.6137023213,58641.3874347850,68123.2355318181,28404.6608297741
8534266154,9063,-2,0,55800.7291021978,58882.6485273903,39230.9420841677,56711.6880602410,56548.8234382659,62836.5902807926,65306.8517543926,58640.5721990979,68147.1937268625,28404.1132834171
8534266154,9063,-2,0,55818.1167409578,58966.2162691703,39288.7264763799,56798.7235956155,56629.0450634196,62844.7791407544,65358.7104782520,58740.4568223174,68169.0104072660,28397.7617456755
8534266154,9063,-2,0,55809.8913779055,59029.6221373146,39316.7365144663,56840.3979572341,56697.7560473787,62808.6167457967,65362.1296010593,58800.8329339528,68150.4303342174,28394.3791259588
8534315863,9064,-2,0,55783.1832833791,58981.4623932894,39272.5799426958,56777.1989399357,56655.5098040095,62782.2250113877,65310.1492002317,58730.6374909813,68117.4923789177,28396.8613361106
8534315863,9064,-2,0,55781.0296010414,58895.2177582084,39222.0353300933,56706.0422489151,56566.8803003512,62801.4013015806,65282.6502054118,58635.5226049163,68118.8794963555,28402.9573522189
8534315863,9064,-2,0,55801.9580395769,58880.4705096590,39229.7496498791,56718.8791690634,56547.3754823440,62828.6691101609,65309.4799769064,58636.8123807796,68146.5123358404,28403.6387432410
8534315863,9064,-2,0,55817.9220578086,58942.5014280624,39274.7214573367,56786.9574327877,56610.6475058233,62826.1382292217,65349.8645626617,58718.5184649456,68157.8526292794,28397.8590872501
8534315863,9064,-2,0,55810.9134644386,58998.7891935653,39296.7084854957,56822.0734058187,56672.5932503489,62798.9799299129,65351.8600649407,58774.3438579693,68141.7791017763,28395.4255478855
8534315863,9064,-2,0,55790.1310382650,58972.7503223642,39267.6885285730,56781.1291060095,56653.2709477940,62777.9541498028,65314.5539064816,58736.6848363023,68113.5743805407,28396.1434419981
8534315863,9064,-2,0,55776.1503546154,58890.3628471760,39216.6815434912,56705.4703671645,56568.9366411142,62793.3584539807,65274.2058238167,58642.3486828340,68108.7681402956,28399.8302541354
8534315863,9064,-2,0,55789.3766410620,58858.8363447078,39212.8487189920,56693.1931610701,56531.0707686012,62835.1544925675,65288.8435630947,58615.5189113394,68138.4694882404,28403.6509109378
8534346814,9065,-2,0,55807.9202110202,58930.0782096061,39271.0954836834,56769.2412662135,56599.9399326191,62849.4758717281,65340.4954361081,58709.2101768761,68164.0338192654,28397.2020316217
8534346814,9065,-2,0,55805.6205163206,59008.0123077571,39311.5287402261,56826.2469258290,56681.4148305455,62816.5500841252,65357.7127271125,58790.6972424993,68156.6358595971,28393.3813748193
8534346814,9065,-2,0,55785.9331828611,58987.0838692216,39281.9369015527,56785.6433215308,56662.5670681668,62789.3796171196,65318.0947062570,58748.8038623379,68127.6280703712,28395.1943616459
8534346814,9065,-2,0,55775.5419697743,58902.6887240577,39227.8149860842,56711.9314141775,56576.5171162349,62792.8595784109,65278.2576668587,58651.0607537592,68118.9403348396,28398.3944659103
8534346814,9065,-2,0,55786.3468845531,58864.4334852464,39216.3408479802,56698.4131030072,56529.0752663223,62814.9561158414,65289.0139108502,58621.5419212668,68139.1022084752,28397.9320934311
8534346814,9065,-2,0,55806.0950564967,58917.7158296340,39256.4942474959,56759.0082331854,56577.4783642839,62824.7632794807,65332.8784578969,58689.2064832992,68155.2122390688,28392.7121514940
8534346814,9065,-2,0,55809.8183717245,58994.9563690661,39295.8932498086,56815.5636880184,56656.8360829632,62805.0151075371,65354.0015795815,58765.0720729902,68146.5366712340,28391.3493694498
8534346814,9065,-2,0,55797.6141718111,58999.4827522842,39284.9544903648,56801.5708366721,56668.6265811846,62784.2083459698,65330.2745707768,58756.2383250968,68122.1647744977,28396.3016220568
8534371726,9066,-2,0,55785.3978042009,58917.3994695166,39229.6279729108,56726.9341843601,56588.7334838452,62780.8257262531,65285.1080801700,58657.3757884104,68105.1421666424,28404.9285191042
8534371726,9066,-2,0,55789.5104857270,58854.6993277880,39204.6598590302,56688.1435668886,56518.9030717783,62806.0128586765,65282.1269944484,58598.2286141540,68119.4270427125,28406.2791334516
8534371726,9066,-2,0,55801.7025179436,58897.3471051524,39245.7136681108,56745.5994312865,56557.3408260420,62816.6474256998,65325.0059580525,58659.2861168116,68141.4992447493,28398.7959999055
8534371726,9066,-2,0,55801.1306361929,58976.9238423745,39290.7341463557,56811.1711494654,56640.8233939442,62790.2678589877,65348.9884884905,58744.1314667579,68131.8502611687,28389.0983455376
8534371726,9066,-2,0,55784.0350221567,58979.0653570153,39274.4050972193,56792.0556977565,56650.4480421311,62763.2677397375,65319.0559543060,58729.1895350594,68101.8082177129,28381.8585659279
8534371726,9066,-2,0,55777.5496397501,58906.4850454664,39225.8559868957,56721.6169008485,56579.3278542010,62767.1614027209,65282.5650315340,58643.4802786386,68091.6968616530,28383.6837204514
8534371726,9066,-2,0,55789.3766410620,58849.6010628192,39201.7031087022,56691.7452051482,56515.8368121789,62793.9181680345,65284.1224967274,58591.7188963538,68107.3566874641,28393.9045857827
8534371726,9066,-2,0,55811.6313585511,58883.9018001631,39232.4630462706,56739.2965643322,56542.7760929449,62816.3675686729,65323.2903128004,58640.4991929169,68131.6434103227,28398.1997827612
8534396806,9067,-2,0,55818.9198089481,58968.4794607793,39283.5065344428,56812.4122545413,56632.1113230190,62808.7505904617,65355.7293925304,58732.4139747174,68138.0071157611,28395.4498832792
8534396806,9067,-2,0,55804.6105974843,58995.6377600881,39290.1500969082,56817.5956933879,56667.7383393165,62779.9253166882,65339.7897096923,58750.0693028075,68118.6118070254,28391.7387357482
8534396806,9067,-2,0,55787.7218342941,58930.0417065157,39244.0345259492,56742.7765256236,56603.7362540278,62777.4917773236,65291.2162639752,58660.8679173985,68100.6644542115,28397.2507024090
8534396806,9067,-2,0,55793.9638627642,58862.1702936373,39213.5787808014,56691.0151433388,56528.2600306351,62807.8015101095,65277.9169713477,58587.2655193166,68116.2026030544,28404.6973328646
8534396806,9067,-2,0,55816.3645926153,58892.5043618169,39246.8209285217,56740.0022907480,56553.3133183936,62830.4090908065,65322.0613754213,58635.6321141878,68145.7822740310,28403.7847556029
8534396806,9067,-2,0,55824.2005893692,58976.8386684967,39294.1532691629,56815.2351602042,56638.5967054256,62812.3522287213,65352.8091452929,58731.9516022382,68148.1428072146,28393.4543810002
8534396806,9067,-2,0,55812.3979234510,59005.6761099671,39297.1221871877,56820.9783131047,56675.4404914054,62788.7225614911,65338.2809152863,58750.9332092820,68126.0949405715,28392.3471205893
8534396806,9067,-2,0,55793.1121239866,58945.3730045126,39253.1359631728,56755.5769426813,56618.6173472423,62781.4097757006,65294.3920328459,58676.5642463001,68110.2039285207,28396.4232990250
8534443606,9068,-2,0,55785.7506674087,58868.8260237994,39214.6252027282,56696.8799732075,56541.0969507833,62800.4157181380,65273.5852712787,58601.4287184185,68116.7866525019,28400.3778004925
8534443606,9068,-2,0,55795.0224523878,58876.3334927392,39232.5482201483,56718.9765106379,56539.6976656487,62826.4789247327,65301.7048186365,58618.8771956626,68139.6619225290,28400.0006018910
8534443606,9068,-2,0,55803.4790016798,58959.5848744018,39286.3902785899,56791.4229775217,56621.4037498148,62818.6064248883,65341.3228394920,58711.7045547248,68149.4204153811,28393.0650147019
8534443606,9068,-2,0,55789.5348211207,59005.6517745734,39299.5192234618,56812.4852607222,56670.4274003144,62784.8897369919,65333.9978860046,58750.5316752868,68123.6370658132,28383.7323912387
8534443606,9068,-2,0,55771.0764250403,58948.2080778723,39249.9601943020,56742.7035194427,56615.5389199461,62765.0928942610,65284.8525585368,58672.9261049501,68095.4688476681,28385.5332103685
8534443606,9068,-2,0,55767.4991221743,58861.4158964343,39197.5539240856,56672.9096104663,56521.6164681698,62783.6607996128,65258.1809671009,58577.0568216821,68098.1457409692,28390.2786121294
8534443606,9068,-2,0,55786.6145738832,58862.5961630261,39215.3674322344,56701.8443935112,56519.3532765607,62811.5978315183,65291.7394749385,58599.4332161395,68125.5595619113,28389.3660348677
8534443606,9068,-2,0,55803.2356477433,58943.8763778033,39271.8133777960,56783.3436268313,56605.6952532163,62812.6077503546,65337.5143503864,58696.5436044834,68139.3090593212,28386.7864831412
8534450576,9069,-2,0,55800.4127420804,58996.8301943768,39292.4376239109,56811.9377143652,56666.4607311501,62794.3318697265,65334.1925691538,58738.3639784639,68126.7398285031,28390.8139907896
8534450576,9069,-2,0,55786.1643691007,58959.5240359176,39258.7452714081,56764.1551689415,56635.3966011611,62777.7838020473,65293.5159586747,58686.7121054505,68107.8677307307,28394.5494737143
8534450576,9069,-2,0,55780.7984148018,58874.9950460887,39210.7923782289,56694.6897877793,56550.6729281830,62791.3507840049,65264.4473309647,58598.9951790539,68107.5878737038,28398.5161428786
8534450576,9069,-2,0,55795.1928001434,58858.5078168936,39216.1705002247,56698.0359044056,56525.5831373341,62822.5609263557,65286.0571605222,58593.6413924518,68135.0016946459,28399.5747325021
8534450576,9069,-2,0,55811.2906630401,58936.6974366778,39274.5876126716,56779.9610071145,56601.7772548394,62826.5762663073,65339.0109770957,58692.5039291382,68155.3825868243,28392.6878161004
8534450576,9069,-2,0,55799.1107985203,59000.8455343284,39301.5390611344,56821.7327103077,56670.7437604318,62793.8816649441,65344.0970743677,58757.2239085394,68136.8511845630,28387.7598988871
8534450576,9069,-2,0,55773.4856290112,58965.5227104514,39265.2671569052,56764.8487276604,56641.7724742964,62777.3457649617,65296.8864106946,58702.7734652568,68109.0114942321,28396.0461004235
8534450576,9069,-2,0,55764.4206948781,58880.0811433607,39217.0830774864,56687.6568590157,56555.9293732105,62791.9591688460,65262.5248348667,58608.4859825758,68110.6663010000,28407.2038784101
8534483305,9070,-2,0,55774.2278585174,58858.4469784095,39220.1128339953,56688.1679022822,56530.6935699997,62818.9471203993,65281.7254604533,58600.2119487362,68133.7484218731,28406.7780090213
8534483305,9070,-2,0,55792.3942298741,58931.0151222615,39271.9837255515,56761.8068034547,56601.9962733822,62831.2243264937,65329.3254904246,58689.9608805022,68154.7133634990,28404.3079665663
8534483305,9070,-2,0,55797.3586501778,59000.4318326364,39304.8121715798,56810.7452800766,56674.8564419579,62810.4175649265,65344.7541299961,58760.1806588674,68145.9647894833,28402.0082718667
8534483305,9070,-2,0,55788.2937160447,58985.6237456029,39280.4402748435,56784.4022164549,56663.4188069444,62785.7779788600,65318.4232340713,58732.4261424143,68122.8218301261,28403.2250415490
8534483305,9070,-2,0,55781.0417687383,58897.3592728492,39222.0231623965,56709.0963408177,56574.1930861417,62787.7734811390,65280.5330261646,58635.6442818846,68111.3355243252,28402.1542842286
8534483305,9070,-2,0,55792.3212236931,58852.5456454503,39206.7283674901,56690.8812986738,56524.1716845026,62821.4901690353,65289.5249541168,58597.4985523447,68130.1711190072,28398.7473291182
8534483305,9070,-2,0,55809.6480239690,58913.1894464159,39255.7155148992,56764.3011813034,56581.5180396292,62830.9809725572,65339.3030018194,58678.9491148774,68153.7642831468,28387.6260542220
8534483305,9070,-2,0,55810.6457751085,58996.1731387484,39301.4903903471,56831.7953955803,56669.5148230527,62814.9804512351,65362.2269426338,58765.8508055869,68146.3541557817,28386.5674645984
8534512350,9071,-2,0,55796.9936192731,58990.3569796670,39285.5628752059,56801.7776875180,56669.6486677177,62794.6360621471,65328.5224224343,58740.6515054666,68121.9944267421,28400.0127695878
8534512350,9071,-2,0,55787.7218342941,58909.1132679802,39232.5482201483,56723.1135275577,56587.6383911311,62796.4612166705,65286.7872223316,58644.4536943844,68114.4382870151,28408.6883374225
8534512350,9071,-2,0,55790.9341062553,58862.7300076911,39215.4404384153,56695.5901973442,56534.1856989879,62822.7312741113,65289.2572647867,58610.6518326103,68135.0868685236,28406.4008104198
8534512350,9071,-2,0,55801.7755241246,58907.7626536329,39252.5154106348,56746.7918655752,56576.1764207239,62830.8592955890,65324.8112749033,58675.0067811068,68151.3915822664,28395.4620509760
8534512350,9071,-2,0,55801.6538471563,58984.1879573778,39290.7706494461,56803.0187925940,56655.3394562539,62809.0669505791,65346.2994274926,58756.5060144269,68145.7336032437,28386.7743154444
8534512350,9071,-2,0,55784.1445314281,58990.3326442733,39279.4425237040,56790.5347356537,56671.3643129698,62782.8577316225,65323.0347911671,58752.2838236293,68121.3982095978,28387.1028432586
8534512350,9071,-2,0,55772.0255053925,58915.7203273551,39228.2165200794,56720.0107648679,56598.3459643353,62782.5048684146,65280.8858893725,58658.9454213005,68110.1309223398,28394.4521321397
8534512350,9071,-2,0,55778.4987201023,58854.4559738515,39204.3556666096,56679.0908004523,56528.6493969335,62814.5180787558,65277.6857851080,58597.2308630145,68127.3360456474,28399.5138940180
8534603852,9072,-2,0,55797.3708178747,58897.9433222967,39246.6627484630,56734.1617962730,56564.5075994707,62833.9377228852,65321.2704751278,58657.7773224055,68153.1924013962,28397.7009071914
8534603852,9072,-2,0,55804.1847280955,58985.0153607617,39300.6751546600,56806.3527415235,56653.5386371241,62813.6785076750,65349.2440101238,58750.5925137709,68150.7831974252,28395.9365911521
8534603852,9072,-2,0,55789.9120197222,58994.2384749535,39294.3114492216,56793.2116289547,56670.3178910430,62790.0123373544,65320.5404133184,58743.7664358532,68125.7177419700,28394.0262627509
8534603852,9072,-2,0,55776.1260192218,58922.5585729696,39247.9890274167,56722.3104595674,56597.5063932545,62788.3575305865,65279.0120640617,58654.0783425713,68113.0755049709,28396.9221745947
8534603852,9072,-2,0,55780.2752038384,58859.4082264585,39215.9758170755,56685.4545058907,56525.7778204833,62805.9033494051,65272.5631847456,58592.6923120996,68125.3770464589,28401.8135887176
8534603852,9072,-2,0,55798.2103889554,58886.6516996451,39241.2359556799,56730.5844934070,56547.4728239186,62830.7254509239,65313.1302859533,58634.0624812976,68146.4149942658,28404.3688050504
8534603852,9072,-2,0,55811.9477186685,58974.3686260416,39291.5372143460,56808.0562190787,56634.6178685645,62822.1715600574,65355.4252001098,58729.2017027562,68152.2311533472,28403.1520353681
8534603852,9072,-2,0,55801.4591640072,59007.0388920112,39297.2681995496,56820.1387420239,56675.5013298896,62794.3318697265,65346.8713092433,58755.4839278937,68131.8989319560,28402.9938553094
8534613217,9073,-2,0,55781.0296010414,58939.4716715534,39246.8574316121,56745.2465680787,56611.2315552708,62774.9000579003,65295.6818087092,58670.7724226124,68104.9353157964,28402.6653274952
8534613217,9073,-2,0,55782.2463707237,58863.2045478672,39208.1276526247,56682.9844634357,56525.7291496960,62797.6901540496,65275.3982581053,58586.2312650866,68111.6883875331,28403.5414016664
8534613217,9073,-2,0,55802.2378966038,58887.7224569655,39237.1111064569,56722.0062671468,56537.7021633697,62823.9358760967,65313.4709814643,58623.2697342156,68137.6664202501,28402.8478429475
8534613217,9073,-2,0,55814.1744071871,58978.3839659932,39290.2109353923,56800.6460917135,56626.6480271454,62818.2170585900,65351.4098601583,58725.1620274110,68144.4194919868,28401.7649179303
8534613217,9073,-2,0,55802.3839089657,59012.4413494006,39296.0757652609,56808.2143991374,56668.8212643338,62792.8230753205,65339.0596478830,58750.5560106804,68125.2918725812,28399.4773909276
8534613217,9073,-2,0,55781.6136504890,58952.1139085525,39249.1449586148,56741.1095511589,56611.1463813930,62773.0384002864,65292.8954061367,58676.3087246669,68103.5725337522,28396.2529512695
8534613217,9073,-2,0,55774.4468770602,58866.0761243175,39199.8779541788,56679.9790423204,56523.4172872996,62778.6233731281,65271.0543903395,58591.0618407253,68101.2241682654,28392.9676731273
8534613217,9073,-2,0,55786.5902384895,58858.9945247665,39206.4363427663,56697.4761903518,56513.4397759048,62800.4643889253,65295.9008272520,58597.8757509462,68116.8109878956,28389.8770781343
8534619487,9074,-2,0,55799.7435187551,58935.2616484527,39256.4090736181,56773.0984261064,56591.7024018700,62797.0209307244,65336.5531023374,58689.5958495975,68126.6789900190,28386.5309615080
8534619487,9074,-2,0,55792.9904470184,58990.1014580337,39277.6052014837,56806.8394493964,56655.8870026110,62766.9667195717,65334.8982955695,58741.3572318823,68107.5392029165,28390.7774876992
8534619487,9074,-2,0,55779.6059805132,58945.7988739014,39237.7803297822,56750.0771437174,56618.8485334819,62764.4358386325,65291.4961210021,58678.9369471806,68087.6206832173,28401.4120547224
8534619487,9074,-2,0,55785.1301148708,58867.0252046696,39193.9887889164,56684.9556303210,56534.8427546164,62791.7888210905,65267.6109321386,58591.8162379283,68098.2430825438,28406.8753505959
8534619487,9074,-2,0,55805.7908640761,58867.7796018727,39210.2448318719,56705.3000194089,56528.0653474860,62817.7790215043,65298.1396834674,58609.5324045025,68129.7452496184,28400.3412974020
8534619487,9074,-2,0,55816.1455740725,58947.1494882487,39262.6876051788,56777.5639708404,56606.7173397495,62808.9696090045,65339.1204863671,58704.3065950564,68139.2482208371,28389.6823949851
8534619487,9074,-2,0,55804.0995542177,58998.8743674430,39280.9999888973,56800.4270731707,56663.5891546999,62783.6607996128,65331.1263095544,58745.5550872862,68118.8551609618,28383.8297328133
8534619487,9074,-2,0,55790.5325722602,58967.6155543049,39254.7420991534,56755.0415640211,56638.9617363303,62775.0825733526,65294.1000081222,58700.8753045524,68100.9321435416,28388.6846438456
8534640846,9075,-2,0,55785.0449409930,58887.8319662369,39210.1961610846,56684.8339533528,56559.4458375923,62790.5233806209,65264.0823000600,58615.7866006695,68102.4287702508,28394.7563245603
8534640846,9075,-2,0,55801.7511887309,58867.0373723665,39208.8942175245,56683.0696373134,56527.3231179798,62812.9362781688,65282.8692239546,58602.2074510151,68124.2332829576,28396.5328082964
8534640846,9075,-2,0,55816.2064125566,58937.2206476412,39253.1602985664,56755.9054704956,56590.7898246082,62806.7307527891,65330.3719123514,58687.5395088344,68138.4086497563,28389.1226809312
8534640846,9075,-2,0,55807.7498632646,59002.5003410963,39277.4348537282,56802.9457864131,56662.5914035604,62776.0316537048,65339.8748835701,58755.7029464365,68119.5487196807,28379.9969083140
8534640846,9075,-2,0,55789.7173365730,58974.7214892495,39243.7668366191,56757.2560848429,56641.3344372107,62759.6417660843,65297.1419323279,58708.7113013063,68092.0740602545,28379.9239021331
8534640846,9075,-2,0,55783.0372710172,58889.4259345207,39194.5363352735,56678.2877324620,56554.4449141981,62775.8734736461,65260.3224817417,58609.0091935392,68088.9956329583,28382.6007954341
8534640846,9075,-2,0,55794.6939245736,58861.8904366104,39193.7697703736,56676.0488762466,56521.6529712603,62804.0781948817,65277.5519404430,58594.5418020167,68114.8154856166,28380.9946594535
8534640846,9075,-2,0,55807.2753230885,58924.8339322754,39242.0755267607,56748.0208029543,56583.2458525780,62809.8335154789,65321.4529905802,58674.9337749259,68131.9110996528,28376.5169470227
8534684743,9076,-2,0,55803.8440325845,58992.9730344839,39278.9558158310,56797.1782981190,56656.9090891441,62794.6482298439,65334.9226309632,58742.4279892027,68124.0020967179,28371.6742036871
8534684743,9076,-2,0,55790.5690753506,58984.6868329475,39265.6443555068,56772.0885072701,56658.7342436675,62777.0537402379,65310.5263988332,58722.8014942273,68106.4684455961,28382.9658263388
8534684743,9076,-2,0,55783.0129356236,58904.7694002144,39217.4724437847,56702.1972567191,56579.5712081375,62783.5147872509,65275.4955996799,58634.4396798991,68099.5815291943,28395.6689018220
8534684743,9076,-2,0,55791.0801186172,58854.6384893039,39197.0063777285,56675.9637023688,56525.0234232802,62809.4319814838,65278.8903870935,58591.3295300554,68120.0232598568,28396.8735038075
8534684743,9076,-2,0,55806.2167334649,58910.5977269926,39238.4738885011,56740.2456446844,56575.7018805478,62818.9714557930,65325.9185353142,58664.6277357168,68143.6772624806,28389.7675688629
8534684743,9076,-2,0,55806.6182674601,58993.3624007823,39281.4380259829,56805.5740089268,56663.0172729492,62798.5418928273,65349.3656870920,58752.1499789642,68135.7804272425,28383.2335156689
8534684743,9076,-2,0,55788.4032253161,58986.1347888694,39261.1909784696,56776.7243997596,56663.3458007634,62770.6413640122,65311.2807960362,58724.2859532397,68108.4882832687,28380.1429206759
8534684743,9076,-2,0,55778.6569001610,58904.7937356081,39208.9672237055,56697.0503209630,56582.6983062210,62780.7162169816,65268.4626709163,58626.6523539324,68097.9632255168,28386.5066261143
8534708405,9077,-2,0,55787.6123250227,58854.6506570007,39191.2632248281,56671.8023500554,56524.5732184978,62803.0926114390,65273.3784204327,58585.6958864264,68115.2291873086,28388.5386314837
8534708405,9077,-2,0,55805.5110070492,58902.5670470895,39230.3093639329,56730.7061703752,56567.2696666495,62819.7988591769,65318.8734388537,58651.3892815735,68140.3798166416,28385.6062165494
8534708405,9077,-2,0,55809.4655085167,58982.3019643702,39272.4460980308,56792.5910764167,56646.7247269033,62802.5937358693,65344.3404283041,58735.2490480772,68135.7682595457,28380.4957838838
8534708405,9077,-2,0,55793.3919810136,58994.7130151296,39262.4077481518,56784.9254274183,56663.0781114333,62771.3105873375,65321.6355060325,58735.7722590406,68110.4716178508,28381.7733920502
8534708405,9077,-2,0,55780.5793962590,58921.8285111602,39208.7603728595,56711.7367310283,56593.2233639728,62767.6237752002,65276.2864999734,58645.9503210936,68093.4611776923,28391.1911893911
8534708405,9077,-2,0,55789.7051688762,58858.0697798080,39178.8400063719,56667.1177867786,56521.6043004730,62796.9965953307,65267.3675782022,58579.6972118927,68107.6852152784,28395.7297403061
8534708405,9077,-2,0,55810.4632596561,58894.3051809467,39214.6130350313,56719.1833614839,56551.2813130241,62814.7614326922,65311.3294668235,58633.7947919675,68131.8502611687,28388.7333146329
8534708405,9077,-2,0,55811.9720540622,58978.8341707757,39266.7759513113,56793.1507904706,56637.3069295623,62802.0096864218,65343.0019816536,58732.2679623556,68129.8060881025,28381.6760504756
8534747415,9078,-2,0,55793.8543534928,58994.9442013692,39264.1355611007,56785.1687813547,56661.7518324796,62777.7838020473,65320.0415377487,58733.2657134950,68106.2615947501,28379.8995667395
8534747415,9078,-2,0,55780.7010732272,58928.0097011462,39219.2245921272,56716.1657726718,56595.0971892836,62773.9266421544,65279.7177904775,58648.9070714216,68095.6148600300,28385.7887320018
8534747415,9078,-2,0,55781.8813398191,58860.2234621456,39187.1383756051,56670.6707542509,56521.7624805317,62789.6229710560,65268.8155341241,58583.5422040887,68106.4441102024,28392.2619467116
8534747415,9078,-2,0,55794.9616139037,58877.0392191549,39210.3300057497,56704.3752744504,56533.6381526309,62801.5229785489,65298.3343666166,58616.6383394471,68126.4113006889,28390.9113323642
8534747415,9078,-2,0,55797.8453580508,58953.1603304793,39254.9611176962,56768.8518999152,56610.0756240726,62792.3972059317,65328.6684347962,58703.1993346455,68126.8371700777,28382.0045782898
8534747415,9078,-2,0,55787.0039401815,58988.6048313245,39263.8922071642,56786.3733833402,56653.2344447036,62767.2830796891,65319.3236436361,58735.5167374073,68108.5004509655,28377.7702197954
8534747415,9078,-2,0,55772.5243809622,58934.4464127656,39223.0939197169,56726.5204826682,56604.9651914070,62763.7057768232,65279.3649272696,58665.1266112866,68093.3273330273,28380.8608147885
8534747415,9078,-2,0,55776.7952425471,58857.4127241795,39184.5101530914,56665.6941662503,56523.8796597789,62790.4017036527,65260.7240157369,58582.9216515508,68106.6022902611,28383.9149066910
8534783713,9079,-2,0,55795.0832908719,58869.2640608851,39209.1254037642,56698.8876431833,56529.5984772857,62817.7546861107,65298.4317081912,58616.9425318677,68137.6299171596,28379.3885234729
8534783713,9079,-2,0,55812.3127495732,58961.8480660108,39269.4650123092,56785.3756322007,56621.9634638686,62814.0192031860,65342.8924723822,58723.6532330049,68151.7322777774,28382.0532490771
8534783713,9079,-2,0,55805.1094730540,59002.9505458787,39281.7665537971,56803.1039664718,56670.5734126763,62788.6008845229,65331.3453280972,58753.5492640989,68133.9187696286,28384.6693038940
8534783713,9079,-2,0,55787.9286851401,58949.9723939116,39240.4450553864,56742.8495318045,56624.4456740205,62775.9829829175,65288.3690229186,58683.0496287068,68114.0975915040,28383.6837204514
8534783713,9079,-2,0,55783.2806249537,58869.4952471247,39198.6246814060,56683.9822145752,56544.1145395954,62787.6883072612,65265.5545913756,58603.1808667610,68115.4725412450,28385.4602041875
8534783713,9079,-2,0,55795.6916757131,58860.7953438963,39205.0857284190,56694.6289492952,56530.0243466745,62802.9222636835,65288.4298614027,58609.3863921407,68132.7141676431,28384.1339252338
8534783713,9079,-2,0,55806.6304351569,58935.2616484527,39255.0462915740,56765.7004664380,56600.7795036999,62798.3107065876,65331.5643466400,58701.1551615793,68139.5645809545,28381.7125535661
8534783713,9079,-2,0,55797.8696934444,58991.0262029922,39279.6007037627,56801.5343335816,56661.9586833256,62770.3980100758,65332.7081101414,58758.2946658598,68120.7168185757,28378.7801386317
8534790235,9080,-2,0,55774.8240756617,58943.8885455002,39238.5103915916,56746.7431947879,56622.8760411303,62751.9152786017,65285.9719866445,58695.7892072804,68093.3395007241,28376.8454748369
8534790235,9080,-2,0,55769.2877736073,58856.5001469178,39187.5642449939,56674.8807773516,56532.7742461564,62777.4674419299,65253.2408821908,58596.4277950242,68096.2232448711,28380.2645976441
8534790235,9080,-2,0,55791.1531247981,58851.2315341935,39202.2993258465,56694.6411169920,56521.2027664778,62808.7992612490,65285.4974464684,58606.7338342333,68129.3680510168,28384.5354592290
8534790235,9080,-2,0,55805.0364668731,58929.9200295474,39256.4212413150,56771.6504701844,56598.1877842766,62802.1191956932,65327.9627083804,58700.3520935890,68140.3919843384,28381.3110195709
8534790235,9080,-2,0,55794.2923905785,58985.6237456029,39276.3519287109,56799.8551914200,56660.2187026799,62772.9897294991,65326.1497215538,58749.5704272378,68121.5685573533,28374.3510969882
8534790235,9080,-2,0,55775.9678391631,58954.0972431346,39244.4117245507,56752.4133415074,56635.8954767309,62753.3754022205,65287.1522532363,58703.6982102153,68096.6126111695,28377.4173565876
8534790235,9080,-2,0,55767.5599606585,58870.5173336578,39195.3394032638,56681.3539920614,56555.5156715185,62764.9347142023,65253.0218636479,58618.7555186943,68095.3228353063,28384.6206331068
8534790235,9080,-2,0,55781.7718305476,58840.2076008719,39190.8130200457,56676.1948886085,56520.1198414606,62795.6703163770,65265.8466160993,58599.4940546236,68116.9326648638,28388.2466067600
8534821109,9081,-2,0,55798.3807367110,58905.0492572413,39237.8533359632,56747.9234613797,56581.4450334482,62799.4909731794,65309.5773184810,58682.1613868387,68133.8335957509,28385.6062165494
8534821109,9081,-2,0,55791.5546587933,58977.3253763696,39272.5434396054,56802.7876063544,56657.5539770757,62770.7022024964,65320.6255871962,58757.5037655663,68117.5410497049,28375.3488481277
8534821109,9081,-2,0,55770.1760154754,58955.0098203963,39245.5068172648,56760.1276612931,56641.7724742964,62751.6719246653,65278.8903870935,58715.2453545003,68089.7500301613,28377.2956796193
8534821109,9081,-2,0,55761.5126153375,58870.7363522006,39195.3759063543,56679.5531729316,56554.3962434108,62760.2014801382,65238.8343291524,58614.0709554175,68085.3818270019,28382.7103047055
8534821109,9081,-2,0,55771.9159961211,58835.7177207442,39188.4768222557,56668.6144134878,56512.6975463986,62781.0325770990,65250.3936411342,58591.3903685395,68106.2494270532,28381.8707336248
8534821109,9081,-2,0,55791.0801186172,58900.9730788057,39235.7969952001,56740.8053587383,56574.5702847433,62792.4458767190,65298.6142236435,58675.2744704369,68127.6767411585,28380.3497715219
8534821109,9081,-2,0,55793.1972978644,58975.5245572398,39273.8332154686,56794.4040632433,56654.5363882636,62774.5593623892,65312.5827395962,58751.2495693993,68122.6393146738,28378.1474183969
8534821109,9081,-2,0,55772.3662009035,58963.1865126614,39252.3328951825,56760.9672323739,56650.7644022485,62744.8823498381,65276.0066429465,58726.7073249075,68095.4566799713,28377.3200150130
8534864732,9082,-2,0,55757.0105675130,58881.0910621970,39198.6003460123,56683.3129912499,56569.3138397157,62743.7142509431,65230.0492520462,58629.0128871161,68080.5634190600,28381.5057027201
8534864732,9082,-2,0,55763.9218193084,58828.3805995600,39176.2969577359,56651.9325011435,56510.1910008531,62777.1510818125,65232.7383130441,58574.9396424349,68097.9023870327,28382.5642923437
8534864732,9082,-2,0,55788.0260267146,58881.6507762508,39223.3007705629,56720.3271249853,56559.8108684970,62801.8636740599,65287.8579796520,58647.6051278615,68127.3482133442,28382.0410813803
8534864732,9082,-2,0,55791.8953543043,58969.5258827061,39273.6263646226,56798.0178691998,56651.2876132119,62781.8478127862,65322.9861203799,58744.5208330563,68124.0142644148,28377.1618349543
8534864732,9082,-2,0,55772.6338902336,58969.0756779237,39258.8547806795,56777.1989399357,56659.9996841371,62753.9229485775,65295.9616657361,58727.2305358709,68095.4445122745,28374.5579478342
8534864732,9082,-2,0,55761.7316338803,58889.6084499730,39209.5634408498,56701.0899963082,56582.6009646464,62760.5421756492,65256.1246263378,58627.6014342846,68084.6882682830,28381.5787089010
8534864732,9082,-2,0,55775.4081251093,58840.0250854195,39194.4754967894,56675.5134975864,56524.6462246787,62791.2777778240,65260.9673696733,58579.2713425039,68105.7140483930,28388.4047868187
8534864732,9082,-2,0,55796.1297127987,58886.4570164959,39236.1255230143,56730.9981950990,56563.6801960867,62807.0349452097,65304.2113641821,58639.6231187457,68131.1445347530,28387.4922095570
8534906082,9083,-2,0,55795.4969925639,58965.6200520259,39281.1460012592,56791.2769651599,56644.3520260228,62786.9339100582,65324.6044240573,58720.7451534642,68127.4577226156,28381.7855597470
8534906082,9083,-2,0,55774.0331753683,58980.2821266976,39272.9571412973,56778.4765481021,56664.2462103283,62751.4042353352,65297.8476587437,58727.4982252010,68098.6567842357,28378.9139832968
8534906082,9083,-2,0,55751.0118929793,58906.8379086743,39216.5598665230,56696.0890729140,56593.4667179093,62742.3149658084,65244.2976250259,58638.6253676062,68076.5967498957,28384.5111238353
8534906082,9083,-2,0,55752.5085196885,58835.1580066904,39181.6385766412,56640.7382200664,56517.0779172549,62779.4872796025,65229.5017056892,58567.4686765856,68092.6337743084,28390.1325997675
8534906082,9083,-2,0,55776.1016838282,58869.9819549976,39218.4823626210,56692.5482731385,56544.9054398889,62812.0115332103,65277.2355803256,58622.1259707143,68128.4676414519,28388.1127620949
8534906082,9083,-2,0,55789.0846163382,58963.8800713803,39279.1748343739,56779.2552806988,56642.1618405947,62796.7410736975,65320.9906181009,58726.8898403598,68136.5956629297,28387.9545820362
8534906082,9083,-2,0,55774.1670200333,58985.1613731236,39276.9359781584,56782.3702110855,56668.7847612433,62759.6174306907,65298.7967390958,58733.8010921552,68109.5590405891,28389.2686932931
8534906082,9083,-2,0,55756.2926734004,58915.5743149932,39226.9875827003,56710.6173029206,56601.1567023014,62752.0247878731,65250.7951751293,58645.3541039493,68089.7621978582,28393.3205363352
8534919213,9084,-2,0,55755.0028975372,58842.8844941729,39189.1217101873,56659.4886408706,56521.5312942921,62770.5683578313,65234.0524243010,58571.8977182292,68094.3250841668,28387.6382219188
8534919213,9084,-2,0,55771.6604744878,58858.8363447078,39210.0623164195,56692.6334470163,56534.3682144403,62795.8163287389,65268.0246338306,58604.5801518956,68117.3585342526,28380.3011007346
8534919213,9084,-2,0,55783.1102771982,58942.1120617640,39261.0693015013,56765.3962740175,56621.0143835164,62790.4990452273,65306.3163757324,58695.8135426740,68124.2819537449,28373.3655135455
8534919213,9084,-2,0,55774.2278585174,58987.3393908549,39278.4204371708,56785.0471043865,56671.4494868475,62762.1118085394,65300.5245520447,58732.3166331429,68105.6532099089,28369.4475151685
8534919213,9084,-2,0,55758.6045357968,58935.2859838463,39237.1476095474,56725.9486009175,56622.0973085337,62750.8810243718,65258.7893519420,58662.8390842839,68085.4670008797,28378.4394431207
8534919213,9084,-2,0,55760.1620009901,58851.8764221251,39189.9734489649,56659.8901748657,56533.6259849341,62767.0762288431,65235.7072310689,58570.8147932119,68090.0663902787,28387.8329050680
8534919213,9084,-2,0,55777.2941181168,58853.5312288930,39202.8468722035,56685.9412137636,56529.2091109873,62789.5864679656,65270.8840425840,58594.7608205595,68113.8785729612,28385.5818811558
8534919213,9084,-2,0,55784.7772516629,58935.3711577241,39251.7610134318,56766.5400375188,56611.4870769041,62781.1542540673,65313.7751738849,58692.4187552604,68118.0764283652,28374.8743079516
8534969097,9085,-2,0,55772.3540332067,58977.5443949124,39262.8214498438,56786.7627496385,56659.1479453595,62751.3068937606,65305.8661709500,58725.9042569172,68094.2885810763,28373.1829980932
8534969097,9085,-2,0,55756.9253936352,58929.4576570682,39222.8627334773,56730.9130212212,56613.1783867625,62742.9963568305,65265.5667590724,58659.1522721465,68073.5304902964,28380.7391378202
8534969097,9085,-2,0,55756.0493194639,58852.1076083647,39184.6683331501,56669.9893632288,56533.8085003864,62759.9216231112,65243.2877061896,58576.7647969584,68080.3809036077,28387.5165449506
8534969097,9085,-2,0,55767.7303084140,58838.3337755612,39192.6381745691,56674.6860942024,56516.6763832597,62782.4561976273,65259.4707429641,58574.6232823175,68100.6401188179,28382.4304476786
8534969097,9085,-2,0,55782.3923830856,58915.2822902694,39243.9128489810,56750.5516838935,56587.1395155614,62790.2191882004,65301.9360048762,58663.3379598536,68119.0376764142,28376.6142885973
8534969097,9085,-2,0,55779.0097633688,58980.9878531133,39273.5411907448,56794.6109140893,56656.5440582394,62770.3371715917,65310.7210819823,58727.7537468342,68109.7780591319,28374.8013017706
8534969097,9085,-2,0,55762.4251925992,58949.9602262148,39241.5158127069,56746.4998408514,56630.9918949112,62754.5069980250,65270.8840425840,58681.8206913276,68087.4138323713,28381.4205288423
8534969097,9085,-2,0,55755.7086239529,58861.7687596421,39188.7445115858,56667.1056190817,56539.5273178932,62761.3452436395,65236.4007897878,58583.3475209396,68085.7225225130,28387.2488556205
8534984765,9086,-2,0,55768.9835811867,58842.3612832095,39189.8274366030,56670.2692202557,56510.7750503006,62783.1132532558,65257.1832159614,58578.3222621517,68106.6509610484,28387.0055016840
8534984765,9086,-2,0,55783.3779665283,58918.4580591402,39241.1507818022,56745.8914560103,56581.5423750228,62781.8478127862,65300.9625891303,58672.5245709549,68120.1449368251,28382.6129631310
8534984765,9086,-2,0,55776.0773484345,58976.3154575333,39265.9728833210,56780.8249135889,56644.1451751768,62756.9892081769,65300.6097259225,58726.4761386678,68102.1002424366,28379.3520203824
8534984765,9086,-2,0,55756.1344933417,58946.3585879552,39235.8456659874,56732.7016726542,56620.8440357609,62737.8615887712,65259.1665505435,58678.5232454886,68076.1465451133,28380.2159268568
8534984765,9086,-2,0,55745.5972678930,58860.4546483853,39184.0599483089,56662.0195218097,56538.4078897855,62742.8746798623,65222.6512923779,58586.7179729595,68069.6854981003,28383.2943541531
8534984765,9086,-2,0,55754.8203820848,58822.0899003025,39171.8192453050,56650.0830112264,56494.7988643720,62769.7774575378,65233.6873933963,58555.8850292102,68089.9447133105,28382.6494662214
8534984765,9086,-2,0,55771.8794930306,58882.6120242998,39216.1339971342,56720.4366342567,56555.3574914598,62783.8554827620,65281.8106343310,58632.7118669503,68110.9339903301,28380.7513055171
8534984765,9086,-2,0,55768.9835811867,58958.9156510765,39251.3473117398,56779.7906593590,56639.2415933572,62755.6750969200,65302.8485821379,58712.4346165342,68101.0659882067,28375.3488481277
8535045847,9087,-2,0,55748.7000305829,58941.4428384388,39224.4323663674,56745.0883880200,56630.6268640066,62725.7547304324,65265.9682930675,58680.1172137724,68070.1478705796,28374.8499725579
8535045847,9087,-2,0,55739.0875500928,58855.7092466243,39169.6777306642,56664.2827134188,56540.5129013358,62738.1779488886,65226.2164275470,58578.2005851835,68061.3627934734,28378.9991571746
8535045847,9087,-2,0,55754.6013635420,58819.4373423951,39162.8638204434,56652.1150165959,56496.2468202940,62764.2289877866,65240.3187881648,58550.3000563685,68085.5035039701,28375.2393388563
8535045847,9087,-2,0,55775.1039326887,58882.1253164269,39213.0068990507,56721.8480870881,56553.5566723300,62778.0514913774,65286.9210669967,58628.6478562114,68108.7194695083,28373.1586626995
8535045847,9087,-2,0,55776.8560810312,58960.4244454825,39254.7299314566,56778.7929082195,56632.4520185300,62757.8166115609,65301.8386633016,58701.5931986649,68102.4774410381,28375.8842267879
8535045847,9087,-2,0,55757.1444121780,58956.0805777168,39238.9362609804,56752.0726459963,56634.6665393518,62734.1382735434,65268.5113417035,58680.4822446771,68076.8522715290,28376.6021209004
8535045847,9087,-2,0,55740.3286551687,58876.4186666170,39185.9337736197,56675.0267897135,56557.0974721055,62732.3496221105,65223.0649940699,58589.1150092336,68062.4578861875,28379.2790142015
8535045847,9087,-2,0,55748.5053474337,58819.3156654269,39164.9201612064,56640.0324936507,56496.3806649590,62767.4777628383,65223.0284909794,58539.7019924357,68081.5855055931,28389.8649104374
8535062519,9088,-2,0,55770.8330711038,58866.1856335889,39206.1564857394,56699.8488912323,56537.4466417365,62783.4539487668,65272.2954954155,58607.0258589570,68108.8654818702,28393.8194119049
8535062519,9088,-2,0,55776.5883917011,58953.5010259903,39256.6037567673,56776.8460767278,56628.3636723975,62763.4259197962,65305.2577861088,58707.1538361130,68108.1475877576,28391.2520278753
8535062519,9088,-2,0,55759.2737591220,58958.5141170813,39245.9813574409,56764.2768459097,56643.9139889372,62737.5330609570,65279.5474427220,58702.3110927775,68083.9703741704,28387.1150109555
8535062519,9088,-2,0,55740.8640338289,58878.0734733849,39192.9180315960,56681.3418243646,56567.0141450162,62742.2541273243,65231.5580464523,58601.0393521201,68073.0559501203,28387.8694081585
8535062519,9088,-2,0,55742.9568776825,58818.2084050160,39170.3956247768,56642.0279959296,56501.8074577421,62769.0108926380,65229.3435256305,58544.7394189204,68090.9546321468,28388.2587744568
8535062519,9088,-2,0,55753.5671093121,58851.4140496458,39202.2263196656,56687.6446913189,56528.6615646303,62783.1862594367,65264.7271879916,58595.7099009117,68112.0412507410,28384.4867884417
8535062519,9088,-2,0,55757.9596478652,58933.6798478657,39246.6384130693,56752.8878816835,56610.8908597597,62772.2596676897,65293.2604370414,58683.1713056750,68111.7978968045,28384.4016145639
8535062519,9088,-2,0,55741.6792695161,58954.2919262838,39242.0633590639,56751.1844041283,56638.0856621590,62740.1734511676,65275.2157426530,58697.7725418625,68089.2754899852,28381.8950690184
8535092213,9089,-2,0,55725.4597296511,58887.2965875767,39192.3583175422,56682.8871218611,56574.3999369877,62732.9701746484,65231.5702141491,58617.3075627724,68068.1402006038,28381.3353549646
8535092213,9089,-2,0,55733.8311050653,58817.2958277543,39158.6294619490,56633.6931236059,56500.0309740059,62767.4290920510,65218.7332940009,58545.5181515170,68082.7536044882,28387.6503896157
8535092213,9089,-2,0,55761.2935967946,58847.5812251466,39194.6458445449,56682.8627864674,56522.4560392506,62797.1547753894,65264.8975357471,58591.2078530872,68115.4482058514,28391.8725804132
8535092213,9089,-2,0,55773.0719273192,58941.9173786149,39253.0507892950,56768.2191796804,56617.5222545282,62779.0979133042,65308.1415302559,58698.1254050704,68119.0498441110,28392.8459961591
8535092213,9089,-2,0,55754.3336742119,58970.6939816011,39250.4712375685,56770.0808372943,56649.7788188059,62741.7795871482,65287.6146257156,58713.7487277910,68087.0001306794,28389.7554011660
8535092213,9089,-2,0,55734.6585084492,58903.0537549624,39196.7386883984,56696.5636130901,56586.1174290282,62735.4280494067,65236.5954729370,58627.0782233212,68064.5628977379,28390.6314753373
8535092213,9089,-2,0,55736.6905138186,58828.2589225917,39157.8263939587,56645.4714541305,56510.0206530975,62756.8675312087,65222.1767522018,58558.6957671763,68075.6963403308,28389.1226809312
8535092213,9089,-2,0,55753.9808110040,58838.0295831406,39175.1896973250,56676.3895717576,56514.7903902521,62775.2042503209,65256.3314771838,58585.5863771550,68099.8370508276,28380.9338209694
8535110958,9090,-2,0,55764.1043347607,58915.6594888709,39224.6027141230,56748.5196785240,56593.4180471220,62767.6724459875,65294.2216850904,58674.7147563830,68106.7848057135,28372.2460854378
8535110958,9090,-2,0,55754.1876618500,58962.5172893361,39244.5942400031,56774.8505744489,56646.1406774558,62744.0184433637,65290.3401898039,58716.3161118207,68088.0465526061,28371.1023219365
8535110958,9090,-2,0,55738.5643391294,58915.8663397169,39208.9550560087,56721.0571867947,56605.3910607958,62736.1216081256,65250.1502871977,58652.6182189526,68068.9554362909,28381.4570319328
8535110958,9090,-2,0,55736.4349921854,58829.5730338486,39163.3140252258,56649.2799432361,56516.2870169614,62754.3488179663,65222.8216401334,58560.5452570934,68074.8567692501,28391.9455865942
8535110958,9090,-2,0,55749.5152662700,58824.4382657893,39176.6133178533,56665.3899738297,56505.2387482461,62781.0569124927,65250.4423119215,58574.6111146207,68102.1002424366,28392.0550958656
8535110958,9090,-2,0,55759.2372560316,58906.6188901315,39229.0439234633,56744.9788787486,56586.2877767837,62772.2353322961,65293.8688218826,58676.3208923637,68113.0876726678,28385.9955828477
8535110958,9090,-2,0,55751.3039177030,58954.8273049440,39243.2557933525,56769.4359493627,56638.5967054256,62744.1887911192,65287.1279178426,58716.9001612682,68092.6216066116,28379.9360698299
8535110958,9090,-2,0,55736.5810045472,58911.1574410465,39203.9176295240,56713.0630099820,56596.5329775087,62734.7101552941,65246.7554997841,58651.0485860624,68071.7540065602,28378.3055984556
8535174658,9091,-2,0,55732.8698570162,58835.1580066904,39161.7808954261,56648.5620491236,56515.6664644234,62754.9572028075,65220.0352375609,58566.4587577493,68076.4385698370,28383.4281988181
8535174658,9091,-2,0,55746.3151620056,58823.7812101609,39167.8039053535,56654.2200281462,56497.6704408223,62778.9762363360,65241.8762533581,58563.7088582673,68103.3413475126,28385.8982412732
8535174658,9091,-2,0,55763.9218193084,58901.2286004389,39219.4557783669,56725.4010545604,56571.6865405962,62788.7347291880,65283.6114534608,58649.9656610452,68120.2179430060,28385.3385272193
8535174658,9091,-2,0,55764.1651732449,58972.5313038214,39253.2576401410,56775.6536424392,56650.9225823072,62769.3029173617,65296.8985783915,58722.2296124766,68111.2625181443,28392.3227851957
8535174658,9091,-2,0,55747.0330561181,58944.0223901652,39221.1592559221,56735.0500381410,56630.3226715860,62743.8602633050,65258.2783086754,58680.3605677089,68087.6571863078,28402.2637935000
8535174658,9091,-2,0,55732.4439876274,58847.2770327260,39160.2355979296,56647.1627639889,56529.9756758872,62750.3943164989,65216.6891209346,58573.2118294861,68083.2646477547,28405.0258606788
8535174658,9091,-2,0,55741.1195554622,58818.3787527715,39157.1206675429,56643.3786102770,56494.6163489197,62784.7558923269,65236.6198083306,58560.2410646728,68109.9849099779,28403.9672710552
8535174658,9091,-2,0,55755.6234500751,58890.4966918411,39211.8144647621,56723.0040182863,56566.5639402338,62784.4638676031,65288.1986751631,58655.5628015837,68127.5063934029,28394.6954860761
8535213733,9092,-2,0,55751.0362283729,58955.7033791152,39242.0390236702,56770.3850297149,56637.3190972592,62759.5930952970,65300.2203596241,58720.2706132881,68110.3256054889,28387.5408803443
8535213733,9092,-2,0,55738.3453205866,58935.5536731765,39220.1493370858,56735.9869507964,56626.3925055122,62740.4289728009,65269.2292358161,58685.3006526190,68087.4625031586,28391.1181832102
8535213733,9092,-2,0,55732.8455216226,58857.4735626636,39171.8192453050,56670.8289343096,56549.8576924959,62749.3600622689,65236.8874976607,58600.4553026726,68082.6319275199,28392.1646051370
8535213733,9092,-2,0,55747.5927701720,58820.5811058965,39161.3915291278,56656.2276981220,56508.4753556010,62777.4431065363,65246.8163382682,58571.8003766546,68104.8623096154,28384.8518193464
8535213733,9092,-2,0,55766.0755016461,58880.4583419622,39206.0834795585,56719.4023800267,56564.0087239009,62787.9438288945,65289.9143204151,58646.4370289665,68126.5208099603,28375.6165374578
8535213733,9092,-2,0,55767.0854204824,58964.6466362801,39251.4324856176,56782.6865712029,56650.1925204978,62766.6260240607,65309.6746600556,58731.0390249764,68124.3062891385,28380.3254361283
8535213733,9092,-2,0,55746.3881681865,58953.9025599855,39232.1588538500,56749.8459574777,56646.6152176319,62735.5740617685,65269.4847574494,58699.3908455400,68094.1669041081,28392.7243191908
8535213733,9092,-2,0,55732.3223106592,58865.9909504397,39177.4042181468,56663.8446763332,56558.3507448783,62746.4641504251,65221.3371811210,58591.3538654491,68079.9915373093,28402.2637935000
8535220994,9093,-2,0,55739.2092270610,58818.5369328302,39163.7155592210,56639.9594874697,56504.7763757669,62777.6256219886,65230.6211337969,58555.2766443690,68102.5017764318,28402.0447749572
8535220994,9093,-2,0,55757.1200767844,58879.6187708814,39210.8410490162,56708.1350927687,56558.3507448783,62790.1826851099,65281.9931497834,58633.8312950580,68127.8957597013,28396.2772866631
8535220994,9093,-2,0,55758.3490141635,58955.7398822057,39248.5609091673,56764.6297091176,56634.7273778359,62764.0343046374,65301.3762908223,58708.8573136682,68118.6726455095,28385.4845395812
8535220994,9093,-2,0,55743.9667965188,58956.1657515945,39233.7041513465,56745.9401267976,56641.5899588440,62742.9598537401,65272.4901785646,58694.4750960235,68092.4877619465,28384.1825960211
8535220994,9093,-2,0,55735.9482843124,58885.8607993516,39187.2600525734,56675.7933546133,56571.9420622295,62751.0027013400,65231.8500711760,58610.9681927277,68083.8730325959,28392.2741144084
8535220994,9093,-2,0,55744.5873490567,58827.4558546014,39165.5285460476,56633.6566205155,56507.3802628870,62778.3800191916,65224.2452606617,58554.2058870486,68102.1732486176,28397.7252425851
8535220994,9093,-2,0,55760.5391995916,58864.6525037892,39204.4408404874,56681.8163645407,56538.8824299616,62802.6545743534,65263.4495798252,58607.9627716124,68127.4333872220,28398.1511119739
8535220994,9093,-2,0,55766.9394081205,58956.8958134039,39261.4830031933,56761.8919773324,56630.9188887303,62779.7062981453,65299.9770056877,58708.5531212476,68129.1733678677,28400.2561235242
8535267058,9094,2,0,55745.0618892328,58966.6056354686,39248.4513998959,56750.4421746221,56645.0577524386,62733.9557580911,65270.3486639238,58702.5179436235,68093.6436931447,28392.2132759243
8535267058,9094,2,0,55727.1632072063,58884.4006757328,39186.6273323386,56669.1984629353,56563.5341837248,62725.8520720070,65220.5462808275,58602.7184942817,68070.1843736701,28392.2984498020
8535267058,9094,2,0,55734.3543160286,58819.1453176714,39152.2414211169,56632.0626522317,56492.6938528217,62756.1739724898,65215.7887113697,58541.7218301083,68083.1429707865,28395.6689018220
8535267058,9094,2,0,55755.5747792879,58855.9769359544,39184.8630162992,56683.5928482768,56525.2424418231,62785.1209232316,65259.9087800497,58600.0902717679,68111.1530088729,28395.2795355236
8535267058,9094,2,0,55766.0755016461,58942.5379311528,39237.2692865156,56753.5692727056,56615.9526216381,62779.3169318470,65296.8620753010,58695.5458533439,68118.0155898810,28391.0086739388
8535267058,9094,2,0,55755.6599531656,58972.0202605548,39244.0831967365,56758.8378854299,56652.9059168894,62751.7449308462,65286.4830299110,58715.5130438304,68099.8127154339,28388.9645008725
8535267058,9094,2,0,55740.2799843814,58909.1619387675,39200.0483019343,56694.5316077206,56597.2752070149,62743.3370523416,65246.8163382682,58639.0634046918,68081.2448100821,28392.0307604719
8535267058,9094,2,0,55739.8541149926,58828.5022765282,39158.6172942522,56636.5281969657,56510.2396716404,62761.0045481285,65226.8978185691,58555.5321660023,68086.3552427477,28392.0915989560
8535282061,9095,2,0,55754.5526927547,58837.8105645978,39176.5889824596,56668.3710595513,56511.6389567750,62782.3101852655,65261.2958974875,58584.1019181426,68109.5833759827,28381.2866841773
8535282061,9095,2,0,55762.4495279928,58922.0475297030,39227.4499551795,56749.6756097222,56597.0318530784,62769.6314451759,65298.8819129736,58684.1568891177,68112.6739709758,28373.9008922057
8535282061,9095,2,0,55747.8847948958,58957.3460181863,39231.5139659184,56760.3831829264,56637.1609172005,62738.3361289473,65282.1756652357,58707.6527116827,68086.8054475302,28378.6584616635
8535282061,9095,2,0,55734.5368314810,58901.0460849866,39187.3452264511,56692.9863102241,56581.6275489006,62734.4546336608,65235.6098894943,58627.8569559179,68066.3758845645,28391.4467110244
8535282061,9095,2,0,55740.0244627481,58826.0322340732,39150.8299682855,56635.5061104326,56501.7222838643,62752.6940111984,65218.0884060693,58550.1662117034,68072.8125961838,28397.0195161693
8535282061,9095,2,0,55757.9839832588,58831.5563684308,39167.6943960821,56660.3282119514,56501.3207498691,62772.0041460564,65246.9501829333,58574.0148974764,68095.5296861522,28390.9113323642
8535282061,9095,2,0,55764.8222288733,58906.0835114713,39212.8852220825,56728.2604633138,56576.3467684794,62761.6251006665,65278.9025547903,58660.5150541907,68098.9366412627,28378.7193001476
8535282061,9095,2,0,55751.9244702410,58952.2112501271,39230.1755192679,56754.7495392974,56629.4100943243,62736.5596452112,65274.6316932055,58704.1240796041,68079.3223139841,28375.7017113355
8535302126,9096,2,0,55730.9351932214,58907.7991567233,39191.5187464614,56700.3721021957,56591.8970850191,62725.8399043102,65233.4318717630,58643.9548188147,68057.3474535219,28379.8995667395
8535302126,9096,2,0,55727.1875425999,58823.8785517355,39146.2670819769,56630.2131623146,56507.5992814298,62752.4019864747,65206.8454542049,58554.6439241343,68068.4808961148,28388.0275882172
8535302126,9096,2,0,55739.5377548752,58815.8600395292,39156.7921397287,56642.3443560470,56494.8718705530,62778.5747023408,65234.4052875088,58564.0982245657,68101.3945160209,28390.1204320707
8535302126,9096,2,0,55749.5882724510,58899.9023214852,39213.2380852903,56721.9940994500,56578.8046432376,62775.2650888050,65281.2874233676,58668.4483925192,68116.5798016559,28383.6593850577
8535302126,9096,2,0,55744.1979827584,58959.2563465875,39239.2891241883,56754.6765331164,56642.2470144725,62749.0193667579,65279.0850702427,58722.3634571417,68098.4134302993,28381.4691996296
8535302126,9096,2,0,55730.9230255246,58924.4689013708,39207.7504540232,56699.2648417848,56606.5713273876,62736.1094404287,65234.1497658756,58662.6930719220,68074.6620861009,28389.1713517185
8535302126,9096,2,0,55729.3412249376,58848.9561748876,39165.2851921111,56632.7075401633,56522.1883499205,62752.4993280492,65204.9351258037,58575.8765550903,68074.9176077342,28398.9785153578
8535302126,9096,2,0,55746.9722176340,58830.3761018389,39167.6092222043,56639.0469102080,56495.9426278734,62784.4151968158,65225.5350365249,58568.3082476664,68101.0903236003,28399.8667572259
8535321063,9097,2,0,55760.6000380757,58896.7265526144,39215.4161030216,56707.4415340498,56559.9082100716,62785.7779788600,65267.6717706228,58648.6758851819,68116.2877769322,28393.1988593669
8535321063,9097,2,0,55753.3967615565,58962.4321154583,39247.8551827516,56753.4232603437,56634.2041668725,62757.0013758737,65278.0629837096,58717.4963784125,68104.2904278648,28389.5242149264
8535321063,9097,2,0,55731.8356027863,58935.3468223305,39217.6062884498,56712.6736436837,56617.5830930124,62734.2356151180,65239.6252294459,58678.7422640314,68074.7959307659,28388.6846438456
8535321063,9097,2,0,55725.9829406145,58847.1188526673,39163.6547207368,56637.3677680465,56530.4380483664,62752.4141541715,65207.0158019604,58581.5223664161,68070.4520630002,28391.7509034450
8535321063,9097,2,0,55744.5143428758,58818.7072805857,39161.6835538515,56639.2537610540,56498.0354717270,62788.9537477308,65232.9816669806,58569.5858558328,68100.8348019671,28394.5981445016
8535321063,9097,2,0,55764.2503471226,58889.6571207603,39214.3210103076,56719.3415415426,56566.3327539941,62794.3318697265,65286.7507192411,58663.9950154820,68124.8416677987,28392.4687975576
8535321063,9097,2,0,55763.2890990736,58960.9719918396,39247.0277793677,56769.3629431817,56640.6652138855,62766.5286824861,65297.6408078977,58732.9858564681,68115.0710072499,28390.3394506135
8535321063,9097,2,0,55742.2024804794,58938.5469265949,39221.3904421617,56730.0369470500,56621.6227683576,62743.1910399797,65260.3224817417,58692.9297985270,68091.3926692324,28390.8383261833
8535378899,9098,2,0,55729.4263988154,58859.9071020282,39174.1432753982,56656.8604183568,56540.3182181867,62754.3001471790,65222.0915783240,58603.7162454212,68089.2754899852,28396.8491684138
8535378899,9098,2,0,55733.7337634907,58815.2638223848,39160.0895855677,56631.6002797524,56490.6375120586,62775.8004674652,65226.6788000263,58567.9310490649,68107.0646627404,28393.0893500955
8535378899,9098,2,0,55745.8527895263,58863.0950385958,39198.0649673521,56688.1435668886,56535.8161703622,62786.4715375789,65268.5113417035,58631.8236250822,68124.6834877400,28380.6661316393
8535378899,9098,2,0,55749.0042230035,58945.9692216569,39243.7790043159,56758.3511775570,56625.4920959473,62765.7742852831,65295.9008272520,58723.4220467653,68117.3341988590,28374.7039601961
8535378899,9098,2,0,55736.2768121267,58949.7168722784,39227.9609984461,56744.5286739661,56637.2339233814,62736.9490115095,65270.3973347111,58711.3273561233,68088.5819312663,28378.2569276684
8535378899,9098,2,0,55725.6300774066,58869.3614024596,39173.4740520730,56664.4652288712,56558.8617881448,62741.5484009086,65228.1510913418,58611.3575590260,68076.1587128101,28385.2898564320
8535378899,9098,2,0,55739.5012517847,58821.5423539455,39158.6537973426,56639.3754380222,56502.9147181529,62779.3047641502,65235.4030386483,58569.3181665027,68096.9898097710,28394.9510077094
8535378899,9098,2,0,55762.2305094500,58875.7372755949,39207.4462616026,56706.1030873993,56553.3619891809,62796.9479245434,65286.1301667032,58641.5334471469,68123.2476995149,28392.5174683448
8535392162,9099,2,0,55769.0079165804,58957.3825212768,39255.8858626548,56768.8884030056,56639.3389349318,62778.5138638567,65311.7675039091,58725.0038473523,68118.1250991524,28389.5972211073
8535392162,9099,2,0,55756.0006486767,58967.7493989700,39248.6095799546,56756.5990292145,56653.9401711193,62749.5669131149,65289.1112524248,58718.2751110092,68092.9623021226,28393.9897596604
8535392162,9099,2,0,55738.6495130071,58895.3881059639,39197.5539240856,56681.6216813915,56578.7438047535,62738.8106691234,65243.2755384928,58628.4288376686,68073.1167886044,28394.7684922571
8535392162,9099,2,0,55738.2601467088,58829.0619905821,39165.2243536270,56630.7120378843,56504.7885434637,62766.9545518749,65228.0780851609,58559.5718413475,68084.6517651925,28393.7464057240
8535392162,9099,2,0,55753.8591340358,58859.8949343314,39200.3768297485,56673.6031691852,56529.1482725032,62793.5409694330,65263.7416045490,58603.3877176070,68112.2602692838,28390.4611275818
8535392162,9099,2,0,55756.2196672195,58943.2071544781,39253.8295218917,56745.8306175262,56616.8286958093,62779.1344163947,65292.4695367479,58699.2813362686,68119.2931980475,28384.6449685004
8535392162,9099,2,0,55739.1970593642,58961.7750598299,39252.2112182142,56742.6548486554,56646.8829069620,62753.2658929491,65266.5645102119,58705.5720355260,68100.1899140354,28386.9446631999
8535392162,9099,2,0,55723.8049228832,58883.6827816202,39196.2641482223,56662.9564344651,56572.9398133690,62746.3424734568,65214.9491402890,58608.1817901552,68085.5035039701,28382.7468077960
8535423948,9100,2,0,55726.3236361255,58810.0682158414,39160.0895855677,56617.6074284060,56495.8939570861,62767.7697875620,65205.2636536179,58538.6799059026,68095.7487046951,28374.4484385628
8535423948,9100,2,0,55750.7320359523,58841.1080104368,39190.3141444759,56671.2183006079,56523.0522563949,62797.0696015117,65253.2165467971,58592.8748275519,68124.8416677987,28378.7436355413
8535423948,9100,2,0,55765.3454398367,58925.9290249895,39240.1286952690,56750.2109883824,56610.0634563758,62791.8618272715,65297.6164725040,58688.3060737343,68131.4122240831,28382.3817768913
8535423948,9100,2,0,55757.9109770779,58960.8624825682,39246.3342206487,56765.8343111031,56651.6283087229,62759.9216231112,65292.0314996623,58715.8902424319,68111.5667105649,28385.0465024956
8535423948,9100,2,0,55737.2258924789,58902.0316684292,39197.5782594792,56702.5866230174,56592.8461653713,62737.2045331428,65250.6978335548,58642.1905027753,68084.3719081656,28387.0420047745
8535423948,9100,2,0,55737.7247680486,58826.1052402541,39157.0963321493,56643.6462996071,56510.4221870927,62768.8648802761,65231.3511956063,58560.0828846141,68091.4900108070,28398.3214597294
8535423948,9100,2,0,55765.3089367462,58842.8844941729,39184.6196623628,56680.1737254696,56520.4848723653,62810.8556020121,65276.1891583988,58591.1591822999,68127.1656978919,28406.3521396325
8535423948,9100,2,0,55784.7650839661,58938.7537774409,39248.0376982040,56769.6793032991,56617.9481239170,62809.4319814838,65327.8653668059,58703.5156947630,68144.5046658646,28404.7216682583
8535452537,9101,2,0,55770.0178354167,58979.7345803406,39257.9300357210,56781.6888200634,56668.1155379180,62774.6932070543,65309.9910201730,58736.1007868548,68117.8209067319,28400.2196204338
8535452537,9101,2,0,55747.7631179275,58918.1173636292,39207.7991248105,56703.8398957902,56611.1828844835,62754.9937058979,65250.9290197944,58657.1202667771,68092.5972712179,28395.9974296362
8535452537,9101,2,0,55741.4845863669,58835.2431805681,39160.2721010201,56636.5403646625,56524.1960198963,62767.9766384080,65222.8338078302,58571.1798241166,68094.0938979271,28390.0960966771
8535452537,9101,2,0,55756.9497290288,58836.0949193457,39172.2572823907,56662.6035712572,56518.5988793577,62793.5653048267,65250.4058088310,58589.0541707495,68116.4581246877,28384.5476269258
8535452537,9101,2,0,55772.2445239353,58913.8586697411,39221.2687651935,56740.0266261416,56593.4302148188,62789.9028280830,65293.7836480048,58679.2411396012,68125.1701956129,28384.1704283243
8535452537,9101,2,0,55766.0024954651,58965.5957166323,39238.8510871026,56770.5797128640,56650.7278991581,62759.5565922066,65295.1342623521,58726.1476108536,68107.5878737038,28383.0753356102
8535452537,9101,2,0,55748.3106642846,58927.4378193955,39204.9883868444,56723.2595399196,56616.9382050807,62746.2086287918,65257.4630729883,58673.4858190039,68087.9857141220,28391.5927233863
8535452537,9101,2,0,55742.9568776825,58838.8083157372,39151.9250609995,56649.6206387472,56525.6926466055,62756.8188604214,65227.2020109897,58573.8567174177,68089.0564714424,28393.9045857827
8535506460,9102,2,0,55751.8514640600,58818.5856036175,39151.2071668870,56651.4579609674,56496.4658388368,62780.6432108007,65248.6536604885,58567.3713350110,68114.1097592009,28384.4259499576
8535506460,9102,2,0,55766.4283648539,58897.2740989715,39206.7161997932,56730.8765181308,56575.5193650954,62787.6031333834,65295.0247530807,58669.7016652920,68131.2662117212,28378.5002816048
8535506460,9102,2,0,55759.9551501441,58956.4456086214,39235.1034364812,56764.0699950638,56639.7161335333,62762.1118085394,65296.0346719170,58726.9993496312,68115.0345041594,28377.9527352478
8535506460,9102,2,0,55744.7698645091,58922.6194114537,39206.7283674901,56710.5686321333,56611.0855429089,62750.4186518925,65253.1557083130,58671.1739566076,68090.8816259659,28385.8252350922
8535506460,9102,2,0,55736.4593275790,58842.9331649602,39162.4501187514,56637.9639851908,56526.3862053244,62759.4105798447,65219.6215358690,58580.9018138782,68089.7135270709,28390.6801461246
8535506460,9102,2,0,55745.1835662011,58816.6874429131,39160.1869271423,56630.4443485542,56493.0832191200,62782.9307378034,65232.2029343839,58565.3758327321,68109.2061773812,28389.7554011660
8535506460,9102,2,0,55761.4517768533,58883.1960737473,39204.2461573382,56700.0800774719,56557.9735462768,62788.0776735595,65275.2400780466,58641.5334471469,68127.7254119458,28389.5607180169
8535506460,9102,2,0,55759.0182374887,58952.0652377652,39234.6167286082,56749.6391066317,56632.9873971902,62756.6850157563,65286.5073653047,58711.8018962994,68117.0178387416,28387.3827002856
8535517254,9103,2,0,55739.3187363324,58931.6721778899,39205.3777531427,56716.3847912146,56619.5177568072,62731.2423616996,65250.9168520976,58679.1316303298,68083.9460387768,28388.1492651854
8535517254,9103,2,0,55732.8576893194,58843.7118975569,39148.4937704955,56638.5967054256,56531.0829362981,62741.5605686054,65214.6084447779,58574.1365744446,68074.2727198026,28390.7531523055
8535517254,9103,2,0,55750.0141418398,58806.0163727994,39142.0570588761,56632.9995648870,56487.0358737990,62775.7639643747,65235.6098894943,58546.5524057470,68097.0993190424,28386.9933339872
8535517254,9103,2,0,55769.3851151819,58873.2185623525,39194.7066830290,56713.0873453756,56551.7436855034,62782.6265453828,65291.2771024593,58634.7073692292,68117.2611926780,28377.8067228859
8535517254,9103,2,0,55766.2945201889,58946.5411034076,39230.5648855662,56768.3043535581,56632.2208322904,62758.9847104559,65310.9279328283,58710.7311389790,68103.3413475126,28378.5732877858
8535517254,9103,2,0,55750.5616881968,58936.6000951032,39211.0844029527,56739.5885890560,56629.9211375908,62736.9733469032,65281.6159511819,58687.3204902916,68081.6706794709,28387.5165449506
8535517254,9103,2,0,55740.5476737115,58859.2257110061,39162.4622864482,56668.2493825831,56550.3322326720,62743.9454371827,65242.2899550501,58598.9100051761,68071.9121866189,28393.0406793082
8535517254,9103,2,0,55751.1457376443,58812.4652521156,39146.0723988277,56642.1740082915,56494.6893551006,62767.8914645303,65240.3066204680,58554.8264395866,68087.6815217015,28390.4854629754
8535568775,9104,2,0,55767.9128238663,58861.8539335199,39187.0166986369,56696.8313024202,56536.7774184112,62787.8099842294,65279.0242317586,58615.8231037600,68110.3621085794,28380.3619392187
8535568775,9104,2,0,55769.9083261453,58951.0066481416,39237.5248081489,56761.5026110341,56626.5141824804,62767.8914645303,65305.6106493167,58705.8883956434,68110.3621085794,28375.7625498197
8535568775,9104,2,0,55745.0983923233,58953.8903922886,39223.9578261913,56736.8751926645,56636.8323893862,62732.1914420518,65269.7402790827,58694.4385929330,68078.3610659351,28377.7702197954
8535568775,9104,2,0,55725.1920403210,58869.1302162200,39165.0661735683,56647.8928257983,56552.7049335524,62738.3361289473,65214.9004695017,58590.1857665541,68063.2731218746,28385.5088749748
8535568775,9104,2,0,55735.5467503173,58809.9465388732,39142.0448911793,56614.7601873494,56488.0457926353,62771.5782766676,65212.3695885625,58540.3103772768,68085.4061623955,28387.9910851267
8535568775,9104,2,0,55756.1223256449,58853.4095519248,39182.5511539029,56676.2678947894,56528.2965337256,62787.0434193296,65257.2318867487,58609.4837337153,68113.1485111519,28384.1095898402
8535568775,9104,2,0,55761.0502428582,58932.3170658216,39228.8614080110,56738.0189561658,56609.1508791141,62772.4056800516,65280.2410014409,58696.8721322976,68108.5247863592,28381.0068271503
8535568775,9104,2,0,55744.7455291154,58944.8254581555,39226.1723470131,56725.1577006240,56627.8161260405,62747.8025970756,65256.7573465726,58695.6553626153,68087.2556523126,28380.9094855758
8535570982,9105,2,0,55730.7405100722,58876.1631449837,39181.6507443380,56658.3692127629,56561.3196629031,62741.4632270308,65217.7598782551,58612.8420180384,68073.1532916948,28378.1230830033
8535570982,9105,2,0,55734.5733345715,58808.5959245259,39150.9273098601,56615.7457707921,56490.0169595206,62766.2001546719,65212.4182593498,58543.9606863237,68087.0731368603,28384.5232915322
8535570982,9105,2,0,55754.1754941532,58832.5054487830,39177.5623982055,56658.4057158533,56509.1932497136,62790.9370823129,65256.9641974186,58580.7558015163,68112.5036232202,28383.9392420847
8535570982,9105,2,0,55769.5067921501,58923.4103117472,39234.1543561290,56746.8648717561,56601.3027146633,62781.9451543608,65303.3352900108,58684.0595475431,68121.4590480819,28383.4525342117
8535570982,9105,2,0,55763.5689561005,58953.3063428411,39239.2526210978,56759.6531211170,56639.8013074110,62744.3469711779,65291.6421333640,58704.5377812961,68094.8482951302,28386.8838247158
8535570982,9105,2,0,55742.3484928413,58877.9396287198,39179.8012544209,56678.4945833080,56564.6536118326,62728.1274313129,65235.1961878023,58606.8555112015,68065.4876426964,28382.8441493706
8535570982,9105,2,0,55740.2069782005,58800.3462260799,39137.6158495358,56620.7710295800,56481.0128638717,62750.2604718338,65216.2754192427,58529.9800026742,68074.0780366534,28381.6273796883
8535570982,9105,2,0,55755.5017731069,58819.7415348157,39161.4645353087,56660.5228951005,56494.0809702595,62773.8414682767,65252.5473234718,58571.4110103563,68100.5671126369,28381.3596903582
8535620196,9106,2,0,55760.7095473471,58898.4178624728,39211.7536262779,56730.0491147468,56574.0592414767,62763.2799074344,65282.7353792896,58662.3402087141,68106.0060731168,28379.5953743189
8535620196,9106,2,0,55748.1889873163,58932.2562273374,39225.4057821133,56741.7787744841,56620.3086571007,62739.6745755979,65270.8110364031,58692.3335813827,68088.2899065426,28380.3132684314
8535620196,9106,2,0,55731.5922488498,58878.4263365927,39187.4304003289,56684.1403946338,56574.2539246259,62724.0634205740,65226.4841168771,58625.4355842501,68068.1402006038,28383.0144971261
8535620196,9106,2,0,55731.0568701896,58796.7810909108,39145.1111507787,56623.2654074287,56490.8808659951,62744.6389959016,65200.8346119743,58540.8214205434,68070.4520630002,28381.3596903582
8535620196,9106,2,0,55753.9321402168,58804.5562491807,39165.7962353777,56651.5674702388,56489.9439533397,62779.2317579692,65234.7216476262,58562.7841133088,68099.1069890182,28378.1230830033
8535620196,9106,2,0,55768.0953393187,58898.6612164093,39225.8803222894,56739.9536199607,56579.0723325677,62770.9212210392,65285.3757695001,58672.7435894977,68112.2115984965,28374.1685815358
8535620196,9106,2,0,55755.1610775959,58950.0454000926,39240.1286952690,56762.7315484132,56636.3821846038,62740.5506497691,65275.4834319831,58716.2552733366,68090.4679242739,28372.2095823474
8535620196,9106,2,0,55732.8090185321,58899.4399490060,39195.4489125352,56691.6721989673,56589.7799057719,62730.1837720760,65225.2916825885,58643.9913219051,68067.6534927309,28379.6197097125
8535644734,9107,2,0,55725.3745557733,58816.2980766148,39150.1607449602,56623.3384136096,56506.9057227109,62754.7016811742,65196.5394149958,58558.2212270002,68074.6985891914,28388.9766685694
8535644734,9107,2,0,55743.6991071887,58815.2151515976,39165.8814092554,56647.8319873142,56501.7344515611,62782.9672408939,65229.7693950193,58574.9031393445,68106.2494270532,28395.1821939491
8535644734,9107,2,0,55758.7627158555,58888.4768541685,39216.1826679215,56719.3293738458,56574.2052538386,62777.0415725411,65270.7380302221,58658.6898996672,68116.6406401400,28388.8914946916
8535644734,9107,2,0,55749.0042230035,58938.1818956902,39237.7194912981,56746.6701886069,56626.9765549597,62744.5051512366,65266.9538765102,58702.3840989584,68097.2818344947,28377.8310582795
8535644734,9107,2,0,55721.8945944819,58894.9135657878,39203.8811264335,56688.8492933043,56592.0796004715,62723.0900048282,65216.6282824505,58646.1328365460,68069.0041070782,28377.6607105240
8535644734,9107,2,0,55708.0842585879,58802.0740390288,39151.6573716694,56604.4298127468,56501.1747375073,62737.1558623555,65172.0823443817,58544.2527110475,68066.0595244471,28381.5300381137
8535644734,9107,2,0,55721.9189298756,58778.5417133732,39152.1927503296,56602.8358444629,56472.1912836750,62769.7652898410,65184.4812274443,58533.7763240829,68092.8162897607,28381.6882181724
8535644734,9107,2,0,55739.3674071197,58859.3838910648,39209.8554655736,56683.9943822720,56553.1551383349,62779.7428012358,65231.3390279095,58636.2404990289,68115.9349137243,28380.7269701234
8535686049,9108,2,0,55734.0257882144,58931.7816871613,39242.2702099099,56728.1874571329,56629.9576406813,62753.7404331252,65236.2791128196,58704.1727503914,68102.1124101335,28379.8265605585
8535686049,9108,2,0,55718.1469438605,58908.6022247136,39211.8996386398,56684.4810901449,56612.6065050118,62740.0274388057,65200.3722394951,58659.2496137211,68080.8311083901,28384.1339252338
8535686049,9108,2,0,55714.4114609358,58832.3959395116,39165.6502230158,56622.2798239860,56536.3880521129,62752.5358311397,65173.5303003037,58574.5502761366,68080.9284499647,28390.1447674644
8535686049,9108,2,0,55730.2416345025,58806.0163727994,39163.1193420766,56623.7034445143,56505.7254561190,62775.4476042573,65197.9873709178,58558.6227609954,68101.7352115319,28390.6314753373
8535686049,9108,2,0,55747.1790684800,58864.9931993002,39207.2637461503,56693.6068627621,56562.3904202235,62777.3457649617,65246.0497733684,58630.7528677618,68114.5234608929,28384.4746207449
8535686049,9108,2,0,55744.4413366949,58931.4653270439,39239.2526210978,56748.6778585827,56633.3037573076,62752.0734586604,65267.2945720213,58700.8144660683,68100.0560693704,28378.7071324508
8535686049,9108,2,0,55727.5890765951,58917.2412894579,39217.6671269339,56720.7529943741,56624.5065125046,62724.0269174836,65236.8144914798,58672.8652664660,68070.7075846334,28377.1983380448
8535686049,9108,2,0,55711.9657538744,58824.0488994910,39157.2058414207,56636.7107124180,56530.9247562394,62723.0535017377,65189.3361384767,58565.0351372210,68052.4195363086,28379.6805481966
8535700087,9109,2,0,55721.3713835186,58775.9013231626,39141.8745434238,56614.9305351050,56476.9488531328,62752.6575081079,65197.4641599544,58527.3031093731,68071.4619818365,28381.5057027201
8535700087,9109,2,0,55746.5706836389,58841.9597492144,39196.3493221001,56696.6731223615,56542.0947019228,62776.4210200031,65257.5239114724,58621.0308780002,68101.6987084415,28385.3141918257
8535700087,9109,2,0,55750.9753898888,58925.9776957768,39241.7713343401,56762.1596666626,56632.9630617966,62755.3222337122,65280.1436598663,58708.0542456779,68099.0218151404,28384.7544777718
8535700087,9109,2,0,55729.5237403899,58917.6306557563,39219.7113000001,56726.2284579444,56631.1622426668,62729.3320332984,65240.2579496807,58682.7089331957,68073.2506332694,28379.0843310523
8535700087,9109,2,0,55711.9535861776,58841.4122028573,39170.6876495005,56646.3475283018,56551.7923562907,62731.0963493377,65195.3226453136,58594.2011065056,68062.7377432144,28377.0644933797
8535700087,9109,2,0,55717.3073727797,58793.5688189495,39152.5456135375,56613.9571193591,56493.9349578976,62761.9901315711,65194.0450371471,58550.6529195763,68081.3543193535,28376.5534501131
8535700087,9109,2,0,55741.3020709145,58842.5316309651,39194.0861304910,56673.5301630042,56537.1181139222,62781.1542540673,65238.4449628541,58610.8343480626,68110.3621085794,28375.2393388563
8535700087,9109,2,0,55749.6977817224,58929.2264708285,39240.1043598754,56747.7409459274,56625.4920959473,62763.2677397375,65271.5654336061,58701.3985155158,68108.9628234448,28371.8080483522
8535733722,9110,2,0,55730.4728207421,58937.7925293919,39228.7518987396,56736.9847019359,56642.7093869517,62727.8597419828,65247.2908784443,58695.7892072804,68077.1321285560,28373.0004826408
8535733722,9110,2,0,55714.3627901485,58857.2910472113,39172.7561579604,56654.4268789922,56564.1182331723,62732.0210942962,65199.3744883556,58593.7022309359,68060.6935701482,28379.7170512871
8535733722,9110,2,0,55721.2497065503,58793.0456079862,39151.0733222219,56613.7137654227,56493.9957963817,62769.1812403935,65195.2983099199,58533.1071007576,68081.9627041947,28383.4281988181
8535733722,9110,2,0,55739.3187363324,58833.0894982305,39192.6381745691,56668.8577674242,56528.1140182733,62784.6585507523,65239.7104033236,58594.9068329214,68110.6297979095,28381.7612243534
8535733722,9110,2,0,55741.4602509732,58911.8996705527,39238.7172424376,56732.5069895050,56609.6619223806,62768.1834892540,65262.1111331747,58681.4556604230,68106.2129239628,28378.0500768224
8535733722,9110,2,0,55729.1343740916,58927.1457946718,39233.7893252243,56724.6953281447,56632.4155154395,62742.9963568305,65238.2502797049,58687.7098565900,68082.9847907278,28378.3177661525
8535733722,9110,2,0,55720.7264955869,58866.5871675840,39187.0166986369,56662.0438572034,56574.3269308068,62737.2897070206,65198.8147743017,58612.5621610115,68069.4664795575,28384.1947637180
8535733722,9110,2,0,55725.1068664432,58801.1857971607,39151.9007256059,56615.8674477603,56505.5551083635,62761.1262250967,65189.5064862322,58547.3554737373,68079.6995125856,28386.7499800508
8535793868,9111,2,0,55742.5553436873,58824.6937874226,39176.4186347041,56654.1835250558,56521.7503128349,62789.3309463323,65226.3624399089,58584.5521229250,68105.9452346327,28378.5611200889
8535793868,9111,2,0,55754.6500343293,58919.2124563432,39234.0935176449,56741.0000418875,56614.1396348115,62785.2791032902,65271.6871105743,58690.6301038275,68119.1106825951,28377.9649029446
8535793868,9111,2,0,55746.0961434628,58959.2563465875,39244.5699046094,56758.3268421633,56657.2619523520,62753.3875699173,65265.2382312582,58722.6919849559,68095.6756985141,28384.3164406862
8535793868,9111,2,0,55731.7017581212,58897.1037512160,39199.1113892789,56688.5451008838,56597.1413623498,62749.4574038435,65220.2907591942,58640.1098266186,68074.7472599787,28392.9190023400
8535793868,9111,2,0,55737.2988986598,58820.8366275298,39163.8250684924,56635.2749241929,56517.2847681008,62771.2740842470,65208.5732671537,58561.0806357536,68084.4449143465,28395.6202310347
8535793868,9111,2,0,55754.0294817913,58835.3405221427,39190.2289705982,56675.6838453419,56528.0166766987,62788.3210274960,65245.0763576226,58596.5981427798,68105.5558683343,28390.0839289803
8535793868,9111,2,0,55764.4815333622,58912.9095893890,39239.8610059389,56746.4755054578,56608.0922894905,62775.3259272891,65281.2630879740,58683.8405290003,68106.9916565595,28385.6305519431
8535793868,9111,2,0,55755.4774377133,58951.7488776478,39247.5144872406,56760.7238784374,56651.8229918721,62749.2140499071,65270.1904838651,58711.4125300010,68082.7901075786,28384.4259499576
8535799836,9112,2,0,55736.3619860044,58902.2141838816,39204.0393064922,56702.3919398683,56602.3004658027,62731.3032001837,65227.0073278405,58644.5267005653,68059.2577819231,28384.4989561385
8535799836,9112,2,0,55733.0645401654,58817.9528833827,39156.1350841003,56634.4596885058,56514.1941731078,62748.8246836087,65200.3235687078,58553.9747008090,68065.6701581487,28386.6648061730
8535799836,9112,2,0,55746.1691496437,58811.8325318808,39166.6114710648,56648.5985522140,56499.5199307393,62781.6774650307,65228.4066129751,58557.5155005845,68094.0695625335,28384.8761547400
8535799836,9112,2,0,55761.5247830343,58896.8117264922,39226.8902411257,56732.9085235002,56583.9272436001,62785.5467926204,65280.1436598663,58662.3645441078,68113.9394114454,28385.2411856447
8535799836,9112,2,0,55755.6721208624,58952.3207593985,39251.3108086493,56767.5621240519,56649.3042786298,62752.4993280492,65280.9345601598,58714.2962741481,68096.8072943187,28384.7909808623
8535799836,9112,2,0,55738.9050346404,58904.7694002144,39208.9307206150,56706.3829444262,56606.6078304781,62738.2996258569,65236.0357588831,58644.0034896019,68072.5692422474,28384.5597946226
8535799836,9112,2,0,55735.8996135252,58824.2679180338,39163.0585035925,56634.9585640755,56524.7070631628,62757.3542390816,65206.0667216082,58551.4803229603,68077.2173024337,28390.2299413421
8535799836,9112,2,0,55748.2254904068,58816.2129027370,39171.8192453050,56642.3078529566,56512.3690185844,62787.0555870264,65224.6224592632,58558.7444379636,68103.4630244808,28394.0262627509
8535872276,9113,2,0,55755.4409346228,58888.6106988335,39221.7189699759,56707.3685278688,56585.3386964316,62796.0961857658,65258.5459980056,58648.2986865804,68115.8984106338,28391.1425186039
8535872276,9113,2,0,55757.5337784763,58958.1369184798,39260.9232891394,56755.4065949258,56661.8126709638,62783.2470979208,65270.2999931365,58718.9199989408,68114.0610884136,28399.9397634068
8535872276,9113,2,0,55741.6914372129,58932.9497860563,39238.1088575964,56716.3239527305,56640.0081582570,62754.9085320202,65234.4417905993,58680.9081140659,68093.2178237559,28402.8356752507
8535872276,9113,2,0,55728.8666847615,58844.0039222806,39183.9139359471,56638.9982394207,56547.7526809455,62761.1748958840,65197.2451414116,58581.1695032083,68086.6716028651,28397.5427271327
8535872276,9113,2,0,55737.4814141121,58808.9122846433,39172.8291641414,56630.2983361923,56505.3969283048,62783.3201041018,65212.8806318291,58556.1892216308,68104.6797941631,28387.3827002856
8535872276,9113,2,0,55752.4476812044,58875.5060893552,39217.5454499657,56709.1206762114,56569.5328582586,62780.6310431039,65265.9074545834,58645.2689300715,68118.2711115143,28376.6751270814
8535872276,9113,2,0,55747.3615839324,58941.2846583801,39244.1440352206,56759.8721396598,56643.4637841548,62754.0567932426,65280.6547031328,58714.3936157227,68099.5206907102,28374.6066186215
8535872276,9113,2,0,55730.0104482629,58913.6396511983,39212.7392097206,56717.2243622954,56622.8152026462,62728.7358161540,65242.0952719009,58670.7237518251,68070.5615722716,28381.8098951407
8535881746,9114,2,0,55716.0297646133,58826.2147495255,39158.7146358267,56639.4484442032,56533.5408110563,62730.3662875283,65200.5912580379,58574.2339160192,68059.4889681627,28385.6305519431
8535881746,9114,2,0,55725.5570712257,58795.0046071746,39153.4825261929,56629.8481314099,56493.1440576041,62762.6593548964,65213.3186689147,58555.7998553324,68079.8455249475,28391.2885309657
8535881746,9114,2,0,55744.5265105726,58857.1085317589,39198.9532092202,56695.4685203760,56548.6652582072,62770.5683578313,65258.4851595214,58630.2418244952,68095.6635308173,28390.9600031515
8535881746,9114,2,0,55748.2376581036,58934.7506051861,39235.3102873272,56755.7351227400,56627.6701136786,62751.2582229733,65280.0219828980,58706.5454512719,68087.6936893983,28385.4480364907
8535881746,9114,2,0,55733.8554404589,58929.7983525792,39219.6261261224,56734.4051502094,56632.2695030776,62730.1472689855,65246.7311643905,58688.9144585754,68065.0739410044,28380.9824917567
8535881746,9114,2,0,55722.3447992644,58846.3036169802,39166.9278311822,56651.6891472071,56551.7923562907,62739.0783584535,65198.3280664288,58588.7013075417,68059.0752664707,28382.9049878547
8535881746,9114,2,0,55731.1298763706,58797.5719912043,39152.2535888138,56619.2622351739,56497.7921177905,62773.8171328830,65200.1045501650,58545.1044498251,68087.0488014666,28384.6936392877
8535881746,9114,2,0,55748.2254904068,58856.0377744385,39201.0947238610,56686.6956109667,56552.2912318605,62788.9172446403,65246.0376056716,58622.2354799857,68114.5477962865,28381.1893426027
8535891051,9115,2,0,55753.5427739184,58943.6695269574,39247.3198040914,56755.5282718941,56640.3853568585,62772.7098724722,65271.9547999044,58707.8230594383,68111.4450335967,28380.9338209694
8535891051,9115,2,0,55745.4269201375,58951.3716790463,39237.6099820267,56741.0243772811,56653.3804570655,62761.3452436395,65248.5806543076,58693.2096555539,68093.1326498781,28388.6359730583
8535891051,9115,2,0,55736.6418430314,58878.2803242309,39191.4700756741,56670.1110401970,56576.3711038731,62756.0157924311,65209.6926952614,58603.5580653625,68084.0677157450,28394.9996784967
8535891051,9115,2,0,55735.6319241951,58813.4873386487,39162.2919386927,56628.5948586371,56504.5695249209,62768.8648802761,65199.0216251477,58548.5357403291,68091.5143462007,28392.8581638559
8535891051,9115,2,0,55747.4710932038,58842.0449230921,39189.0608717032,56669.0889536639,56527.4691303416,62781.3246018228,65231.3511956063,58596.4399627211,68107.0524950436,28386.2267690874
8535891051,9115,2,0,55752.0583149060,58924.4567336739,39235.9673429556,56735.3663982584,56613.9692870559,62773.7076236116,65260.1521339862,58689.9243774117,68109.3400220463,28382.7224724024
8535891051,9115,2,0,55738.0654635596,58945.4581783903,39235.6144797477,56734.3321440285,56643.5976288198,62752.1099617509,65242.1074395978,58702.0677388410,68090.0177194914,28388.5751345742
8535891051,9115,2,0,55725.3745557733,58874.0337980397,39184.4858176977,56660.6080689783,56575.1665018876,62749.8102670514,65197.8048554654,58611.8929376862,68076.7427622576,28396.7639945360
8535931113,9116,2,0,55731.8112673926,58807.1601363008,39153.4338554056,56619.0432166311,56502.8173765784,62778.7207147027,65192.8039320712,58546.6984181089,68091.1858183865,28398.9663476610
8535931113,9116,2,0,55754.5283573611,58849.8079136652,39192.1027959089,56677.2169751416,56540.9631061183,62798.7122405828,65241.7424086931,58609.8974354072,68120.9966756027,28396.6179821742
8535931113,9116,2,0,55761.5126153375,58938.3400757489,39242.6230731177,56751.0748948569,56632.3546769554,62776.7252124237,65273.8407929120,58704.5134459024,68116.6528078369,28388.6481407551
8535931113,9116,2,0,55746.8383729690,58961.9819106759,39241.6618250687,56749.1037279715,56660.9487644893,62748.2528018580,65256.2463033060,58711.7897286025,68089.4458377408,28386.6161353857
8535931113,9116,2,0,55729.6454173582,58897.6269621793,39197.3105701491,56681.3539920614,56598.6379890590,62742.2784627180,65217.7598782551,58633.2594133073,68069.2717964083,28389.4390410486
8535931113,9116,2,0,55732.4926584147,58823.7812101609,39162.8881558370,56628.9233864513,56518.7083886291,62764.7156956595,65206.2979078478,58560.3992447315,68077.9108611526,28394.2574489905
8535931113,9116,2,0,55750.3913404413,58834.2089263382,39182.3686384505,56659.1844484500,56520.9472448446,62786.5932145471,65241.2435331233,58587.6548856149,68102.5504472191,28382.2722676199
8535931113,9116,2,0,55761.8898139390,58917.5454818785,39233.4364620164,56738.6030056133,56604.0526141452,62778.0879944679,65282.6623731086,58684.8991186238,68108.9506557479,28373.5236936042
8535985963,9117,2,0,55745.8771249200,58954.4744417361,39242.3067130003,56756.5746938208,56650.9834207913,62744.1401203319,65269.5455959335,58716.9001612682,68085.3696593051,28373.1099919122
8535985963,9117,2,0,55728.1609583458,58891.7986354012,39191.7742680947,56682.2422339295,56591.5198864176,62732.7511561056,65218.5142754581,58633.2350779136,68061.4966381385,28380.4349453997
8535985963,9117,2,0,55731.2637210356,58811.7473580030,39153.9083955817,56619.5907629881,56507.8548030631,62763.2799074344,65198.8756127859,58549.3144729258,68076.0978743260,28390.9113323642
8535985963,9117,2,0,55753.1777430137,58824.6572843322,39180.2392915065,56654.0740157844,56514.0238253523,62793.4679632521,65236.7901560861,58582.3254344064,68108.1962585449,28395.9487588489
8535985963,9117,2,0,55769.4094505755,58908.8090755596,39235.8578336842,56733.6142499159,56600.5239820666,62791.2777778240,65278.0751514064,58680.7255986136,68120.8628309376,28394.4034613524
8535985963,9117,2,0,55765.2724336557,58960.1324207588,39253.9390311631,56757.9131404713,56656.8117475695,62766.3461670337,65274.5221839341,58725.4297167411,68106.3832717183,28396.3259574504
8535985963,9117,2,0,55748.4931797369,58916.0853582597,39213.3597622586,56698.6321215500,56617.9724593107,62744.9431883222,65230.5116245255,58669.7381683825,68086.7324413493,28399.2218692943
8535985963,9117,2,0,55736.7756876964,58829.7920523914,39159.6393807853,56619.2744028707,56528.8684154763,62754.4583272377,65191.0274483351,58576.6917907774,68082.2668966152,28398.3214597294
8535989508,9118,2,0,55744.1979827584,58816.3102443116,39162.7299757783,56620.7953649736,56505.5916114540,62782.1641729036,65208.7679503029,58572.2992522243,68104.0105708378,28393.5273871811
8535989508,9118,2,0,55758.5558650095,58901.3867804976,39220.6847157460,56703.9372373648,56586.1539321187,62790.3530328654,65259.3977367832,58670.5655717664,68118.7821547809,28390.8626615769
8535989508,9118,2,0,55756.8888905447,58967.8710759382,39250.8484361701,56751.9509690281,56657.7608279217,62761.2479020649,65269.5577636303,58729.8587583846,68102.3314286763,28395.0240138904
8535989508,9118,2,0,55737.3597371439,58919.1759532528,39208.2006588056,56694.2395829969,56617.0355466553,62732.8850007707,65222.9919878889,58658.6898996672,68070.3668891224,28394.2331135969
8535989508,9118,2,0,55728.8788524583,58826.8718051539,39155.0643267799,56621.4645882989,56524.2690260772,62743.5195677939,65192.0860379586,58557.3816559194,68066.6557415914,28393.5638902716
8535989508,9118,2,0,55744.9523799614,58809.3381540321,39158.6416296458,56634.9585640755,56504.3748417717,62773.1965803451,65222.7242985588,58557.7710222177,68090.3949180930,28390.2542767358
8535989508,9118,2,0,55769.4459536660,58884.6196942756,39209.4052607911,56716.1657726718,56577.5635381617,62781.2150925514,65274.6803639928,58648.3595250646,68107.2715135864,28384.8396516496
8535989508,9118,2,0,55770.5775494705,58950.3374248163,39237.7681620854,56762.0501573911,56646.9680808398,62757.0987174483,65287.7119672901,58711.5098715756,68094.7874566460,28384.9004901337
8536021812,9119,2,0,55745.4269201375,58922.2787159426,39207.3245846344,56714.4866305103,56624.5916863824,62726.0589228530,65245.5143947082,58670.6264102505,68065.3537980313,28386.5309615080
8536021812,9119,2,0,55726.5426546683,58831.6780453990,39150.6231174395,56628.2784985197,56534.5263944990,62730.7921569171,65200.2870656173,58568.3690861505,68055.0599265191,28389.3295317772
8536021812,9119,2,0,55733.6242542193,58791.8166706070,39138.2972405578,56610.9273628502,56487.4617431878,62756.8796989055,65208.1473977649,58535.7718263619,68074.5647445263,28387.6017188284
8536021812,9119,2,0,55751.4864331553,58859.6637480918,39188.4768222557,56691.1003172166,56551.5124992638,62764.4966771167,65260.6388418591,58623.5982620299,68094.8482951302,28383.9757451751
8536021812,9119,2,0,55754.9177236594,58938.1088895093,39228.8370726174,56752.9365524708,56633.6687882123,62743.6899155494,65278.5131884920,58707.0929976289,68084.6882682830,28380.7513055171
8536021812,9119,2,0,55742.3363251445,58921.0619462603,39203.8811264335,56715.7277355862,56618.6781857264,62725.9372458848,65242.0222657200,58670.3708886173,68058.4182108423,28379.9604052236
8536021812,9119,2,0,55741.6305987288,58843.3468666522,39157.4613630540,56646.0555035780,56540.0018580693,62745.5394054665,65210.4714278581,58577.6652065233,68056.0698453554,28384.5476269258
8536021812,9119,2,0,55760.0524917187,58812.9762953821,39156.6461273668,56640.5435369172,56506.3825117475,62779.7428012358,65232.9694992837,58556.8097741687,68085.8685348748,28391.2641955721
8536051085,9120,2,0,55775.8096591044,58866.3438136476,39200.8270345309,56702.5257845333,56560.4192533382,62781.8478127862,65277.9413067413,58626.1656460595,68106.6631287452,28387.5408803443
8536051085,9120,2,0,55771.0885927371,58941.0291367468,39239.6784904866,56758.9230593076,56638.4020222764,62764.7400310531,65296.6552244550,58704.4282720247,68103.9619000505,28383.8784036006
8536051085,9120,2,0,55749.8802971747,58940.4207519056,39226.2210178004,56736.9116957549,56644.6562184434,62746.2572995791,65262.9872073459,58692.7229476810,68084.1772250164,28382.7589754928
8536051085,9120,2,0,55736.6783461218,58860.1261205710,39175.5182251392,56654.3903759018,56563.9843885073,62755.4439106804,65213.8175444844,58598.0582663985,68076.2803897783,28390.7896553960
8536051085,9120,2,0,55747.9212979862,58808.5472537386,39161.4767030055,56619.0797197216,56506.2851701729,62793.2367770125,65211.6030236626,58548.0612001530,68102.3922671604,28398.2241181548
8536051085,9120,2,0,55765.6617999541,58864.2266344004,39211.3764276764,56680.5630917679,56556.5012549612,62810.3810618360,65255.1268751983,58623.9997960250,68129.5749018628,28398.5769813627
8536051085,9120,2,0,55766.6595510936,58949.1814936181,39261.1788107727,56748.1911507098,56647.1992670794,62789.5986356624,65278.2211637683,58715.0628390479,68126.1071082683,28394.0749335382
8536051085,9120,2,0,55750.5495205000,58955.4356897851,39247.9646920230,56730.8765181308,56660.0483549244,62763.0730565884,65251.9632740243,58705.2191723182,68101.2485036590,28394.5494737143
8536089911,9121,2,0,55741.6305987288,58882.8675459331,39196.8603653667,56663.5161485190,56587.5288818597,62764.5088448135,65213.6106936384,58619.3639035355,68088.8252852028,28397.5427271327
8536089911,9121,2,0,55749.8437940842,58824.3287565179,39170.9188357401,56634.1919991757,56525.5953050309,62783.6851350064,65217.3096734726,58569.8170420725,68104.7406326472,28397.5305594359
8536089911,9121,2,0,55764.2625148194,58851.4262173426,39195.6070925939,56677.5941737431,56548.5435812390,62792.9204168951,65257.6577561375,58616.5775009630,68122.3837930405,28390.4002890977
8536089911,9121,2,0,55768.4725379202,58927.7055087257,39236.9650940951,56747.0473872085,56628.6556971212,62777.3214295680,65292.4817044447,58704.0510734232,68115.7767336656,28386.1659306033
8536089911,9121,2,0,55756.4265180655,58950.3130894227,39236.4175477380,56752.3890061137,56660.3038765577,62745.0040268063,65280.3505107123,58719.0538436058,68091.1128122055,28392.3836236798
8536089911,9121,2,0,55739.0267116087,58876.3943312233,39181.6872474285,56673.4084860360,56590.6924830337,62738.3604643410,65231.7040588141,58625.8857890326,68067.7995050928,28399.2097015975
8536089911,9121,2,0,55739.9514565672,58803.2421379238,39144.6974490867,56615.0400443764,56513.3059312397,62771.2497488534,65216.3970962109,58549.2292990480,68081.5733378963,28401.8500918080
8536089911,9121,2,0,55760.0403240219,58834.9876589348,39179.5092296971,56662.2263726557,56538.7242499029,62795.2687823819,65255.4675707093,58599.3237068681,68112.4792878266,28395.0848523745
8536113171,9122,2,0,55767.2070974506,58919.2489594337,39228.7275633459,56736.2546401265,56623.7034445143,62779.0735779106,65282.7353792896,58692.0537243557,68111.9560768632,28384.7179746813
8536113171,9122,2,0,55755.7086239529,58946.3464202584,39230.9907549550,56738.1162977404,56657.6999894376,62755.5169168613,65261.2472267002,58706.9956560543,68089.8960425232,28381.9924105930
8536113171,9122,2,0,55745.0132184455,58891.6526230393,39191.7377650042,56679.1151358460,56604.1986265071,62752.9130297412,65220.8018024608,58635.8267973369,68076.9009423163,28391.7995742323
8536113171,9122,2,0,55751.3404207935,58820.8366275298,39157.2545122080,56628.0108091896,56526.7269008354,62775.4719396510,65204.8256165323,58564.9864664338,68088.3264096331,28401.7892533239
8536113171,9122,2,0,55772.1228469671,58830.4491080199,39179.8742606018,56654.6945683223,56528.1626890606,62802.6424066566,65237.4837148050,58588.6404690576,68116.4824600813,28402.9086814316
8536113171,9122,2,0,55778.7177386451,58911.8388320685,39232.5482201483,56727.1288675093,56605.2450484339,62785.1817617157,65275.2765811371,58679.6548412932,68122.5298054023,28390.1204320707
8536113171,9122,2,0,55761.0624105550,58951.3838467431,39238.7659132249,56743.8837860345,56652.6260598624,62744.0549464541,65264.6298464170,58712.0574179327,68092.4634265529,28380.4592807933
8536113171,9122,2,0,55737.8951158041,58889.4624376111,39184.5223207882,56670.1353755906,56593.1503577919,62727.6528911368,65212.6494455894,58629.5117626858,68059.6714836150,28382.0167459866
8536133511,9123,2,0,55740.3773259560,58805.6391741979,39139.0638054577,56602.9696891280,56506.5041887157,62749.9806148069,65190.6502497335,58539.3004584405,68064.2587053173,28388.9401654789
8536133511,9123,2,0,55762.0358263008,58814.6311021501,39159.0918344282,56634.2893407503,56507.5262752488,62780.1443352310,65227.7252219530,58564.7431124973,68092.8649605480,28391.1668539975
8536133511,9123,2,0,55775.7974914076,58900.4863709327,39215.2214198725,56712.8318237423,56591.7510726573,62778.3435161012,65270.7380302221,58664.4087171740,68107.0281596499,28388.6603084520
8536133511,9123,2,0,55769.4702890597,58954.6082864012,39235.9065044715,56740.6593463764,56651.7499856912,62757.6827668958,65268.2801554639,58709.6847170522,68092.0375571641,28387.8815758553
8536133511,9123,2,0,55754.6013635420,58920.4900645096,39205.9861379839,56693.7407074271,56622.6813579812,62745.3325546205,65233.2858594011,58658.7507381513,68074.4795706486,28391.3980402371
8536133511,9123,2,0,55754.8568851753,58843.9065807061,39167.7674022630,56635.3479303738,56547.4363208281,62765.4214220752,65212.9049672227,58578.8211377214,68080.7824376028,28401.7040794462
8536133511,9123,2,0,55771.3197789767,58826.2025818287,39171.8070776082,56641.0180770933,56522.7723993680,62784.6220476618,65237.7879072256,58573.5038542098,68102.2827578890,28401.0713592114
8536133511,9123,2,0,55783.6821589488,58901.1799296516,39220.9402373793,56716.3239527305,56593.2233639728,62777.4917773236,65282.7110438959,58664.4208848708,68113.7325605994,28394.2087782032
8536202150,9124,2,0,55771.3806174609,58963.1135064804,39244.2535444920,56755.1510732925,56660.0848580149,62749.3722299657,65283.8913104877,58723.5193883399,68092.7554512766,28393.6368964526
8536202150,9124,2,0,55753.1290722264,58930.3337312394,39209.8676332704,56703.3896910077,56630.9432241239,62740.0639418962,65240.6716513727,58670.5047332823,68070.5737399684,28402.8235075539
8536202150,9124,2,0,55748.6513597956,58844.3567854885,39159.7732254503,56629.6291128671,56541.7175033213,62755.2613952281,65208.1960685522,58572.6521154322,68071.9730251030,28406.5224873880
8536202150,9124,2,0,55762.8267265943,58823.2823345912,39160.5276226534,56634.7395455327,56511.8579753178,62781.1420863704,65229.9640781685,58567.2374903460,68098.5716103580,28399.8910926195
8536202150,9124,2,0,55779.0827695498,58891.0077351077,39206.8135413678,56704.6672991742,56576.5657870222,62780.2295091087,65271.6141043934,58648.4568666391,68110.7271394841,28389.9500843152
8536202150,9124,2,0,55774.4347093634,58956.2144223818,39234.6775670924,56746.8527040593,56647.0897578080,62754.3366502695,65280.2896722282,58707.5188670177,68096.9776420742,28386.3971168429
8536202150,9124,2,0,55753.8226309454,58938.8632867123,39212.9095574761,56710.8119860697,56635.8954767309,62734.3816274799,65246.3783011826,58674.6295825053,68072.0338635871,28392.1889405306
8536202150,9124,2,0,55739.9271211735,58855.7579174116,39164.5672979986,56630.5903609161,56550.9406175131,62747.4740692614,65205.4583367671,58577.4948587677,68063.7598297475,28399.3800493530
8536211072,9125,2,0,55752.9343890773,58817.8798772018,39158.6537973426,56615.2103921319,56504.2531648035,62781.8599804830,65215.8982206411,58548.3897279673,68090.5165950612,28401.3633839351
8536211072,9125,2,0,55776.7587394566,58886.8220474006,39211.6562847034,56693.3635088256,56570.4576032171,62793.9060003377,65270.7623656158,58638.6862060903,68116.9448325606,28396.5571436901
8536211072,9125,2,0,55780.5672285622,58968.6619762317,39254.0728758281,56759.8964750535,56658.4908897311,62773.1844126482,65293.9904988508,58727.3400451423,68112.4549524329,28394.0749335382
8536211072,9125,2,0,55762.0844970881,58953.3550136284,39225.4057821133,56720.8138328582,56647.1140932016,62737.8859241649,65253.1192052225,58689.9122097149,68082.9969584246,28392.5174683448
8536211072,9125,2,0,55750.1358188080,58866.4411552221,39166.3072786442,56638.5236992446,56557.3043229515,62741.2077053976,65211.8463775991,58586.0609173311,68070.3790568192,28394.9388400126
8536211072,9125,2,0,55754.9785621435,58813.7428602820,39145.2449954437,56616.1594724841,56499.7389492822,62758.9847104559,65215.7887113697,58541.8435070765,68081.3908224440,28385.3506949161
8536211072,9125,2,0,55767.2192651474,58855.9039297735,39178.4141369831,56671.4008160602,56540.0870319470,62767.5264336256,65254.5671611445,58602.7671650690,68095.2133260348,28378.8044740254
8536211072,9125,2,0,55769.8474876612,58931.2463085011,39218.7378842543,56733.6629207032,56618.7998626947,62754.1297994235,65278.8173809126,58683.6093427606,68089.2754899852,28377.9040644605
8536234119,9126,2,0,55755.2340837768,58938.2549018711,39211.7049554906,56722.1644472055,56634.2528376598,62727.7502327114,65253.6789192764,58680.5309154644,68062.5673954589,28384.3651114735
8536234119,9126,2,0,55742.8473684111,58863.5087402878,39161.3671937341,56643.9139889372,56558.4602541497,62728.7966546382,65208.1717331586,58587.5088732530,68047.7471407285,28394.6468152889
8536234119,9126,2,0,55750.6468620746,58803.5584980412,39135.5108379854,56603.0426953089,56490.8808659951,62756.3808233358,65202.7084372851,58527.3517801604,68062.8472524858,28395.5350571569
8536234119,9126,2,0,55771.3076112799,58848.6398147702,39175.7007405916,56662.7495836191,56528.4790491779,62770.2398300171,65249.1525360582,58591.9622502902,68090.3949180930,28383.9757451751
8536234119,9126,2,0,55777.1237703613,58935.8578655970,39225.5882975656,56737.1063789041,56619.7732784405,62755.4317429836,65278.4401823111,58688.1478936756,68087.7180247919,28376.8333071401
8536234119,9126,2,0,55765.5644583795,58949.8872200339,39222.9357396582,56729.8665992945,56641.4682818758,62744.2739649969,65257.8402715898,58686.8702855092,68068.0550267260,28383.2700187594
8536234119,9126,2,0,55758.7627158555,58885.1915760263,39182.6728308711,56661.5084785432,56579.2670157169,62747.4375661709,65223.6733789110,58605.1155305558,68063.4678050238,28396.2894543600
8536234119,9126,2,0,55756.3170087941,58817.0646415146,39150.7934651950,56615.2225598287,56507.3437597965,62749.7007577800,65213.4160104893,58542.0503579225,68071.9608574062,28394.3426228683
8536261230,9127,2,0,55757.5581138700,58831.3008467975,39165.3947013825,56641.2979341203,56516.0071599344,62755.2857306217,65236.5711375433,58572.8711339750,68083.5080016912,28378.0987476097
8536261230,9127,2,0,55760.8068889217,58909.7094851245,39210.3908442338,56710.0819242604,56597.2752070149,62750.7106766163,65267.0147149943,58663.9341769979,68085.5278393638,28367.7075345229
8536261230,9127,2,0,55751.3282530966,58943.9615516811,39222.0596654870,56722.0792733278,56640.1663383157,62735.4158817098,65255.5284091935,58693.2218232507,68069.5759888289,28371.2118312079
8536261230,9127,2,0,55739.1727239705,58885.6417808087,39180.4704777462,56652.4192090164,56583.6473865732,62737.8737564681,65208.7922856965,58614.0709554175,68059.6471482214,28386.8229862317
8536261230,9127,2,0,55750.0019741429,58817.9042125954,39151.0976576156,56599.6965786826,56509.5096098310,62769.0473957284,65197.2694768052,58540.4077188514,68078.6044198715,28398.5648136658
8536261230,9127,2,0,55771.8673253338,58844.5271332440,39184.0356129153,56644.2790198419,56528.1140182733,62792.4945475063,65239.5157201745,58585.9027372724,68109.2913512590,28397.7982487660
8536261230,9127,2,0,55779.0706018530,58934.0935495577,39238.2183668678,56723.9044278512,56616.9747081712,62777.4431065363,65281.7376281501,58684.0960506335,68112.6131324916,28392.6148099194
8536261230,9127,2,0,55763.0214097435,58963.4298665978,39246.0421959250,56729.2338790597,56651.7013149039,62748.0337833152,65267.5379259577,58705.2678431055,68090.1880672470,28390.9235000610
8536324968,9128,2,0,55743.4314178586,58903.7959844686,39201.6301025213,56664.0880302696,56594.5618106234,62733.3108701595,65224.4277761140,58631.9087989599,68067.6534927309,28392.8338284622
8536324968,9128,2,0,55742.4945052032,58825.9835632859,39157.3518537826,56610.2459718281,56513.4276082080,62747.2307153249,65204.5700948990,58554.2180547454,68072.7882607902,28391.3006986625
8536324968,9128,2,0,55762.9605712594,58827.7843824157,39168.4731286787,56633.9608129360,56510.5803671514,62775.4597719541,65232.8356546187,58570.3889238231,68093.6436931447,28390.4489598849
8536324968,9128,2,0,55777.3062858136,58908.8820817406,39218.2146732909,56711.0431723094,56592.1161035619,62770.8847179487,65277.0530648733,58664.3600463867,68101.6257022605,28385.3385272193
8536324968,9128,2,0,55769.5067921501,58960.9963272332,39237.3422926966,56742.4479978094,56651.8594949626,62743.0206922242,65275.5321027704,58711.0596667932,68082.6562629136,28385.8130673954
8536324968,9128,2,0,55749.9654710525,58911.4859688607,39195.6557633812,56679.2611482079,56604.3446388690,62721.9949121141,65225.4863657376,58638.3576782761,68057.4082920060,28392.6269776162
8536324968,9128,2,0,55747.1060622991,58824.7181228163,39150.8543036791,56608.9318605712,56515.2405950346,62748.1432925866,65201.2726490600,58544.3500526220,68063.8328359285,28399.3922170498
8536324968,9128,2,0,55769.1295935486,58826.8961405476,39172.2816177843,56637.5746188925,56511.6511244718,62781.2029248546,65239.1993600571,58564.3780815926,68099.3260075610,28401.0713592114
8536337216,9129,2,0,55778.1458568944,58904.5017108843,39224.6635526071,56711.4568740014,56589.0376762657,62775.0095671717,65280.6668708297,58657.4974653786,68108.9993265352,28391.8239096259
8536337216,9129,2,0,55771.4292882481,58956.4699440151,39245.3973079934,56739.9779553543,56649.0609246933,62748.4353173104,65279.3405918760,58703.0533222837,68091.3683338388,28382.2357645295
8536337216,9129,2,0,55748.8338752479,58915.5743149932,39205.7914548347,56686.3914185461,56614.5898395939,62723.0778371314,65232.7748161346,58646.0598303650,68065.2686241536,28383.7202235419
8536337216,9129,2,0,55736.6418430314,58830.1084125088,39152.1440795423,56612.9472005228,56528.0653474860,62732.1792743549,65195.1766329517,58553.5001606329,68063.0784387255,28393.2840332447
8536337216,9129,2,0,55745.7432802549,58804.3128952442,39148.0679011067,56609.1508791141,56496.0764725385,62760.7976972825,65209.8265399265,58536.6479005331,68085.1993115496,28393.4665486970
8536337216,9129,2,0,55758.3855172540,58877.1000576390,39197.7242718411,56685.0894749860,56564.8117918913,62769.6801159632,65260.4563264068,58628.2098191258,68104.1079124124,28386.3727814493
8536337216,9129,2,0,55755.6477854688,58949.5830276133,39233.8623314052,56740.2578123813,56642.9405731914,62748.3866465231,65275.7389536164,58700.6076152223,68092.6702773989,28384.3286083830
8536337216,9129,2,0,55737.6882649581,58920.0520274240,39203.3457477733,56694.3125891778,56619.2378997803,62724.6353023247,65234.3931198120,58651.5961324195,68065.0496056108,28383.7202235419
8536361027,9130,2,0,55730.9351932214,58828.1250779267,39150.2215834443,56615.3564044938,56526.8729131973,62731.6560633915,65194.9332790152,58549.4239821972,68058.7589063533,28380.5322869742
8536361027,9130,2,0,55743.5409271300,58799.6283319674,39149.5280247254,56613.5069145767,56492.7425236090,62756.3564879421,65212.9536380100,58536.5505589585,68082.7292690945,28379.0234925682
8536361027,9130,2,0,55760.2106717774,58865.7110934128,39198.6368491028,56683.1669788880,56558.2412356069,62765.3484158943,65258.8501904261,58620.4711639464,68100.5306095465,28383.8297328133
8536361027,9130,2,0,55756.2318349163,58933.7285186530,39226.6712225829,56726.0702778857,56626.6723625391,62738.9201783948,65267.7691121973,58681.4069896357,68085.0898022782,28385.4845395812
8536361027,9130,2,0,55738.3331528897,58919.8086734876,39202.3966674211,56695.1764956523,56622.1946501082,62717.3833550182,65232.6531391663,58650.0630026198,68058.7589063533,28388.1249297918
8536361027,9130,2,0,55729.2195479694,58838.6866387690,39151.1584960997,56621.0752220005,56541.6566648372,62723.1265079187,65193.6556708488,58552.7457634299,68048.4772025379,28392.9190023400
8536361027,9130,2,0,55742.8473684111,58794.7247501477,39137.1534770565,56598.7109952400,56492.9858775454,62755.4560783772,65201.8445308106,58515.5612819390,68070.1600382764,28393.1501885796
8536361027,9130,2,0,55763.8853162179,58856.3663022527,39185.7999289546,56671.2791390920,56549.5535000753,62770.7387055868,65255.7352600395,58598.6909866333,68097.3548406757,28388.9645008725
8536390058,9131,2,0,55766.0876693429,58938.0115479347,39230.9055810772,56741.4989174572,56634.7030424422,62745.6245793443,65283.9156458814,58687.9532105264,68088.6671051441,28382.4304476786
8536390058,9131,2,0,55747.9334656830,58926.4157328624,39207.2880815439,56711.8949110870,56631.1622426668,62721.0579994588,65248.5806543076,58661.6953207825,68058.3938754486,28383.4768696054
8536390058,9131,2,0,55737.3840725376,58843.1521835030,39154.9304821148,56634.1189929947,56546.7427621092,62729.4658779634,65205.3001567084,58565.7651990304,68049.7183076139,28390.8991646674
8536390058,9131,2,0,55748.8825460352,58798.4115622851,39143.9430518837,56614.3586533543,56498.3031610571,62766.9545518749,65212.1627377165,58530.6613936962,68076.9496131036,28395.3647094014
8536390058,9131,2,0,55765.9294892842,58847.6542313275,39186.5056553703,56670.9506112778,56542.4353974339,62771.4565996994,65253.4477330367,58596.0505964227,68100.0925724609,28393.4908840907
8536390058,9131,2,0,55761.1110813423,58921.2566294095,39223.8848200104,56725.5835700128,56619.7489430468,62742.3758042926,65272.7213648043,58674.1793777228,68090.5652658485,28384.7301423782
8536390058,9131,2,0,55739.8054442053,58925.1381246960,39209.2592484292,56708.7434776098,56631.8923044761,62708.5131040343,65244.3097927227,58668.8742619080,68060.0365145197,28382.0775844708
8536390058,9131,2,0,55719.1203596063,58840.8768241971,39149.5523601191,56626.5628532677,56551.7923562907,62704.2179070558,65189.6403308972,58571.3988426594,68037.9399770893,28384.9491609210
8536416179,9132,2,0,55724.8026740226,58770.2676795336,39117.9163483794,56581.5180396292,56476.9853562233,62740.0761095930,65179.0179315708,58504.9632180062,68056.1185161427,28386.9933339872
8536416179,9132,2,0,55748.6756951892,58813.7671956756,39158.4347787998,56643.1960948246,56515.8854829662,62768.5241847651,65228.3214390974,58569.3059988059,68088.2777388458,28386.8351539285
8536416179,9132,2,0,55758.9817343983,58908.6022247136,39218.2876794719,56724.1234463940,56615.2590629192,62754.1419671203,65265.5545913756,58671.3321366663,68094.3494195604,28388.1249297918
8536416179,9132,2,0,55746.4976774579,58927.1092915813,39217.9713193545,56713.2090223439,56639.6187919587,62724.7083085056,65240.6594836758,58672.0378630820,68068.6999146577,28389.7675688629
8536416179,9132,2,0,55730.0469513533,58859.9557728155,39171.8679160923,56638.4993638510,56569.5450259554,62721.4230303634,65194.9211113184,58584.9414892234,68055.6926467539,28394.1357720223
8536416179,9132,2,0,55732.0911244196,58792.5345647196,39140.7064445288,56593.2476993665,56498.2666579666,62740.2342896517,65182.1206942607,58523.6284649326,68064.1126929554,28395.1091877681
8536416179,9132,2,0,55748.1159811354,58814.2660712454,39164.6768072700,56632.6467016792,56515.3257689123,62757.0257112674,65217.4070150472,58563.5750136023,68086.7689444397,28389.6580595914
8536416179,9132,2,0,55754.9055559626,58896.4466955875,39210.4638504147,56703.4748648855,56596.7398283547,62742.7651705909,65251.2575476086,58656.8039066597,68087.3286584936,28374.4484385628
8536458421,9133,2,0,55741.4359155796,58932.4509104866,39219.6626292128,56716.3239527305,56641.1640894552,62716.0570760645,65241.3287070011,58689.8757066244,68065.9986859630,28371.1388250269
8536458421,9133,2,0,55727.0050271476,58873.0238792034,39176.7714979120,56650.0951789233,56587.0421739868,62708.3184208851,65197.6345077099,58614.3751478381,68046.1410047479,28380.8486470916
8536458421,9133,2,0,55724.0361091228,58792.2790430863,39136.4234152471,56586.1782675123,56501.1869052041,62735.1481923797,65178.4582175169,58527.2787739795,68054.6218894335,28387.5773834347
8536458421,9133,2,0,55739.4160779070,58807.2696455722,39164.3482794558,56623.4479228810,56513.0625773033,62763.9369630628,65214.9004695017,58563.1369765167,68084.9559576131,28386.4457876302
8536458421,9133,2,0,55748.7608690670,58894.7797211228,39220.1371693889,56705.1175039566,56603.4198939105,62756.0036247343,65252.8758512861,58666.5989026021,68093.3273330273,28380.5444546711
8536458421,9133,2,0,55736.9825385424,58933.5095001102,39231.1732704074,56717.7962440461,56649.1704339647,62731.7655726630,65238.2016089176,58694.4142575394,68074.0171981693,28379.5953743189
8536458421,9133,2,0,55722.1744515089,58881.5656023731,39193.8549442514,56656.4102135744,56602.7263351915,62721.9827444173,65195.2253037390,58623.2453988220,68056.8242425585,28381.9437398057
8536458421,9133,2,0,55720.5196447410,58805.2863109900,39154.4437742419,56596.5573129023,56523.1617656663,62734.3329566926,65172.5325491642,58543.4861461476,68064.8184193711,28383.8297328133
8536518887,9134,2,0,55736.5323337599,58802.8041008382,39165.6380553190,56613.2757283370,56510.8723918752,62757.1595559324,65197.6831784972,58552.0400370141,68086.1727272954,28380.3132684314
8536518887,9134,2,0,55752.8248798059,58886.1649917721,39220.9645727729,56692.4874346544,56592.0065942905,62759.9946292922,65243.9812649085,58651.1459276370,68102.0394039525,28380.2159268568
8536518887,9134,2,0,55744.6968583281,58941.7348631625,39244.9714386046,56731.7039215147,56654.0253449971,62732.1671066581,65244.7113267179,58709.3805246316,68085.8685348748,28382.4304476786
8536518887,9134,2,0,55725.5692389225,58897.5296206048,39206.4120073727,56675.9150315815,56614.8210258335,62714.3779339030,65197.1477998370,58648.2865188836,68060.1095207007,28384.3407760798
8536518887,9134,2,0,55721.6390728487,58809.3989925162,39156.5731211859,56604.5514897150,56525.4979634563,62734.9170061401,65168.7240600586,58549.8133484955,68061.9346752241,28387.3218618014
8536518887,9134,2,0,55743.2245670126,58803.6315042221,39171.4907174908,56625.7719529742,56512.2595093130,62768.2078246477,65204.5700948990,58560.3140708537,68091.4291723229,28387.8450727648
8536518887,9134,2,0,55758.3246787698,58883.8409616790,39227.6933091160,56704.9349885043,56591.8727496255,62768.0861476794,65252.8758512861,58655.2099383759,68105.0204896741,28381.1528395122
8536518887,9134,2,0,55749.8559617811,58939.4473361598,39251.7488457350,56734.9405288696,56655.9113380046,62741.6822455736,65252.0362802053,58707.0929976289,68087.3408261904,28377.4051888907
8536520985,9135,2,0,55727.8445982284,58903.9906676177,39217.8131392958,56681.7555260565,56627.3172504707,62722.2260983538,65208.4637578823,58655.2099383759,68062.4213830970,28374.8621402548
8536520985,9135,2,0,55716.2122800656,58817.4175047225,39164.2387701844,56606.7660105368,56541.7053356245,62727.7624004082,65169.7339788949,58565.2541557639,68058.4547139327,28378.1717537906
8536520985,9135,2,0,55724.4863139052,58784.6377294815,39155.3928545941,56596.0827727262,56503.9489723829,62755.9184508565,65180.9039245784,58544.5082326807,68079.5413325269,28375.1298295849
8536520985,9135,2,0,55745.5972678930,58857.9724382334,39209.2470807324,56676.2070563053,56576.5171162349,62773.0505679832,65235.5368833134,58636.5933622368,68102.0880747398,28374.4606062596
8536520985,9135,2,0,55747.7266148371,58936.4054119541,39248.6825861356,56737.3132297501,56659.1236099659,62742.1202826593,65254.7983473841,58716.5594657571,68092.2930787973,28375.3488481277
8536520985,9135,2,0,55728.3313061013,58910.2570314816,39215.2214198725,56693.6677012462,56638.1465006431,62714.0372383919,65212.4182593498,58669.9085161380,68060.2798684562,28378.5489523921
8536520985,9135,2,0,55717.3195404765,58816.3224120084,39155.5510346528,56610.7083443074,56542.4597328275,62723.8078989407,65170.5248791884,58561.6768528979,68051.6286360151,28380.0090760109
8536520985,9135,2,0,55731.7747643022,58782.2041901169,39151.2923407647,56606.7416751431,56503.3284198449,62751.8301047240,65190.1027033765,58542.2937118590,68076.3290605656,28380.8608147885
8536565726,9136,2,0,55747.4102547197,58846.8998341245,39199.3060724281,56678.4094094302,56563.5828545121,62761.4425852141,65236.5833052401,58624.9610440740,68094.3494195604,28376.3465992672
8536565726,9136,2,0,55748.8338752479,58924.2377151311,39239.9583475135,56734.7701811141,56645.5444603115,62747.2185476281,65257.6455884407,58703.8685579708,68090.3340796088,28377.7823874923
8536565726,9136,2,0,55730.0104482629,58916.0001843820,39223.7631430422,56706.5776275754,56644.1330074800,62719.3180188131,65226.5936261485,58680.2023876502,68067.0329401929,28377.6972136145
8536565726,9136,2,0,55715.1536904420,58832.2985979370,39171.9165868796,56630.2374977082,56563.2786620916,62729.2833625111,65185.2721277378,58586.6571344754,68056.3740377760,28383.5377080895
8536565726,9136,2,0,55729.3533926344,58785.2582820195,39157.5100338413,56604.9165206197,56510.0936592785,62759.9946292922,65191.4654854207,58542.9629351842,68078.9451153826,28388.3317806377
8536565726,9136,2,0,55744.8428706900,58834.9268204507,39197.9554580807,56664.5990735362,56555.0532990393,62763.7787830041,65233.6752256995,58611.3088882387,68095.8460462696,28374.3997677755
8536565726,9136,2,0,55739.0388793055,58915.1362779076,39240.2382045404,56723.9044278512,56638.5723700319,62728.8453254254,65251.0506967626,58696.2515797596,68081.1353008107,28369.6178629241
8536565726,9136,2,0,55716.9545095718,58908.2858645962,39217.5941207530,56692.0493975688,56639.2537610540,62699.6550207472,65209.1329812076,58669.9815223189,68046.3843586844,28374.7039601961
8536589770,9137,2,0,55706.0887563089,58827.0178175158,39165.3216952016,56611.5479153882,56556.6107642326,62708.7929610612,65162.1778391679,58566.8967948350,68034.0341464091,28384.6693038940
8536589770,9137,2,0,55722.0892776311,58780.4520417744,39152.1805826328,56589.2810302022,56503.4500968132,62742.1202826593,65170.3058606456,58524.5775452848,68058.5398878105,28393.4543810002
8536589770,9137,2,0,55740.7545245575,58826.2269172223,39190.9225293171,56645.3862802528,56543.6278317225,62755.9792893406,65212.4425947434,58586.5354575072,68084.8221129481,28389.0740101439
8536589770,9137,2,0,55743.9667965188,58908.4318769581,39234.1178530385,56712.1017619330,56627.6579459818,62740.2221219549,65240.5986451917,58674.5200732339,68084.1772250164,28383.4038634245
8536589770,9137,2,0,55728.6598339155,58927.4986578797,39229.5184636394,56710.3861166809,56652.7720722243,62713.2341704016,65224.0505775125,58684.8382801397,68062.0928552828,28379.6805481966
8536589770,9137,2,0,55712.2091078109,58852.3144592107,39175.9440945280,56638.4141899732,56582.9416601574,62702.3562494419,65180.3685459182,58598.1921110636,68042.8435589089,28380.4227777028
8536589770,9137,2,0,55716.5651432735,58777.6778068988,39139.3071593941,56588.3076144564,56502.9877243339,62728.9548346969,65170.1111774964,58524.6992222530,68054.9504172477,28379.8752313458
8536589770,9137,2,0,55735.8631104347,58807.2696455722,39174.1311077014,56637.0635756259,56527.7733227622,62753.1442159809,65217.3218411694,58574.1974129287,68081.7315179550,28377.7945551891
8536618560,9138,2,0,55745.5242617121,58897.9676576904,39233.6311451656,56716.5308035765,56624.6768602601,62743.8359279113,65256.9763651154,58677.6106682269,68085.2966531242,28381.0920010281
8536618560,9138,2,0,55732.2614721751,58923.8361811360,39237.4761373616,56714.6934813563,56659.9875164403,62722.4816199870,65238.1529381303,58688.1965644629,68064.6359039188,28388.0397559140
8536618560,9138,2,0,55715.1050196548,58859.8949343314,39188.4403191652,56637.7936374353,56593.7465749362,62717.1400010818,65187.9733564325,58601.7450785359,68048.0878362396,28394.8049953476
8536618560,9138,2,0,55716.3582924275,58792.8144217465,39150.7204590141,56588.0399251262,56518.0878360912,62733.8584165165,65174.3577036876,58534.7862429192,68059.6836513119,28389.7188980756
8536618560,9138,2,0,55731.3853980038,58810.8226130445,39170.8214941656,56624.1171462063,56529.6349803761,62758.0356301037,65206.9306280826,58568.7462847520,68082.7536044882,28378.5124493016
8536618560,9138,2,0,55745.5729324994,58899.2939366441,39227.5107936636,56701.9539027826,56616.5610064792,62758.6805180353,65248.3616357648,58665.8445053991,68094.2520779858,28370.8711356968
8536618560,9138,2,0,55739.8419472958,58944.4482595540,39248.1837105658,56726.3866380031,56670.5977480699,62734.5641429322,65246.5973197254,58705.1705015309,68079.4318232555,28372.3920977997
8536618560,9138,2,0,55722.5881532009,58888.9148912541,39207.7747894168,56660.2917088609,56618.4226640931,62721.8367320554,65199.9950408936,58632.3346683487,68055.8994975999,28378.4759462112
8536636992,9139,2,0,55719.2542042714,58803.6801750094,39162.1580940276,56590.7411538209,56526.7025654418,62743.4343939162,65173.4572941227,58539.7628309198,68060.9369240846,28384.3286083830
8536636992,9139,2,0,55742.4214990223,58817.9163802922,39184.3398053359,56626.7940395073,56532.7012399755,62778.2096714361,65215.5331897365,58572.0437305911,68094.9578044016,28390.3881214008
8536636992,9139,2,0,55753.2994199820,58903.9176614368,39238.0115160218,56709.7412287493,56620.4303340689,62759.9216231112,65258.4608241278,58675.4569858892,68102.6356210968,28387.9910851267
8536636992,9139,2,0,55738.9537054277,58941.1629814118,39244.6185753967,56720.8503359487,56665.2196260742,62724.0755882709,65245.6482393732,58703.3088439170,68076.5359114116,28384.5354592290
8536636992,9139,2,0,55717.8305837431,58884.2303279773,39196.5318375524,56653.1736062195,56611.4384061168,62705.3495028603,65196.7827689323,58625.1678949200,68047.4551160048,28384.0730867497
8536636992,9139,2,0,55715.4457151658,58802.3052252684,39150.9029744664,56590.5099675813,56525.9603359356,62730.2081074696,65171.8998289294,58539.1544460786,68049.3411090124,28386.4214522365
8536636992,9139,2,0,55737.0555447233,58798.2777176200,39164.4091179399,56609.5402454124,56513.8169745063,62772.9897294991,65203.4871698817,58549.6186653464,68079.2249724095,28388.3439483346
8536636992,9139,2,0,55755.7694624370,58880.1784849352,39222.5463733599,56688.9831379694,56593.1990285792,62773.3182573133,65250.6248273738,58645.9746564873,68098.7176227199,28386.0807567255
8536704799,9140,2,0,55743.4922563427,58937.4396661840,39246.7357546439,56727.3357183553,56656.3493750902,62733.1526901008,65250.6856658579,58704.3309304501,68078.4827429033,28383.6593850577
8536704799,9140,2,0,55717.5872298066,58890.4480210538,39205.7306163506,56667.4219791991,56619.9557938928,62705.1913228016,65200.0558793777,58643.2490923989,68047.6741345476,28383.6350496641
8536704799,9140,2,0,55714.5939763882,58800.0055305689,39152.2414211169,56592.6879853126,56529.9270050999,62729.0521762714,65165.6943035497,58543.3766368762,68045.7394707528,28387.2001848332
8536704799,9140,2,0,55738.0654635596,58791.0744411008,39162.8516527465,56609.2847237791,56513.1964219683,62759.9216231112,65196.8922782037,58546.4793995661,68077.1077931623,28388.9036623884
8536704799,9140,2,0,55754.7838789944,58870.7241845038,39217.5941207530,56690.5162677691,56590.3761229163,62760.2014801382,65245.2953761654,58641.5821179342,68091.6968616530,28381.6395473851
8536704799,9140,2,0,55749.2962477272,58931.9033641296,39241.8321728243,56727.2140413871,56657.7851633154,62733.0553485262,65249.1647037551,58698.0037281022,68074.3213905899,28379.7657220744
8536704799,9140,2,0,55730.9595286150,58903.5891336226,39208.7482051627,56680.8794518853,56632.8413848283,62717.2738457468,65210.1794031344,58656.3902049677,68051.6773068024,28381.8098951407
8536704799,9140,2,0,55722.3082961739,58822.2115772707,39160.3329395042,56611.9007785960,56551.1596360559,62730.7678215235,65177.8985034631,58568.7827878425,68049.6209660393,28386.2876075715
8536714616,9141,2,0,55737.8829481073,58792.5710678101,39158.3861080125,56605.2328807371,56514.8998995236,62767.1735704177,65195.6998439151,58549.1441251703,68075.0514523992,28387.4070356792
8536714616,9141,2,0,55763.1187513181,58865.0175346939,39212.1186571826,56680.9402903694,56582.6496354337,62784.0014951238,65248.4711450362,58637.9683119778,68104.1200801092,28385.1316763733
