steady_timestamp,sequence,battery,flags,EEG-ch1,EEG-ch2,EEG-ch3,EEG-ch4,EEG-ch5,EEG-ch6,EEG-ch7,EEG-ch8,EEG-ch9,EEG-ch10
2979961870,14672,-2,0,32552.5678382310,41423.2203561508,29399.9054237099,45768.7307610122,46975.4499257307,30235.0839659398,47631.8606662379,51477.5342533097,53291.0564585882,15862.8803357076
2979961870,14672,-2,0,32551.4119070328,41423.1473499699,29401.4993919937,45763.0606142927,46968.8672017495,30240.7176095688,47629.1837729369,51473.3242302089,53270.2375293242,15864.3526270232
2979961870,14672,-2,0,32549.6597586903,41428.0022610022,29405.2470426151,45766.9299418824,46969.3782450160,30241.0096342925,47632.9070881647,51474.6383414658,53273.1942796522,15867.7352467400
2979961870,14672,-2,0,32556.1329734001,41427.6372300976,29400.6719886097,45767.7086744791,46976.1921552369,30230.6427565994,47631.2401136999,51474.3949875294,53289.1096270966,15867.7960852241
2979961870,14672,-2,0,32544.0869535454,41413.0359939100,29387.2145159235,45753.5089722867,46955.2637167014,30213.4498009886,47621.0314160655,51461.4242227161,53265.3217798077,15860.8483303382
2979961870,14672,-2,0,32530.5929777687,41404.5429415276,29381.0454936343,45747.6441424181,46940.9058344503,30223.0744491755,47617.8799825884,51456.3381254441,53252.5456981436,15856.2976117264
2979961870,14672,-2,0,32550.6818452234,41417.2095139203,29391.3271974497,45764.1435393100,46967.7842767322,30235.9478724142,47631.6903184824,51470.0997905509,53282.2957168757,15856.5044625724
2979961870,14672,-2,0,32564.9180505062,41423.2933623318,29398.5913124530,45770.6654248071,46977.8956327921,30240.7662803561,47637.7376638034,51477.8627811239,53285.4106472624,15860.7996595509
2980001053,14673,-2,0,32553.7237694291,41423.5610516619,29403.4948942726,45769.9231953009,46967.4192458275,30243.5770183222,47641.2297927916,51476.8650299844,53269.1059335197,15865.4963905245
2980001053,14673,-2,0,32557.6904385934,41430.4966388509,29411.1605432711,45779.3531603386,46978.9663901125,30244.7694526108,47649.1631311201,51485.0903930367,53287.1141248176,15865.3625458595
2980001053,14673,-2,0,32563.8107900954,41428.2334472419,29404.2979622629,45774.0480445238,46984.6122014383,30227.8441863301,47644.2108785132,51480.6856867868,53287.4426526318,15857.7455676483
2980001053,14673,-2,0,32552.1906396294,41418.1342588788,29394.8071587410,45763.1701235641,46967.0663826197,30225.7756778702,47636.9102604194,51471.4260695046,53261.5741291863,15860.8970011255
2980001053,14673,-2,0,32547.0923746606,41415.2991855191,29391.4975452052,45765.1899612367,46965.0100418566,30225.0456160608,47636.7520803607,51470.5743307270,53265.9301646489,15860.5806410081
2980001053,14673,-2,0,32553.1153845880,41418.4627866931,29390.8526572736,45767.0637865475,46976.5936892320,30226.5665781637,47639.7696691728,51475.8916142386,53285.0699517514,15858.4634617609
2980001053,14673,-2,0,32542.5903268361,41410.3225975185,29388.4312856058,45756.8794243067,46964.7545202233,30225.5079885401,47633.7953300328,51469.7712627366,53265.4677921696,15858.1105985530
2980001053,14673,-2,0,32536.5916523024,41414.4717821351,29395.0870157680,45759.6049883950,46963.2092227268,30238.2597348106,47635.6934907371,51469.0290332304,53263.7886500080,15859.0718466020
2980032297,14674,-2,0,32555.6949363144,41425.8242432709,29401.3290442381,45768.5482455599,46985.3179278541,30230.8861105359,47638.7475826397,51476.5243344734,53287.3209756636,15859.5220513845
2980032297,14674,-2,0,32555.5367562557,41418.8399852946,29394.9410034061,45759.0574420380,46974.8780439800,30224.7657590339,47630.4978841937,51468.8465177781,53273.1942796522,15857.9037477070
2980032297,14674,-2,0,32545.9242757656,41417.6353833091,29397.5570582230,45760.3472179012,46956.8455172884,30229.4503223107,47632.1526909617,51467.2647171911,53260.3451918071,15864.6081486565
2980032297,14674,-2,0,32553.7116017323,41423.9139148697,29402.9230125219,45773.6221751350,46969.2687357446,30232.8086066339,47640.6457433441,51475.6117572116,53282.8554309296,15858.1836047340
2980032297,14674,-2,0,32560.2943257135,41420.5556305466,29397.5327228294,45772.8434425384,46975.3282487624,30219.3876370382,47638.9544334857,51472.7766838519,53281.8941828806,15852.6229672859
2980032297,14674,-2,0,32548.3943182207,41412.7074660958,29393.2861966382,45765.2751351145,46963.0997134554,30229.2313037679,47634.9390935341,51465.2448795185,53261.0509182229,15858.5608033355
2980032297,14674,-2,0,32560.6106858309,41423.4393746936,29404.6021546835,45780.1683960258,46978.5648561173,30234.6580965510,47646.1577100049,51477.7897749430,53281.5291519759,15868.5018116398
2980032297,14674,-2,0,32565.7454538902,41424.6683120728,29402.6431554950,45778.1728937468,46988.1895043043,30219.0104384367,47644.5637417211,51478.1304704540,53293.5021656497,15865.5572290087
2980067336,14675,-2,0,32541.5074018189,41411.4541933230,29390.7188126085,45758.1813678667,46962.6738440666,30205.3826179950,47628.6118911862,51463.2615449364,53263.1315943796,15858.4026232768
2980067336,14675,-2,0,32523.4748751273,41405.4311833957,29386.5817956887,45751.4891346141,46952.2826309798,30210.1280197559,47622.8444028921,51458.2606215421,53255.9039824668,15846.7703051140
2980067336,14675,-2,0,32537.3703848991,41409.4221879536,29387.5795468282,45755.7843315926,46971.0208840871,30213.4011302013,47623.9394956062,51462.5923216111,53278.1100291686,15842.2560895927
2980067336,14675,-2,0,32545.0360338976,41409.8602250392,29389.9157446182,45755.1394436610,46970.0718037349,30224.2547157674,47626.1783518216,51465.4395626677,53271.0892681018,15847.9870747963
2980067336,14675,-2,0,32545.2915555308,41414.6299621938,29400.5989824288,45762.4765648452,46964.3651539250,30231.4944953770,47634.8660873532,51471.6572557442,53268.3515363166,15858.0254246753
2980067336,14675,-2,0,32556.1694764905,41421.5898847765,29402.8986771283,45772.9407841130,46975.0483917355,30222.2227103979,47639.4289736618,51476.4269928988,53287.2723048763,15857.7333999515
2980067336,14675,-2,0,32559.1627299090,41417.4285324631,29394.2231092935,45766.6865879460,46970.8262009379,30213.9851796488,47634.9999320182,51469.2480517733,53278.8157555844,15853.3286937016
2980067336,14675,-2,0,32554.7945267495,41418.4141159058,29398.6643186339,45764.6545825765,46962.4304901301,30239.1479766786,47636.8372542385,51469.7590950398,53264.7377303602,15867.3945512289
2980105338,14676,-2,0,32571.1600789764,41432.7963335505,29412.6450022835,45782.1882336984,46984.2106674432,30240.2917401800,47649.7958513549,51483.5815986307,53288.5134099522,15875.9484420954
2980105338,14676,-2,0,32573.2407551331,41427.4668823420,29406.5124830847,45777.5888442993,46989.6131248326,30213.7296580155,47643.5173197943,51478.8605322634,53290.5575830185,15860.7874918541
2980105338,14676,-2,0,32546.2771389735,41409.0206539585,29391.6557252639,45759.0087712507,46961.7734345017,30204.4943761269,47630.5708903747,51464.3201345600,53256.8408951221,15845.3101814953
2980105338,14676,-2,0,32531.9314244192,41404.7376246768,29389.1613474152,45755.8451700767,46957.1740451026,30209.5318026116,47627.3342830198,51462.8478432444,53258.7147204329,15837.1091538366
2980105338,14676,-2,0,32544.3546428755,41409.5682003155,29388.9301611756,45761.2354597693,46973.0528894566,30216.6864083435,47629.2689468146,51467.2038787070,53280.3610530809,15834.7729560466
2980105338,14676,-2,0,32554.8918683241,41417.7935633678,29397.1555242279,45767.2828050903,46977.9808066698,30227.1749630049,47638.1148624049,51474.0786274120,53274.7030740582,15855.3972021615
2980105338,14676,-2,0,32553.8089433069,41421.8089033194,29403.1785341552,45771.4928281910,46972.7973678233,30223.7558401976,47642.7507548944,51476.3904898083,53268.7165672213,15861.5540567539
2980105338,14676,-2,0,32555.0500483828,41419.0711715342,29399.9054237099,45772.3932377559,46977.7861235207,30213.3889625045,47638.3582163414,51474.3463167421,53282.6850831741,15849.5932107770
2980111993,14677,-2,0,32550.7670191012,41411.0648270247,29391.2663589656,45763.5838252561,46970.7775301507,30213.4011302013,47632.0310139934,51466.8996862864,53271.8314976080,15847.8167270408
2980111993,14677,-2,0,32543.0892024059,41408.9841508680,29392.6656441002,45760.4932302631,46963.4404089664,30223.3421385056,47631.7998277538,51465.6342458168,53258.5200372837,15854.1439293887
2980111993,14677,-2,0,32553.7359371260,41419.2415192897,29399.6864051670,45769.8623568168,46980.4630168217,30223.0987845692,47637.3969682924,51471.8762742870,53280.2880468999,15854.5941341712
2980111993,14677,-2,0,32561.0000521292,41418.7061406295,29397.2163627120,45769.8623568168,46986.2791759031,30219.9473510920,47637.2387882337,51469.6617534652,53282.9771078978,15854.7036434426
2980111993,14677,-2,0,32548.2361381620,41413.3401863306,29396.5836424772,45762.5860741166,46966.4945008690,30212.3790436682,47633.5519760963,51462.6774954889,53256.7800566380,15856.0664254868
2980111993,14677,-2,0,32537.1148632658,41404.6402831022,29392.5317994352,45760.1160316616,46958.8653549610,30201.9148244004,47628.2103571910,51455.9974299331,53255.6119577430,15845.2250076175
2980111993,14677,-2,0,32544.3424751786,41401.5983588965,29386.4114479332,45758.5463987714,46966.9812087419,30198.4470308059,47623.6596385793,51454.5616417080,53265.4556244728,15841.0393199104
2980111993,14677,-2,0,32539.1225332416,41393.2513188759,29381.2766798739,45747.3156146038,46953.0248604860,30201.0387502292,47615.7141325539,51446.7986511349,53242.6533606266,15840.5647797343
2980157238,14678,-2,0,32537.5285649578,41397.1328141624,29387.2266836203,45752.3773764822,46950.9320166324,30213.3402917172,47621.8466517526,51452.5296363385,53244.5393536341,15843.3876853973
2980157238,14678,-2,0,32549.4042370570,41405.2608356402,29392.4831286479,45763.7541730116,46969.1105556859,30215.2262847247,47629.4027914797,51461.3025457479,53270.6268956225,15844.8478090160
2980157238,14678,-2,0,32552.2393104167,41406.7331269557,29396.4254624185,45762.5982418135,46969.2565680478,30213.8513349837,47631.9336724189,51463.6022404474,53263.4601221938,15849.5688753833
2980157238,14678,-2,0,32542.1157866600,41405.2121648529,29395.4520466727,45757.5243122383,46957.5877467946,30210.4322121765,47629.4514622670,51458.2971246326,53247.4596008716,15844.7139643510
2980157238,14678,-2,0,32553.3587385244,41414.7029683748,29401.3047088445,45765.3481412954,46974.1966529579,30222.9892752978,47636.0706893387,51464.7946747361,53271.5638082779,15845.1033306493
2980157238,14678,-2,0,32559.1627299090,41416.2604335681,29401.8157521111,45763.3283036228,46978.8568808411,30211.5029694969,47635.1094412896,51464.2227929854,53269.0329273387,15848.1087517646
2980157238,14678,-2,0,32540.5461537699,41406.6357853812,29399.6012312893,45755.8451700767,46958.9626965356,30214.2528689789,47630.6073934652,51457.8590875470,53245.8778002847,15852.6716380732
2980157238,14678,-2,0,32541.7020849681,41413.0968323941,29405.1375333437,45767.0029480634,46967.1272211038,30217.7815010575,47639.2951289967,51467.7514250640,53263.7643146144,15854.9104942886
2980183881,14679,-2,0,32551.2415592773,41411.0404916311,29398.2141138515,45763.7541730116,46973.3084110898,30202.3163583956,47635.7299938276,51466.4616492008,53269.9090015100,15846.2957649379
2980183881,14679,-2,0,32544.9751954134,41406.2707544765,29391.6800606575,45756.0885240132,46961.3110620224,30208.1568528706,47630.0111763208,51460.5846516353,53249.9418110235,15844.7626351382
2980183881,14679,-2,0,32550.1221311695,41416.0779181158,29398.6886540276,45766.5284078873,46969.2930711383,30223.6584986230,47638.8935950016,51470.4161506683,53258.3496895282,15852.1727625034
2980183881,14679,-2,0,32562.1681510243,41423.7800702047,29405.2957134024,45776.4450807980,46986.9362315315,30225.8486840512,47644.3812262687,51479.9069541901,53281.5291519759,15857.4535429246
2980183881,14679,-2,0,32552.8476952579,41416.9539922870,29402.8743417347,45767.0029480634,46971.8239520774,30210.5417214479,47637.0197696908,51472.3751498568,53260.2600179294,15854.1317616919
2980183881,14679,-2,0,32532.9413432555,41408.7529646284,29398.7129894212,45757.2931259987,46952.8423450336,30209.9455043036,47631.0941013381,51463.2007064522,53243.2860808614,15846.7216343267
2980183881,14679,-2,0,32545.5592448609,41416.8566507124,29405.1618687374,45765.8348491684,46973.3814172708,30227.1749630049,47636.9832666004,51471.1097093872,53271.6976529429,15847.2205098965
2980183881,14679,-2,0,32555.4272469843,41419.0468361406,29406.7315016275,45764.3503901560,46977.2264094668,30222.4295612439,47636.3018755783,51471.0367032062,53269.9455046004,15851.7468931146
2980229514,14680,-2,0,32538.5871545814,41408.6191199633,29403.8234220868,45754.3972141548,46954.2903009556,30223.3178031120,47628.3442018561,51460.4021361830,53247.0093960892,15849.8243970166
2980229514,14680,-2,0,32545.2550524404,41419.3266931675,29412.7180084644,45768.7307610122,46970.1204745222,30227.9780309952,47639.1126135444,51469.5157411034,53268.0595115929,15859.2665297512
2980229514,14680,-2,0,32555.5854270430,41418.9738299596,29407.8752651289,45770.9331141372,46978.6987007824,30214.4840552185,47638.2000362827,51469.3210579542,53272.3060377841,15858.1227662498
2980229514,14680,-2,0,32545.5470771641,41409.9453989170,29399.2362003846,45759.8970131188,46962.8928626094,30211.5394725874,47631.9701755093,51462.0569429509,53246.6930359718,15856.0055870026
2980229514,14680,-2,0,32546.8368530273,41415.2261793382,29404.4926454121,45767.6235006013,46972.0429706202,30229.5841669758,47638.5285640969,51468.0312820910,53257.6804662029,15860.7753241572
2980229514,14680,-2,0,32560.0023009898,41421.4803755051,29408.8121777842,45774.7294355459,46990.2701804610,30226.5909135574,47642.7142518040,51475.4779125466,53277.7815013544,15857.9037477070
2980229514,14680,-2,0,32549.1122123332,41417.4772032504,29406.6828308402,45765.2021289336,46974.4886776817,30223.2813000215,47635.6569876467,51470.7203430888,53259.8949870247,15854.9469973791
2980229514,14680,-2,0,32539.7187503859,41419.9837487959,29410.0654505570,45767.7451775696,46967.5287550989,30232.6260911815,47637.4091359892,51471.4017341109,53257.2424291173,15849.7757262293
2980247452,14681,-2,0,32555.8409486763,41431.7620793205,29413.8861073594,45777.4671673311,46986.6442068078,30227.7225093619,47643.3713074324,51479.0308800189,53282.3565553598,15846.6242927522
2980247452,14681,-2,0,32559.5399285105,41427.5033854325,29409.0798671144,45773.6951813160,46983.8456365385,30218.4263889892,47640.6092402536,51476.0132912068,53271.7341560334,15852.1119240193
2980247452,14681,-2,0,32545.6565864355,41420.1905996419,29405.1131979501,45770.1543815405,46969.8406174953,30214.3015397662,47638.6745764588,51470.4648214555,53250.1608295663,15855.5432145234
2980247452,14681,-2,0,32537.2973787182,41413.9242357781,29398.9076725704,45769.5824997898,46970.9357102094,30206.7575677360,47636.0828570355,51466.7536739245,53259.1649252153,15844.0934118130
2980247452,14681,-2,0,32541.0085262492,41409.6168711028,29394.6003078951,45764.9466073003,46969.4147481065,30203.4114511097,47633.7101561550,51463.4927311760,53257.7778077775,15838.1069049761
2980247452,14681,-2,0,32534.5231438425,41407.1346609509,29394.3326185649,45757.8406723557,46953.4750652684,30213.0482669934,47630.1085178954,51457.1655288281,53237.2022324499,15838.9951468442
2980247452,14681,-2,0,32554.5390051163,41426.6881497454,29413.7765980880,45780.1805637226,46977.3967572223,30253.7127097757,47649.7228451740,51477.7532718525,53266.9765865756,15854.2899417506
2980247452,14681,-2,0,32582.0258322393,41447.6409236745,29428.0249710677,45800.6466297788,47006.7939127466,30244.5260986744,47666.5994406674,51498.4383564515,53297.3958286330,15862.1746092919
2980277331,14682,-2,0,32559.5885992978,41429.2798691686,29411.3917295107,45782.4924261190,46978.4675145428,30210.6512307193,47651.8035213307,51481.5374255644,53261.3064398561,15854.0709232078
2980277331,14682,-2,0,32531.2987041844,41409.6533741932,29395.6710652155,45765.1047873590,46956.0789523885,30202.2798553051,47635.2797890452,51464.7095008583,53244.0769811549,15842.6454558911
2980277331,14682,-2,0,32535.9102612803,41408.9963185648,29392.2397747114,45764.6910856670,46970.4733377301,30212.1965282158,47633.8196654264,51463.4197249951,53260.5885457436,15834.9798068926
2980277331,14682,-2,0,32537.4190556864,41405.8813881781,29390.1225954642,45760.2863794171,46965.1803896121,30202.8274016622,47628.5997234894,51458.0902737866,53245.7317879228,15834.9433038021
2980277331,14682,-2,0,32525.7137313427,41399.9922229158,29385.9855785444,45757.9015108398,46949.4353899232,30207.2929463962,47628.4902142180,51455.6689021189,53229.9989559307,15837.2308308048
2980277331,14682,-2,0,32532.8074985905,41406.8183008335,29388.2974409408,45770.5802509293,46960.8000187558,30209.1059332228,47637.5551483511,51463.7847558998,53253.9084801878,15836.7319552351
2980277331,14682,-2,0,32544.9021892325,41411.2108393866,29391.2906943592,45776.8222793995,46968.5751770257,30213.3281240204,47644.2352139069,51469.7590950398,53257.1085844522,15847.6707146789
2980277331,14682,-2,0,32537.8084219847,41405.7962143004,29388.3217763344,45767.3558112712,46950.8346750579,30199.5786266104,47639.5263152364,51459.7085774641,53233.9291220045,15847.0744975346
2980338683,14683,-2,0,32536.5551492120,41400.2842476396,29379.1229975363,45760.4688948694,46951.4673952926,30187.5691098462,47633.6128145804,51452.2376116148,53238.5041760100,15835.1258192545
2980338683,14683,-2,0,32544.1477920295,41396.2932430817,29373.3555092422,45757.0132689717,46959.4007336212,30189.3820966728,47628.5510527021,51452.4809655512,53243.9066333993,15829.1879832049
2980338683,14683,-2,0,32531.0553502480,41390.1363884892,29373.9273909929,45750.5522219587,46941.9644240739,30190.8665556852,47624.6938928092,51447.2245205237,53222.9903625607,15832.1690689265
2980338683,14683,-2,0,32520.3477770438,41389.1508050466,29374.3289249880,45752.2922026044,46937.9855872128,30186.6321971908,47622.1995149605,51445.1438443670,53222.0291145117,15830.8671253664
2980338683,14683,-2,0,32530.0941021990,41392.5577601570,29371.3843423569,45754.7135742722,46954.5214871952,30192.5822009372,47623.7813155475,51449.2565258932,53239.2585732130,15829.5773495032
2980338683,14683,-2,0,32539.1955394225,41396.6582739863,29374.7791297705,45758.1205293826,46957.3443928581,30197.3032673045,47626.1661841248,51454.5738094048,53231.2522287035,15834.3957574451
2980338683,14683,-2,0,32532.6006477445,41392.0345491936,29372.6862859169,45756.6239026734,46944.7021558591,30185.7074522323,47625.6064700709,51450.2177739422,53221.7005866975,15832.6557767994
2980338683,14683,-2,0,32532.0774367811,41388.8344449292,29364.1445627472,45756.5143934020,46946.9166766809,30177.4820891800,47623.9394956062,51447.1150112523,53237.0927231785,15825.6106803389
2980343453,14684,-2,0,32528.7191524580,41383.5293291144,29358.7907761451,45752.0001778807,46945.4322176685,30184.2473286135,47619.9119879578,51444.4502856481,53227.1152117837,15828.4579213955
2980343453,14684,-2,0,32522.2581054450,41387.0214581026,29361.4189986589,45751.2701160713,46934.3961166501,30182.7993726916,47622.0291672050,51443.5863791737,53208.9853435175,15832.0717273519
2980343453,14684,-2,0,32532.6371508350,41395.4658396977,29366.2374066008,45755.0055989959,46947.2573721919,30186.7538741590,47622.8687382858,51447.4557067634,53223.4892381304,15824.9536247105
2980343453,14684,-2,0,32545.2063816531,41395.5388458786,29367.5150147672,45751.2457806777,46953.3777236938,30182.4100063933,47621.3599438797,51447.0663404650,53227.8452735931,15819.8188566512
2980343453,14684,-2,0,32535.4600564979,41392.0832199809,29368.7317844495,45748.7879059194,46937.6448917018,30189.2239166141,47620.2891865593,51445.8495707827,53207.8050769257,15832.8261245549
2980343453,14684,-2,0,32534.7299946885,41397.3031619180,29375.2536699466,45758.7775850110,46941.2830330518,30182.4708448774,47625.9958363693,51449.8527430375,53218.2206254061,15837.2795015921
2980343453,14684,-2,0,32536.6524907865,41389.4428297703,29363.7430287521,45753.0831028979,46943.3515415117,30164.3774797017,47619.3766092976,51442.4547833691,53222.8078471084,15825.1604755565
2980343453,14684,-2,0,32529.5587235388,41376.3747233825,29353.5586665113,45740.0514996005,46928.0932496958,30164.6938398191,47608.6690360934,51430.5912789668,53198.0830871641,15822.3010668031
2980390299,14685,-2,0,32522.3919501101,41375.1092829129,29355.5420010934,45739.7108040895,46923.4938602967,30172.5906750571,47608.3040051887,51427.9630564530,53192.1330834177,15824.3330721725
2980390299,14685,-2,0,32533.5740634903,41382.2882240384,29360.1292227957,45747.6319747212,46941.6115608661,30176.4113318595,47613.2197547052,51436.3709349577,53216.0547753716,15823.9923766615
2980390299,14685,-2,0,32531.5785612114,41381.9961993147,29360.9931292701,45744.5657151219,46937.4015377653,30173.7587739521,47612.4410221085,51436.5412827132,53207.6833999574,15828.9567969652
2980390299,14685,-2,0,32523.0125026480,41383.7848507477,29365.4221709136,45745.6486401391,46929.0910008353,30186.6443648876,47613.7551333654,51439.3155175888,53199.2876891496,15832.4124228630
2980390299,14685,-2,0,32538.0882790116,41397.3883357957,29374.1950803230,45757.9988524144,46949.5570668914,30190.5136924773,47622.5767135620,51449.6945629788,53227.3707334170,15831.4755102076
2980390299,14685,-2,0,32548.7106783381,41396.3175784753,29371.9197210171,45756.3562133433,46955.7504245743,30185.5006013863,47620.4351989212,51450.7896556928,53232.8705323809,15831.9013795964
2980390299,14685,-2,0,32535.2410379551,41387.2526443422,29366.9066299260,45748.3498688338,46934.5542967088,30179.4897591557,47618.1355042216,51443.9270746847,53210.0561008379,15835.5273532496
2980390299,14685,-2,0,32530.3009530450,41386.9484519216,29367.2716608307,45754.8230835436,46936.9026621956,30185.5614398704,47622.7835644080,51447.9910854236,53224.1827968494,15837.9122218269
2980405895,14686,-2,0,32540.4488121953,41391.8642014381,29368.5371013003,45758.2543740477,46949.8490916152,30185.7561230196,47625.4726254059,51453.2475304511,53238.6745237655,15836.8171291129
2980405895,14686,-2,0,32544.4276490564,41397.1206464656,29376.2392533892,45759.5076468204,46948.4863095710,30198.4591985027,47629.6704808098,51457.9807645152,53226.8596901504,15845.2493430112
2980405895,14686,-2,0,32545.0725369880,41397.9723852432,29379.7435500742,45761.9898569723,46946.3082918397,30183.7849561342,47632.1161878712,51457.1168580408,53224.7303432064,15836.7562906288
2980405895,14686,-2,0,32548.2726412525,41393.8232006266,29370.3987589142,45757.2809583018,46950.1411163389,30173.1017183237,47626.4338734549,51452.6269779131,53236.2896551882,15827.2776548037
2980405895,14686,-2,0,32540.7165015254,41387.3134828263,29366.7362821705,45752.1583579394,46937.7057301859,30176.1193071358,47620.3135219530,51448.2222716632,53219.6320782376,15831.0739762124
2980405895,14686,-2,0,32529.5830589324,41385.6221729679,29366.1887358135,45752.0123455775,46928.2635974513,30176.3018225881,47620.8854037036,51446.3362786557,53206.0407608863,15831.5606840854
2980405895,14686,-2,0,32540.3758060144,41395.1251441867,29369.0968153542,45757.7554984779,46947.2087014046,30183.8701300120,47624.9859175330,51453.4543812971,53228.1251306200,15826.0243820309
2980405895,14686,-2,0,32551.2658946709,41399.5663535270,29370.4474297015,45758.2300386540,46956.6143310488,30182.0084723981,47625.2049360758,51453.7950768081,53228.2954783755,15821.7291850524
2980455042,14687,-2,0,32538.9156823956,41395.7091936342,29370.9341375744,45753.8253324041,46940.7354866948,30183.7362853470,47623.8056509411,51448.5751348711,53206.9290027544,15820.1595521623
2980455042,14687,-2,0,32535.7764166153,41395.8673736929,29368.8656291145,45757.4148029669,46945.8580870573,30177.8471200847,47625.2901099535,51450.9356680547,53219.4860658757,15818.0545406119
2980455042,14687,-2,0,32541.7142526649,41393.9205422012,29364.4244197742,45755.8086669863,46954.3389717429,30181.0228889554,47625.2536068631,51452.4809655512,53226.1052929474,15815.4019827045
2980455042,14687,-2,0,32541.7629234522,41396.0985599325,29369.0603122637,45755.6626546244,46951.2118736594,30201.4159488307,47627.0665936897,51455.9730945394,53212.7816649263,15821.4736634191
2980455042,14687,-2,0,32558.8828728821,41416.1265889030,29386.2654355713,45773.6221751350,46971.4954242632,30212.8657515411,47642.5925748358,51473.5067456613,53235.4500841074,15831.5120132981
2980455042,14687,-2,0,32575.4917790454,41422.7214805811,29391.5340482957,45781.5433457668,46990.0024911309,30203.8981589826,47647.7273428950,51480.0286311584,53256.2811810683,15834.2254096896
2980455042,14687,-2,0,32556.4249981238,41406.2220836892,29378.2347556682,45762.8050926594,46964.5476693773,30180.8768765936,47633.1626097980,51465.6585812105,53227.4559072947,15829.0906416303
2980455042,14687,-2,0,32531.7124058764,41392.4725862793,29365.4221709136,45750.8077435920,46942.8891690325,30172.8583643872,47622.8565705889,51455.2552004269,53208.9123373366,15818.8211055117
2980466372,14688,-2,0,32537.1635340531,41392.9592941522,29359.4113286831,45752.1583579394,46955.2758843982,30182.1423170631,47623.2824399777,51455.7297406030,53225.9836159792,15817.1054602597
2980466372,14688,-2,0,32551.9837887835,41401.5861911996,29370.4230943079,45760.5540687472,46968.3926615734,30199.8828190310,47630.6803996461,51465.5490719391,53231.9944582097,15831.7553672345
2980466372,14688,-2,0,32547.3357285971,41406.4776053225,29379.9869040107,45766.4675694031,46963.3552350887,30204.2631898873,47637.7498315002,51468.4206483893,53224.4261507858,15841.0028168200
2980466372,14688,-2,0,32544.6344999024,41407.4753564619,29381.0089905438,45769.7528475453,46969.7432759207,30193.0445734165,47636.8737573290,51468.8708531717,53241.3879201570,15835.4908501592
2980466372,14688,-2,0,32539.2928809971,41398.1549006956,29370.1554049778,45758.7410819206,46966.9447056514,30182.3735033028,47627.4802953817,51459.3922173467,53237.0805554817,15829.0054677525
2980466372,14688,-2,0,32529.0841833627,41391.1828104160,29365.3856678232,45749.3841230637,46950.3844702754,30190.8178848979,47619.5712924467,51450.1447677612,53215.6775767701,15829.9302127111
2980466372,14688,-2,0,32539.6335765082,41399.9678875222,29373.5136893009,45761.0651120138,46959.8144353132,30202.9369109336,47626.5798858168,51458.1876153612,53233.9291220045,15833.3128324279
2980466372,14688,-2,0,32558.5786804615,41410.7484669073,29381.4348599326,45769.3513135502,46977.0682294081,30199.8098128501,47633.5884791868,51468.5788284480,53257.9968263203,15839.9928979837
2980496664,14689,-2,0,32541.1302032174,41398.5929377812,29375.8863901814,45755.4071329911,46949.7030792533,30184.8922165451,47620.6420497672,51453.6247290526,53230.9602039797,15833.3006647310
2980496664,14689,-2,0,32526.4924639394,41394.5289270423,29374.5966143181,45754.5310588198,46937.9247487287,30194.5046970353,47618.3545227644,51450.5097986659,53227.9791182581,15830.7941191855
2980496664,14689,-2,0,32534.8760070504,41398.7024470526,29372.3090873154,45757.2687906050,46950.9563520261,30188.3356747460,47617.1499207790,51448.2831101473,53244.6853659960,15825.6228480358
2980496664,14689,-2,0,32532.2721199303,41392.2414000396,29364.8989599503,45747.3521176943,46944.1546095021,30185.3667567212,47609.2652532377,51438.8531451095,53227.5775842630,15825.1604755565
2980496664,14689,-2,0,32523.2801919781,41393.0444680299,29371.3356715696,45746.0623418311,46935.8562402688,30199.3109372803,47610.3725136486,51438.5246172953,53219.2305442424,15831.3660009362
2980496664,14689,-2,0,32531.7732443605,41400.1504029745,29378.1860848809,45757.5729830256,46950.2627933072,30201.1482595006,47616.1765050331,51448.7941534139,53246.7052036686,15836.0262288194
2980496664,14689,-2,0,32535.5695657693,41399.2013226223,29376.7259612622,45759.1791190062,46954.1321208969,30195.0400756955,47617.1134176885,51450.3394509104,53249.6862893902,15834.8459622276
2980496664,14689,-2,0,32523.7425644574,41391.1584750224,29370.3744235206,45749.0555952495,46936.0995942053,30191.6939590692,47609.5816133551,51442.0410816772,53227.5897519598,15830.2222374348
2980532408,14690,-2,0,32527.8552459836,41395.5023427882,29371.7858763520,45753.3751276217,46945.3227083971,30203.5817988652,47612.1124942943,51445.3628629098,53244.3811735754,15830.2587405253
2980532408,14690,-2,0,32545.4132324991,41403.6181965691,29377.6263708270,45761.7708384295,46964.2191415631,30203.9103266794,47617.8678148915,51452.8946672432,53260.8197319832,15832.3029135916
2980532408,14690,-2,0,32535.8007520089,41398.1427329987,29375.4118500053,45755.2732883260,46948.0969432727,30200.3695269039,47614.3635182065,51447.9059115458,53238.9543807924,15832.7044475867
2980532408,14690,-2,0,32524.6551417191,41396.3175784753,29373.0756522153,45755.1516113578,46942.3659580691,30193.1784180816,47612.4775251990,51445.2411859416,53237.4090832959,15827.2654871069
2980532408,14690,-2,0,32530.7633255242,41398.7876209304,29370.2892496428,45756.1250271036,46957.1497097090,30196.3906900428,47613.8524749400,51448.7089795361,53255.9891563445,15826.0243820309
2980532408,14690,-2,0,32531.7975797542,41400.1625706714,29374.4262665626,45750.8929174698,46956.3344740218,30202.8760724494,47612.7087114386,51450.8018233897,53246.7660421527,15834.1767389023
2980532408,14690,-2,0,32521.6132175134,41394.6627717074,29373.1851614867,45746.0623418311,46944.8725036146,30197.7413043902,47612.0638235070,51446.7256449540,53234.6348484203,15834.3349189610
2980532408,14690,-2,0,32525.3973712253,41395.5510135755,29371.0071437554,45749.3476199733,46955.1177043395,30195.5511189620,47613.3657670670,51451.0451773261,53253.3244307403,15831.1104793029
2980585498,14691,-2,0,32526.9305010250,41395.2346534581,29373.8787202056,45749.6883154843,46952.8180096400,30205.3947856918,47614.5216982652,51451.9090838006,53251.0734068281,15836.7076198415
2980585498,14691,-2,0,32514.8723134735,41393.1296419077,29376.8233028367,45747.0844283642,46937.3285315844,30200.4181976912,47614.9110645636,51447.1150112523,53236.7885307579,15841.6477047516
2980585498,14691,-2,0,32521.5767144229,41395.8308706024,29377.1883337414,45754.6892388785,46945.9432609350,30205.0175870903,47618.7317213660,51450.4124570913,53255.9283178604,15837.0726507461
2980585498,14691,-2,0,32532.9900140428,41395.8673736929,29373.9882294770,45752.9492582329,46956.3344740218,30197.3154350014,47615.8723126126,51450.2907801231,53261.9269923941,15831.7431995377
2980585498,14691,-2,0,32516.4297786668,41384.1133785619,29365.0084692217,45738.0073265343,46935.4060354864,30190.2216677536,47605.7487888559,51438.2204248748,53232.5420045667,15832.1690689265
2980585498,14691,-2,0,32505.9412240054,41381.4121498672,29365.4830093978,45738.5913759818,46932.4857882489,30193.1054119006,47604.7388700196,51439.3641883761,53237.2265678436,15834.3105835673
2980585498,14691,-2,0,32514.9209842608,41384.6122541316,29366.0062203611,45742.1200080604,46946.4664718984,30195.6241251430,47605.6027764940,51443.8905715942,53254.1153310338,15839.2141653870
2980585498,14691,-2,0,32516.6609649064,41386.7537687725,29369.0481445669,45741.4142816447,46939.9810894918,30200.8197316864,47605.8582981273,51440.4714487870,53237.7497788069,15848.2425964296
2980591590,14692,-2,0,32516.2594309113,41392.6185986411,29374.2437511103,45745.9041617724,46938.3384504207,30199.4082788549,47607.5009371984,51441.1163367186,53235.1823947773,15847.0379944441
2980591590,14692,-2,0,32519.6420506281,41392.3022385237,29367.4298408894,45745.0524229948,46946.1501117810,30184.8313780610,47605.4324287385,51436.3952703513,53248.7372090381,15833.2276585501
2980591590,14692,-2,0,32510.6501226759,41386.5712533201,29362.9277930649,45736.9365692139,46937.5110470367,30186.6930356749,47598.9227109382,51431.8202163459,53237.1535616626,15831.4998456012
2980591590,14692,-2,0,32496.0732218820,41383.9186954127,29362.7087745221,45733.2497570765,46922.8124692746,30186.6808679781,47596.4283330895,51425.9310510836,53220.2282953819,15835.9775580321
2980591590,14692,-2,0,32506.8294658735,41390.2580654575,29367.5271824640,45740.9884122559,46939.5187170125,30193.7137967418,47599.5797665667,51431.2361668984,53242.7750375948,15838.5814451522
2980591590,14692,-2,0,32520.7249756453,41389.9782084305,29366.4807605372,45739.1997608229,46945.0915221574,30185.5857752640,47596.0633021848,51429.2406646194,53244.0039749739,15840.3944319788
2980591590,14692,-2,0,32511.2220044266,41382.7749319114,29362.7939483999,45729.2465848218,46926.5966229866,30183.1765712931,47590.7703540668,51418.9711285009,53217.2107065698,15840.1632457392
2980591590,14692,-2,0,32510.2364209839,41384.1255462587,29365.6533571533,45735.6224579570,46930.1982612461,30193.6529582577,47594.8830355930,51422.4875928827,53227.8817766835,15837.0726507461
2980621618,14693,-2,0,32517.3666913222,41384.0282046841,29361.8448680477,45734.4056882747,46938.5939720540,30181.2054044078,47593.0578810696,51422.9499653620,53238.3946667386,15826.5840960848
2980621618,14693,-2,0,32514.1665870577,41380.8281004197,29358.8881177197,45727.5552749634,46926.9494861944,30189.5037736410,47589.9186152892,51421.2829908972,53223.1120395289,15826.5597606911
2980621618,14693,-2,0,32518.6808025791,41390.5987609685,29366.6754436864,45736.4863644314,46934.9923337944,30201.8539859163,47598.8862078477,51428.8147952306,53233.2112278920,15835.3083347068
2980621618,14693,-2,0,32535.4235534074,41401.2089925981,29370.8002929094,45746.5490497040,46957.6242498851,30195.6119574461,47605.4932672226,51437.0888290702,53258.6782173424,15837.1456569271
2980621618,14693,-2,0,32524.4482908731,41394.4072500741,29363.9377119012,45737.4111093900,46947.6954092775,30189.2482520078,47599.0200525128,51432.4529365807,53240.3049951398,15839.2628361743
2980621618,14693,-2,0,32508.1800802209,41391.2801519906,29367.1499838625,45735.9996565585,46940.8206605726,30194.8940633336,47599.8352881999,51432.5746135489,53230.6316761655,15841.3435123310
2980621618,14693,-2,0,32521.3698635769,41402.4987684614,29374.0490679611,45748.4715458020,46965.7766067564,30205.1270963617,47609.1070731790,51444.6206334036,53257.3884414792,15839.6643701694
2980621618,14693,-2,0,32531.8705859351,41403.1558240898,29373.0756522153,45747.5954716308,46970.5585116078,30191.1585804090,47608.3648436728,51446.0199185383,53254.4195234544,15834.4079251419
2980655102,14694,-2,0,32514.4951148720,41390.8542826018,29367.6001886449,45736.2551781918,46942.9500075166,30187.3500913034,47600.7843685521,51433.8765571090,53227.8696089867,15829.2001509017
2980655102,14694,-2,0,32513.4851960357,41393.2756542696,29369.1454861415,45741.5846294002,46945.9797640255,30196.4636962238,47605.2012424988,51435.8963947816,53247.0945699670,15826.9856300799
2980655102,14694,-2,0,32522.7448133179,41399.6515274048,29373.4163477263,45747.4981300562,46955.0690335522,30197.8143105711,47609.5451102646,51440.6661319362,53260.3816948976,15832.9478015232
2980655102,14694,-2,0,32522.4162855037,41406.1734129019,29378.6484573602,45747.6076393276,46951.6377430482,30211.2839509541,47614.4121889938,51441.9072370121,53247.2284146320,15844.0325733289
2980655102,14694,-2,0,32531.5785612114,41421.9914187717,29390.4876263689,45760.9677704392,46966.5796747467,30220.4340589650,47624.3288619045,51452.0429284656,53259.1405898217,15851.4670360877
2980655102,14694,-2,0,32544.1234566358,41425.6538955154,29392.0694269559,45765.2751351145,46982.6410345530,30206.8184062201,47625.8254886137,51455.6689021189,53275.4818066549,15847.3300191679
2980655102,14694,-2,0,32528.5123016120,41407.3293441001,29377.7602154921,45749.0190921590,46956.9915296503,30192.0346545802,47611.3702647881,51438.5002819017,53244.5880244214,15836.6346136605
2980655102,14694,-2,0,32512.6699603485,41398.5442669939,29376.3852657511,45744.4805412441,46938.0342580001,30197.7169689965,47608.0484835554,51433.3776815392,53233.2720663761,15832.5340998312
2980701619,14695,-2,0,32526.1639361252,41401.8295451361,29376.6529550812,45750.9780913475,46949.4840607105,30199.2987695835,47613.0494069496,51437.9284001510,53254.3830203639,15824.6250968963
2980701619,14695,-2,0,32535.4965595884,41400.4180923046,29375.9837317560,45749.5909739097,46951.6499107450,30196.1108330159,47613.5361148226,51436.5656181068,53248.7250413412,15834.3714220515
2980701619,14695,-2,0,32525.1175141984,41392.3265739174,29371.4330131442,45743.8964917966,46936.2577742640,30196.4271931333,47610.9322277025,51428.1699072990,53229.3175649086,15843.8743932702
2980701619,14695,-2,0,32532.9900140428,41398.1670683924,29375.8985578782,45751.2457806777,46949.8977624025,30197.6196274219,47617.1255853853,51435.0203206103,53251.4992762169,15845.2615107080
2980701619,14695,-2,0,32538.0396082244,41394.5167593455,29373.2946707581,45748.0943472005,46952.8545127305,30189.9053076362,47614.5216982652,51433.1951660869,53254.4925296353,15835.2961670100
2980701619,14695,-2,0,32528.4149600374,41389.5888421322,29375.3510115212,45743.4827901046,46938.5818043572,30206.4533753154,47613.9984873018,51429.6908694019,53234.7078546012,15835.6733656115
2980701619,14695,-2,0,32538.8305085179,41403.7642089309,29390.1347631610,45756.5752318861,46956.7968465011,30219.0834446176,47626.0201717629,51442.0897524644,53254.6628773908,15845.4196907667
2980701619,14695,-2,0,32549.6719263871,41404.7619600704,29386.5939633856,45757.1471136368,46968.1493076369,30200.2356822389,47625.4239546186,51444.1825963180,53266.1735185853,15843.2416730354
2980722435,14696,-2,0,32530.6051454655,41390.8056118145,29372.5767766455,45741.7914802462,46944.9090067051,30195.1495849669,47614.0958288764,51432.6719551235,53236.2896551882,15840.8568044581
2980722435,14696,-2,0,32521.8444037530,41396.0498891452,29377.6507062207,45749.3111168828,46942.2686164945,30213.8756703774,47620.1675095911,51440.2524302442,53241.2054047046,15849.8974031975
2980722435,14696,-2,0,32542.0184450855,41412.9508200323,29391.6313898703,45767.9033576283,46972.7973678233,30228.9027759537,47635.8151677054,51457.9077583343,53276.3092100388,15858.9380019370
2980722435,14696,-2,0,32557.0212152681,41425.6660632122,29405.3200487961,45778.5257569547,46989.1507523533,30247.9817245721,47647.9706968315,51472.1682990108,53282.7215862645,15866.6036509354
2980722435,14696,-2,0,32557.9459602267,41432.0662717411,29414.6405045624,45783.5631834394,46987.5932871600,30232.0663771277,47654.3952407540,51474.0177889278,53272.3182054809,15865.0096826516
2980722435,14696,-2,0,32551.6430932724,41422.5998036129,29401.3412119350,45776.9196209741,46986.2183374190,30206.3073629535,47644.4542324497,51464.0646129267,53277.5259797211,15845.1033306493
2980722435,14696,-2,0,32539.7917565669,41409.0206539585,29386.2532678745,45761.1381181947,46973.9289636278,30200.7953962927,47629.9503378367,51450.3881216977,53263.3627806192,15835.3570054941
2980722435,14696,-2,0,32526.3099484870,41405.4676864862,29384.1604240210,45755.3341268102,46959.8387707068,30210.1158520591,47624.6208866283,51444.6936395846,53240.9620507682,15838.6422836363
2980743499,14697,-2,0,32534.4014668743,41414.0094096559,29385.7057215175,45763.1092850800,46971.3615795982,30208.5583868658,47629.8651639590,51448.9766688662,53258.6660496456,15835.6246948242
2980743499,14697,-2,0,32545.5349094673,41412.0625781642,29379.3541837759,45760.5053979599,46980.8888862105,30197.7048012997,47626.8962459342,51448.3682840251,53264.3483640619,15830.1370635571
2980743499,14697,-2,0,32536.4213045469,41407.0251516795,29377.2248368319,45754.2025310056,46965.7401036660,30202.8760724494,47623.9759986967,51444.4624533449,53240.6456906508,15834.5539375038
2980743499,14697,-2,0,32530.3982946196,41410.6511253327,29383.3695237275,45758.1205293826,46964.5355016805,30208.8260761959,47628.4415434307,51447.1758497364,53245.9873095561,15838.0704018856
2980743499,14697,-2,0,32545.7660957069,41421.4682078083,29392.3006131955,45767.5504944204,46985.7316295461,30217.3677993656,47636.1436955196,51455.4742189697,53271.2839512510,15842.3047603800
2980743499,14697,-2,0,32551.4727455169,41423.9869210507,29396.3402885407,45766.4919047968,46984.3688475019,30217.9883519035,47634.4523856612,51454.8536664317,53258.7390558265,15851.1506759703
2980743499,14697,-2,0,32545.3158909245,41422.4416235542,29397.2893688929,45766.2242154667,46973.7586158723,30210.4565475701,47636.2288693974,51450.0960969739,53247.8246317763,15852.4526195303
2980743499,14697,-2,0,32548.9661999714,41421.1396799941,29393.8702460857,45767.4044820585,46979.3557564108,30204.1536806159,47633.2599513726,51449.8284076438,53264.5552149079,15848.1452548550
2980775389,14698,-2,0,32539.2807133003,41411.5515348976,29384.7201380748,45755.3949652943,46965.4845820327,30194.7115478813,47621.5181239384,51442.0045785867,53250.9760652535,15842.9983190989
2980775389,14698,-2,0,32526.0057560665,41408.9963185648,29385.1703428573,45753.5333076804,46951.2483767498,30201.6714704640,47623.7813155475,51439.7413869776,53232.9800416523,15843.0348221894
2980775389,14698,-2,0,32534.7178269917,41415.8345641793,29386.1437586031,45761.4301429184,46965.6914328787,30194.4316908543,47627.5167984721,51446.1659309001,53249.9539787203,15837.0118122620
2980775389,14698,-2,0,32546.0581204307,41413.9607388686,29380.0599101916,45757.9258462334,46975.4134226402,30191.0490711375,47624.5843835378,51446.7621480445,53254.6142066035,15835.9532226384
2980775389,14698,-2,0,32537.0905278722,41408.5582814792,29381.1428352089,45751.8054947315,46962.1019623159,30202.6692216035,47620.3378573466,51441.5422061074,53235.4257487138,15844.5679519891
2980775389,14698,-2,0,32537.0296893881,41415.8345641793,29390.9743342418,45763.5716575593,46966.1659730548,30213.4741363822,47629.0377605750,51447.0420050714,53251.6087854883,15853.6693892126
2980775389,14698,-2,0,32544.2207982104,41415.0193284922,29389.2343535961,45763.4256451974,46971.2033995395,30201.0022471387,47626.6772273913,51442.9779943325,53265.2974444141,15852.1484271098
2980775389,14698,-2,0,32530.9823440671,41400.1260675809,29377.5290292525,45744.2736903981,46950.4696441532,30182.9818881439,47612.1246619911,51423.9355488046,53237.5672633546,15845.5413677349
2980814849,14699,-2,0,32515.8092261288,41390.8907856923,29369.0603122637,45736.2795135854,46940.2001080346,30185.6831168386,47604.7753731101,51416.0995520506,53226.5798331235,15836.6346136605
2980814849,14699,-2,0,32530.8606670988,41397.4370065830,29374.7304589832,45748.8730797972,46963.7324336902,30200.2843530262,47614.5338659620,51429.6056955241,53254.7358835718,15836.9874768684
2980814849,14699,-2,0,32533.0995233142,41397.3031619180,29376.9328121081,45750.4913834746,46963.3308996950,30192.0954930643,47615.9209833999,51432.6841228203,53247.1797438447,15837.0726507461
2980814849,14699,-2,0,32514.2395932387,41390.4649163035,29373.8422171151,45745.5756339582,46944.3371249544,30184.3081670976,47612.0759912038,51426.0405603550,53226.2878083997,15836.7927937192
2980814849,14699,-2,0,32513.6433760944,41391.5965121080,29371.2018269045,45746.1961864961,46952.9640220019,30180.9498827745,47609.4112655996,51424.9698030346,53240.7065291349,15834.8094591371
2980814849,14699,-2,0,32518.9728273028,41391.4139966557,29367.6731948259,45741.6941386716,46958.4273178754,30179.0152189797,47601.9159643567,51423.7895364427,53241.2054047046,15837.0726507461
2980814849,14699,-2,0,32513.9110654245,41392.9836295458,29370.9098021808,45740.5990459576,46949.0338559281,30197.4979504537,47604.5320191736,51427.3546716119,53226.0444544633,15848.4372795788
2980814849,14699,-2,0,32520.9804972786,41403.8980535960,29382.0675801674,45752.9249228392,46960.7878510590,30194.0544922528,47615.6897971602,51441.3110198678,53244.7097013897,15846.4782803903
2980842732,14700,-2,0,32523.6817259733,41400.9413032680,29375.2171668561,45748.9460859781,46963.7689367806,30183.8457946184,47612.1733327784,51438.2569279652,53250.5258604710,15835.6611979147
2980842732,14700,-2,0,32515.2616797718,41393.4581697219,29371.9927271980,45740.7815614099,46950.9928551166,30188.6520348634,47606.2476644256,51431.8567194363,53232.4933337794,15836.6589490542
2980842732,14700,-2,0,32518.0602500411,41398.3982546320,29377.4925261620,45747.4251238752,46951.5769045641,30199.9923283024,47611.7839664801,51433.8887248058,53235.4135810169,15842.0735741404
2980842732,14700,-2,0,32538.9643531829,41408.6677907506,29385.6692184270,45758.6924111333,46974.2574914420,30204.4092022491,47620.3621927402,51444.3407763767,53261.8539862132,15844.8113059255
2980842732,14700,-2,0,32540.9963585523,41406.1855805987,29384.1847594146,45756.1128594068,46967.0055441355,30194.4560262480,47620.2770188625,51440.9459889631,53246.8390483337,15844.9573182874
2980842732,14700,-2,0,32528.0012583454,41401.5253527155,29382.8219773704,45753.7523262232,46952.0149416497,30193.9084798909,47619.8389817769,51436.6142888941,53231.1792225225,15841.8788909912
2980842732,14700,-2,0,32534.2067837251,41404.3482583784,29381.2523444803,45758.0596908985,46964.9613710693,30194.0666599496,47620.7758944322,51439.6683807967,53247.7759609890,15831.1104793029
2980842732,14700,-2,0,32541.4343956380,41404.3117552880,29378.7701343284,45753.8375001009,46967.6139289767,30190.1486615726,47617.1864238695,51438.0379094224,53243.0305592281,15832.9599692200
2980869896,14701,-2,0,32531.6028966050,41400.5762723633,29383.1018343974,45750.9659236507,46952.4408110385,30194.4803616416,47615.9696541872,51435.2271714563,53223.6230827955,15843.6797101210
2980869896,14701,-2,0,32531.4447165463,41403.7520412341,29386.1802616936,45754.7500773627,46957.2227158899,30187.6177806335,47617.5271193805,51437.5390338527,53238.1634804989,15843.0469898862
2980869896,14701,-2,0,32533.3550449475,41402.3770914931,29383.2235113656,45753.5211399835,46961.0920434796,30184.4663471563,47613.6821271844,51436.8454751338,53245.0990676880,15838.2164142475
2980869896,14701,-2,0,32520.9318264913,41396.8286217419,29379.6705438933,45743.8721564029,46944.9455097956,30181.5582676157,47607.2940863524,51428.8391306243,53220.5689908929,15839.1776622965
2980869896,14701,-2,0,32515.0913320163,41396.7556155609,29376.7381289590,45743.5922993760,46943.2663676340,30184.6366949119,47606.7343722985,51427.2938331277,53224.6695047223,15829.7476972587
2980869896,14701,-2,0,32531.2622010940,41405.3703449116,29379.4880284410,45753.3507922280,46961.2623912351,30185.7196199291,47612.5992021672,51437.3686860971,53249.0657368523,15831.7918703250
2980869896,14701,-2,0,32524.6794771128,41398.6416085685,29374.5601112277,45748.3498688338,46951.7472523196,30180.7673673222,47609.5329425678,51432.1487441601,53229.9137820530,15838.0338987952
2980869896,14701,-2,0,32514.1422516641,41400.1382352777,29377.8818924603,45751.3309545554,46947.2087014046,30191.5722821009,47614.4365243875,51436.3344318672,53227.0057025123,15845.5900385222
2980900420,14702,-2,0,32524.5821355382,41403.6425319627,29380.2789287344,45755.3706299006,46963.1362165458,30187.6664514208,47617.0525792044,51441.7247215598,53250.2703388377,15838.4841035776
2980900420,14702,-2,0,32533.4645542189,41405.5528603639,29385.4380321874,45755.8208346831,46968.6725186003,30205.8328227774,47619.6321309309,51446.1172601128,53250.7935498011,15838.9464760569
2980900420,14702,-2,0,32532.6736539254,41408.9354800807,29393.7364014206,45757.9623493239,46962.0046207413,30210.5782245384,47625.1806006821,51449.7554014629,53241.6191063966,15841.5990339643
2980900420,14702,-2,0,32535.5939011629,41414.9706577049,29395.5128851568,45764.1192039163,46971.4345857791,30201.4889550116,47628.9404190004,51456.0461007204,53260.6493842277,15836.3912597241
2980900420,14702,-2,0,32539.2685456035,41417.4893709472,29393.9675876603,45763.7055022243,46979.8667996774,30216.0780235023,47630.7777412207,51461.4728935034,53269.4222936370,15843.1686668544
2980900420,14702,-2,0,32537.4798941705,41422.1617665272,29400.5138085510,45765.7010045033,46971.5927658378,30214.5327260058,47634.3307086930,51463.4197249951,53255.7336347112,15853.3286937016
2980900420,14702,-2,0,32536.3482983660,41421.3343631433,29397.7030705849,45765.0682842685,46973.5030942390,30203.3627803224,47631.0210951571,51460.4751423639,53259.8463162374,15840.9541460327
2980900420,14702,-2,0,32542.2617990219,41413.8999003845,29388.9666642660,45757.3539644828,46978.1389867285,30192.7038779055,47623.8299863348,51453.9410891700,53264.1171778222,15831.7797026282
2980938611,14703,2,0,32531.2256980035,41402.5839423391,29382.2014248325,45746.2083541930,46960.4836586384,30190.6718725360,47616.1400019427,51445.3141921225,53240.3171628366,15833.7143664230
2980938611,14703,2,0,32517.0138281143,41398.9336332922,29382.8463127641,45747.4007884816,46953.0370281828,30195.2104234510,47617.7461379233,51448.1492654823,53238.8570392178,15834.8459622276
2980938611,14703,2,0,32524.5699678414,41403.4356811167,29384.9634920113,45754.5918973040,46970.6558531824,30199.1527572216,47623.3189430682,51454.3912939524,53263.0707558955,15836.0140611226
2980938611,14703,2,0,32533.0143494365,41408.9719831712,29390.4997940657,45756.4535549179,46975.2065717942,30207.5363003326,47625.7889855233,51455.8635852680,53257.9238201394,15845.0181567715
2980938611,14703,2,0,32531.3108718813,41415.6155456365,29401.3898827223,45758.8870942825,46970.1569776127,30216.8810914927,47629.8043254748,51455.5837282411,53248.3600104365,15851.7712285083
2980938611,14703,2,0,32537.9057635593,41421.1761830846,29405.5390673389,45766.2850539508,46982.1543266801,30210.1523551496,47631.5199707269,51457.4697212486,53267.0495927566,15843.7527163019
2980938611,14703,2,0,32534.1094421505,41414.2892666828,29397.9707599150,45759.8118392410,46975.4012549434,30196.7435532507,47624.4140357823,51451.0816804166,53260.0775024770,15836.3547566336
2980938611,14703,2,0,32512.9741527691,41402.4135945836,29388.6381364518,45747.9118317482,46949.9951039771,30194.1883369179,47616.7118836934,51440.8608150853,53231.2400610067,15832.9843046136
2980964760,14704,2,0,32514.3125994196,41408.2297536650,29390.7796510926,45753.2899537439,46959.2668889562,30204.1050098286,47618.3910258549,51445.2046828511,53245.8656325878,15834.9554714990
2980964760,14704,2,0,32530.9701763702,41413.9850742622,29393.5903890588,45757.9015108398,46976.7640369875,30203.7034758334,47622.0048318113,51452.4322947639,53261.9878308782,15836.2939181495
2980964760,14704,2,0,32527.0400102964,41410.3834360026,29394.5881401982,45756.3318779496,46964.9613710693,30199.1649249184,47623.5744647015,51448.9036626853,53243.0913977122,15837.7905448587
2980964760,14704,2,0,32511.6843769059,41402.9489732438,29389.5750491072,45754.9204251182,46952.5016495226,30189.4429351569,47618.9142368183,51442.0045785867,53237.8106172910,15836.6346136605
2980964760,14704,2,0,32512.9133142850,41399.8462105540,29383.9900762654,45753.2047798661,46959.6927583450,30187.4474328780,47616.5293682410,51440.2402625474,53250.4528542901,15837.1821600176
2980964760,14704,2,0,32511.2706752139,41397.3761680989,29382.4569464658,45744.7603982710,46951.8324261973,30182.3004971219,47612.5626990767,51434.1929172264,53233.4545818284,15840.0537364678
2980964760,14704,2,0,32501.5730208460,41393.3608281473,29379.3541837759,45738.6278790723,46940.1027664600,30185.6831168386,47608.5108560347,51427.8048763943,53218.1841223156,15838.8247990887
2980964760,14704,2,0,32517.3180205349,41402.9854763343,29386.0829201190,45752.3530410885,46960.5931679099,30190.0878230885,47617.8799825884,51438.4151080239,53245.1477384753,15845.5657031286
2980996183,14705,2,0,32514.9818227449,41396.1715661134,29378.5876188761,45746.8897452150,46954.1686239873,30172.2013087588,47612.3801836244,51434.1199110454,53235.7177734375,15845.3345168889
2980996183,14705,2,0,32494.8564521997,41383.3711490557,29369.9120510413,45735.9266503776,46931.4515340189,30165.9592802886,47605.0795655306,51422.2929097335,53210.1412747157,15837.5593586191
2980996183,14705,2,0,32496.7546129041,41380.6699203610,29366.0548911484,45737.9099849597,46938.0585933938,30169.3540677022,47604.1913236625,51422.0860588875,53224.8641878714,15824.9292893169
2980996183,14705,2,0,32509.9565639570,41383.6875091731,29369.9120510413,45739.6012948181,46951.7229169259,30185.7196199291,47603.5829388214,51427.7927086975,53237.6767726260,15825.6715188231
2980996183,14705,2,0,32508.4234341573,41391.5843444112,29382.4326110721,45742.6675544175,46948.8756758694,30198.1550060821,47609.4721040837,51434.3632649819,53227.3342303265,15842.5967851038
2980996183,14705,2,0,32503.4225107631,41398.8606271113,29389.7818999532,45749.6883154843,46953.4142267843,30202.5962154225,47616.1521696395,51441.2015105964,53239.0030515797,15847.9870747963
2980996183,14705,2,0,32513.7893884562,41405.0418170973,29392.2519424082,45755.9303439545,46968.0154629719,30192.3388470008,47620.1310065006,51446.7621480445,53258.7512235233,15851.8442346892
2980996183,14705,2,0,32508.5816142160,41399.0553102605,29385.4623675810,45743.5922993760,46955.6165799093,30180.0738086033,47612.1733327784,51439.6440454030,53236.4965060342,15852.0145824447
2981054808,14706,2,0,32499.3950031147,41392.8619525776,29377.9305632476,45734.8193899667,46944.8238328273,30175.4135807201,47604.3495037212,51429.9098879447,53222.3941454164,15841.6477047516
2981054808,14706,2,0,32512.9498173755,41399.3838380747,29380.0355747980,45742.9839145349,46962.7468502475,30190.8178848979,47610.1291597121,51438.0257417256,53248.0558180160,15836.6832844478
2981054808,14706,2,0,32516.2715986081,41400.1625706714,29381.1915059962,45742.3025235128,46958.8045164769,30186.3766755575,47611.6744572087,51437.9770709383,53241.3635847633,15842.6697912847
2981054808,14706,2,0,32498.4215873689,41395.3441627295,29380.3397672186,45738.6278790723,46940.2731142155,30190.8178848979,47609.2409178441,51432.5502781553,53224.1097906684,15844.9329828938
2981054808,14706,2,0,32504.6271127486,41402.6569485201,29383.8562316004,45746.5368820072,46952.6841649749,30180.6821934444,47614.5338659620,51438.1839217843,53243.6876148565,15836.2330796654
2981054808,14706,2,0,32510.8326381283,41397.6438574290,29376.0810733305,45740.8423998940,46956.2249647504,30175.7907793216,47608.6447006997,51433.7183770503,53239.8669580541,15828.5309275764
2981054808,14706,2,0,32503.1304860393,41393.5068405092,29375.7038747290,45738.0316619279,46944.9090067051,30189.3334258855,47607.6469495603,51431.5890301062,53218.3301346775,15832.4854290439
2981054808,14706,2,0,32520.5789632834,41413.2063416655,29394.0162584476,45761.2841305566,46966.8108609864,30209.0572624355,47628.5388850053,51453.0406796051,53246.5956943972,15850.1529248308
2981069432,14707,2,0,32527.2103580519,41414.0337450495,29391.2906943592,45762.5860741166,46972.7000262487,30181.7529507648,47626.0080040661,51451.8117422260,53256.5245350047,15840.6864567026
2981069432,14707,2,0,32512.9376496786,41405.1878294592,29383.7223869353,45749.2746137923,46953.8887669604,30184.0769808580,47616.5172005442,51441.6152122884,53230.2788129577,15839.7860471377
2981069432,14707,2,0,32512.7673019231,41412.2572613134,29390.4997940657,45754.3607110643,46956.9550265598,30190.8665556852,47622.2116826573,51445.5088752717,53232.6758492318,15843.1078283703
2981069432,14707,2,0,32523.3775335527,41414.9706577049,29388.3339440312,45758.7045788301,46970.8627040284,30182.6776957234,47622.2603534446,51446.2267693842,53249.2117492141,15839.3966808393
2981069432,14707,2,0,32516.0160769748,41406.1247421146,29382.4934495562,45750.7834081984,46960.6783417876,30181.7286153712,47616.1643373363,51440.2280948505,53231.5807565177,15841.5138600865
2981069432,14707,2,0,32497.9470471928,41402.6326131264,29382.9679897323,45750.9172528634,46944.9090067051,30183.0548943249,47615.0327415318,51437.9284001510,53218.8776810346,15845.1033306493
2981069432,14707,2,0,32501.7433686015,41404.1414075325,29380.9603197565,45755.7356608053,46956.8698526820,30178.0904740211,47615.9574864903,51440.9946597504,53237.2387355404,15838.7882959982
2981069432,14707,2,0,32507.0119813259,41399.6636951016,29375.6308685481,45749.6153093034,46957.8311007310,30173.0165444459,47609.8736380789,51436.7481335592,53229.2688941213,15833.4953478802
2981110245,14708,2,0,32499.0299722100,41393.9083745044,29370.9949760585,45742.6675544175,46940.7963251789,30173.1503891110,47606.5153537557,51429.6665340082,53205.5053822261,15831.8770442028
2981110245,14708,2,0,32502.0110579316,41398.4225900257,29374.9981483133,45751.3552899491,46947.7562477617,30180.9620504713,47613.6456240940,51436.4196057450,53223.2215488003,15825.9270404563
2981110245,14708,2,0,32510.2485886808,41400.9048001776,29380.8143073947,45756.5022257052,46959.9117768878,30185.2572474498,47619.6686340213,51445.2898567289,53238.2608220735,15833.2884970342
2981110245,14708,2,0,32497.1804822929,41393.7623621425,29379.5610346219,45746.1840187993,46942.7553243674,30171.8727809446,47612.0638235070,51438.7923066254,53217.0038557238,15843.5458654560
2981110245,14708,2,0,32493.1894777350,41393.2026480886,29379.1595006267,45745.2957769312,46941.1856914773,30173.6857677712,47610.9078923088,51436.8941459210,53217.6365759586,15847.4030253488
2981110245,14708,2,0,32507.0241490227,41397.3640004021,29378.2712587587,45746.3543665548,46955.9937785108,30171.6172593113,47608.5230237315,51437.7945554859,53235.4744195010,15842.5602820133
2981110245,14708,2,0,32508.7519619715,41396.9868018006,29380.7534689105,45744.7969013615,46951.5038983831,30186.6321971908,47607.5982787730,51440.0090763077,53224.4261507858,15844.0204056320
2981110245,14708,2,0,32508.8858066366,41408.0107351221,29395.5007174600,45757.7433307811,46954.5823256793,30201.9999982782,47622.5402104715,51453.4300459034,53229.9989559307,15848.5711242438
2981130584,14709,2,0,32518.7173056695,41411.3690194453,29392.1180977432,45764.8127626352,46968.7090216908,30181.3879198601,47626.8475751469,51456.8370010139,53249.1022399427,15839.8590533186
2981130584,14709,2,0,32515.7605553416,41400.1869060650,29375.9593963623,45752.2678672108,46959.3398951371,30165.9592802886,47616.6997159965,51445.7887322986,53231.4955826399,15833.5075155770
2981130584,14709,2,0,32501.4148407873,41393.5068405092,29371.4086777505,45743.9208271902,46942.9621752134,30177.2265675467,47611.1269108516,51438.7314681413,53211.5648952440,15836.7927937192
2981130584,14709,2,0,32511.2463398202,41404.2144137134,29382.2379279229,45758.1570324731,46960.5688325162,30190.5866986583,47622.0778379923,51449.6580598883,53238.4190021322,15848.0479132804
2981130584,14709,2,0,32518.0237469506,41406.3072575669,29384.7809765589,45760.5297333536,46968.2101461210,30186.4618494353,47624.4383711759,51449.8162399470,53246.1576573116,15852.4404518335
2981130584,14709,2,0,32505.3815099516,41402.9854763343,29383.6372130576,45755.0907728737,46953.3290529066,30186.3401724671,47621.5181239384,51444.3772794672,53224.5721631477,15851.4183653004
2981130584,14709,2,0,32505.9898947927,41406.6722884716,29386.3384417523,45759.4711437300,46958.9261934451,30190.4771893869,47623.3797815523,51445.7278938145,53234.7443576917,15846.2835972411
2981130584,14709,2,0,32519.2040135424,41409.3613494695,29383.0774990037,45762.4887325420,46973.4909265422,30181.7772861585,47621.8831548431,51448.6724764457,53247.6056132335,15838.5814451522
2981166061,14710,2,0,32511.5261968472,41400.6127754538,29376.9936505923,45753.8009970105,46958.0622869707,30173.0287121428,47615.2152569841,51440.2402625474,53224.5599954509,15844.7017966541
2981166061,14710,2,0,32495.9515449138,41394.3585792868,29375.5335269735,45749.7491539684,46946.7341612285,30180.7430319285,47611.2729232135,51437.7093816082,53221.5789097292,15848.7293043025
2981166061,14710,2,0,32505.6491992817,41397.8142051845,29378.6727927538,45755.8086669863,46961.4084035970,30188.0558177191,47615.4221078301,51444.1947640148,53248.4451843143,15844.7139643510
2981166061,14710,2,0,32512.2805940502,41399.5541858302,29380.4857795804,45754.0200155533,46961.2988943256,30186.4010109512,47615.1057477127,51444.7788134623,53239.6601072081,15841.8545555976
2981166061,14710,2,0,32505.8803855213,41397.7898697909,29380.9968228470,45750.8199112888,46951.7229169259,30185.4519305990,47613.8403072431,51441.8829016185,53224.0124490938,15845.3466845858
2981166061,14710,2,0,32516.4541140605,41403.0098117279,29382.5056172530,45757.6946599938,46966.1903084484,30184.8678811515,47617.9651564661,51446.0929247192,53244.2959996977,15845.9185663364
2981166061,14710,2,0,32522.6231363497,41403.2044948771,29381.3375183580,45757.7798338716,46968.6116801162,30178.8083681337,47619.2427646325,51448.1370977854,53245.3910924117,15848.5954596375
2981166061,14710,2,0,32506.5861119371,41396.2202369007,29377.0666567732,45748.3620365306,46947.3790491601,30177.7741139037,47614.3026797224,51440.4714487870,53219.5104012693,15843.4971946687
2981181206,14711,2,0,32507.1093229004,41398.2157391797,29375.2536699466,45751.0876006190,46952.6233264908,30180.3658333270,47615.7263002507,51444.2921055894,53229.3053972118,15843.5215300623
2981181206,14711,2,0,32522.1485961736,41402.8881347597,29374.9251421324,45757.7189953875,46967.6260966735,30173.1990598983,47617.0282438108,51448.0519239077,53242.1544850568,15841.1001583945
2981181206,14711,2,0,32509.0196513016,41390.6961025431,29366.1157296325,45747.1452668483,46948.2064525441,30162.9903622638,47609.9101411693,51439.6075423126,53213.9375961244,15836.7927937192
2981181206,14711,2,0,32495.9393772170,41387.1187996772,29363.8038672362,45747.5468008435,46939.8594125236,30164.1827965525,47609.7641288075,51438.2690956620,53212.6964910485,15834.8337945307
2981181206,14711,2,0,32500.8064559462,41392.2414000396,29364.7651152852,45753.1682767757,46952.5503203099,30170.4369927195,47611.8691403578,51443.2213482690,53235.7056057407,15828.9324615716
2981181206,14711,2,0,32502.5951073791,41396.5487647149,29369.1698215351,45751.4282961300,46952.9640220019,30180.9620504713,47610.8592215215,51445.7278938145,53228.3563168596,15830.0032188920
2981181206,14711,2,0,32507.8758878003,41407.1224932541,29379.5245315314,45758.2665417445,46956.9550265598,30188.3478424429,47617.6244609551,51453.0528473019,53228.2346398914,15840.6621213089
2981181206,14711,2,0,32524.6429740223,41417.8665695487,29385.8882369698,45768.7794317995,46977.1169001954,30189.4429351569,47624.1950172395,51461.6067381684,53254.7115481781,15845.1398337398
2981221313,14712,2,0,32526.1882715188,41413.1211677878,29380.8873135756,45762.3670555738,46973.2232372121,30173.6005938934,47619.0845845738,51456.8004979234,53246.1454896148,15849.1795090850
2981221313,14712,2,0,32503.6415293059,41398.2035714829,29373.1973291835,45749.2502783987,46948.3281295123,30173.0895506269,47611.7109602991,51445.1438443670,53220.6541647707,15847.3056837742
2981221313,14712,2,0,32503.2278276139,41398.4225900257,29374.7669620737,45752.4017118758,46956.5413248678,30180.8890442904,47613.7307979717,51446.2876078684,53236.4113321564,15844.6409581700
2981221313,14712,2,0,32513.9232331213,41401.6226942901,29376.9328121081,45756.3805487369,46972.2984922535,30183.5537698946,47617.1742561726,51450.7531526024,53249.2847553951,15842.9374806148
2981221313,14712,2,0,32504.9556405628,41398.1062299083,29379.0134882649,45752.5112211472,46959.2547212593,30190.1486615726,47616.2616789109,51448.6359733552,53230.6560115592,15846.4174419062
2981221313,14712,2,0,32502.3882565331,41405.2973387306,29387.1293420458,45762.0020246691,46963.9879553235,30191.2194188931,47624.4992096600,51455.7540759966,53241.6434417903,15854.0952586014
2981221313,14712,2,0,32502.5586042887,41403.3748426326,29381.2036736930,45759.9213485124,46970.4490023364,30171.4712469494,47619.9849941387,51454.3061200747,53251.6331208819,15851.3696945131
2981221313,14712,2,0,32492.5567575002,41394.3342438932,29369.3401692906,45744.6752243933,46954.5458225889,30165.3630631443,47609.2652532377,51444.0244162593,53225.8011005268,15848.9483228453
2981245186,14713,2,0,32493.3476577937,41397.1449818593,29368.7074490558,45748.8730797972,46952.2339601925,30174.3428233996,47613.4752763385,51444.8883227337,53219.8145936899,15851.3940299068
2981245186,14713,2,0,32512.6821280453,41405.5650280607,29373.1121553057,45759.9578516029,46972.8947093978,30177.2630706372,47621.2504346083,51453.5152197812,53243.7484533406,15848.8874843612
2981245186,14713,2,0,32514.7749718989,41403.2409979676,29373.9517263865,45754.4580526389,46969.1957295637,30178.2851571703,47619.2427646325,51452.1037669497,53232.9678739555,15842.1709157150
2981245186,14713,2,0,32499.8087048067,41400.4424276983,29376.5556135066,45753.6793200422,46952.9031835178,30186.1576570147,47620.6177143735,51448.2344393600,53216.8821787556,15841.0758230009
2981245186,14713,2,0,32506.5374411498,41411.2351747802,29383.6858838449,45765.7253398969,46970.4368346396,30191.2924250740,47627.3099476261,51456.2529515663,53238.8448715210,15845.9915725174
2981245186,14713,2,0,32520.9439941881,41416.8444830156,29385.4988706715,45767.6478359950,46984.0281519908,30186.2184954988,47627.4924630785,51459.4043850435,53244.4785151500,15853.2435198238
2981245186,14713,2,0,32512.8889788913,41413.2550124528,29383.3573560307,45760.6270749281,46971.3250765077,30179.5505976399,47622.7105582271,51451.8239099228,53221.7614251816,15853.8640723618
2981245186,14713,2,0,32510.4919426172,41410.5902868486,29380.6317919423,45763.1701235641,46971.2033995395,30175.7421085343,47625.4117869218,51453.1015180892,53229.5974219356,15845.2858461016
2981274925,14714,2,0,32515.1278351068,41405.4798541830,29373.4406831200,45764.5694086988,46974.7563670118,30170.5586696877,47626.3000287898,51454.4521324366,53238.5406791004,15839.8225502281
2981274925,14714,2,0,32507.9245585876,41399.8948813412,29370.8246283030,45760.2742117203,46960.1672985211,30173.0165444459,47627.5289661690,51450.5949725437,53216.8456756651,15849.4471984151
2981274925,14714,2,0,32500.2345741955,41400.4545953951,29371.8467148362,45760.4688948694,46955.1055366427,30173.5519231062,47627.0057552056,51450.6436433310,53214.5459809656,15847.8410624345
2981274925,14714,2,0,32512.4387741089,41407.0981578604,29373.0999876089,45764.1678747036,46973.7829512659,30174.9147051503,47628.1981894942,51454.9510080063,53235.3527425328,15839.0681530251
2981274925,14714,2,0,32510.7474642505,41404.7497923736,29369.6565294080,45757.8771754462,46967.5652581894,30170.7168497464,47621.0922545496,51450.1447677612,53218.0137745601,15839.9442271964
2981274925,14714,2,0,32499.8330402003,41404.6524507990,29373.3433415454,45759.5928206982,46955.9086046330,30177.8714554783,47623.1607630095,51449.1348489249,53208.3282878891,15847.1475037155
2981274925,14714,2,0,32509.3603468127,41413.8147265067,29379.0013205680,45768.6090840440,46973.2597403025,30179.9764670287,47628.1373510101,51457.0195164662,53232.9678739555,15843.8743932702
2981274925,14714,2,0,32517.3545236254,41414.7273037684,29377.5168615556,45765.1291227526,46979.0758993839,30167.3829008169,47627.4194568975,51456.8856718011,53230.4491607132,15833.8482110881
2981303447,14715,2,0,32505.1989944992,41406.1369098114,29375.8985578782,45754.4702203357,46961.5300805652,30173.7222708617,47619.4739508722,51449.5363829201,53208.2431140113,15826.8152823244
2981303447,14715,2,0,32508.5937819128,41411.5271995040,29382.0189093801,45762.1237016374,46966.9447056514,30180.4753425984,47625.4361223154,51456.4111316250,53226.4338207616,15831.6701933568
2981303447,14715,2,0,32512.8159727104,41409.9940697043,29380.3032641281,45762.1845401215,46970.9113748157,30172.4568303921,47626.2878610930,51457.4940566423,53236.1314751295,15841.1366614850
2981303447,14715,2,0,32500.6361081906,41405.3703449116,29379.7922208615,45758.2057032604,46955.0933689459,30171.9944579128,47622.5037073811,51453.4422136003,53216.3102970049,15849.3863599310
2981303447,14715,2,0,32495.4161662536,41404.3969291657,29381.2158413898,45758.6802434365,46953.7549222954,30172.2986503334,47619.7538078991,51451.8847484069,53221.0435310690,15844.3854365367
2981303447,14715,2,0,32513.3513513706,41410.7362992105,29383.3573560307,45762.3548878770,46971.6901074124,30175.5839284756,47621.8101486622,51457.2750380995,53240.6578583476,15836.5737751764
2981303447,14715,2,0,32511.5018614535,41406.4289345352,29381.0576613311,45753.7158231327,46965.3750727613,30171.8849486414,47616.6023744219,51450.8018233897,53221.8100959689,15838.1190726729
2981303447,14715,2,0,32503.3130014917,41409.7872188583,29387.5308760409,45758.1448647763,46960.1186277338,30184.0404777675,47620.6298820703,51454.2087785001,53216.8213402715,15846.4174419062
2981340009,14716,2,0,32518.7659764568,41423.0500083953,29396.5349716899,45773.5491689541,46982.1056558928,30191.5844497978,47632.0066785998,51468.1042882719,53248.9318921872,15850.9803282148
2981340009,14716,2,0,32524.6308063255,41424.2789457744,29393.4930474842,45771.6753436434,46983.2859224846,30179.6844423049,47629.2811145115,51467.3742264625,53244.7462044801,15846.8433112950
2981340009,14716,2,0,32510.0052347443,41414.5812914065,29381.9580708960,45761.9046830945,46962.8806949126,30169.9016140593,47623.5866323983,51458.7594971119,53219.1575380615,15845.8455601555
2981340009,14716,2,0,32508.6302850033,41412.2085905261,29376.1297441178,45762.5374033293,46966.8960348641,30165.9714479855,47624.4505388727,51459.4652235276,53234.6226807234,15838.4232650935
2981340009,14716,2,0,32504.1525725725,41404.4699353467,29369.8877156477,45754.2633694897,46964.5233339837,30158.1597866251,47618.3666904613,51453.9045860795,53234.9755439313,15834.9919745894
2981340009,14716,2,0,32486.9231138712,41393.7015236584,29369.5713555303,45744.4318704568,46944.6656527686,30160.6906675643,47613.6699594876,51445.3993660003,53211.8934230582,15839.6643701694
2981340009,14716,2,0,32491.3156524243,41401.9755574980,29379.5853700155,45755.1029405705,46955.4097290633,30180.1954855715,47622.2360180510,51454.2331138937,53228.9281986103,15846.0524110015
2981340009,14716,2,0,32511.4288552726,41411.2595101739,29381.0089905438,45762.6225772071,46975.7176150608,30174.3793264901,47625.4361223154,51458.4796400850,53247.3135885098,15843.4728592750
2981373879,14717,2,0,32501.8285424793,41402.1702406471,29372.0657333790,45751.1727744967,46961.5909190493,30167.3220623328,47615.8601449158,51450.0474261866,53222.9538594702,15834.4930990197
2981373879,14717,2,0,32492.6175959843,41403.7885443246,29372.2360811345,45753.8983385851,46956.9428588630,30179.5627653367,47618.7560567596,51455.0483495809,53221.4937358515,15832.8261245549
2981373879,14717,2,0,32506.0750686705,41417.8787372456,29385.1460074636,45767.0516188507,46981.5946126262,30183.6876145597,47630.9602566730,51471.0367032062,53252.2780088135,15843.2173376417
2981373879,14717,2,0,32512.5361156835,41419.4240347421,29391.5583836893,45767.2584696966,46984.9528969494,30184.6975333960,47633.4059637344,51474.0907951088,53246.1576573116,15855.9812516090
2981373879,14717,2,0,32506.4035964847,41416.0779181158,29392.3249485892,45763.8028437989,46974.2209883516,30179.8912931509,47631.7146538760,51466.3399722326,53232.1769736620,15853.8884077555
2981373879,14717,2,0,32509.1291605730,41413.4375279052,29388.2487701535,45763.5229867720,46981.2295817216,30168.7700182547,47629.2689468146,51463.4683957824,53245.3180862308,15840.5526120375
2981373879,14717,2,0,32502.7897905283,41402.9854763343,29376.2027502988,45752.9005874456,46976.0096397845,30159.1453700678,47618.5978767009,51451.1911896880,53239.0152192765,15827.7643626766
2981373879,14717,2,0,32485.8158534603,41394.6871071010,29374.0612356579,45746.1110126184,46958.5733302372,30170.2544772671,47614.8867291699,51446.1294278097,53217.0525265111,15829.1149770239
2981407921,14718,2,0,32493.2381485223,41403.6181965691,29384.2942686860,45758.3152125318,46970.9600456030,30183.5416021978,47623.0269183445,51452.9798411210,53235.8516181026,15834.3227512642
2981407921,14718,2,0,32510.2850917712,41411.3203486580,29387.4700375568,45765.9200230461,46988.3720197566,30179.9642993318,47626.1905195184,51458.9420125642,53253.2149214689,15836.4277628145
2981407921,14718,2,0,32501.4635115746,41405.6502019385,29384.8661504367,45755.1029405705,46973.2232372121,30181.0958951364,47618.7438890628,51451.4710467149,53232.0917997843,15838.8613021791
2981407921,14718,2,0,32493.7856948793,41407.1103255573,29387.6768884028,45757.5729830256,46967.4314135243,30186.7295387654,47620.9705775814,51453.5882259621,53237.9444619561,15841.8423879007
2981407921,14718,2,0,32502.0475610221,41413.2428447560,29390.2929432197,45766.7960972174,46982.5071898880,30191.5844497978,47626.7867366628,51463.5292342665,53264.3970348492,15846.5391188744
2981407921,14718,2,0,32503.7388708805,41411.7462180468,29389.1491797184,45764.8249303321,46978.4310114523,30187.5569421494,47626.9449167214,51461.3998873225,53253.3731015276,15851.2966883322
2981407921,14718,2,0,32497.1561468993,41409.2153371076,29386.8129819284,45761.0772797106,46964.7423525265,30179.8669577573,47623.3554461587,51454.2331138937,53238.3824990417,15848.6197950311
2981407921,14718,2,0,32502.3395857458,41409.2396725013,29384.8539827399,45761.1502858915,46971.1425610553,30176.8493689452,47619.4009446912,51451.1668542944,53254.4073557575,15837.1699923207
2981436945,14719,2,0,32498.2877427038,41401.9755574980,29378.3564326364,45750.9659236507,46964.3164831377,30172.3229857270,47608.5716945188,51443.5377083864,53242.3370005092,15837.7662094651
2981436945,14719,2,0,32476.4710623003,41394.0422191694,29375.3753469148,45742.7040575079,46942.8648336388,30169.1715522499,47603.2909140976,51435.4096869086,53217.9894391665,15844.9208151969
2981436945,14719,2,0,32476.4588946034,41397.3031619180,29375.5700300640,45749.3841230637,46949.3623837423,30175.0607175122,47607.5374402889,51438.2447602684,53235.7421088311,15843.8987286638
2981436945,14719,2,0,32495.6108494028,41405.1513263688,29378.3442649396,45756.7699150353,46965.1195511280,30179.3559144907,47613.0129038592,51443.5498760832,53252.4848596595,15843.5458654560
2981436945,14719,2,0,32494.1142226935,41404.6524507990,29380.1937548567,45754.4580526389,46954.2416301683,30188.0193146286,47610.8348861279,51442.7346403961,53236.2896551882,15849.6175461706
2981436945,14719,2,0,32496.4504204835,41409.2640078949,29385.7665600016,45762.3792232706,46957.1862127994,30191.7304621596,47616.6267098156,51447.2001851301,53245.5492724704,15853.8275692713
2981436945,14719,2,0,32498.5919351244,41405.5163572734,29382.4204433753,45759.5198145172,46964.5841724678,30181.5826030093,47613.6456240940,51446.7864834381,53257.0355782713,15844.7626351382
2981436945,14719,2,0,32486.2417228491,41395.5388458786,29375.5335269735,45747.2182730293,46949.1920359868,30179.8304546668,47607.4157633206,51438.2569279652,53235.1702270805,15843.7162132115
2981468824,14720,2,0,32482.6887553768,41398.2765776638,29381.6538784754,45751.5499730982,46948.9121789598,30193.9206475878,47612.5140282894,51444.1947640148,53231.2157256130,15852.2336009875
2981468824,14720,2,0,32502.0353933253,41410.5902868486,29387.3848636790,45762.5252356325,46971.6414366251,30189.0657365554,47619.9606587451,51455.2917035173,53255.2590945351,15852.0510855352
2981468824,14720,2,0,32501.5121823619,41405.5771957576,29380.1085809789,45753.0709352011,46963.8176075679,30176.6546857960,47613.7794687590,51449.7432337661,53242.5560190520,15840.1875811328
2981468824,14720,2,0,32484.3070590542,41399.9313844317,29378.6971281475,45746.8289067309,46945.2010314288,30185.0868996943,47610.3603459518,51444.3894471640,53226.8475224536,15841.6598724484
2981468824,14720,2,0,32490.1962243166,41408.4974429951,29386.5574602951,45757.4391383605,46961.7004283207,30196.8895656126,47619.4009446912,51452.9190026369,53253.9084801878,15847.3543545615
2981468824,14720,2,0,32504.7001189295,41416.1265889030,29393.5417182715,45762.9511050213,46979.2827502299,30200.9535763514,47620.3986958307,51458.3457954199,53268.1203500770,15856.1394316677
2981468824,14720,2,0,32499.1881522687,41413.7903911130,29395.7319036996,45757.1227782431,46966.5188362626,30200.6372162340,47618.1111688280,51453.7707414145,53248.0679857128,15864.9975149548
2981468824,14720,2,0,32499.9303817749,41417.2460170108,29398.2627846388,45762.3062170897,46969.6946051334,30200.3451915103,47622.1751795669,51458.3092923294,53258.0576648044,15862.8803357076
2981528845,14721,2,0,32502.8262936188,41414.4231113478,29392.9576688240,45760.4688948694,46975.5229319116,30190.0026492108,47619.3644416008,51459.6355712831,53265.8328230743,15854.6793080489
2981528845,14721,2,0,32494.0898872999,41409.7263803742,29389.1978505057,45756.8185858226,46964.4259924091,30192.4361885754,47617.5392870773,51457.5183920359,53247.8733025636,15855.4458729488
2981528845,14721,2,0,32487.7870203456,41410.0305727948,29387.6768884028,45755.5044745657,46960.3376462766,30188.4330163206,47615.4829463142,51452.9068349400,53244.3690058786,15849.1916767818
2981528845,14721,2,0,32499.7722017162,41414.1189189273,29386.3627771459,45756.5995672797,46976.1921552369,30189.6376183061,47612.2828420498,51456.5084731996,53261.9148246973,15841.6963755389
2981528845,14721,2,0,32503.7388708805,41415.4330301841,29391.1325143005,45753.0831028979,46974.8537085863,30198.6173785614,47612.5018605926,51457.8104167597,53254.7358835718,15845.9915725174
2981528845,14721,2,0,32495.8907064297,41421.9184125908,29402.3754661649,45759.3738021554,46969.0010464145,30218.5724013510,47618.5978767009,51464.7460039488,53249.8444694489,15859.7897407146
2981528845,14721,2,0,32508.8249681525,41436.5196487783,29414.1537966895,45775.2769819030,46990.1363357960,30211.5881433747,47630.5343872842,51476.9380361654,53279.3998050319,15866.2386200307
2981528845,14721,2,0,32506.6469504212,41425.5565539408,29399.2848711719,45761.6856645517,46981.6067803231,30184.6731980023,47616.8213929648,51463.6265758411,53265.2852767173,15854.3507802347
2981537489,14722,2,0,32487.7140141647,41411.3933548389,29386.8251496252,45745.8189878946,46960.6418386971,30186.5348556162,47602.8042062247,51446.4579556239,53233.3329048602,15849.4106953246
2981537489,14722,2,0,32488.0912127662,41413.8390619003,29388.4921240899,45750.3088680223,46970.0353006445,30192.6917102086,47605.1525717116,51448.4899609933,53250.7448790138,15847.4395284393
2981537489,14722,2,0,32498.3729165816,41417.8057310646,29390.9134957577,45755.1637790546,46978.9785578093,30196.5367024047,47609.6789549297,51455.4742189697,53267.9743377151,15850.1529248308
2981537489,14722,2,0,32493.4571670651,41417.5623771282,29396.1821084820,45755.6504869276,46966.7013517150,30193.5921197735,47613.3779347639,51456.4841378060,53253.8841447942,15857.9280831007
2981537489,14722,2,0,32490.0623796515,41417.7692279741,29398.5913124530,45758.8992619793,46965.6305943946,30192.3631823944,47616.9795730235,51455.2795358205,53256.1960071905,15854.8009850172
2981537489,14722,2,0,32500.2345741955,41418.3046066344,29391.8382407162,45758.1448647763,46979.2949179267,30185.9994769560,47615.9088157030,51453.3448720257,53269.2276104879,15845.9429017301
2981537489,14722,2,0,32496.9127929628,41411.6732118659,29386.4236156300,45751.9515070934,46973.6004358136,30192.9593995387,47612.5992021672,51449.6580598883,53253.3852692244,15847.5733731043
2981537489,14722,2,0,32491.0844661846,41417.1365077394,29393.1888550636,45758.6315726492,46972.8095355201,30206.5628845868,47620.0458326228,51455.7054052093,53251.8278040311,15858.7311510910
2981565578,14723,2,0,32500.5874374033,41425.8120755741,29399.4917220179,45769.9353629977,46989.7713048913,30201.4646196180,47628.0643448292,51465.5612396359,53276.7959179118,15857.7577353452
2981565578,14723,2,0,32495.4405016472,41415.6885518174,29388.9909996597,45756.7334119448,46977.1534032859,30184.1499870389,47617.0160761139,51455.4863866665,53263.6061345557,15849.3863599310
2981565578,14723,2,0,32480.1335390440,41404.7376246768,29383.1383374878,45746.0258387406,46953.3412206034,30186.0968185306,47609.8979734725,51445.3628629098,53239.0760577606,15844.2515918717
2981565578,14723,2,0,32488.4684113677,41410.2860944280,29386.4357833269,45753.6549846486,46960.9825342082,30187.9828115382,47613.7673010622,51447.2975267047,53257.0112428776,15843.1078283703
2981565578,14723,2,0,32498.7622828799,41412.4032736752,29387.7133914933,45756.7699150353,46971.0452194808,30196.8165594316,47615.6532940698,51450.5706371500,53264.6038856952,15847.6098761948
2981565578,14723,2,0,32489.8433611087,41414.2649312891,29395.0870157680,45756.9402627908,46963.6959305997,30197.7169689965,47618.8533983342,51450.3029478199,53247.6542840208,15851.1750113639
2981565578,14723,2,0,32482.5549107117,41415.9440734507,29395.7440713964,45758.0961939890,46967.2975688593,30199.0189125566,47619.3279385103,51451.4588790181,53252.3145119040,15847.6342115885
2981565578,14723,2,0,32498.0443887673,41421.7480648353,29398.8590017831,45763.0606142927,46987.4594424949,30198.9824094661,47622.0778379923,51459.1731988039,53273.2307827426,15844.7382997446
2981595020,14724,2,0,32490.9506215196,41411.1986716898,29388.9423288724,45750.9050851666,46968.8672017495,30184.7583718801,47612.8668914973,51446.4457879271,53251.1707484026,15841.6842078420
2981595020,14724,2,0,32473.3439642168,41399.9800552190,29379.6948792869,45742.1443434541,46948.3037941187,30177.1048905785,47606.7587076922,51438.0500771192,53239.1247285479,15839.4940224139
2981595020,14724,2,0,32474.7067462609,41399.1648195319,29376.4826073257,45745.7824848041,46954.2294624715,30179.7209453954,47606.9655585382,51440.9824920536,53259.2379313963,15837.3768431667
2981595020,14724,2,0,32472.0785237472,41396.5365970181,29375.1684960688,45740.8545675909,46950.8833458451,30177.6889400260,47603.7046157896,51437.5998723368,53246.6321974877,15837.7053709809
2981595020,14724,2,0,32463.4516266997,41396.0498891452,29376.1662472083,45738.7130529500,46944.1789448957,30179.5749330335,47603.1570694326,51433.8278863217,53230.7290177401,15839.2506684775
2981595020,14724,2,0,32473.9888521484,41403.1558240898,29380.1450840694,45746.7802359436,46960.3863170639,30183.6146083787,47610.0804889249,51441.1771752027,53254.3586849702,15839.2628361743
2981595020,14724,2,0,32481.2407994549,41404.2752521975,29379.3785191696,45747.3886207848,46964.7788556169,30182.9940558408,47610.3116751645,51443.7810623228,53257.8508139584,15838.6422836363
2981595020,14724,2,0,32471.5796481774,41401.9512221043,29382.2257602261,45747.5102977530,46949.8855947057,30185.9143030783,47612.5018605926,51444.3894471640,53239.9642996287,15844.2880949622
2981668916,14725,2,0,32472.4192192582,41404.9079724323,29383.7102192385,45753.9956801596,46953.2925498161,30184.3203347945,47616.8335606616,51445.7400615113,53251.7669655470,15841.4895246929
2981668916,14725,2,0,32482.2993890785,41402.1824083440,29376.0080671496,45748.6662289512,46960.7026771813,30163.8907718287,47613.2684254925,51441.9437401026,53257.9968263203,15832.1447335329
2981668916,14725,2,0,32469.5598105048,41389.4671651640,29362.7696130062,45731.8383042451,46939.4822139220,30158.0137742633,47601.7456166011,51428.7904598370,53227.9669505613,15824.4425814439
2981668916,14725,2,0,32459.3389451736,41384.5027448602,29357.8660311866,45729.2952556091,46927.4361940673,30157.0768616079,47599.4215865080,51425.0306415187,53220.2769661692,15820.6462600352
2981668916,14725,2,0,32466.8099110229,41388.1408862103,29360.6037629718,45737.6057925391,46940.8936667535,30167.8209379026,47602.9988893739,51430.1897449716,53242.3856712965,15826.5597606911
2981668916,14725,2,0,32462.5755525285,41386.5104148360,29361.5528433239,45733.6634587685,46935.6858925133,30159.8754318772,47601.5022626647,51426.8922991326,53229.0133724881,15832.9599692200
2981668916,14725,2,0,32453.0360782193,41383.6753414763,29361.5041725367,45730.9987331643,46925.4285240916,30160.5689905961,47599.5067603857,51423.0108038461,53214.1566146672,15835.6246948242
2981668916,14725,2,0,32465.2767812232,41390.5744255749,29362.1855635587,45740.6112136544,46946.6246519571,30172.5176688762,47605.3715902544,51434.7282958866,53238.4068344354,15830.9644669410
2981675149,14726,2,0,32478.6977508189,41399.0553102605,29367.0039715006,45749.4084584574,46961.7977698953,30184.5393533373,47614.4973628716,51447.5773837316,53248.8223829158,15832.3394166820
2981675149,14726,2,0,32470.3263754047,41399.7732043730,29375.5578623671,45751.0389298317,46954.0226116255,30191.3167604676,47618.7925598501,51453.0771826956,53240.7186968317,15836.4277628145
2981675149,14726,2,0,32474.5120631118,41409.4951941345,29386.7156403538,45759.6171560918,46965.1195511280,30191.5479467073,47623.1850984032,51459.0028510483,53261.4889553085,15843.5093623655
2981675149,14726,2,0,32481.7275073278,41409.0936601394,29388.1392608821,45752.8884197487,46968.8063632653,30181.7772861585,47614.5338659620,51452.4201270671,53268.2906978325,15846.8919820823
2981675149,14726,2,0,32473.9888521484,41406.7452946526,29391.4488744179,45742.0591695763,46955.9694431171,30186.7538741590,47604.8605469878,51443.1361743912,53246.2915019766,15854.7279788362
2981675149,14726,2,0,32469.6328166858,41410.1400820662,29401.5723981746,45743.1420945936,46958.1109577580,30196.2933484682,47603.9966405134,51443.5863791737,53254.1153310338,15858.2687786117
2981675149,14726,2,0,32481.3746441199,41420.4339535784,29412.7180084644,45752.2800349076,46977.0317263176,30209.9333366068,47610.4941906168,51451.7630714387,53277.1731165133,15865.4233843436
2981675149,14726,2,0,32480.5715761296,41424.5222997109,29422.7563583433,45751.0510975285,46971.7752812901,30215.2262847247,47611.8934757515,51450.6193079373,53265.3826182918,15874.6343308386
2981686734,14727,2,0,32478.0893659777,41432.9423459124,29434.6198627457,45755.5774807466,46972.7000262487,30227.9171925111,47616.9917407203,51455.1700265491,53265.4556244728,15880.5843345850
2981686734,14727,2,0,32499.6018539607,41451.2425619341,29450.1823469823,45770.1787169341,46999.9678348289,30239.4278337056,47628.0765125260,51471.4990756855,53297.6878533567,15884.6483453239
2981686734,14727,2,0,32502.7289520442,41454.2601507462,29457.0692633840,45767.6843390854,47001.8173247460,30238.4300825661,47629.0742636655,51474.2733105611,53296.3615744030,15884.9403700476
2981686734,14727,2,0,32480.8636008534,41447.1420481047,29459.8678336533,45758.2422063508,46981.5581095358,30235.9235370206,47625.8376563106,51469.2237163796,53278.3898861956,15884.8673638667
2981686734,14727,2,0,32483.0781216751,41454.8442001936,29470.6849161289,45768.8889410709,46994.3098558062,30256.8398078592,47634.5983980231,51481.3305747184,53303.3093292889,15890.6226844639
2981686734,14727,2,0,32504.5784419613,41471.9519819267,29487.5128408350,45782.6019353904,47015.5789898527,30266.5009591366,47645.8413498875,51495.1530783093,53321.6825514916,15907.5114476542
2981686734,14727,2,0,32505.5518577071,41479.5446247442,29501.5421952719,45784.5122637916,47014.0701954467,30280.5789843608,47651.2073041864,51499.9106477671,53313.5910331043,15919.0220888487
2981686734,14727,2,0,32507.5230245924,41488.7434035424,29514.1235937868,45791.0098138950,47026.8706125044,30279.9949349133,47655.4051595903,51507.0774211958,53330.9421687739,15921.7963237243
2981716590,14728,2,0,32506.0629009737,41484.3021942020,29509.7067198401,45785.5221826279,47031.6890204463,30266.4401206525,47648.8589386996,51503.2810997870,53339.9462644228,15917.4159528680
2981716590,14728,2,0,32492.7879437398,41477.0380791987,29509.1348380894,45776.5424223725,47015.2139589480,30273.4730494162,47643.3956428261,51495.7614631504,53319.6383784253,15922.5020501400
2981716590,14728,2,0,32488.2737282185,41481.7469778692,29520.0249267459,45781.4095011017,47016.0170269384,30285.1175352757,47648.6642555504,51501.6506284127,53320.9159865917,15930.6422393146
2981716590,14728,2,0,32514.1909224514,41501.4586467223,29538.5684967041,45799.0769968886,47051.4493600868,30310.3168353960,47664.1415659092,51522.7007439164,53359.6944363665,15943.8806934579
2981716590,14728,2,0,32526.0422591569,41507.2626381069,29546.3923257613,45801.9242379452,47055.3916938574,30297.8814492430,47667.2321609022,51526.4362268411,53357.1392200336,15948.1028842555
2981716590,14728,2,0,32507.3040060496,41495.2531213426,29539.3350616039,45792.2874220614,47032.5529269207,30284.6064920091,47659.6273503879,51515.7894921210,53337.3302096059,15941.0212847045
2981716590,14728,2,0,32494.6617690506,41487.6969816156,29532.3873067181,45786.7754554006,47033.8427027840,30287.0278636769,47655.3443211062,51512.2973631328,53349.8264342431,15933.5624865521
2981716590,14728,2,0,32493.4571670651,41485.3364484319,29529.6860780234,45781.1904825589,47037.7485334641,30284.9106844297,47651.5845027879,51508.2455200908,53347.7579257832,15936.1542059754
2981763881,14729,2,0,32483.8690219686,41481.5887978105,29530.4526429232,45775.3134849934,47023.9747006606,30293.2333890566,47649.9418637168,51504.3883601979,53330.4676285978,15944.8541092038
2981763881,14729,2,0,32492.3985774415,41489.7411546818,29536.4634851537,45784.0863944028,47035.4488387646,30298.5628402651,47656.3420722457,51510.2166869761,53348.1716274751,15950.9622930089
2981763881,14729,2,0,32504.2377464502,41494.0485193572,29537.4490685964,45788.9291377383,47047.9207280081,30295.5087483625,47659.7490273561,51515.6069766687,53362.7971990563,15954.0528880019
2981763881,14729,2,0,32485.3169778906,41482.5378781627,29531.6572449087,45775.8488636536,47025.7511843967,30284.9471875202,47649.7350128708,51504.3153540170,53331.8547460356,15946.4724128812
2981763881,14729,2,0,32475.2907957084,41481.3332761772,29533.8717657304,45776.4450807980,47021.9913660784,30294.2311401961,47648.3843985235,51503.5122860267,53334.0814345542,15936.3367214277
2981763881,14729,2,0,32492.6054282875,41487.3197830141,29535.3805601365,45785.8993812294,47042.0802335331,30295.5817545434,47653.3488188272,51510.8615749077,53355.9346180482,15932.7715862586
2981763881,14729,2,0,32497.8618733150,41486.6262242952,29534.0907842733,45783.9890528282,47041.4231779047,30290.1427940636,47652.8134401670,51509.8759914651,53342.6231577239,15939.9748627778
2981763881,14729,2,0,32489.5270009913,41487.5144661633,29534.9668584445,45785.7655365643,47032.3339083779,30294.4501587389,47655.7215197077,51511.2631089029,53336.1621107109,15954.2597388479
2981782624,14730,2,0,32491.4981678766,41491.8826693227,29532.7158345323,45788.1260697480,47041.4840163888,30283.9737717744,47658.3254068278,51514.6578963165,53352.3573151822,15955.8172040412
2981782624,14730,2,0,32488.8456099692,41485.9204978794,29527.8487558031,45781.8232027937,47038.4907629703,30285.1905414566,47654.8089424460,51513.8913314166,53343.7547535284,15955.0993099287
2981782624,14730,2,0,32481.7031719341,41481.5401270232,29527.5445633825,45779.4626696101,47026.8219417171,30284.7768397647,47654.9549548079,51511.0319226632,53325.8439038050,15952.2520688721
2981782624,14730,2,0,32485.7793503698,41483.4991262117,29526.7414953922,45783.6361896203,47037.6146887991,30283.0125237253,47658.6417669452,51514.2928654118,53341.9539343986,15943.7711841865
2981782624,14730,2,0,32489.2106408739,41478.2670165778,29523.3953787659,45778.6109308324,47040.9486377286,30271.2341932007,47656.2690660647,51514.0373437785,53348.2811367465,15938.3565591003
2981782624,14730,2,0,32470.7035740062,41466.3305059945,29518.9785048192,45768.7185933154,47018.7669264203,30274.0084280764,47652.5214154433,51507.2599366481,53325.2233512671,15941.1916324601
2981782624,14730,2,0,32468.2335315511,41471.0880754523,29523.7239065801,45777.1021364264,47021.1031242103,30278.7903329278,47658.6782700357,51510.0828423110,53337.2815388186,15942.7004268661
2981782624,14730,2,0,32486.7162630252,41480.6640528519,29528.6031530061,45786.0088905008,47042.1045689267,30288.2081302687,47663.6670257331,51517.6876528254,53358.2099773541,15942.9072777121
2981817548,14731,2,0,32486.7040953284,41479.8609848616,29525.8897566146,45778.4892538642,47035.8625404566,30279.2648731039,47658.1550590723,51515.0594303116,53339.8367551514,15945.9005311305
2981817548,14731,2,0,32482.9077739196,41481.8078163533,29527.3498802333,45781.0931409843,47031.0928033020,30287.8430993640,47661.4281695177,51517.1157710747,53338.1819483835,15947.3363193557
2981817548,14731,2,0,32494.3454089332,41489.1936083248,29532.5211513831,45791.1314908633,47047.0324861400,30294.6448418881,47667.5971918069,51526.6552453839,53365.4497569637,15949.9158710821
2981817548,14731,2,0,32495.3309923758,41488.1350187012,29533.4093932512,45787.6271941782,47042.5791091028,30294.8881958245,47665.1271493518,51526.1198667237,53356.3726551338,15957.3259984473
2981817548,14731,2,0,32487.2273062918,41487.1616029554,29534.7356722049,45785.7777042612,47030.7886108814,30289.7777631589,47663.5453487649,51521.9463467134,53341.3820526479,15955.0019683541
2981817548,14731,2,0,32492.1795588987,41488.2201925790,29531.1218662485,45787.8462127211,47038.4664275767,30279.7029101895,47662.3164113857,51522.2627068308,53356.6525121607,15947.8838657127
2981817548,14731,2,0,32487.1664678076,41474.7870552865,29518.1632691320,45774.6929324555,47032.5772623144,30263.4712026277,47651.0369564309,51512.2121892551,53349.7655957589,15939.0866209097
2981817548,14731,2,0,32466.6517309642,41461.4755949622,29513.8680721535,45763.4134775006,47007.3292914068,30269.4212063741,47643.3104689483,51501.5897899286,53323.5685444991,15937.1154540244
2981847139,14732,2,0,32462.8067387681,41466.2331644199,29518.8446601541,45770.8601079562,47013.4739783024,30283.8399271093,47645.9265237652,51503.4879506330,53337.2207003345,15941.4593217902
2981847139,14732,2,0,32481.1434578803,41478.1696750032,29527.3863833238,45781.9692151556,47037.6755272832,30283.5965731728,47655.6971843141,51511.6768105949,53355.2410593293,15945.8883634337
2981847139,14732,2,0,32478.5517384570,41478.4251966365,29523.5657265214,45775.7515220791,47028.5984254533,30281.8444248303,47651.3533165483,51508.2333523940,53332.5361370577,15948.1880581333
2981847139,14732,2,0,32475.5098142513,41480.6883882456,29528.5301468252,45780.1805637226,47028.5010838787,30291.2622221713,47656.8896186027,51512.1148476805,53336.5879800997,15947.2268100842
2981847139,14732,2,0,32491.6928510258,41491.5541415085,29534.6991691144,45792.4699375138,47046.7282937195,30292.3816502790,47665.4678448629,51524.4407245621,53363.8436209831,15949.8185295075
2981847139,14732,2,0,32489.1863054802,41488.5000496059,29530.6594937692,45787.8340450242,47037.6146887991,30283.8155917157,47661.5863495764,51521.8125020484,53349.1085401305,15955.5616824080
2981847139,14732,2,0,32480.2187129217,41486.2246903000,29530.0754443217,45786.1183997722,47029.6691827737,30287.8430993640,47663.2776594348,51521.5083096278,53340.5181461735,15958.9077990343
2981847139,14732,2,0,32487.6166725901,41488.2688633663,29528.5909853093,45789.1603239779,47043.4551832741,30282.4771450651,47665.1636524423,51525.0126063128,53361.7751125232,15950.9379576152
2981876554,14733,2,0,32490.0745473483,41484.9835852241,29525.8775889178,45782.8452893268,47044.4164313231,30281.5158970161,47662.4502560508,51524.7205815890,53358.9522068603,15942.8099361375
2981876554,14733,2,0,32471.9811821726,41476.6122098099,29522.7383231375,45773.3301504113,47023.4393220003,30282.6353251238,47657.4858357470,51518.4542177252,53335.7605767157,15947.8838657127
2981876554,14733,2,0,32472.8572563439,41480.6518851551,29525.4273841353,45780.8376193510,47030.3627414926,30285.3243861217,47661.8783743001,51523.5889857845,53350.4104836906,15953.1889815275
2981876554,14733,2,0,32485.0736239541,41481.5036239327,29522.0934352058,45782.5410969063,47039.9022158018,30276.1986135045,47659.9802135957,51524.2947122002,53354.6813452754,15947.5796732921
2981876554,14733,2,0,32476.1790375765,41471.1732493300,29514.9023263835,45770.4099031738,47020.8110994866,30272.4631305799,47651.0369564309,51512.7597356121,53327.9124122649,15945.0122892625
2981876554,14733,2,0,32470.5697293411,41468.2286666989,29513.1988488283,45770.5802509293,47018.8521002981,30278.1697803898,47651.7305151498,51512.1026799837,53332.0494291847,15944.5742521768
2981876554,14733,2,0,32486.9961200521,41477.9141533700,29518.4309584621,45781.7015258255,47038.1013966720,30277.8534202724,47662.9369639237,51522.0558559848,53357.5650894224,15952.7996152292
2981876554,14733,2,0,32475.5584850386,41469.4697717748,29511.8482344809,45769.2539719756,47019.6186651979,30267.3040271269,47655.3321534094,51514.9864241307,53333.4122112289,15947.9812072873
2981907740,14734,2,0,32465.0699303772,41467.8879711878,29516.7518163006,45770.3003939024,47012.0990285614,30279.9462641260,47655.8918674632,51515.8381629083,53325.2355189639,15944.8176061133
2981907740,14734,2,0,32481.6301657532,41478.1088365191,29525.2448686830,45782.1882336984,47035.1446463440,30288.1472917846,47662.0000512683,51523.8080043273,53351.9436134902,15946.0830465829
2981907740,14734,2,0,32491.3521555147,41481.9173256247,29529.0290223949,45786.7876230975,47041.1311531809,30292.6493396091,47666.5020990928,51528.3952260296,53353.3794017153,15952.1547272975
2981907740,14734,2,0,32479.7198373520,41478.4373643333,29528.8586746394,45783.7456988917,47028.2090591549,30287.9282732418,47665.7233664962,51527.5434872520,53336.2107814982,15956.8392905744
2981907740,14734,2,0,32475.1204479529,41477.2814331352,29524.0159313039,45784.9868039677,47036.5195960850,30276.2107812013,47665.1636524423,51526.0590282396,53349.1328755241,15954.6247697526
2981907740,14734,2,0,32478.3327199142,41475.7969741228,29518.1024306479,45783.2103202315,47041.9828919585,30280.5181458766,47663.2776594348,51526.8255931394,53352.0896258521,15952.7266090482
2981907740,14734,2,0,32470.1073568619,41472.9862361567,29518.3092814939,45774.6077585777,47027.9535375217,30278.3766312358,47657.8630343485,51519.1964472314,53326.7808164604,15954.3935835130
2981907740,14734,2,0,32469.2799534779,41476.3445204798,29522.4584661105,45777.7226889644,47031.6038465685,30282.5744866397,47659.5908472974,51520.4132169137,53337.0868556694,15952.4224166276
2981935114,14735,2,0,32475.9235159432,41474.0083226898,29518.3944553717,45774.3035661571,47039.2086570829,30268.7033122616,47654.6872654778,51519.8169997694,53348.6461676512,15943.9293642452
2981935114,14735,2,0,32461.9428322937,41463.4102587570,29513.1988488283,45763.9123530703,47019.8620191344,30268.7398153520,47648.3600631298,51513.9521699007,53326.9511642159,15938.5877453400
2981935114,14735,2,0,32460.9450811542,41471.1489139364,29524.2836206340,45774.4982493063,47022.7579309783,30287.0156959801,47657.9603759231,51522.7129116133,53334.8479994540,15948.6991013998
2981935114,14735,2,0,32480.7784269756,41482.6352197373,29526.9848493287,45784.7799531217,47044.2704189612,30276.2837873823,47664.3605844520,51530.0013620102,53358.3194866255,15957.8857125011
2981935114,14735,2,0,32477.0916148382,41474.7992229833,29519.6233927508,45771.5171635847,47030.7642754878,30263.4712026277,47656.4759169107,51519.1842795346,53339.1675318262,15956.8149551807
2981935114,14735,2,0,32459.0469204498,41467.9609773688,29516.6544747260,45764.5207379115,47012.9020965517,30268.1557659045,47651.9738690862,51511.0684257537,53320.4657818093,15955.9632164031
2981935114,14735,2,0,32467.4669666513,41476.9894084114,29525.0745209275,45778.9637940403,47029.7056858642,30289.4005645574,47663.2533240411,51522.3965514959,53348.2933044434,15956.1700672491
2981935114,14735,2,0,32482.3845629562,41485.7379824271,29532.3508036276,45788.0043927798,47042.3600905600,30281.9417664049,47668.5341044623,51529.6119957119,53357.1513877305,15955.9145456158
2981964374,14736,2,0,32470.4480523729,41479.4107800792,29525.9505950987,45779.1584771895,47024.1693838097,30274.9696761254,47663.7035288236,51519.7318258916,53330.6623117469,15950.0983865345
2981964374,14736,2,0,32470.3385431015,41479.4472831696,29525.4152164385,45780.7646131701,47030.6912693068,30273.7772418367,47662.0365543588,51520.3037076423,53339.7759166673,15943.3939855850
2981964374,14736,2,0,32472.6017347106,41475.6266263672,29518.9906725160,45778.0998875659,47037.0063039579,30271.8060749514,47660.4547537718,51521.6786573833,53349.5465772161,15941.5201602743
2981964374,14736,2,0,32463.4637943965,41473.4729440296,29519.3435357239,45776.6762670376,47027.5276681329,30283.4627285078,47665.2244909264,51525.2316248556,53335.3103719333,15949.7698587202
2981964374,14736,2,0,32464.5710548074,41482.4283688913,29525.2692040766,45788.6736161050,47032.6624361921,30290.4226510905,47675.9442318274,51535.8296887884,53344.8011754552,15955.0263037477
2981964374,14736,2,0,32485.3169778906,41490.4347134008,29523.7117388833,45795.0981600275,47050.4759443409,30281.0535245368,47677.1366661161,51538.9932899624,53364.3789996433,15948.7234367935
2981964374,14736,2,0,32491.0236277005,41487.2224414395,29521.7162366043,45786.5929399483,47040.5106006429,30273.9475895922,47668.6922845210,51529.3686417754,53342.7935054794,15941.0091170077
2981964374,14736,2,0,32485.2318040128,41483.9736663878,29520.0979329269,45784.6582761534,47028.0752144899,30274.0936019541,47664.9811369900,51522.9440978529,53327.6082198444,15932.0415244492
2981999939,14737,2,0,32493.6275148206,41488.7555712392,29517.2628595671,45791.2288324378,47037.3469994690,30268.2531074791,47666.4899313960,51523.6011534813,53343.6939150443,15918.3285301298
2981999939,14737,2,0,32493.6518502143,41483.7424801481,29505.6427091012,45785.1936548137,47028.9634563580,30256.6086216196,47661.5011756986,51515.8016598178,53330.9421687739,15910.1031670774
2981999939,14737,2,0,32486.8014369029,41480.9682452725,29498.7314573058,45781.4216687985,47011.4906437202,30256.2557584117,47659.1893133022,51506.7975641689,53303.8082048587,15915.1649289558
2981999939,14737,2,0,32501.6338593301,41489.6924838946,29499.3398421469,45793.3581793819,47022.3563969831,30255.1484980008,47662.3164113857,51508.3915324527,53316.6451250069,15911.6241291803
2981999939,14737,2,0,32511.2828429107,41485.0809267987,29488.5957658523,45788.8561315574,47021.7723475356,30241.2408205322,47654.4682469349,51502.7700565205,53315.0146536326,15894.0418072712
2981999939,14737,2,0,32491.8753664781,41471.8181372617,29478.7764345162,45774.3157338539,46993.9813279920,30236.3007356221,47643.7363383371,51487.5117647045,53281.3101334331,15882.3243152307
2981999939,14737,2,0,32489.8190257150,41477.5126193748,29481.2586446680,45781.5798488572,46995.4779547012,30249.4296804940,47647.7030075014,51490.0669810373,53289.3894841235,15877.8222674062
2981999939,14737,2,0,32514.7749718989,41490.8849181832,29486.1743941845,45794.0639057976,47018.4992370902,30249.4296804940,47655.1983087443,51499.1075797768,53310.7437920478,15873.8799336355
2982029058,14738,2,0,32531.0066794607,41498.4775610007,29491.9540501754,45800.6222943851,47020.6650871247,30265.3936987257,47661.9392127842,51503.8408138409,53300.3647466578,15885.5730902824
2982029058,14738,2,0,32538.0274405275,41506.3500608452,29495.4583468604,45809.4317068850,47021.2004657849,30251.3886796825,47669.1789923939,51506.5055394451,53297.6635179631,15885.6460964633
2982029058,14738,2,0,32539.2807133003,41501.1179512113,29479.5551671128,45804.7471436081,47024.1328807193,30227.5886646968,47661.6471880605,51499.4117721973,53303.6256894063,15868.5261470335
2982029058,14738,2,0,32528.9868417881,41487.8673293711,29460.9264232769,45789.8782180905,47010.4563894903,30223.3908092929,47650.3312300151,51485.5405978192,53280.9329348316,15856.3219471200
2982029058,14738,2,0,32520.7128079485,41485.8231563049,29458.5780577901,45788.2355790194,47000.2111887654,30237.5175053044,47649.5646651153,51482.6811890658,53267.2929466930,15852.9149920096
2982029058,14738,2,0,32544.1112889390,41504.5005709281,29470.8187607940,45808.7624835597,47029.5353381086,30254.7956347929,47664.5430999043,51499.7159646179,53299.7685295135,15858.5486356386
2982029058,14738,2,0,32563.2632437383,41513.5411696675,29472.8020953761,45814.3961271887,47043.2848355186,30236.3129033189,47669.7265387509,51506.2135147213,53304.5260989712,15854.7644819267
2982029058,14738,2,0,32543.2230470709,41502.8822672506,29463.9926828763,45801.0846668644,47018.6330817553,30228.2457203253,47661.0631386130,51497.1242451946,53271.6489821557,15849.4350307183
2982061904,14739,2,0,32535.8980935835,41502.3590562872,29461.3522926657,45801.8999025516,47017.3068028016,30230.6670919930,47663.4845102807,51499.5577845592,53277.3434642688,15844.1299149035
2982061904,14739,2,0,32547.1410454479,41505.3766450993,29456.2783630905,45805.7448947476,47031.4456665098,30233.8550285607,47664.4822614202,51502.9160688823,53291.5309987643,15838.4841035776
2982061904,14739,2,0,32550.3654851060,41510.0612083762,29458.4198777314,45806.2072672269,47032.0418836542,30242.2994101558,47667.4390117482,51504.0841677773,53279.7648359366,15846.0767463951
2982061904,14739,2,0,32543.8192642153,41510.6452578237,29458.7849086361,45808.8841605279,47030.0707167689,30236.5319218617,47668.9599738511,51503.2202613029,53281.7725059123,15843.8987286638
2982061904,14739,2,0,32543.1622085868,41504.1963785075,29452.6158863468,45807.0103352172,47034.9986339821,30221.7360025250,47666.5264344865,51501.0422435716,53295.2786493858,15834.8946330148
2982061904,14739,2,0,32526.2126069125,41484.2535234147,29437.5522776800,45790.9246400173,47011.3567990552,30206.1370151980,47652.7160985924,51487.5239324013,53272.4642178428,15826.7301084466
2982061904,14739,2,0,32508.8371358493,41471.3557647824,29429.1687345690,45782.7966185395,46991.0975838450,30205.1149286649,47646.6565855746,51476.4999990797,53254.1761695179,15821.8630297175
2982061904,14739,2,0,32520.6884725548,41475.3102662498,29427.4409216202,45788.9534731319,47009.2031167175,30213.8391672869,47649.6985097804,51480.9898792074,53277.5016443275,15819.9161982258
2982117053,14740,2,0,32530.4469654068,41475.0425769197,29421.9532903530,45787.3351694545,47013.9971892657,30202.7908985717,47646.7904302397,51478.1183027572,53274.1311923075,15826.7544438403
2982117053,14740,2,0,32513.4851960357,41464.7000346202,29416.9767023524,45777.8808690231,46996.1958488138,30198.4226954122,47641.6799975740,51471.2070509617,53248.3113396492,15832.1447335329
2982117053,14740,2,0,32510.7961350378,41467.7541265228,29424.1921465684,45786.3617537087,47005.4554660960,30209.1302686164,47648.3600631298,51480.7951960582,53266.1856862822,15838.7517929077
2982117053,14740,2,0,32518.1332562220,41468.8005484496,29422.2574827736,45788.0530635671,47014.1675370213,30193.5191135926,47648.3600631298,51484.3116604401,53274.9464279947,15842.7793005561
2982117053,14740,2,0,32506.9998136290,41459.1150617785,29412.8396854326,45777.4915027247,46996.6947243835,30194.1761692210,47641.0229419456,51475.1737201260,53249.4794385443,15848.3156026105
2982117053,14740,2,0,32507.0484844163,41461.6824458081,29414.2146351736,45784.4027545202,47001.2941137826,30204.5795500047,47645.4033128019,51477.8749488207,53257.7291369902,15849.0213290263
2982117053,14740,2,0,32517.2936851412,41463.2399110015,29412.8275177358,45786.6051076451,47012.9264319453,30200.7588932023,47646.1090392176,51479.9434572806,53274.5448939995,15844.1299149035
2982117053,14740,2,0,32507.6933723479,41455.3552434602,29412.1826298042,45778.4649184706,46996.3053580852,30194.9549018177,47640.1103646839,51470.7325107857,53253.6042877672,15850.9073220338
2982125007,14741,2,0,32490.9141184291,41446.6675079286,29409.4570657159,45770.5924186261,46978.0903159412,30191.5844497978,47633.5641437931,51460.4994777576,53239.1977347289,15853.6328861222
2982125007,14741,2,0,32502.1814056871,41452.8486979147,29410.6738353982,45777.5645089057,46993.4581170286,30195.7701375048,47638.7719180334,51465.2813826090,53261.2334336752,15857.7090645579
2982125007,14741,2,0,32503.9457217265,41450.3543200660,29406.7680047180,45771.6510082497,46991.1705900259,30193.8719768005,47636.5330618179,51464.9528547948,53253.9814863687,15854.5089602934
2982125007,14741,2,0,32491.0601307910,41445.7305952733,29408.6539977256,45766.9786126697,46978.5040176332,30204.3483637650,47636.6790741798,51464.0646129267,53238.9422130956,15852.7081411636
2982125007,14741,2,0,32486.9109461744,41448.0789607601,29410.0046120729,45769.9110276040,46986.7537160792,30199.1527572216,47637.3726328987,51466.5954938659,53257.4736153569,15853.6085507285
2982125007,14741,2,0,32485.1466301350,41442.3601432533,29405.2348749183,45762.3913909675,46989.0777461724,30186.3645078607,47631.1671075190,51462.3124645842,53258.7025527360,15850.6396327037
2982125007,14741,2,0,32471.4701389060,41434.9135127977,29401.4507212064,45752.1218548489,46971.9334613488,30188.7858795285,47622.6862228334,51454.0505984414,53235.2067301709,15849.2038444786
2982125007,14741,2,0,32474.7919201387,41438.8923496588,29404.4561423216,45759.4468083363,46980.0614828266,30189.7957983648,47627.1882706579,51460.0006021878,53246.3036696735,15851.7225577210
2982153909,14742,2,0,32487.6896787710,41440.9851935123,29402.9960187029,45764.9587749971,46989.5766217421,30186.4983525258,47630.0841825018,51465.7437550882,53260.6250488341,15853.6085507285
2982153909,14742,2,0,32480.2917191027,41435.2420406119,29399.6377343798,45760.9556027424,46973.8681251437,30186.6808679781,47627.3464507166,51463.9429359584,53241.7894541522,15852.7933150414
2982153909,14742,2,0,32474.8649263196,41439.2208774730,29406.7315016275,45768.3413947139,46972.8703740042,30191.0612388344,47634.0751870597,51470.4161506683,53246.8025452432,15854.3629479315
2982153909,14742,2,0,32486.9717846585,41444.9518626766,29405.7945889722,45774.4009077317,46991.5964594147,30185.8777999878,47636.8007511480,51475.6604279989,53267.7431514755,15847.7802239503
2982153909,14742,2,0,32488.4684113677,41440.9608581187,29400.6598209129,45768.2075500488,46990.9394037863,30191.0612388344,47632.9922620425,51474.0786274120,53258.2158448631,15844.8356413192
2982153909,14742,2,0,32484.1853820860,41444.1487946863,29404.5169808058,45775.4716650521,46987.3255978299,30206.0396736234,47641.4123082439,51480.3206558821,53253.8963124910,15856.1637670613
2982153909,14742,2,0,32490.6099260085,41449.5147489852,29405.2348749183,45784.8407916058,46998.2521895769,30200.5155392658,47647.7881813792,51485.4675916382,53273.8391675838,15861.9677584459
2982153909,14742,2,0,32487.3611509568,41439.2695482603,29395.9874253329,45775.6906835949,46991.4261116592,30185.3302536308,47640.8404264932,51477.5707564001,53266.3560340377,15856.7843195993
2982182040,14743,2,0,32465.7634890961,41420.6286367275,29383.9170700845,45756.9889335781,46962.0167884381,30173.6736000744,47626.9327490246,51461.6675766526,53232.0309613002,15847.3421868647
2982182040,14743,2,0,32464.4858809297,41418.4262836026,29382.5542880403,45758.6072372555,46965.8861160278,30173.4545815316,47627.6141400467,51462.4584769460,53239.4775917558,15839.2506684775
2982182040,14743,2,0,32475.1447833466,41421.1031769036,29381.8850647151,45759.9091808156,46979.5626072568,30174.5983450329,47627.6141400467,51465.8654320565,53249.5281093315,15839.1654945997
2982182040,14743,2,0,32471.2632880601,41423.9869210507,29387.3848636790,45759.4589760331,46970.6315177888,30187.5812775430,47629.5244684479,51467.9947790005,53233.3207371634,15850.0069124689
2982182040,14743,2,0,32469.7058228667,41433.9157616582,29396.0482638170,45766.7595941269,46974.9510501609,30186.2063278020,47633.7344915487,51472.9105285170,53239.6601072081,15858.5364679418
2982182040,14743,2,0,32476.8604285986,41434.2442894724,29390.9499988482,45765.7983460779,46982.4828544943,30175.2554006614,47629.2324437242,51469.5400764970,53252.4605242659,15850.3232725863
2982182040,14743,2,0,32479.9875266821,41432.8206689441,29389.8792415278,45761.8438446104,46978.6743653887,30183.2739128677,47628.1738541006,51465.9262705406,53239.6966102986,15849.6418815642
2982182040,14743,2,0,32472.1393622313,41431.5673961714,29390.7066449117,45760.6514103218,46969.3052388351,30181.4730937379,47628.6483942767,51463.6630789315,53229.7069312070,15847.4638638329
2982218698,14744,2,0,32472.8450886470,41429.7909124352,29385.5597091556,45761.7951738231,46976.3503352956,30175.6082638692,47627.8696616800,51463.0425263936,53246.2063280989,15836.2209119685
2982218698,14744,2,0,32471.7013251457,41425.5322185472,29383.0166605196,45756.7942504289,46971.2520703268,30176.8615366420,47622.5645458652,51460.2926269116,53238.8205361274,15835.8680487607
2982218698,14744,2,0,32466.9924264752,41426.8706651977,29387.3483605886,45756.4535549179,46962.2723100714,30187.6542837239,47624.1828495426,51458.1997830580,53223.7812628542,15848.0357455836
2982218698,14744,2,0,32476.1303667892,41431.8229178046,29391.1446819973,45762.2453786056,46975.3769195497,30179.6601069113,47628.2590279783,51458.5769816595,53240.1346473842,15852.3309425621
2982218698,14744,2,0,32478.9167693617,41422.2469404050,29383.5885422703,45754.6405680913,46976.0339751782,30163.5987471050,47617.9651564661,51450.6558110278,53239.1977347289,15849.6175461706
2982218698,14744,2,0,32460.9085780637,41407.0129839827,29377.0179859859,45742.8379021730,46950.6034888182,30162.0656173053,47611.1147431548,51436.9671521020,53212.1124416010,15848.4859503661
2982218698,14744,2,0,32450.6633773388,41404.4455999530,29377.4438553747,45745.5269631709,46946.0892732969,30167.7966025089,47611.9908173261,51439.4493622539,53218.0867807411,15847.1110006251
2982218698,14744,2,0,32458.9739142689,41408.5461137824,29378.1860848809,45748.4837134988,46963.4647443601,30173.8317801331,47613.8646426368,51447.2488559174,53240.4145044112,15845.8212247618
2982248213,14745,2,0,32460.9450811542,41408.4366045109,29380.5466180646,45745.5999693518,46962.1628008000,30173.9534571013,47612.5383636831,51449.0618427440,53225.8376036173,15849.7392231388
2982248213,14745,2,0,32457.4651198628,41409.5803680123,29383.6372130576,45747.7658193863,46962.3574839492,30179.4289206716,47617.9286533757,51453.9897599573,53221.7370897879,15852.1849302002
2982248213,14745,2,0,32469.8153321381,41418.1342588788,29390.0374215865,45758.7532496174,46986.4008528713,30179.6479392144,47626.0931779438,51463.9429359584,53246.2306634925,15848.7901427866
2982248213,14745,2,0,32467.8928360401,41419.5457117103,29393.5660536651,45758.1692001699,46986.5590329300,30182.9332173566,47625.8133209169,51463.5900727506,53241.3392493697,15849.9460739848
2982248213,14745,2,0,32459.5457960196,41422.2591081018,29399.7229082575,45760.8460934710,46978.9663901125,30190.9030587757,47631.1792752158,51465.3178856994,53230.6316761655,15852.7324765573
2982248213,14745,2,0,32475.5949881290,41433.0883582742,29407.2912156814,45773.3301504113,46997.1814322564,30199.9436575151,47639.7088306887,51474.3341490452,53257.4249445696,15851.4913714813
2982248213,14745,2,0,32484.4895745066,41430.6183158192,29402.6066524045,45769.8623568168,47000.6735612446,30186.3036693766,47634.9269258373,51473.6649257200,53261.9999985751,15848.6684658184
2982248213,14745,2,0,32462.8189064649,41415.3965270937,29391.2176881783,45754.1295248247,46972.4445046154,30172.0674640938,47623.1607630095,51458.2484538453,53231.7876073637,15843.0348221894
2982307682,14746,2,0,32448.1568317933,41406.8913070144,29382.2500956198,45749.9073340271,46965.2412280962,30168.4658258342,47614.7285491112,51449.6823952820,53236.2653197945,15834.3227512642
2982307682,14746,2,0,32464.8995826217,41415.3600240032,29384.2821009892,45758.2300386540,46983.0669039418,30183.3712544423,47620.9462421877,51459.0028510483,53258.2401802568,15845.7238831873
2982307682,14746,2,0,32465.7148183088,41412.6831307022,29382.4447787689,45753.5333076804,46974.0019698087,30176.0219655612,47616.5415359378,51451.1790219912,53239.9764673255,15849.4837015056
2982307682,14746,2,0,32461.2736089684,41410.8214730882,29380.6682950328,45752.6207304186,46967.7356059449,30178.9057097082,47616.4441943632,51448.9523334726,53237.0440523912,15842.6697912847
2982307682,14746,2,0,32469.6814874731,41412.5614537339,29379.2203391109,45756.4535549179,46975.9974720877,30175.0607175122,47614.5460336589,51447.6868930030,53253.4217723149,15829.7355295619
2982307682,14746,2,0,32466.0311784262,41408.8016354156,29379.4393576537,45750.6982343206,46965.5819236073,30176.7641950674,47610.3846813454,51444.5354595259,53239.2950763034,15829.9058773174
2982307682,14746,2,0,32453.4132768208,41410.7241315137,29381.8607293214,45751.1971098904,46954.9838596745,30182.2274909409,47610.7983830374,51443.4038637213,53227.8817766835,15835.0041422862
2982307682,14746,2,0,32465.5566382501,41422.0157541654,29388.0054162170,45762.9876081118,46977.8712973984,30194.5533678226,47620.1553418942,51454.0262630478,53255.0765790828,15832.0473919583
2982316460,14747,2,0,32476.8847639923,41426.9680067723,29392.2032716209,45766.1633769826,46987.1917531648,30201.3064395593,47623.0025829508,51457.6279013073,53261.1725951911,15837.9973957047
2982316460,14747,2,0,32465.3862904946,41422.1982696177,29392.7751533716,45759.5684853045,46971.4224180823,30190.8057172011,47619.5712924467,51452.3349531894,53240.6213552571,15850.6761357942
2982316460,14747,2,0,32453.0969167034,41412.8413107609,29383.9779085686,45755.6504869276,46964.8275264042,30180.0373055128,47613.7916364558,51446.6769741667,53246.4861851258,15845.3588522826
2982316460,14747,2,0,32462.5755525285,41416.6741352601,29383.3695237275,45761.6248260676,46978.3701729682,30189.0414011618,47618.5978767009,51451.4102082308,53260.6007134404,15848.1695902487
2982316460,14747,2,0,32458.1343431881,41414.5934591034,29383.6007099671,45757.1227782431,46967.1880595879,30182.0206400949,47614.2661766319,51445.2655213352,53238.4433375258,15848.4129441851
2982316460,14747,2,0,32457.0392504740,41416.1630919935,29384.5984611066,45758.4612248937,46967.4679166148,30186.6443648876,47616.8335606616,51445.0221673988,53241.4609263379,15846.8919820823
2982316460,14747,2,0,32465.7634890961,41417.5015386440,29383.0653313069,45760.6270749281,46979.4287625918,30173.6249292871,47616.8822314489,51448.0397562109,53256.3420195524,15840.4917735534
2982316460,14747,2,0,32448.6313719694,41402.7299547010,29372.0292302885,45744.4075350632,46960.5688325162,30162.6009959655,47604.0209759070,51434.3510972851,53228.5144969183,15830.5994360363
2982352058,14748,2,0,32427.9827904608,41392.4725862793,29368.2694119702,45738.4696990136,46942.3537903723,30165.4604047189,47598.3143260971,51427.7197025166,53215.0326888385,15825.2091463438
2982352058,14748,2,0,32442.7057036166,41401.8903836202,29374.6817881959,45748.9217505845,46962.7225148539,30178.7596973464,47606.3693413939,51437.1009967670,53243.4929317074,15832.1569012297
2982352058,14748,2,0,32458.2803555500,41408.1567474840,29381.9580708960,45752.2556995140,46974.9510501609,30182.6168572392,47611.1390785484,51443.0631682103,53246.6078620940,15841.8788909912
2982352058,14748,2,0,32450.6025388547,41407.3536794937,29384.4646164415,45749.2746137923,46964.2799800472,30174.2333141282,47612.4531898053,51440.4227779997,53231.8606135446,15846.5999573585
2982352058,14748,2,0,32445.2000814653,41406.2707544765,29381.2645121771,45747.6928132054,46965.0465449471,30165.9714479855,47612.7452145291,51440.6782996330,53240.6578583476,15842.7184620720
2982352058,14748,2,0,32443.9711440862,41402.6447808232,29373.4771862104,45743.3976162269,46966.1416376611,30167.8696086898,47608.9488931203,51439.0843313492,53241.0593923428,15841.0393199104
2982352058,14748,2,0,32441.0995676360,41406.1125744178,29378.8066374189,45744.3588642759,46958.3543116944,30177.0683874880,47610.9443953993,51441.5787091979,53228.1981368009,15847.1596714124
2982352058,14748,2,0,32445.6989570351,41410.7362992105,29381.0698290279,45749.6639800907,46963.6472598124,30175.5595930819,47615.0935800159,51444.8396519464,53237.5185925673,15839.2506684775
2982373864,14749,2,0,32458.4628710023,41412.9873231227,29380.4857795804,45753.3386245312,46977.9686389730,30170.4004896290,47614.8015552922,51446.0077508414,53252.8620582610,15837.0969861398
2982373864,14749,2,0,32442.9977283404,41401.4766819282,29372.6984536138,45739.1754254293,46957.5269083105,30157.2837124539,47603.2057402199,51431.8202163459,53224.3896476953,15838.4354327903
2982373864,14749,2,0,32424.8921954678,41395.5996843628,29371.5425224156,45732.8968938687,46945.5782300303,30163.8421010414,47594.9803771676,51425.0306415187,53215.6289059828,15838.6544513331
2982373864,14749,2,0,32439.8097917727,41405.5041895766,29377.9914017317,45742.0470018795,46968.7333570844,30172.9192028714,47600.4923438284,51434.0225694708,53243.0305592281,15838.7517929077
2982373864,14749,2,0,32451.1987559990,41411.1865039929,29381.7025492627,45743.9208271902,46973.4422557549,30176.8737043388,47602.3540014423,51435.9937363562,53238.4920083131,15838.6057805458
2982373864,14749,2,0,32454.7638911681,41421.3221954464,29393.7242337238,45751.9150040029,46972.8582063074,30194.8575602431,47614.9719030477,51445.2168505479,53234.5618422393,15843.8622255734
2982373864,14749,2,0,32466.4570478150,41430.1194402494,29401.2682057540,45765.1169550558,46984.4783567733,30183.7362853470,47624.3897003886,51455.9609268426,53255.3077653224,15846.0645786983
