steady_timestamp,sequence,battery,flags,EEG-ch1,EEG-ch2,EEG-ch3,EEG-ch4,EEG-ch5,EEG-ch6,EEG-ch7,EEG-ch8,EEG-ch9,EEG-ch10
6062926309,8032,-2,0,3478.6593478014,45855.0362345773,-1336.2808004891,18323.0304532478,56895.5419592356,52562.8441391288,40810.7593365680,55545.5846675175,38392.1619036782,22410.9385486707
6062926309,8032,-2,0,3484.5241776700,45859.9763194875,-1331.3163801854,18331.4383317524,56901.5406337694,52561.1893323609,40814.8841857910,55550.6464293959,38394.9239708570,22410.7803686120
6062926309,8032,-2,0,3493.8324657396,45856.8735567976,-1330.6714922538,18347.7673808888,56899.4721253095,52550.1167282520,40814.7016703387,55548.5779209360,38391.9793882259,22408.7848663330
6062926309,8032,-2,0,3479.0730494933,45854.0384834379,-1336.7310052716,18327.4473271945,56889.7866386384,52555.3853409763,40812.2316278836,55540.3525578837,38388.2317376044,22406.1444761224
6062926309,8032,-2,0,3468.4141470764,45857.5062770324,-1336.5484898192,18321.6798389004,56892.3540226680,52559.0964885073,40815.4438998449,55540.6202472138,38390.9207986023,22407.3490781079
6062926309,8032,-2,0,3484.6093515478,45858.5405312624,-1330.3916352268,18346.1612449082,56899.6181376713,52553.9373850544,40817.5489113952,55542.2507185880,38392.3322514337,22410.2328222549
6062926309,8032,-2,0,3488.3326667756,45856.7883829198,-1333.4700625230,18341.7565386583,56895.5054561452,52559.9117241945,40816.0766200797,55536.9942735605,38392.7337854289,22414.4428453557
6062926309,8032,-2,0,3478.7810247696,45859.6842947637,-1337.9356072571,18327.4108241040,56892.8528982378,52565.9834049091,40818.7535133807,55540.2187132186,38398.4891060261,22417.5577757423
6062974123,8033,-2,0,3486.3128291030,45862.1543372188,-1332.8130068946,18343.6546993627,56896.5397103751,52558.5124390598,40820.9680342025,55546.2903939333,38402.1515827698,22417.9714774343
6062974123,8033,-2,0,3490.4011752355,45858.8933944702,-1335.1248692910,18346.3924311478,56895.8704870499,52555.8598811524,40815.8089307496,55542.1168739230,38399.8518880703,22416.1706583045
6062974123,8033,-2,0,3479.9734590582,45855.5107747534,-1345.1267160794,18326.5104145391,56888.3751858069,52560.6661213975,40812.6818326661,55539.6224960743,38398.0023981532,22412.6055231354
6062974123,8033,-2,0,3486.8847108537,45856.4355197120,-1342.4741581720,18335.8917087896,56893.4004445948,52556.4804336904,40814.1906270721,55543.1024573656,38398.9758138991,22409.7339466852
6062974123,8033,-2,0,3497.2637562436,45853.6247817459,-1342.7661828958,18348.3879334268,56890.6748805065,52548.0603874889,40811.9031000694,55541.0704519962,38394.5954430428,22406.9597118096
6062974123,8033,-2,0,3484.4025007018,45854.4400174330,-1347.1830568425,18332.4117474983,56885.4427708726,52557.1253216220,40814.6043287641,55538.0771985778,38394.3520891063,22408.2494876728
6062974123,8033,-2,0,3480.3384899629,45864.1376718009,-1341.7197609690,18335.5388455818,56896.1016732895,52561.1406615736,40824.3019831320,55546.4485739919,38398.3795967547,22413.4329265194
6062974123,8033,-2,0,3496.3876820724,45866.2305156545,-1334.4921490562,18359.0955066310,56905.3856259654,52553.1951555482,40828.0618014503,55551.1088018751,38399.4381863783,22415.0633978936
6062990315,8034,-2,0,3491.8491311574,45860.2683442112,-1341.8171025436,18345.9665617590,56897.1359275194,52555.1906578272,40823.2798965988,55544.1002085051,38393.7315365684,22413.1774048861
6062990315,8034,-2,0,3478.4524969554,45860.2075057271,-1344.6278405097,18328.4937491213,56893.4491153821,52562.0775742290,40822.0752946134,55545.3656489747,38397.2723363438,22413.0192248274
6062990315,8034,-2,0,3482.6016815720,45857.8591402403,-1336.5849929097,18340.4545950982,56896.8073997052,52554.2050743845,40817.4880729111,55547.2638096791,38399.1218262609,22410.1963191645
6062990315,8034,-2,0,3480.3749930534,45852.5540244255,-1337.4123962937,18335.8673733960,56890.2855142081,52550.7737838805,40808.5083126558,55539.5008191060,38393.5003503287,22411.1940703040
6062990315,8034,-2,0,3466.6011602498,45851.5076024987,-1344.4818281478,18317.8835174917,56886.2580065597,52558.5489421503,40805.6732392960,55535.6071561227,38395.0578155221,22411.6929458737
6062990315,8034,-2,0,3473.7679336785,45853.8438002887,-1343.7761017321,18333.7745295424,56892.1228364284,52551.5038456898,40808.1676171448,55539.0141112331,38395.0699832189,22408.1521460982
6062990315,8034,-2,0,3483.9157928289,45851.2155777749,-1345.7472686174,18345.9665617590,56891.2589299540,52543.7773582073,40810.3456348761,55536.5319010813,38389.3389980153,22406.3634946652
6062990315,8034,-2,0,3469.1077057953,45849.9379696085,-1353.9361285792,18329.1751401434,56885.3332616012,52548.9242939634,40813.2172113263,55534.2687094722,38387.0514710126,22407.8236182840
6063035307,8035,-2,0,3465.6034091103,45853.0407322984,-1350.4805026815,18334.9669638311,56890.0543279685,52548.6079338460,40816.7701787986,55541.0582842994,38391.8698789545,22411.1697349103
6063035307,8035,-2,0,3483.4169172591,45850.9113853544,-1344.7495174779,18352.5857888307,56894.3130218565,52541.2829803586,40816.5754956494,55543.2606374243,38391.0303078737,22411.0967287294
6063035307,8035,-2,0,3482.6990231466,45844.7910338524,-1348.9960436691,18334.7844483787,56885.1264107552,52545.0062955864,40811.6354107393,55536.4223918098,38386.1510614477,22405.3049050416
6063035307,8035,-2,0,3479.1338879775,45847.4922625471,-1347.7427708963,18329.8078603782,56887.9006456308,52552.6841122817,40814.7381734291,55539.8901854044,38390.0568921278,22405.4874204940
6063035307,8035,-2,0,3493.5526087126,45849.3417524642,-1343.0338722259,18349.1058275393,56894.0940033137,52544.2397306865,40819.0577058013,55543.7230099036,38390.1055629151,22406.2174823034
6063035307,8035,-2,0,3494.2705028252,45849.3660878579,-1345.7959394047,18341.4888493282,56891.1007498953,52544.4830846230,40816.8431849795,55540.4255640646,38386.8689555602,22409.1985680250
6063035307,8035,-2,0,3489.5372687611,45858.3823512037,-1344.7130143874,18325.5369987933,56894.9092390009,52556.2370797540,40821.5764190436,55545.2561397033,38391.2371587197,22412.0579767784
6063035307,8035,-2,0,3503.6517970757,45866.0601678989,-1336.3659743669,18342.8272959787,56908.2085316283,52550.3114114012,40827.1127210981,55555.1971480076,38394.2547475318,22410.0138037121
6063050568,8036,-2,0,3510.8915766853,45865.4882861483,-1335.3803909242,18350.6754604295,56908.0381838728,52549.3866664426,40826.2123115332,55554.0898875968,38391.7603696831,22407.6167674380
6063050568,8036,-2,0,3492.4818513922,45865.0502490626,-1342.7905182894,18327.9948735515,56903.3292852023,52560.0577365564,40825.3240696651,55551.1818080561,38394.0722320794,22407.4342519857
6063050568,8036,-2,0,3486.7265307950,45866.4495341973,-1340.7463452232,18335.1738146771,56907.5636436967,52558.7436252995,40829.0108818025,55557.7280289468,38399.1948324419,22405.3779112226
6063050568,8036,-2,0,3499.1619169480,45863.2372622360,-1337.6557502301,18354.2649309923,56909.4861397947,52546.0527175132,40828.8527017438,55556.7059424137,38397.8928888818,22404.6478494132
6063050568,8036,-2,0,3495.8401357154,45858.4310219909,-1343.6909278543,18338.5077636066,56899.4356222190,52547.4276672541,40824.7886910049,55548.3102316059,38393.9262197175,22404.3801600831
6063050568,8036,-2,0,3492.6887022382,45860.0858287589,-1341.4885747294,18333.3608278505,56897.4401199400,52552.9152985213,40827.3682427314,55549.5878397723,38395.9825604806,22403.6500982737
6063050568,8036,-2,0,3503.3841077456,45859.9641517906,-1334.1271181515,18348.2905918522,56900.3238640871,52550.7007776995,40827.4777520028,55552.7636086431,38397.7103734295,22404.2341477212
6063050568,8036,-2,0,3501.9848226109,45859.3801023431,-1335.6237448607,18336.6826090831,56896.3450272260,52559.5710286834,40823.7544367749,55550.6099263054,38400.2777574591,22409.4905927487
6063085295,8037,-2,0,3495.3169247520,45864.6608827643,-1336.1956266114,18324.0890428714,56900.7010626886,52565.8495602441,40825.1902250000,55554.2602353523,38406.1547550246,22413.6032742749
6063085295,8037,-2,0,3509.9059932427,45864.3445226469,-1332.0707773884,18342.5839420423,56908.2572024156,52552.0635597437,40824.2776477383,55560.1250652209,38403.3683524521,22413.3112495511
6063085295,8037,-2,0,3513.9700039815,45856.6667059516,-1337.2177131445,18343.7885440277,56902.2220247914,52547.2208164082,40819.7147614297,55552.2525653765,38395.0821509157,22411.0358902453
6063085295,8037,-2,0,3494.3921797934,45854.7807129441,-1341.8901087245,18324.7339308030,56893.4126122916,52557.5511910108,40821.4790774691,55548.6630948137,38395.1429893998,22413.1652371893
6063085295,8037,-2,0,3489.4520948833,45858.3093450227,-1335.8549311003,18334.2247343249,56899.5938022777,52556.2492474508,40825.0563803350,55553.7856951762,38398.8054661435,22414.9417209254
6063085295,8037,-2,0,3490.5715229910,45853.5396078681,-1334.4921490562,18340.2599119491,56900.4090379648,52550.8711254550,40820.9436988088,55552.1308884083,38397.9902304564,22414.4915161430
6063085295,8037,-2,0,3482.7963647212,45854.1114896188,-1337.8626010761,18322.1543790765,56899.7398146396,52560.0334011627,40822.4281578212,55550.6951001832,38399.9370619481,22413.8709636050
6063085295,8037,-2,0,3484.0983082812,45859.9641517906,-1334.5164844498,18324.4054029888,56905.5924768114,52559.2059977788,40827.2222303695,55554.7591109220,38404.6581283154,22411.6199396928
6063110430,8038,-2,0,3497.7504641166,45858.3458481132,-1328.4204683415,18345.4068477052,56907.8435007236,52547.1843133177,40829.0838879834,55554.1263906872,38400.5576144860,22409.7339466852
6063110430,8038,-2,0,3492.0681497002,45857.0195691595,-1331.9247650265,18333.6893556647,56900.0075039697,52554.6066083797,40828.5850124136,55549.3809889263,38396.5787776249,22410.1841514676
6063110430,8038,-2,0,3488.1258159296,45864.3688580405,-1328.8098346398,18327.3743210136,56904.8137442147,52562.2844250750,40832.8193709080,55555.3796634600,38402.3584336158,22412.5690200449
6063110430,8038,-2,0,3506.3895288608,45871.5356314693,-1319.3798696021,18352.1599194419,56917.1274533995,52555.7747072747,40836.2506614121,55563.6780326932,38405.2056746724,22411.1819026071
6063110430,8038,-2,0,3508.5432111985,45870.5500480266,-1319.1851864529,18350.6389573390,56916.7015840107,52556.2127443603,40832.8923770890,55562.0597290158,38404.1349173520,22408.7726986362
6063110430,8038,-2,0,3490.1821566927,45871.2192713519,-1324.8431654756,18332.1927289555,56913.2581258098,52566.1659203615,40833.0262217540,55562.6194430696,38404.5364513471,22408.2494876728
6063110430,8038,-2,0,3489.4034240960,45874.0665124084,-1318.9905033037,18349.2031691139,56924.0995436791,52567.0784976232,40838.0758159355,55572.1954204693,38412.8591559740,22412.5690200449
6063110430,8038,-2,0,3490.9365538957,45869.6739738553,-1317.4087027168,18356.2604332712,56925.4136549360,52562.8806422193,40836.4818476517,55568.8736392366,38412.7496467026,22413.2260756734
6063142918,8039,-2,0,3480.0829683296,45867.8366516351,-1319.8665774750,18335.6240194595,56917.5046520011,52568.9158198435,40835.3015810599,55565.5275226103,38413.3093607565,22413.4937650035
6063142918,8039,-2,0,3486.3858352839,45871.5843022565,-1316.3744484868,18340.5276012792,56923.0896248428,52567.3826900438,40838.9883931973,55572.1224142884,38418.6996504491,22416.3045029696
6063142918,8039,-2,0,3499.0524076766,45867.9096578160,-1318.6254723990,18352.7804719799,56921.9093582510,52554.4727637146,40834.6201900378,55567.9488942781,38412.8226528836,22413.2139079766
6063142918,8039,-2,0,3485.3272456603,45859.8911456097,-1331.4258894568,18327.4229918009,56910.4595555406,52557.1496570157,40828.8892048342,55557.2899918612,38405.3395193375,22409.5635989297
6063142918,8039,-2,0,3472.2469715757,45861.3877723189,-1332.8860130755,18320.1345414039,56910.9705988071,52561.4205186005,40830.3006576657,55559.3828357147,38406.5076182325,22407.6776059221
6063142918,8039,-2,0,3487.9189650836,45864.8677336103,-1323.7359050647,18345.1391583751,56920.4492346322,52558.3055882139,40832.6976939398,55565.0286470406,38408.6734682669,22407.1178918683
6063142918,8039,-2,0,3489.8171257880,45862.9209021186,-1324.2712837249,18340.0287257094,56915.0224418492,52555.9085519397,40829.9112913674,55560.2832452796,38405.9600718754,22407.8844567681
6063142918,8039,-2,0,3476.1649699527,45863.9186532581,-1326.7169907863,18325.6343403679,56909.6078167630,52561.1893323609,40833.2087372064,55558.3364137880,38406.3494381738,22412.6663616195
6063174307,8040,-2,0,3479.5475896694,45860.0858287589,-1325.5123888008,18342.1337372598,56912.2603746704,52553.0734785800,40834.9487178521,55561.9258843507,38408.2719342718,22413.5424357908
6063174307,8040,-2,0,3479.5597573663,45851.4589317114,-1332.5818206550,18342.7421221009,56908.4397178680,52549.1798155966,40829.5705958563,55556.8762901692,38402.4314397968,22411.9484675070
6063174307,8040,-2,0,3467.1243712132,45850.1813235450,-1340.2961404407,18318.4188961519,56902.7695711485,52556.3344213285,40827.6967705456,55550.5369201245,38402.0664088921,22412.0944798689
6063174307,8040,-2,0,3476.5543362510,45855.1700792424,-1331.7544172710,18327.0092901089,56909.4374690074,52553.1586524578,40829.6070989468,55554.4184154110,38407.1646738609,22413.2990818543
6063174307,8040,-2,0,3490.8878831084,45853.4422662935,-1327.8607542877,18338.8241237240,56909.3887982201,52546.1135559973,40827.5994289710,55552.6662670685,38405.0718300074,22410.3301638295
6063174307,8040,-2,0,3481.0685517723,45851.9091364939,-1338.1667934967,18320.7794293355,56901.1756028647,52554.5822729860,40826.0784668681,55547.5436667060,38405.0839977042,22410.9628840643
6063174307,8040,-2,0,3476.1284668622,45856.2773396533,-1336.9865269049,18323.1399625192,56907.0526004302,52560.8243014562,40831.5417627416,55553.8587013571,38409.4156977731,22411.6077719959
6063174307,8040,-2,0,3498.5535321069,45862.4341942457,-1321.9959244190,18354.1189186304,56920.5587439036,52561.8098848989,40841.3854294714,55562.1814059840,38415.0615090990,22413.1652371893
6063207098,8041,-2,0,3507.6184662400,45866.2183479576,-1317.1410133866,18350.6632927327,56922.5907492730,52567.0176591391,40845.0722416087,55564.0065605075,38417.9087501556,22416.0976521236
6063207098,8041,-2,0,3502.4350273934,45871.0489235963,-1314.1720953619,18338.1305650051,56927.2023063689,52573.3813645775,40848.1750042986,55569.8470549825,38423.8709215988,22418.0566513121
6063207098,8041,-2,0,3508.6648881667,45873.3607859927,-1310.5096186181,18352.4762795593,56931.0594662618,52561.4570216910,40847.8829795748,55572.8524760977,38423.9925985670,22414.8808824413
6063207098,8041,-2,0,3505.8663178975,45866.4495341973,-1320.5114654066,18343.0828176120,56922.2013829747,52554.4362606242,40838.7572069576,55564.3959268058,38414.6113043165,22408.5293446997
6063207098,8041,-2,0,3499.8554756669,45869.5279614935,-1324.2591160281,18325.8655266075,56923.9291959236,52569.1226706894,40843.6729564741,55567.1701616814,38415.7307324243,22409.9529652280
6063207098,8041,-2,0,3512.1448494581,45875.4779652399,-1316.2162684281,18342.9733083406,56935.1964831816,52566.5066158725,40849.2092585285,55574.0814134769,38419.0281782633,22409.4784250519
6063207098,8041,-2,0,3518.4963871997,45871.5721345597,-1313.3203565842,18355.1653405572,56936.6079360131,52559.4250163216,40848.0654950272,55571.2341724203,38416.5216327177,22406.8988733255
6063207098,8041,-2,0,3498.1154950212,45869.0047505301,-1319.2095218465,18332.3995798014,56930.6335968730,52569.7432232274,40846.5323652275,55566.8051307767,38417.2151914366,22409.9773006217
6063238218,8042,-2,0,3488.1501513233,45872.9105812102,-1314.3302754205,18331.1828101192,56936.4984267417,52568.1492549436,40849.3431031936,55573.9475688118,38424.5036418336,22412.0944798689
6063238218,8042,-2,0,3496.8987253389,45870.2215202124,-1314.6953063252,18346.0274002431,56939.2483262236,52556.0788996953,40847.5057809733,55572.9863207628,38421.4495499310,22409.4419219614
6063238218,8042,-2,0,3497.4219363023,45865.7073046911,-1322.8719985903,18332.7646107061,56931.1203047459,52557.6363648886,40842.8090499997,55563.8118773583,38416.7893220479,22408.1643137950
6063238218,8042,-2,0,3493.2605839889,45865.6829692974,-1327.6904065321,18319.9276905579,56925.5231642074,52554.2780805655,40838.1123190260,55558.1173952451,38413.9907517786,22406.2174823034
6063238218,8042,-2,0,3498.4926936228,45860.2561765144,-1327.5808972607,18332.6185983443,56919.8530174879,52540.1635522508,40831.2619057147,55553.5301735429,38407.7487233084,22403.2363965817
6063238218,8042,-2,0,3489.8049580912,45851.7509564351,-1336.9865269049,18321.0471186656,56904.0471793149,52539.1171303241,40822.7810210291,55541.6301660501,38397.1993301629,22401.0462111536
6063238218,8042,-2,0,3476.3109823145,45850.1204850609,-1342.9730337418,18303.8419953580,56897.9754986002,52542.9134517328,40823.0000395719,55537.2984659811,38397.2480009502,22399.2453920238
6063238218,8042,-2,0,3489.0018901009,45848.8550445913,-1340.1744634725,18324.3810675951,56901.6136399503,52530.7335872131,40825.7499390539,55539.2452974728,38395.8243804219,22397.3959021067
6063280667,8043,-2,0,3497.9816503562,45842.5400099402,-1346.2339764903,18334.2490697185,56896.4180334069,52520.4640510945,40822.4403255181,55531.5066422934,38385.8468690271,22395.3395613437
6063280667,8043,-2,0,3483.4899234401,45840.5445076612,-1356.7346988485,18315.2674626747,56891.1129175921,52526.9007627138,40821.5034128627,55526.8342467134,38382.6832678531,22396.5806664196
6063280667,8043,-2,0,3477.2478949699,45841.5057557102,-1359.5211014210,18320.2683860690,56894.6902204580,52521.3279575689,40822.0752946134,55530.8252512713,38381.2353119312,22393.3562267615
6063280667,8043,-2,0,3485.9721335919,45838.7680239251,-1360.8960511619,18332.8254491903,56897.3427783654,52511.8736571375,40817.0135327350,55528.7689105082,38377.4754936129,22387.7104154357
6063280667,8043,-2,0,3478.0631306570,45837.7824404824,-1366.5661978814,18315.0241087383,56892.0011594602,52521.5226407181,40816.0887877765,55524.7657382535,38377.2321396765,22386.5179811470
6063280667,8043,-2,0,3475.1428834195,45841.8464512213,-1362.0276469665,18310.9114272121,56895.7609777785,52524.8687573444,40821.9171145547,55530.1073571587,38382.9996279705,22385.7514162472
6063280667,8043,-2,0,3483.4655880464,45840.1429736661,-1358.8762134893,18325.9263650916,56896.2355179545,52513.7109793578,40820.2014693026,55528.9514259606,38381.9167029533,22382.5878150732
6063280667,8043,-2,0,3472.7823502359,45832.0027844915,-1368.5738678572,18310.2300361900,56883.2282500508,52510.3283596410,40813.1077020549,55519.7648148592,38376.6724256226,22378.8401644517
6063324351,8044,-2,0,3458.7773311927,45831.5769151027,-1374.8523994179,18294.3876949266,56878.3125005344,52518.6875673584,40813.2415467199,55519.8256533434,38378.2055554223,22380.3002880705
6063324351,8044,-2,0,3471.2248850425,45833.8522744086,-1369.4377743317,18317.0682818045,56889.4337754305,52517.0327605904,40820.1041277281,55526.6395635642,38383.2308142102,22383.0988583398
6063324351,8044,-2,0,3482.9910478703,45830.9563625647,-1369.4012712412,18324.2472229301,56892.1228364284,52514.7208981941,40822.6228409704,55525.7391539993,38381.8193613787,22387.1020305945
6063324351,8044,-2,0,3471.1883819521,45830.6521701442,-1376.7140570318,18302.3453686488,56885.6374540218,52523.8831739017,40823.2555612052,55525.5323031533,38382.8049448214,22391.3485567857
6063324351,8044,-2,0,3474.6075047593,45835.7017643257,-1367.7707998669,18310.5220609138,56894.0818356169,52529.3099666848,40828.8648694406,55534.6094049832,38391.8333758640,22395.9114430943
6063324351,8044,-2,0,3488.7585361644,45838.1109682966,-1358.8762134893,18323.5049934239,56898.3040264145,52524.5280618334,40829.7409436118,55537.8946831254,38393.3786733605,22398.2476408843
6063324351,8044,-2,0,3486.5561830394,45838.9505393774,-1359.0952320322,18308.1615277301,56896.1868471673,52532.0842015604,40827.2709011568,55536.1790378734,38392.3687545242,22400.1823046792
6063324351,8044,-2,0,3491.4719325559,45844.9613816080,-1353.2060667698,18315.6446612763,56905.0084273639,52536.6592555658,40834.0848113776,55542.9442773069,38397.9050565786,22401.1557204250
6063333356,8045,-2,0,3503.4814493202,45842.9902147226,-1354.5201780267,18336.8529568386,56907.8191653300,52523.3964660288,40834.4255068887,55542.9442773069,38397.3940133121,22398.0529577352
6063333356,8045,-2,0,3489.4642625801,45836.7725216461,-1371.1534195837,18317.3481388315,56896.5640457688,52524.4550556524,40829.9842975483,55534.4025541372,38393.8532135366,22396.3859832704
6063333356,8045,-2,0,3471.8211021869,45836.8333601302,-1378.9164101567,18298.5733826337,56893.0475813869,52527.3144644058,40828.0618014503,55534.6702434673,38395.8000450283,22397.3593990163
6063333356,8045,-2,0,3479.7544405154,45835.6530935384,-1373.4287788896,18313.8195067528,56896.5518780720,52514.9520844337,40824.6670140367,55536.2155409639,38391.3710033847,22396.1426293340
6063333356,8045,-2,0,3484.3538299145,45833.1465479929,-1371.6036243661,18311.5198120533,56893.9114878614,52517.5438038570,40820.7976864470,55532.7599150661,38386.1753968413,22398.2111377939
6063333356,8045,-2,0,3470.5434940205,45836.5535031033,-1371.5062827916,18293.0614159729,56892.2323456998,52528.6772464500,40820.4691586327,55533.1492813645,38389.1078117757,22401.5207513297
6063333356,8045,-2,0,3473.7679336785,45843.1483947813,-1363.9623107613,18306.9082549574,56903.0007573881,52527.8255076724,40825.3119019683,55540.4864025487,38397.3696779184,22404.0516322689
6063333356,8045,-2,0,3483.0640540513,45842.1384759450,-1365.0209003849,18317.1534556823,56906.3955448017,52528.6285756627,40827.7332736360,55542.0560354389,38398.5256091166,22402.3359870168
6063367805,8046,-2,0,3477.7467705396,45843.0753886004,-1372.3458538723,18303.6351445120,56903.9985085276,52539.1536334145,40828.6458508978,55540.2552163091,38401.2876762954,22399.9511184396
6063367805,8046,-2,0,3482.3826630292,45848.2344920533,-1369.4256066348,18311.7144952024,56911.1166111690,52539.9932044953,40835.1068979107,55548.5535855423,38406.5197859293,22399.3914043857
6063367805,8046,-2,0,3498.9063953147,45850.0353111831,-1364.1569939105,18332.1440581682,56914.9007648809,52532.3883939810,40838.8667162290,55552.3620746479,38406.6414628975,22399.1723858429
6063367805,8046,-2,0,3488.0406420518,45848.0033058137,-1371.3846058233,18311.7631659897,56906.3225386208,52535.8318521819,40835.2772456663,55546.4850770824,38404.1957558361,22397.2863928353
6063367805,8046,-2,0,3473.5610828325,45849.4755971293,-1375.5216227431,18296.6752219293,56902.9034158135,52536.2455538739,40833.9022959253,55548.2615608186,38406.0695811468,22399.6712614126
6063367805,8046,-2,0,3485.3394133572,45847.6991133931,-1375.7163058923,18312.9312648847,56904.9232534861,52519.9286724343,40828.3781615677,55545.3656489747,38399.1826647451,22398.3328147621
6063367805,8046,-2,0,3486.9090462473,45842.3696621847,-1383.2602779225,18306.7014041114,56899.2774421603,52521.8390008355,40820.4691586327,55537.4323106462,38392.7459531257,22398.8681934223
6063367805,8046,-2,0,3475.3862373560,45844.7910338524,-1384.4892153016,18293.1222544570,56898.8029019842,52531.8043445335,40823.6692628972,55536.6170749590,38395.1551570967,22399.3183982048
6063401588,8047,-2,0,3479.4624157917,45844.9248785175,-1378.1741806505,18309.5851482584,56905.5803091146,52520.2815356422,40825.7742744476,55539.0506143236,38396.2259144171,22396.3738155736
6063401588,8047,-2,0,3479.3042357330,45836.8576955239,-1384.8420785095,18310.8262533344,56900.2873609966,52514.8425751623,40823.5719213226,55532.7234119757,38391.2249910228,22391.9691093237
6063401588,8047,-2,0,3467.5502406020,45837.0767140667,-1392.6050690825,18294.4607011075,56896.5153749815,52524.3333786842,40824.5696724621,55529.9978478873,38390.3854199421,22394.0741208741
6063401588,8047,-2,0,3473.8044367690,45842.7955315735,-1384.7204015413,18307.0664350161,56903.2197759309,52522.5568949481,40829.2907388294,55535.2907960053,38395.7878773315,22394.4634871724
6063401588,8047,-2,0,3486.7508661886,45841.5057557102,-1379.7803166312,18318.2242130027,56901.9908385518,52516.1201833287,40828.6336832009,55533.0762751835,38393.8288781430,22393.4292329425
6063401588,8047,-2,0,3477.8076090238,45839.0113778615,-1384.9637554777,18298.8045688733,56895.1890960278,52523.0679382146,40829.0960556802,55529.9491771000,38394.6562815269,22395.6315860674
6063401588,8047,-2,0,3466.4916509784,45840.0577997883,-1386.0466804950,18295.6896384866,56895.5662946293,52521.8633362291,40831.5295950448,55532.5652319170,38398.4891060261,22395.1205428008
6063401588,8047,-2,0,3476.8706963684,45836.3709876510,-1384.5378860889,18316.2773815111,56896.1868471673,52505.6194609705,40831.5052596512,55530.4115495793,38392.9406362749,22392.4923202871
6063438238,8048,-2,0,3477.7711059333,45828.8513510144,-1390.5243929258,18303.3066166978,56886.8420560072,52506.6172121100,40825.0563803350,55521.1032615098,38386.7716139856,22390.2777994653
6063438238,8048,-2,0,3472.7336794486,45830.2506361490,-1391.2666224320,18288.8757282658,56886.5500312835,52514.3923703799,40826.2123115332,55523.0987637887,38390.3124137611,22390.7645073382
6063438238,8048,-2,0,3478.8783663442,45829.4232327651,-1388.7965799770,18302.6008902821,56891.6117931618,52505.5464547896,40824.1559707701,55526.1041849040,38388.5846008123,22388.6838311815
6063438238,8048,-2,0,3474.2424738546,45825.1158680897,-1394.7587514202,18302.8199088249,56889.7866386384,52506.2643489021,40819.0090350140,55522.3565342825,38386.9419617412,22391.4945691476
6063438238,8048,-2,0,3461.0405228017,45828.9121894985,-1398.3360542861,18288.0239894882,56889.4702785210,52518.6875673584,40822.7201825450,55525.2524461264,38389.4241718930,22395.5099090992
6063438238,8048,-2,0,3474.4493247006,45835.5435842670,-1392.9457645936,18305.7766591529,56898.8029019842,52515.9985063605,40827.1492241885,55532.1758656186,38393.4638472383,22396.0574554562
6063438238,8048,-2,0,3492.0924850939,45832.1366291566,-1393.2134539237,18316.1678722396,56899.3017775539,52506.0696657530,40824.2046415574,55530.4358849730,38389.0104702011,22391.4337306635
6063438238,8048,-2,0,3480.1559745106,45826.7706748577,-1401.6456678220,18294.2903533520,56890.6140420224,52513.2242714849,40822.8296918164,55523.4394592998,38385.9198752080,22388.2701294895
6063460617,8049,-2,0,3470.8963572283,45826.9166872195,-1399.8691840858,18297.5999668878,56892.0254948538,52511.3139430837,40825.0320449413,55524.1086826250,38389.0104702011,22387.5035645897
6063460617,8049,-2,0,3478.1361368380,45824.4101416740,-1397.9588556846,18317.2507972569,56895.3594437833,52500.9227299969,40825.8107775380,55523.5368008743,38386.3335769000,22387.8320924039
6063460617,8049,-2,0,3469.2537181572,45820.4799756002,-1403.8723563406,18301.0190896951,56888.3751858069,52504.0254926867,40820.8220218406,55516.4308659298,38381.6490136232,22387.6860800420
6063460617,8049,-2,0,3457.5118907231,45821.7819191602,-1403.5924993137,18289.6666285593,56887.8763102372,52509.4766208634,40820.6273386914,55518.3046912405,38382.8292802150,22386.9316828390
6063460617,8049,-2,0,3468.2072962305,45821.8792607348,-1400.5262397143,18307.8451676128,56892.3661903649,52500.3021774589,40820.1406308185,55523.3177823315,38382.7806094277,22386.7613350835
6063460617,8049,-2,0,3465.3357197802,45814.1406055554,-1409.6276769378,18300.5323818222,56881.9263064908,52494.7415400108,40816.3686448034,55517.2461016169,38376.6480902290,22385.2647083743
6063460617,8049,-2,0,3452.2797810892,45812.9603389636,-1415.1639789923,18286.4300212044,56875.3922532968,52502.5410336743,40817.7800976349,55514.3015189857,38378.6557602047,22385.7270808535
6063460617,8049,-2,0,3463.1090312616,45817.0486850961,-1408.8246089475,18304.5720571674,56884.3355104617,52498.3310105736,40822.3308162467,55518.5967159642,38382.4642493103,22383.8045847555
6063483610,8050,-2,0,3471.3100589203,45814.1771086459,-1410.5280865027,18309.5121420775,56882.7050390874,52492.9042177905,40818.9603642267,55515.9076549664,38379.9820391585,22382.1011072003
6063483610,8050,-2,0,3455.8692516520,45814.1892763427,-1417.3419967236,18288.1091633659,56878.3733390185,52503.9768218994,40818.4128178697,55516.3943628393,38380.3105669727,22381.7604116893
6063483610,8050,-2,0,3449.2256891867,45815.1870274822,-1416.4537548555,18292.2583479826,56880.0768165737,52502.1638350728,40819.5687490679,55521.9793356810,38382.3790754326,22382.0889395035
6063483610,8050,-2,0,3456.9643443661,45813.3740406556,-1412.9007873832,18304.9249203752,56881.0867354100,52496.3476759914,40814.4096456149,55519.7526471624,38379.0207911094,22384.6806589268
6063483610,8050,-2,0,3451.5618869767,45812.2911156383,-1415.3951652319,18288.3403496056,56875.5747687492,52502.4315244029,40809.6034053699,55511.6976318656,38375.5773329085,22386.2502918169
6063483610,8050,-2,0,3450.1504341452,45818.5088087149,-1407.5226653875,18283.4732708764,56881.0380646227,52509.1724284428,40814.8476827006,55515.5669594553,38382.8901186991,22389.8154269860
6063483610,8050,-2,0,3458.5583126499,45819.3605474925,-1400.4532335333,18303.7568214802,56885.6739571122,52498.0024827594,40816.1131231701,55516.7837291376,38381.5151689581,22387.8442601007
6063483610,8050,-2,0,3451.2090237688,45816.7566603724,-1406.1842187369,18293.7184716013,56877.4850971504,52499.7181280114,40814.4339810086,55511.0892470245,38376.7332641067,22385.9339316995
6063514478,8051,-2,0,3439.9417365108,45820.9301803826,-1409.2748137300,18281.7941287148,56877.7162833900,52508.1260065160,40819.0212027108,55512.9752400320,38380.1158838235,22388.9150174211
6063514478,8051,-2,0,3454.9080036030,45825.1888742707,-1404.0427040961,18303.0024242772,56886.7082113422,52499.7546311019,40822.1726361880,55518.8644052943,38383.8026959609,22387.6495769516
6063514478,8051,-2,0,3466.7593403085,45820.4678079034,-1403.1666299248,18304.8397464975,56885.3941000853,52496.3111729010,40818.2303024173,55516.6620521694,38380.9432872075,22386.7856704771
6063514478,8051,-2,0,3455.7354069869,45820.3096278447,-1405.9895355878,18284.4101835318,56880.8677168672,52505.7533056356,40818.1816316300,55516.6498844726,38382.5129200976,22387.9416016753
6063514478,8051,-2,0,3454.6038111824,45823.9356014979,-1398.5794082226,18295.2394337042,56887.4017700611,52504.0984988676,40824.4479954939,55524.8387444344,38387.5381788855,22387.4548938024
6063514478,8051,-2,0,3456.8304997010,45820.1271123923,-1398.5185697385,18310.2178684932,56886.3431804375,52496.1286574486,40822.8661949069,55522.2348573143,38382.6345970659,22381.8212501734
6063514478,8051,-2,0,3449.7854032405,45822.4389747887,-1403.2153007121,18296.7968988975,56880.5270213561,52502.9425676695,40822.5620024863,55518.6575544483,38380.3349023663,22381.4440515719
6063514478,8051,-2,0,3458.5461449530,45832.2461384280,-1398.5064020417,18299.1817674748,56887.5112793325,52506.9457399242,40827.7576090297,55523.5002977839,38383.6810189926,22383.6950754841
6063562957,8052,-2,0,3480.0464652392,45834.9351994258,-1392.6172367794,18314.8780963764,56890.9790729270,52496.2625021137,40826.5165039538,55524.6683966789,38381.2961504153,22384.4616403839
6063562957,8052,-2,0,3470.9571957124,45830.4818223886,-1400.9156060126,18298.1840163353,56881.5126047988,52499.4747740749,40821.6737606182,55518.3168589373,38375.9301961164,22384.0966094793
6063562957,8052,-2,0,3455.0905190553,45833.5359142912,-1400.5384074111,18290.1290010385,56882.7780452684,52508.2841865747,40825.9689575967,55519.7161440719,38379.8968652807,22387.2845460469
6063562957,8052,-2,0,3470.3488108713,45839.3155702821,-1390.3175420798,18319.9641936484,56895.4567853579,52504.2201758359,40830.1911483943,55528.9514259606,38382.4155785230,22385.6297392789
6063562957,8052,-2,0,3477.4547458159,45836.6143415874,-1390.6095668036,18324.6609246221,56893.6924693186,52505.4977840023,40827.1492241885,55524.7170674662,38379.8725298870,22380.1421080118
6063562957,8052,-2,0,3469.0955380985,45838.7193531378,-1391.8020010922,18307.5531428890,56890.2368434208,52514.4532088640,40829.2055649516,55526.0555141167,38384.2163976528,22381.0425175767
6063562957,8052,-2,0,3474.6075047593,45841.7491096467,-1383.3941225876,18318.6865854820,56895.9434932308,52512.0561725899,40835.2772456663,55533.5629830565,38388.8401224456,22386.8221735676
6063562957,8052,-2,0,3479.2799003393,45839.4980857344,-1380.5347138342,18325.5004957028,56894.7510589422,52505.9723241784,40834.0361405903,55531.5674807775,38388.4872592377,22389.1705390544
6063575089,8053,-2,0,3463.3158821076,45836.9307017048,-1388.4802198596,18303.9393369326,56888.3386827165,52511.2409369027,40831.0063840814,55523.5733039648,38387.2339864649,22387.5278999833
6063575089,8053,-2,0,3464.7760057264,45839.4372472503,-1388.1638597422,18305.7523237592,56891.4536131031,52507.4811185844,40830.9455455973,55526.2988680532,38388.4750915409,22384.6684912299
6063575089,8053,-2,0,3477.4912489064,45835.9816213526,-1387.3851271455,18320.2075475849,56893.0597490838,52498.1849982117,40827.6724351519,55526.1406879945,38385.1898133987,22384.3521311125
6063575089,8053,-2,0,3468.1951285336,45834.2051376165,-1392.3738828429,18304.0975169913,56887.4139377579,52508.7952298413,40828.7431924723,55525.2524461264,38385.4696704256,22387.7225831325
6063575089,8053,-2,0,3460.3226286892,45840.8243646881,-1387.3121209646,18296.3588618119,56894.1670094947,52516.3148664779,40835.9586366884,55533.2222875454,38393.0258101526,22393.8794377249
6063575089,8053,-2,0,3472.5998347835,45840.9825447468,-1379.9749997803,18312.9434325816,56902.3680371533,52510.0363349172,40836.1046490502,55537.8460123381,38397.6738703390,22393.3075559742
6063575089,8053,-2,0,3474.0842937959,45835.8234412939,-1384.7447369349,18305.7523237592,56897.7078092701,52508.7708944477,40830.8968748100,55530.4723880634,38393.4151764510,22391.1295382429
6063575089,8053,-2,0,3463.4618944695,45837.4174095777,-1389.6969895419,18292.2583479826,56895.3107729960,52518.1886917886,40830.2884899689,55529.9978478873,38394.6927846174,22392.2733017443
6063603261,8054,-2,0,3472.2104684852,45840.5688430549,-1384.9029169936,18310.5463963074,56902.1733540041,52511.6059678074,40832.8558739985,55534.7432496483,38397.8807211850,22393.5265745170
6063603261,8054,-2,0,3472.8310210232,45837.6364281205,-1388.8817538547,18311.5563151437,56897.6834738765,52501.9448165300,40827.8914536947,55528.8054135987,38391.7968727735,22390.9226873969
6063603261,8054,-2,0,3458.5096418626,45836.5048323160,-1396.2067073421,18287.3304307693,56891.6239608587,52508.0530003351,40824.8373617922,55524.0113410504,38389.1321471693,22390.4481472208
6063603261,8054,-2,0,3465.8345953500,45842.4426683656,-1391.8628395763,18299.4129537145,56899.6546407618,52509.2697700174,40829.4610865849,55531.6648223521,38392.3200837369,22395.1083751040
6063603261,8054,-2,0,3474.8143556053,45839.3034025853,-1390.5000575322,18314.9997733446,56901.4919629821,52502.0299904077,40827.9522921789,55529.6328169826,38389.5458488613,22395.9966169721
6063603261,8054,-2,0,3458.1081078674,45836.5900061938,-1397.0341107261,18295.1907629169,56894.0453325264,52511.6303032010,40826.1393053522,55526.9315882880,38389.6431904359,22398.3571501557
6063603261,8054,-2,0,3447.0720068490,45838.7680239251,-1396.4743966722,18289.2042560800,56893.6072954408,52515.3049476416,40831.4200857734,55531.3362945379,38398.3065905738,22398.2233054907
6063603261,8054,-2,0,3460.5781503225,45837.8554466634,-1391.4126347939,18309.1471111728,56896.8560704925,52504.8285606770,40831.2254026242,55531.8473378044,38399.9857327354,22397.4932436813
6063637952,8055,-2,0,3463.3158821076,45830.4574869950,-1395.9998564961,18299.2182705653,56887.6086209071,52503.0277415472,40825.9446222031,55521.3344477494,38393.5855242065,22395.0353689231
6063637952,8055,-2,0,3457.7674123564,45830.7981825060,-1399.6866686335,18287.3182630724,56886.5013604962,52507.4446154940,40827.2709011568,55522.9649191237,38395.3011694585,22396.0331200626
6063637952,8055,-2,0,3464.5569871836,45830.8346855965,-1399.7596748144,18305.3629574609,56890.9547375334,52495.9583096931,40826.6381809220,55526.1285202976,38394.5711076492,22396.1547970308
6063637952,8055,-2,0,3459.8967593004,45823.8869307106,-1407.2184729669,18302.5035487075,56884.0069826475,52492.5878576731,40822.5620024863,55518.5602128738,38388.0735575457,22394.9258596517
6063637952,8055,-2,0,3443.4460331958,45825.4443959039,-1410.5037511091,18283.7774632970,56877.6311095123,52502.1029965887,40822.8905303005,55518.3898651182,38389.5458488613,22394.4756548692
6063637952,8055,-2,0,3453.9224201603,45831.7107597678,-1399.7840102081,18300.8244065459,56888.8132228926,52505.9479887847,40828.2686522963,55525.9581725421,38396.7734607741,22393.8672700281
6063637952,8055,-2,0,3473.7557659817,45834.2051376165,-1391.8385041827,18316.4842323570,56896.0043317149,52502.9182322758,40827.7454413329,55526.0798495103,38396.1529082361,22394.8893565612
6063637952,8055,-2,0,3464.2649624598,45834.9595348195,-1394.1868696695,18296.2128494500,56890.4071911764,52510.0971734014,40829.7287759150,55525.0577629772,38398.6229506912,22401.7032667821
6063679290,8056,-2,0,3454.5429726983,45838.9140362869,-1390.0011819624,18290.8468951511,56894.8240651231,52506.8240629560,40830.5318439053,55530.7157419999,38403.3805201490,22400.8636957013
6063679290,8056,-2,0,3459.7872500290,45835.9451182621,-1389.8551696005,18301.5666360521,56896.9169089766,52495.8488004217,40825.3605727556,55528.1726933639,38400.6914591511,22394.3783132946
6063679290,8056,-2,0,3454.4212957301,45832.1852999439,-1399.1756253669,18283.0230660939,56890.8208928683,52500.1805004907,40820.0189538503,55520.4462058813,38398.8663046277,22388.6838311815
6063679290,8056,-2,0,3450.9900052260,45834.2173053133,-1403.8115178565,18276.5011805969,56896.8682381893,52509.2941054110,40824.0951322860,55524.7779059503,38402.9059799729,22390.7888427319
6063679290,8056,-2,0,3462.6466587824,45834.4241561593,-1397.6789986577,18299.1574320812,56902.7452357548,52498.6595383878,40827.1127210981,55529.0000967478,38400.6549560606,22393.6482514853
6063679290,8056,-2,0,3456.6236488550,45825.2618804516,-1397.4964832054,18291.4552799922,56890.8938990493,52495.1187386123,40820.9558665057,55520.2271873385,38392.5756053702,22397.3472313194
6063679290,8056,-2,0,3441.3166862517,45825.7850914150,-1392.9092615031,18271.3542448407,56883.6662871365,52504.7433867993,40819.9094445789,55518.7305606293,38392.6729469448,22402.5306701660
6063679290,8056,-2,0,3449.5420493041,45831.8202690392,-1380.8632416484,18285.3835992776,56891.6604639491,52498.3553459672,40822.3308162467,55523.0865960919,38395.0943186125,22401.7397698725
6063704505,8057,-2,0,3462.6223233887,45833.2317218706,-1378.6000500393,18295.8478185453,56893.1084198711,52496.2016636296,40821.0410403834,55521.6873109573,38392.4660960988,22398.6491748795
6063704505,8057,-2,0,3451.7930732163,45835.6409258416,-1389.0764370039,18277.4989317363,56890.7357189906,52508.0043295478,40822.1726361880,55518.6332190547,38392.9041331844,22397.9434484638
6063704505,8057,-2,0,3450.9900052260,45841.9802958863,-1385.9858420109,18283.8504694779,56901.4676275884,52508.0286649415,40828.0374660566,55525.8608309675,38398.0875720310,22401.4964159361
6063704505,8057,-2,0,3459.0815236132,45840.0943028788,-1385.7181526807,18299.4616245017,56902.9764219945,52500.9227299969,40828.9257079247,55526.7612405324,38396.5179391408,22401.5207513297
6063704505,8057,-2,0,3453.8980847667,45838.0866329030,-1392.8605907158,18285.8216363632,56899.6424730650,52506.6902182909,40828.1713107217,55523.8409932949,38397.2966717375,22402.5428378628
6063704505,8057,-2,0,3455.4555499600,45843.4890902924,-1390.9137592241,18284.7873821333,56902.8547450262,52512.4942096755,40832.3691661256,55530.0951894619,38404.4999482567,22402.2873162296
6063704505,8057,-2,0,3468.2316316241,45842.5765130307,-1385.7546557712,18304.6207279547,56905.1787751194,52501.7014625935,40831.3470795925,55531.8595055012,38406.1182519341,22398.3693178526
6063704505,8057,-2,0,3458.2906233198,45839.1573902234,-1386.9592577567,18295.2029306137,56896.0530025022,52507.7488079145,40829.7166082182,55526.5908927769,38403.1493339093,22396.5684987228
6063733046,8058,-2,0,3438.3721036206,45842.8563700576,-1383.4792964653,18281.7819610180,56895.4446176611,52518.6267288742,40831.9676321304,55526.6882343515,38405.9235687850,22397.5662498623
6063733046,8058,-2,0,3449.9070802087,45846.6526914663,-1375.4607842590,18299.8023200128,56904.8137442147,52511.1557630250,40833.5737681111,55532.2367041028,38408.6369651765,22398.9290319064
6063733046,8058,-2,0,3464.1189500979,45844.1583136176,-1378.3566961029,18303.3917905756,56904.5582225814,52507.3229385257,40829.7287759150,55527.9901779115,38403.4170232394,22399.1967212365
6063733046,8058,-2,0,3457.2563690898,45846.7987038282,-1385.5599726221,18286.2718411457,56901.0052551091,52514.2828611084,40829.4367511913,55526.1285202976,38402.2975951317,22399.8659445618
6063733046,8058,-2,0,3458.9476789482,45851.7022856479,-1382.5180484163,18299.4129537145,56907.0647681270,52508.4423666334,40834.7783700965,55532.0298532568,38406.4589474452,22398.3328147621
6063733046,8058,-2,0,3464.2284593693,45849.8406280339,-1383.2481102257,18315.4013073398,56907.6853206649,52501.3242639920,40833.9874698030,55530.5697296380,38404.8041406773,22395.7654307325
6063733046,8058,-2,0,3454.9688420871,45847.2854117011,-1388.6627353119,18299.0722582034,56902.2706955787,52510.6325520616,40833.2209049032,55527.4913023418,38403.6968802664,22396.2886416958
6063733046,8058,-2,0,3458.2541202293,45852.8338814524,-1382.9560855019,18302.9902565804,56910.3135431787,52516.1445187224,40838.7450392608,55535.3151313990,38410.9488275728,22398.7708518477
6063766703,8059,-2,0,3475.7756036543,45853.4544339904,-1374.6212131782,18324.6365892284,56917.2612980646,52508.2233480906,40839.3777594956,55540.2552163091,38410.3282750349,22398.5640010017
6063766703,8059,-2,0,3469.3267243382,45850.7045345084,-1379.1475963964,18309.9258437695,56909.9971830613,52508.7465590540,40837.1875740675,55535.3272990958,38407.2498477387,22397.7122622241
6063766703,8059,-2,0,3450.8683282578,45855.1944146360,-1382.5302161131,18294.0956702028,56907.7583268459,52516.3270341747,40838.0758159355,55536.8239258050,38410.4377843063,22398.9898703905
6063766703,8059,-2,0,3460.9675166208,45857.1655815214,-1377.7969820490,18312.6270724642,56915.6308266903,52509.9633287363,40840.7040384493,55542.3967309499,38413.8569071135,22396.8605234465
6063766703,8059,-2,0,3467.6475821766,45852.8217137556,-1382.6640607782,18312.6270724642,56912.2117038831,52504.4513620755,40836.5791892263,55536.2398763575,38407.9434064576,22394.5973318375
6063766703,8059,-2,0,3459.3492129433,45853.1380738730,-1389.7578280260,18292.7815589459,56909.3522951297,52511.5572970201,40836.2019906248,55533.0276043962,38406.5076182325,22396.7023433878
6063766703,8059,-2,0,3464.7516703327,45853.9168064696,-1385.9006681331,18303.4526290597,56914.9372679714,52511.5086262328,40839.3655917988,55538.4787325729,38410.3647781253,22395.9114430943
6063766703,8059,-2,0,3468.2316316241,45850.2299943323,-1387.1296055122,18308.4900555444,56914.2315415557,52505.3152685499,40838.2218282974,55537.1646213160,38408.8194806288,22395.1448781945
6063802585,8060,-2,0,3453.8250785857,45846.5553498918,-1395.0021053567,18284.9820652824,56904.8015765179,52508.5640436017,40835.1190656076,55530.6427358189,38407.1160030736,22394.8893565612
6063802585,8060,-2,0,3454.8471651189,45851.1182362004,-1391.4126347939,18290.9320690289,56908.5492271394,52504.2931820168,40836.3236675930,55532.7599150661,38409.7198901937,22395.9114430943
6063802585,8060,-2,0,3472.8310210232,45849.3052493737,-1389.9525111751,18309.6094836521,56910.1431954232,52498.0268181530,40832.0041352209,55530.8982574522,38405.5098670930,22394.1836301455
6063802585,8060,-2,0,3469.9837799666,45848.8793799849,-1397.4478124181,18298.0258362766,56903.6334776229,52507.0309138020,40831.8581228590,55525.3619553978,38404.7189667995,22396.2521386054
6063802585,8060,-2,0,3462.1112801222,45857.4697739419,-1394.4545589996,18295.3854460661,56907.7948299363,52515.3901215193,40838.3191698720,55535.6436592132,38411.8614048346,22402.3116516232
6063802585,8060,-2,0,3468.3776439860,45857.0682399468,-1386.9957608472,18313.0529418530,56912.8687595115,52504.1471696549,40838.0028097546,55537.5539876144,38412.9686652454,22403.4797505182
6063802585,8060,-2,0,3465.0801981470,45848.8063738040,-1388.9304246420,18303.7689891771,56904.3878748259,52502.8087230044,40831.7486135876,55531.1902821760,38406.1669227214,22400.7906895203
6063802585,8060,-2,0,3455.6015623219,45849.5486033102,-1387.6649841724,18286.6612074440,56900.1535163315,52512.7740667024,40832.6246877589,55530.5210588507,38408.9168222034,22402.6888502247
6063831251,8061,-2,0,3461.2717090414,45847.5165979408,-1381.3499495213,18297.1375944086,56901.5771368598,52500.0101527351,40831.7486135876,55533.3682999073,38409.5738778318,22401.5815898138
6063831251,8061,-2,0,3460.0914424495,45840.6418492358,-1386.8862515758,18295.2150983105,56895.8218162626,52491.9673051352,40826.2853177141,55527.2236130117,38403.8185572346,22400.8880310949
6063831251,8061,-2,0,3440.5014505646,45836.7968570398,-1397.2531292689,18270.3929967917,56887.4869439389,52498.1119920308,40824.7156848240,55520.4948766686,38400.9348130876,22400.7176833394
6063831251,8061,-2,0,3444.5046228194,45842.5886807275,-1392.3982182365,18282.2686688909,56897.5009584241,52500.3508482462,40830.3858315434,55524.4858812265,38406.7509721689,22400.0362923173
6063831251,8061,-2,0,3459.6777407576,45842.5886807275,-1388.4072136786,18299.1695997780,56901.5649691630,52494.6807015267,40831.2375703210,55524.8265767376,38405.7288856358,22400.1823046792
6063831251,8061,-2,0,3453.2166937446,45843.0510532067,-1393.9678511267,18281.4169301133,56896.6492196465,52504.3175174105,40830.6656885704,55522.4782112508,38406.1060842373,22403.0782165230
6063831251,8061,-2,0,3447.0598391522,45847.1637347329,-1394.3693851219,18276.2456589636,56900.7984042632,52504.4026912882,40835.2894133631,55530.8860897554,38410.3891135190,22406.7041901763
6063831251,8061,-2,0,3459.3613806402,45846.2633251680,-1391.4613055812,18291.1632552685,56905.2517813004,52494.2913352284,40833.9266313189,55532.5043934329,38410.7298090300,22406.8380348413
6063864250,8062,-2,0,3460.4443056574,45841.9681281895,-1400.0151964477,18282.1226565291,56898.0241693875,52498.4161844513,40828.3538261740,55525.0455952804,38406.7874752594,22405.0615511052
6063864250,8062,-2,0,3454.5186373046,45846.1416481998,-1400.8912706190,18272.4371698580,56899.4842930063,52509.2576023206,40833.5616004142,55526.9315882880,38411.4720385362,22405.1223895893
6063864250,8062,-2,0,3462.8048388411,45849.5121002197,-1387.3729594487,18292.8910682174,56907.5879790904,52501.9813196205,40836.6643631041,55532.6504057947,38415.2075214609,22406.4973393303
6063864250,8062,-2,0,3456.0274317107,45844.4260029477,-1387.9205058057,18293.8644839632,56904.1201854958,52500.1805004907,40831.6391043162,55529.5719784985,38411.1800138125,22407.2517365333
6063864250,8062,-2,0,3436.0359058306,45842.7346930893,-1396.4135581881,18273.9337965672,56899.5086283999,52506.0088272689,40831.6269366194,55528.8054135987,38414.0759256563,22407.6897736189
6063864250,8062,-2,0,3442.2779343008,45847.8086226645,-1394.4667266964,18288.3038465151,56907.8069976332,52501.0565746619,40836.4331768644,55537.0672797415,38417.6410608255,22406.0227991542
6063864250,8062,-2,0,3461.8314230952,45847.7599518772,-1393.8096710680,18305.1804420085,56911.9075114625,52494.3886768029,40836.1533198375,55537.0916151351,38415.1345152799,22403.7474398483
6063864250,8062,-2,0,3455.2730345077,45844.9978846984,-1400.2585503842,18284.6900405587,56904.0715147085,52499.8154695860,40833.7562835634,55530.4237172761,38413.1633483946,22402.8591979802
6063935321,8063,1,0,3449.0918445216,45844.7910338524,-1396.8637629706,18283.5097739669,56902.8304096326,52499.5356125590,40836.4575122581,55533.9523493548,38416.4972973241,22405.9984637606
6063935321,8063,1,0,3452.7421535685,45839.8387812455,-1394.1260311854,18300.2038540079,56901.9786708550,52487.6964435503,40834.2429914363,55531.6283192616,38414.1489318373,22404.5140047482
6063935321,8063,1,0,3443.9205733719,45832.5624985454,-1402.8867728979,18286.7707167154,56893.0232459933,52491.0182247830,40828.5850124136,55523.3421177252,38408.8924868098,22402.7496887088
6063935321,8063,1,0,3441.9980772738,45836.0789629272,-1403.3004745899,18279.0077261424,56897.0507536417,52501.1782516301,40835.1799040917,55529.4381338335,38413.4675408152,22404.2584831149
6063935321,8063,1,0,3458.0959401706,45838.9627070742,-1398.1170357433,18298.8045688733,56904.8867503957,52495.5081049107,40837.0658970992,55534.1592002008,38415.8037386052,22403.6379305769
6063935321,8063,1,0,3455.2973699013,45834.0226221641,-1407.4253238129,18289.8248086180,56897.8173185415,52493.4882672380,40832.1501475828,55527.2357807085,38412.3967834948,22403.1390550072
6063935321,8063,1,0,3435.3058440212,45834.4363238561,-1414.4339171829,18266.1586382974,56891.1250852889,52497.2724209500,40833.4277557492,55524.7414028598,38413.4675408152,22405.9132898828
6063935321,8063,1,0,3440.8056429852,45836.4561615287,-1409.3478199109,18279.0685646265,56895.1647606341,52486.8933755600,40833.8779605316,55526.7490728356,38410.8636536951,22403.8934522102
6063947783,8064,1,0,3451.3428684339,45832.4651569708,-1407.1819698764,18288.0969956691,56891.9646563697,52479.7631052218,40829.2542357389,55522.1253480429,38404.1835881393,22396.3494801800
6063947783,8064,1,0,3445.2955231129,45835.5070811765,-1406.8291066686,18271.4150833249,56891.6969670396,52496.6031976247,40830.9698809909,55523.0865960919,38405.5342024866,22395.4125675246
6063947783,8064,1,0,3447.2666899982,45845.6062695396,-1396.5352351563,18278.4723474822,56903.3171175055,52500.3386805494,40837.0172263119,55534.0010201421,38414.4531242578,22397.8582745860
6063947783,8064,1,0,3454.1779417936,45846.0321389284,-1393.2134539237,18288.0604925787,56908.1111900537,52492.0281436193,40832.0771414018,55534.6702434673,38414.5017950451,22400.2553108601
6063947783,8064,1,0,3444.2125980956,45843.0875562972,-1401.9741956362,18267.8864512462,56900.5550503267,52495.5081049107,40826.5773424379,55528.0023456084,38411.0218337538,22402.3846578041
6063947783,8064,1,0,3441.7790587310,45845.6184372364,-1404.7727659055,18263.9319497788,56903.9620054371,52500.5090283049,40829.0108818025,55531.4093007188,38414.6234720134,22401.6910990852
6063947783,8064,1,0,3457.4753876326,45844.9978846984,-1401.2441338268,18287.4277723439,56911.0071018976,52492.9893916683,40831.8216197686,55533.3804676041,38414.5748012261,22399.5860875349
6063947783,8064,1,0,3455.0905190553,45842.6981899989,-1406.3789018861,18283.2420846368,56906.2738678335,52492.6851992477,40832.0041352209,55530.6792389094,38411.7275601695,22400.5960063712
6063956594,8065,1,0,3441.3410216454,45846.5796852854,-1409.5059999696,18270.4660029727,56903.2684467182,52503.1859216059,40837.7229527277,55530.7887481808,38414.6356397102,22404.0759676625
6063956594,8065,1,0,3454.3239541555,45852.9433907238,-1400.3437242619,18293.8766516600,56914.3167154334,52501.7257979872,40846.3255143815,55538.1867078492,38420.4761341852,22405.3170727385
6063956594,8065,1,0,3466.7228372181,45852.0551488557,-1397.6546632641,18299.4859598954,56914.1707030716,52499.1340785639,40845.3034278484,55535.7166653941,38418.1034333047,22402.2021423518
6063956594,8065,1,0,3455.3947114759,45853.0163969047,-1401.1467922522,18277.1095654380,56908.3667116870,52507.5906278558,40843.9284781074,55533.1736167581,38417.4828807668,22400.6690125521
6063956594,8065,1,0,3456.0517671043,45858.4918604751,-1392.3373797524,18285.2619223094,56915.6308266903,52507.5784601590,40846.7757191639,55541.2651351454,38423.7492446306,22403.5405890023
6063956594,8065,1,0,3460.6998272907,45856.2165011692,-1387.4094625391,18292.5503727063,56914.5357339763,52497.1385762849,40841.5192741364,55538.4422294825,38419.9042524345,22402.8470302834
6063956594,8065,1,0,3448.1184287758,45855.5472778439,-1392.8970938063,18273.5931010562,56908.5127240489,52504.3418528041,40841.2515848063,55533.9766847484,38417.8357439746,22403.0417134326
6063956594,8065,1,0,3448.5199627709,45861.1687537761,-1392.6902429603,18274.4448398338,56912.7714179369,52507.7974787018,40846.0699927482,55539.1966266855,38421.4008791437,22406.5825132081
6063986794,8066,1,0,3466.6619987339,45859.1002453162,-1389.4049648181,18292.7693912491,56917.3464719424,52496.9195577421,40844.6098691295,55539.6346637711,38419.7339046790,22404.2949862053
6063986794,8066,1,0,3464.0946147043,45852.9555584206,-1393.0674415618,18277.0365592571,56906.7362403127,52498.8055507497,40838.6355299894,55531.5188099902,38415.8645770893,22403.0538811294
6063986794,8066,1,0,3450.4181234753,45855.1700792424,-1393.2499570142,18259.5029081352,56901.9421677645,52502.7478845203,40838.7450392608,55531.8230024108,38418.2007748793,22403.5405890023
6063986794,8066,1,0,3457.7674123564,45854.3548435553,-1389.0764370039,18276.6228575651,56908.2693701124,52497.1872470722,40837.9663066641,55533.9036785675,38420.1232709773,22399.2575597206
6063986794,8066,1,0,3460.6146534129,45851.8969687970,-1393.2986278014,18276.1969881763,56905.5803091146,52497.0777378008,40832.0771414018,55528.1240225766,38414.7329812848,22397.8096037987
6063986794,8066,1,0,3449.4933785168,45854.4886882203,-1400.9034383158,18261.9729505903,56903.7064838038,52503.5387848138,40833.6467742920,55525.1551045518,38417.6897316127,22402.1899746550
6063986794,8066,1,0,3456.6479842487,45858.7717175020,-1398.7497559781,18278.0951488807,56909.2914566456,52497.3332594341,40836.0681459598,55531.6648223521,38420.4152957011,22403.1025519167
6063986794,8066,1,0,3464.4718133058,45855.2552531202,-1398.8105944622,18287.4642754343,56905.0936012416,52488.0858098487,40834.4376745855,55527.4547992513,38414.7816520721,22401.2165589091
6064041381,8067,1,0,3452.3162841797,45852.5540244255,-1404.2130518516,18267.4849172511,56896.9412443703,52496.0556512677,40834.2429914363,55524.8387444344,38412.9808329423,22402.9200364644
6064041381,8067,1,0,3455.1635252363,45861.0105737174,-1398.0440295624,18276.9027145920,56907.7704945427,52501.5311148380,40844.4151859803,55536.2642117511,38421.4982207183,22405.8037806114
6064041381,8067,1,0,3466.7593403085,45856.6667059516,-1399.5041531811,18296.7847312007,56912.9295979956,52490.3733368514,40845.8266388118,55536.5075656876,38419.8069108599,22401.8371114471
6064041381,8067,1,0,3456.8548350946,45851.6779502542,-1408.5082488301,18283.2907554241,56904.5338871878,52496.1286574486,40843.5391118090,55532.5408965233,38416.0105894512,22405.9741283669
6064041381,8067,1,0,3443.1540084720,45854.1479927093,-1407.3401499351,18273.9094611736,56902.3437017597,52499.4504386813,40842.2371682490,55532.1758656186,38417.0813467716,22409.9773006217
6064041381,8067,1,0,3451.5375515830,45853.4787693840,-1398.4333958607,18291.0659136939,56906.0061785034,52490.9087155116,40840.3511752414,55533.3682999073,38416.9596698034,22411.1088964262
6064041381,8067,1,0,3451.3185330402,45846.3363313489,-1405.9895355878,18282.5485259179,56898.8394050747,52487.3679157361,40831.4565888639,55524.0721795346,38412.5306281598,22406.8015317509
6064041381,8067,1,0,3446.5731312793,45846.9325484933,-1413.2536505911,18267.6552650066,56897.3062752750,52496.8465515612,40833.3790849619,55522.7459005809,38415.1831860672,22407.7871151935
6064051644,8068,1,0,3457.4267168453,45848.5265167771,-1411.7691915787,18282.4633520401,56899.9223300919,52487.1975679806,40834.1091467713,55523.9139994759,38414.1854349277,22405.8159483082
6064051644,8068,1,0,3460.2374548114,45842.3209913974,-1413.8498677354,18283.9964818398,56894.5928788835,52485.2264010953,40830.7508624481,55518.2925235437,38408.6004620860,22405.2684019512
6064051644,8068,1,0,3444.9304922082,45843.1483947813,-1414.9814635399,18265.6597627276,56889.4946139146,52495.9461419963,40830.8117009323,55518.2803558468,38410.2552688539,22409.4054188710
6064051644,8068,1,0,3444.6749705749,45849.1714047087,-1406.2815603115,18275.8076218779,56896.8925735830,52493.1962425143,40834.1334821649,55524.8995829185,38415.0615090990,22411.3765857563
6064051644,8068,1,0,3456.6601519455,45846.4580083172,-1406.1477156465,18292.0271617429,56901.2242736520,52484.8005317065,40829.9477944578,55524.9969244931,38413.3701992406,22408.5536800934
6064051644,8068,1,0,3449.4325400327,45843.7324442288,-1415.3586621414,18275.2357401273,56896.4788718910,52492.6243607636,40831.8216197686,55523.7071486299,38412.9321621550,22406.9353764159
6064051644,8068,1,0,3440.1607550536,45848.1979889628,-1414.7381096035,18269.9792950998,56898.5352126541,52494.8875523727,40834.9608855489,55528.2213641512,38418.0425948206,22406.0714699415
6064051644,8068,1,0,3446.5487958856,45848.0033058137,-1408.6177581015,18287.8901448231,56905.7871599606,52486.0781398729,40835.8126243265,55532.0906917409,38418.1764394857,22406.2904884843
6064079323,8069,1,0,3439.8322272393,45841.8221158276,-1411.4528314613,18279.7742910422,56898.1580140526,52489.9352997657,40831.9797998272,55525.8729986644,38414.7816520721,22408.4563385188
6064079323,8069,1,0,3428.5892753750,45845.2169032412,-1412.1585578770,18267.7282711875,56896.2841887418,52496.9682285294,40832.2231537637,55523.3786208157,38418.1521040920,22413.4572619130
6064079323,8069,1,0,3443.7745610100,45846.1781512902,-1405.6610077736,18285.9554810283,56902.9034158135,52484.3016561367,40832.2231537637,55525.8486632707,38416.7284835637,22414.7713731699
6064079323,8069,1,0,3452.4744642384,45841.7369419499,-1407.7660193239,18285.7729655759,56897.5374615146,52477.6580936714,40830.2641545752,55520.4827089718,38408.3936112400,22411.9362998101
6064079323,8069,1,0,3440.5866244424,45838.7801916219,-1415.6750222588,18266.0369613291,56893.1449229615,52483.7054389924,40831.6391043162,55517.8544864580,38407.6270463402,22408.1764814919
6064079323,8069,1,0,3445.1495107510,45840.8487000818,-1413.9107062195,18280.0298126755,56899.7519823364,52484.2529853494,40836.0559782629,55524.2060241996,38411.5693801108,22404.6235140196
6064079323,8069,1,0,3460.2009517210,45840.4958368739,-1417.7313630219,18294.3390241393,56901.7109815249,52484.4476684986,40835.3380841504,55525.7999924834,38410.1700949762,22402.5063347724
6064079323,8069,1,0,3451.1360175879,45840.4471660866,-1423.3528389541,18273.4835917848,56895.9556609276,52490.3490014577,40835.1677363949,55521.2979446589,38410.6202997586,22404.6235140196
6064110415,8070,1,0,3440.7569721979,45843.1240593877,-1417.7191953251,18265.5259180626,56896.2963564387,52486.7230278045,40836.6035246200,55522.2956957984,38410.3769458222,22404.7938617751
6064110415,8070,1,0,3441.0976677089,45839.2790671916,-1413.1076382292,18276.9270499857,56894.7997297294,52474.1172938959,40831.7364458908,55520.0933426735,38406.0695811468,22402.9808749485
6064110415,8070,1,0,3431.9962304854,45830.5548285696,-1419.4226728803,18264.0779621406,56884.4936905204,52476.5751686541,40824.8738648827,55509.7873034644,38400.6549560606,22402.6523471342
6064110415,8070,1,0,3431.4365164315,45832.3799830930,-1419.4470082739,18257.3857288880,56883.3255916254,52482.5008370069,40827.4777520028,55511.9653211957,38404.0254080806,22402.2873162296
6064110415,8070,1,0,3446.7556467316,45832.2704738216,-1414.3852463956,18281.4534332038,56888.6307074402,52470.3939786681,40827.0883857044,55513.6322956605,38402.5774521586,22400.1944723760
6064110415,8070,1,0,3442.8133129610,45826.2109608038,-1417.9990523520,18279.0198938392,56882.8875545398,52470.2844693967,40824.6061755526,55507.0982424666,38399.3895155910,22402.0804653836
6064110415,8070,1,0,3424.7321154821,45826.8558487354,-1423.4258451350,18258.3226415434,56878.7992084073,52479.1912234711,40823.7301013813,55505.1270755812,38401.1781670240,22406.1079730320
6064110415,8070,1,0,3430.7672931063,45829.2407173127,-1419.8120391786,18272.2424867088,56882.9970638112,52470.2723016999,40825.5309205111,55509.5926203153,38402.2002535571,22406.6798547826
6064148267,8071,1,0,3444.1395919147,45824.8846818501,-1423.6691990715,18280.7598744849,56883.1065730826,52463.7625838996,40820.1771339090,55503.6061134784,38397.3331748280,22403.9907937848
6064148267,8071,1,0,3437.9705696254,45825.8580975959,-1428.5606131943,18262.8490247615,56879.0182269501,52480.3593223661,40821.6737606182,55502.9855609404,38401.3971855668,22405.3292404353
6064148267,8071,1,0,3438.0435758064,45833.4994112007,-1421.2599951006,18270.4051644886,56889.1174153131,52485.5549289095,40829.7166082182,55513.1942585748,38412.2872742234,22405.2562342544
6064148267,8071,1,0,3441.5113694009,45832.6111693327,-1414.9084573590,18283.5949478446,56892.0619979443,52475.1272127322,40828.4511677486,55514.9707423110,38410.9731629665,22402.4941670755
6064148267,8071,1,0,3429.6113619081,45828.9608602858,-1418.2667416821,18267.5335880383,56886.3310127407,52479.0938818965,40825.3727404524,55510.2740113373,38406.4711151420,22403.2485642786
6064148267,8071,1,0,3429.5261880303,45833.8279390150,-1414.2514017305,18265.1365517642,56891.6604639491,52484.2529853494,40829.7652790055,55515.2871024284,38408.8438160225,22407.0692210810
6064148267,8071,1,0,3448.6659751328,45836.4804969224,-1406.6100881257,18287.3304307693,56897.2089337004,52475.8816099352,40830.4831731180,55519.8986595243,38407.9555741544,22406.1931469097
6064148267,8071,1,0,3446.1837649809,45833.4507404134,-1411.8665331533,18276.0874789049,56890.6870482033,52478.1082984538,40825.9081191126,55514.5205375286,38403.0519923347,22404.8303648656
6064171333,8072,1,0,3429.8547158445,45835.2758949369,-1417.6218537505,18258.1036230006,56887.9493164181,52487.4287542202,40827.5142550932,55514.7273883745,38407.4932016751,22405.0007126211
6064171333,8072,1,0,3433.5901987692,45838.9505393774,-1414.4947556670,18276.4038390223,56895.6514685071,52479.9699560678,40831.6756074067,55520.8355721797,38412.3724481011,22404.3558246895
6064171333,8072,1,0,3440.8908168629,45833.1222125992,-1417.6461891441,18283.4854385732,56894.6172142771,52471.1240404775,40825.8351129317,55514.5327052254,38407.6513817338,22401.5207513297
6064171333,8072,1,0,3430.0250636001,45829.2650527064,-1426.8328002455,18263.1532171821,56886.3066773470,52472.7058410645,40820.8463572343,55507.8161365791,38402.6991291269,22400.7663541267
6064171333,8072,1,0,3430.4144298984,45828.7418417430,-1426.0662353456,18269.4439164395,56887.7546332690,52468.4593148732,40820.9315311120,55509.4344402566,38400.3020928528,22398.6856779700
6064171333,8072,1,0,3438.3112651365,45824.7995079723,-1422.8052925971,18282.2565011941,56886.4891927994,52464.3709687407,40819.6052521583,55505.7476281192,38397.6251995517,22395.0840397104
6064171333,8072,1,0,3428.4554307099,45823.3880551409,-1424.5574409396,18265.9882905418,56880.3810089943,52478.7653540823,40820.3961524518,55504.9567278257,38401.7622164715,22397.2620574417
6064171333,8072,1,0,3427.6036919323,45831.7107597678,-1416.0522208603,18270.9283754519,56890.1881726335,52483.4742527528,40830.4710054212,55514.3988605603,38409.9024056461,22403.1998934913
6064201866,8073,1,0,3445.3563615970,45832.5624985454,-1412.3532410262,18292.8180620364,56896.7708966148,52469.9072707952,40831.2619057147,55516.6498844726,38408.2110957877,22404.7086878973
6064201866,8073,1,0,3439.6253763934,45826.8436810386,-1421.9170507290,18276.7932053206,56887.8519748435,52473.0708719691,40826.5773424379,55508.8625585059,38403.5021971172,22404.4531662640
6064201866,8073,1,0,3424.9511340249,45827.3912273956,-1423.5110190128,18259.8922744335,56883.9461441634,52481.3449058087,40827.3195719441,55508.3758506330,38407.8095617925,22406.6920224795
6064201866,8073,1,0,3429.3436725780,45828.8148479239,-1415.9305438921,18275.1749016432,56892.2080103062,52473.6305860230,40827.8549506043,55512.5615383401,38410.8514859983,22405.8646190955
6064201866,8073,1,0,3434.4297698500,45825.6634144468,-1419.4713436676,18275.8197895748,56891.1129175921,52470.8198480569,40824.8495294890,55509.2275894106,38407.2985185260,22404.0272968752
6064201866,8073,1,0,3432.6532861138,45828.9851956794,-1424.6547825142,18262.3258137981,56891.7578055237,52476.5751686541,40829.2299003453,55510.2010051564,38408.2232634845,22406.0836376383
6064201866,8073,1,0,3440.3432705059,45831.4795735281,-1422.9269695653,18275.1627339463,56896.1625117736,52469.5300721937,40831.7607812844,55514.8247299491,38408.1137542131,22402.9078687675
6064201866,8073,1,0,3447.5587147219,45826.0771161387,-1424.9833103284,18285.2984253998,56889.8231417289,52463.6287392345,40828.5363416264,55510.8215576944,38402.1029119826,22401.4112420583
6064235306,8074,1,0,3434.1985836103,45823.5340675027,-1430.9333140748,18263.4330742090,56881.8898034003,52474.1416292896,40826.6381809220,55504.7133738893,38399.9735650385,22402.4819993787
6064235306,8074,1,0,3437.1188308478,45830.2263007554,-1425.6647013505,18263.6155896614,56890.9182344429,52479.2155588647,40830.9577132941,55510.6147068484,38404.8649791614,22404.5261724450
6064235306,8074,1,0,3458.6921573149,45829.9586114253,-1422.1604046655,18283.3759293018,56898.0971755685,52473.0222011819,40831.6147689226,55512.4763644623,38406.3737735674,22404.2584831149
6064235306,8074,1,0,3456.2829533440,45828.1699599923,-1427.0396510915,18272.8995423373,56894.2521833724,52475.9181130257,40829.8382851864,55508.3028444520,38405.7045502421,22407.2030657460
6064235306,8074,1,0,3442.3022696944,45829.3137234936,-1427.4290173898,18262.3744845854,56894.4468665216,52478.1204661507,40831.2497380179,55509.3979371661,38408.6004620860,22409.0890587536
6064235306,8074,1,0,3446.7191436411,45828.0847861145,-1422.3185847242,18276.3430005382,56898.6568896223,52470.3209724872,40829.7531113087,55512.1356689513,38405.4246932152,22409.2472388123
6064235306,8074,1,0,3447.4370377537,45824.3736385835,-1427.0518187883,18271.0013816329,56893.9723263455,52470.3939786681,40822.2091392784,55505.3825972145,38399.5111925593,22405.8524513987
6064235306,8074,1,0,3442.5942944182,45828.4376493224,-1430.5926185638,18257.8481013673,56895.4932884483,52477.0010380430,40825.5309205111,55506.0761559334,38402.3584336158,22405.2318988607
6064269323,8075,1,0,3450.8318251673,45829.1798788286,-1426.8206325486,18269.4195810459,56900.7375657790,52466.0257755087,40827.8306152106,55508.7408815377,38401.3971855668,22401.4234097551
6064269323,8075,1,0,3454.2631156714,45824.4101416740,-1429.2176688228,18272.5953499167,56896.3450272260,52459.9419270972,40826.3826592887,55504.1049890481,38396.5666099281,22399.4644105666
6064269323,8075,1,0,3435.9628996497,45820.0419385146,-1436.9441563053,18251.3262158702,56887.6694593912,52468.5931595383,40825.0077095477,55499.7732889791,38394.8387969793,22396.5563310260
6064269323,8075,1,0,3435.7195457132,45821.7332483730,-1435.0703309946,18261.4862427173,56891.6969670396,52467.7657561543,40829.4732542817,55505.5286095764,38398.4526029357,22394.1471270550
6064269323,8075,1,0,3450.8074897736,45820.2244539669,-1433.3060149553,18281.5994455657,56895.3351083897,52463.8234223837,40826.8206963743,55507.3780994935,38398.3309259674,22390.9470227906
6064269323,8075,1,0,3444.1760950051,45817.6449022404,-1440.7039746236,18264.4551607421,56887.1584161246,52464.1762855916,40823.4380766575,55500.0409783092,38395.1429893998,22388.0146078562
6064269323,8075,1,0,3433.1643293804,45818.5696471990,-1442.1032597583,18256.6069962913,56886.0754911074,52467.1452036164,40824.7886910049,55504.7620446766,38399.0001492927,22388.0146078562
6064269323,8075,1,0,3439.3455193664,45817.5718960595,-1439.1343417335,18274.3109951687,56891.2832653476,52462.2902925840,40825.0077095477,55507.6214534299,38400.0344035227,22388.1606202181
6064305808,8076,1,0,3438.2747620460,45814.4691333697,-1441.4948749171,18266.7791908353,56887.9249810245,52467.9482716067,40822.0752946134,55501.8539651359,38398.3674290579,22388.2457940959
6064305808,8076,1,0,3434.8678069356,45819.5065598544,-1440.6796392300,18257.5925797340,56892.2931841839,52476.4656593827,40824.4601631907,55504.4578522560,38402.9059799729,22390.6671657636
6064305808,8076,1,0,3451.7078993385,45825.6755821436,-1433.1356671998,18280.2853343088,56903.6334776229,52475.9789515098,40828.3659938708,55513.1455877876,38408.7708098415,22395.6194183706
6064305808,8076,1,0,3456.9643443661,45823.6557444710,-1434.6687969994,18282.3903458592,56901.0539258964,52475.3462312750,40826.4800008633,55509.0207385646,38406.5806244134,22396.7266787815
6064305808,8076,1,0,3441.9859095770,45827.7805936940,-1437.1145040609,18262.6908447028,56899.6303053682,52483.7784451733,40830.4345023307,55509.3370986820,38407.7000525211,22400.6081740680
6064305808,8076,1,0,3448.9945029470,45835.2880626337,-1424.7277886951,18277.2677454967,56911.4086358928,52480.8338625422,40838.6111945958,55519.0469207467,38415.1953537640,22404.8060294719
6064305808,8076,1,0,3464.1676208852,45834.1321314355,-1421.3695043720,18292.9275713078,56915.9350191109,52473.8009337785,40838.0879836324,55520.6773921210,38412.5914666439,22405.2075634671
6064305808,8076,1,0,3453.4600476810,45833.0127033278,-1426.8693033359,18274.3596659560,56909.4253013106,52481.3084027183,40836.0559782629,55517.1000892550,38412.2994419202,22406.1079730320
6064329182,8077,1,0,3442.2049281198,45835.8477766876,-1420.5542686848,18272.7778653690,56910.8124187484,52484.8978732810,40839.1465732560,55519.9229949179,38417.9817563365,22408.3711646410
6064329182,8077,1,0,3446.0620880127,45834.3754853720,-1411.8056946691,18288.6323743293,56913.3554673844,52478.8383602632,40840.7405415398,55521.8819941064,38421.1331898136,22408.2738230664
6064329182,8077,1,0,3440.8543137725,45828.5349908970,-1416.4902579460,18273.4835917848,56908.7317425917,52487.1367294965,40836.7738723755,55515.7494749077,38420.2936187329,22405.2684019512
6064329182,8077,1,0,3439.8808980266,45831.7350951614,-1414.8841219653,18268.7868608111,56914.4018893112,52496.3476759914,40841.1907463222,55520.0690072798,38424.9173435256,22406.0714699415
6064329182,8077,1,0,3458.9841820387,45836.4439938319,-1408.3379010746,18295.3854460661,56924.3915684028,52486.8568724695,40844.7680491882,55526.2258618722,38426.2436224793,22407.5802643475
6064329182,8077,1,0,3463.0360250807,45836.7603539493,-1409.6763477251,18297.1619298022,56922.7854324222,52484.5206746795,40843.4661056281,55523.3542854220,38421.8510839262,22409.1742326313
6064329182,8077,1,0,3443.8597348877,45839.1452225266,-1417.0743073935,18276.5863544746,56916.9449379472,52489.5459334674,40845.9726511736,55523.5489685712,38421.6929038675,22410.8533747929
6064329182,8077,1,0,3443.0688345943,45840.3984952993,-1414.9206250558,18288.7297159039,56919.9503590625,52483.3160726941,40847.9924888462,55527.1506068308,38422.7028227038,22412.9705540401
6064384252,8078,1,0,3452.1094333337,45834.4119884625,-1416.2712394032,18297.5391284037,56919.5731604610,52478.6315094172,40843.5999502932,55519.3267777736,38420.0502647964,22409.8069528661
6064384252,8078,1,0,3442.1562573325,45830.9806979584,-1423.0486465335,18274.3353305624,56909.2671212519,52483.7176066892,40838.8788839259,55513.4984509954,38416.2782787813,22408.2738230664
6064384252,8078,1,0,3437.9218988381,45830.6521701442,-1421.2721627974,18271.9017911978,56911.4329712864,52477.8041060333,40837.6742819404,55514.3258543794,38418.1764394857,22406.8988733255
6064384252,8078,1,0,3441.9372387897,45827.3182212147,-1420.7124487435,18282.0253149545,56909.2062827678,52466.1231170832,40834.5350161601,55510.9554023594,38412.5914666439,22407.0692210810
6064384252,8078,1,0,3426.6424438833,45823.7409183487,-1428.2442530769,18262.0824598617,56901.0417581996,52470.8806865410,40828.1104722376,55503.6426165688,38410.3404427317,22409.3324126900
6064384252,8078,1,0,3420.7167755305,45828.6201647747,-1426.4190985535,18256.3514746581,56908.0260161760,52475.2610573973,40832.3448307319,55506.8670562269,38411.8370694409,22410.2814930422
6064384252,8078,1,0,3440.2702643250,45828.6810032589,-1423.8030437366,18275.9414665430,56914.8885971841,52461.5237276842,40833.6589419888,55508.1081613029,38408.8559837193,22405.6334328559
6064384252,8078,1,0,3447.3518638759,45824.4344770676,-1433.2208410775,18267.0103770750,56909.0237673155,52463.8842608678,40829.7166082182,55502.9855609404,38403.4048555426,22403.0782165230
6064390317,8079,1,0,3435.6952103195,45829.0460341635,-1438.1730936845,18251.6912467749,56908.8169164695,52480.8095271485,40835.0825625171,55507.6214534299,38409.7928963747,22405.5117558876
6064390317,8079,1,0,3441.8033941247,45836.8333601302,-1431.2983449795,18274.2501566846,56921.5443273463,52482.9145386989,40841.5192741364,55518.9009083848,38418.8456628109,22409.1255618441
6064390317,8079,1,0,3446.9868329712,45835.5070811765,-1433.2573441680,18279.2389123820,56921.8606874637,52479.1182172901,40839.1952440433,55518.6088836611,38419.8677493441,22406.7406932668
6064390317,8079,1,0,3434.8799746324,45833.5237465944,-1437.1631748481,18256.6191639882,56914.5113985826,52485.7252766650,40836.1168167471,55516.6133813821,38421.1088544200,22406.7285255699
6064390317,8079,1,0,3436.3887690385,45835.8721120812,-1427.1369926660,18262.0459567712,56918.3807261723,52480.6635147867,40837.0293940088,55521.2857769621,38425.3310452176,22406.3513269684
6064390317,8079,1,0,3447.9845841107,45832.1122937629,-1422.1847400591,18275.3209140050,56919.1472910721,52472.0974562233,40833.9022959253,55518.6940575388,38424.2116171098,22405.9497929733
6064390317,8079,1,0,3435.6708749259,45827.5615751511,-1431.3470157668,18256.9963625897,56905.8114953542,52475.2123866100,40830.8117009323,55509.4101048629,38420.0259294027,22403.4919182150
6064390317,8079,1,0,3433.7118757374,45832.1122937629,-1431.7728851556,18261.2307210841,56908.8169164695,52476.5508332605,40837.5647726690,55513.6931341446,38420.2571156424,22404.0881353594
6064425207,8080,1,0,3454.1657740968,45832.4408215771,-1430.3249292337,18287.8414740358,56913.0999457511,52467.2790482814,40840.7040384493,55517.2582693137,38418.3346195444,22403.4675828214
6064425207,8080,1,0,3453.0098428986,45829.4597358555,-1439.4020310636,18278.3871736044,56906.5415571636,52471.1240404775,40837.0415617056,55514.3015189857,38413.2485222724,22405.4144143131
6064425207,8080,1,0,3436.1454151020,45831.7837659487,-1443.7945696167,18261.8999444093,56906.7240726159,52479.1547203806,40836.0438105661,55515.3601086093,38413.9299132945,22407.3125750174
6064425207,8080,1,0,3436.7781353368,45833.1952187802,-1435.2285110533,18274.8220384353,56912.8687595115,52471.5864129567,40832.7828678176,55516.7107229567,38413.9055779008,22406.3148238780
6064425207,8080,1,0,3438.6154575571,45829.8491021539,-1436.6399638848,18271.1230586011,56909.5104751884,52467.7900915480,40825.8472806285,55509.2275894106,38409.6468840128,22403.0903842199
6064425207,8080,1,0,3431.9353920013,45831.2970580758,-1439.1465094303,18252.2874639192,56907.1134389143,52476.8428579843,40825.7134359634,55505.2487525495,38410.1944303698,22403.5892597896
6064425207,8080,1,0,3443.2635177434,45835.4705780861,-1431.2131711017,18266.5601722925,56913.5379828368,52472.9126919104,40830.9212102037,55509.7021295867,38412.5427958566,22406.5216747239
6064425207,8080,1,0,3451.9147501845,45830.1167914840,-1430.3370969305,18276.4890129000,56911.5668159515,52465.1253659438,40829.2907388294,55505.6624542415,38407.4080277974,22407.2030657460
6064454398,8081,1,0,3436.3279305543,45826.1866254101,-1437.2118456354,18252.6768302175,56899.5938022777,52468.9703581398,40827.3439073377,55499.4325934681,38405.5950409707,22405.8281160050
6064454398,8081,1,0,3435.2206701435,45829.4110650682,-1435.2528464469,18254.9643572202,56906.8944203714,52470.5278233331,40831.9554644336,55506.1491621144,38410.3769458222,22405.7429421273
6064454398,8081,1,0,3449.0188383407,45827.3668920020,-1434.6444616058,18273.3740825134,56911.0314372912,52455.7197362996,40829.3150742230,55505.2730879431,38406.8483137435,22402.8470302834
6064454398,8081,1,0,3439.6010409997,45821.1613666223,-1443.8675757976,18256.7408409564,56901.6866461312,52459.7715793417,40823.4015735671,55499.6029412236,38401.6405395033,22399.8902799554
6064454398,8081,1,0,3425.7663697120,45823.7895891360,-1442.0789243646,18247.5055590678,56899.6059699745,52469.2988859540,40827.3317396409,55503.0220640309,38406.4224443547,22400.0727954078
6064454398,8081,1,0,3435.9020611655,45826.6611655862,-1434.0360767647,18267.4119110701,56906.1886939557,52462.8500066379,40830.5926823894,55510.4200236992,38410.7419767268,22402.4941670755
6064454398,8081,1,0,3438.0557435032,45821.8305899475,-1439.2438510049,18264.0901298375,56902.7452357548,52461.5358953810,40825.7864421444,55506.2586713858,38406.4954505356,22402.4819993787
6064454398,8081,1,0,3430.7307900158,45823.8869307106,-1446.9216677001,18246.7146587743,56900.1291809379,52470.1627924285,40824.9955418509,55506.0396528430,38408.2841019686,22399.9511184396
6064504368,8082,1,0,3440.6352952297,45830.2019653617,-1441.3001917679,18261.6687581697,56907.8800038141,52467.5224022179,40827.0275472203,55513.3889417240,38412.6766405217,22398.4544917303
6064504368,8082,1,0,3443.8597348877,45830.3723131172,-1438.6232984669,18266.5723399893,56909.4861397947,52467.0965328291,40827.3195719441,55516.8810707122,38413.2485222724,22401.2287266060
6064504368,8082,1,0,3425.6568604406,45831.1997165012,-1438.6963046478,18247.4568882805,56904.5095517942,52479.1790557743,40832.1623152796,55515.2384316411,38415.1101798863,22405.0858864988
6064504368,8082,1,0,3427.9200520497,45836.9915401889,-1430.8359725002,18262.2528076172,56913.6839951986,52479.9334529773,40840.2781690605,55523.9139994759,38422.0944378627,22409.1255618441
6064504368,8082,1,0,3447.1693484236,45836.2371429859,-1425.7377075314,18284.3250096540,56919.9260236688,52470.4548171522,40840.3146721510,55523.4637946934,38420.8046619994,22406.0227991542
6064504368,8082,1,0,3445.2955231129,45832.6476724231,-1429.4001842751,18270.7823630901,56913.2702935067,52474.3971509228,40839.1100701655,55518.9860822626,38419.8555816472,22402.1778069582
6064504368,8082,1,0,3438.9074822808,45833.8887774991,-1431.1279972240,18262.8368570647,56912.2482069735,52475.5895852115,40840.9717277794,55520.3610320036,38423.1286920926,22401.8371114471
6064504368,8082,1,0,3446.9503298808,45836.6995154652,-1429.8382213607,18283.1082399717,56916.6407455266,52472.3043070693,40842.4926898823,55525.8486632707,38425.4770575794,22404.5140047482
6064518114,8083,1,0,3440.6596306233,45833.1100449024,-1439.2681863985,18277.2069070126,56909.1697796773,52469.3718921350,40840.0226474272,55519.9473303116,38424.0534370511,22404.1733092371
6064518114,8083,1,0,3429.4166787589,45832.9883679342,-1442.4804583598,18260.8291870889,56902.5870556961,52471.9636115583,40839.0005608941,55516.3091889615,38422.6419842197,22402.4698316819
6064518114,8083,1,0,3444.2125980956,45831.7229274646,-1434.3402691852,18276.0023050271,56907.8191653300,52462.0104355571,40837.9906420578,55516.0049965409,38420.9385066645,22400.3891555252
6064518114,8083,1,0,3449.6880616659,45823.3637197472,-1434.8148093613,18273.9216288704,56899.5329637936,52458.0802694833,40830.5683469958,55508.8868938995,38413.9299132945,22396.3738155736
6064518114,8083,1,0,3428.6257784654,45817.8882561769,-1439.9617451174,18249.1725335325,56887.6451239976,52467.4615637338,40829.8991236705,55504.0198151704,38412.6766405217,22397.2012189576
6064518114,8083,1,0,3422.4080853889,45818.6669887736,-1434.6444616058,18254.2464631077,56890.1029987558,52465.6850799976,40832.5151784875,55508.7652169313,38415.4387077005,22398.7830195445
6064518114,8083,1,0,3433.6023664660,45816.2577848026,-1433.2816795616,18267.5579234320,56890.3950234795,52458.2262818452,40831.1037256560,55507.2077517380,38413.5405469961,22397.1282127766
6064518114,8083,1,0,3426.6667792769,45813.7025684698,-1442.6264707216,18250.1824523688,56885.4184354790,52465.2957136993,40830.6535208736,55501.7079527740,38411.3138584775,22395.3638967373
6064558078,8084,1,0,3425.4865126851,45816.9270081279,-1441.2393532838,18251.6425759876,56889.3729369464,52463.3123791171,40838.0758159355,55506.6115345936,38412.3359450107,22395.0232012263
6064558078,8084,1,0,3436.7537999431,45815.5033875996,-1440.2537698412,18273.9824673545,56893.7776431963,52456.6809843486,40842.4805221854,55510.9919054499,38411.8370694409,22392.8816865854
6064558078,8084,1,0,3431.1323240109,45814.3961271887,-1443.8675757976,18267.8377804589,56887.7302978753,52468.2037932400,40842.0303174030,55507.8769750632,38412.8104851867,22394.9623627421
6064558078,8084,1,0,3424.9754694185,45817.6449022404,-1439.3898633667,18259.4177342574,56892.3296872744,52476.9036964684,40843.6486210805,55512.0991658608,38420.9263389676,22397.7000945273
6064558078,8084,1,0,3437.7150479922,45818.1802809007,-1431.3105126763,18277.8517949442,56899.5329637936,52461.6819077429,40840.7770446302,55516.3700274456,38420.8168296962,22396.3008093927
6064558078,8084,1,0,3435.3180117180,45810.0035886356,-1438.3921122273,18269.3344071681,56888.1926703546,52454.4664635269,40832.0528060082,55508.1689997870,38413.5405469961,22391.7014199936
6064558078,8084,1,0,3418.0033791390,45807.5213784838,-1448.6616483458,18241.8840831356,56880.9285553513,52461.6940754397,40830.7143593577,55503.9346412926,38411.2165169029,22391.3607244826
6064558078,8084,1,0,3421.9335452128,45812.2181094574,-1444.6219730006,18252.2996316160,56885.7104602027,52458.2141141483,40833.9631344094,55508.8260554154,38414.6599751038,22391.4702337540
6064575521,8085,1,0,3433.4198510137,45810.0522594229,-1443.3808679247,18260.0382867954,56884.2138334935,52454.4664635269,40831.4809242575,55504.3240075909,38410.5107904872,22391.1782090302
6064575521,8085,1,0,3429.3923433653,45811.7435692813,-1445.8144072893,18243.8430823241,56882.1939958209,52466.8410111958,40834.3038299204,55501.8661328327,38409.8780702524,22394.0011146931
6064575521,8085,1,0,3432.3612613901,45818.3019578689,-1439.9252420270,18252.2631285256,56888.5577012593,52466.2204586578,40838.0514805419,55506.1369944175,38413.4067023311,22394.8041826834
6064575521,8085,1,0,3446.4271189174,45819.1171935560,-1435.0946663882,18273.7147780244,56894.6780527612,52463.6774100218,40840.9960631731,55508.4610245107,38414.8789936466,22395.9479461848
6064575521,8085,1,0,3438.1044142905,45819.0076842846,-1441.8112350345,18262.5570000378,56891.5022838904,52469.9802769761,40841.2637525032,55507.5362795522,38416.8988313193,22396.6780079942
6064575521,8085,1,0,3430.0980697810,45823.7652537424,-1442.0789243646,18257.5560766435,56893.5829600471,52473.8861076563,40846.0943281419,55511.7949734402,38420.8533327867,22398.9777026937
6064575521,8085,1,0,3444.5532936067,45825.6999175372,-1433.2330087743,18279.5552724994,56901.3459506202,52461.7062431365,40846.8243899512,55515.9441580568,38420.2814510360,22399.5739198380
6064575521,8085,1,0,3447.6073855092,45821.6237391015,-1434.9851571168,18273.1063931833,56895.8461516562,52458.2019464515,40842.2615036426,55510.8337253912,38414.2097703214,22400.6446771585
6064626537,8086,1,0,3431.8380504267,45819.0441873751,-1438.2826029559,18250.6934956354,56889.5797877924,52463.4583914790,40839.5602749479,55508.2663413616,38410.3647781253,22399.4400751730
6064626537,8086,1,0,3434.6731237864,45824.9455203342,-1429.6678736052,18265.6232596371,56898.6082188350,52461.6575723492,40840.4363491192,55513.4011094208,38413.9542486881,22400.2431431633
6064626537,8086,1,0,3438.7371345253,45822.7431672093,-1429.8138859671,18273.5687656625,56899.8006531237,52461.8522554984,40836.5426861359,55511.5637872006,38412.7983174899,22398.6491748795
6064626537,8086,1,0,3431.4730195220,45826.8680164322,-1434.3646045789,18260.7075101207,56898.3648648986,52473.8374368690,40837.2727479452,55511.9409858021,38418.5779734808,22398.8560257255
6064626537,8086,1,0,3436.5469490972,45828.9973633762,-1431.0063202557,18271.6462695645,56905.0570981512,52469.6030783746,40844.1109935597,55520.1176780671,38422.9096735498,22398.9777026937
6064626537,8086,1,0,3445.4172000811,45827.8414321781,-1425.2509996585,18289.7031316497,56906.6875695255,52459.1631945005,40846.6418744989,55519.2781069863,38421.6564007770,22403.2485642786
6064626537,8086,1,0,3426.5451023087,45820.9666834731,-1434.6322939090,18266.7913585321,56892.0863333379,52459.1875298942,40843.9041427137,55511.5029487165,38414.9033290403,22403.8569491197
6064626537,8086,1,0,3418.8429502198,45821.5872360111,-1434.7418031804,18257.3857288880,56892.9380721155,52459.4673869211,40844.5003598581,55512.1113335576,38415.4752107910,22404.1854769339
6064645255,8087,1,0,3436.3279305543,45820.2852924510,-1429.4975258497,18275.4060878828,56897.3306106686,52453.5173831747,40840.9473923858,55512.5737060369,38412.2994419202,22402.1778069582
6064645255,8087,1,0,3437.9218988381,45819.0928581624,-1433.4155242267,18267.9107866399,56893.9479909518,52458.6399835371,40835.3502518472,55508.2785090584,38408.9289899002,22400.6690125521
6064645255,8087,1,0,3424.7442831789,45822.0739438840,-1434.2307599138,18254.2342954109,56894.0331648296,52465.8189246627,40839.5724426448,55510.6998807261,38411.9465787123,22397.9677838574
6064645255,8087,1,0,3430.6699515317,45826.1501223197,-1428.0495699278,18271.2812386598,56902.6478941802,52458.2019464515,40842.8942238774,55517.6233002184,38413.9664163849,22398.3206470653
6064645255,8087,1,0,3436.4982783099,45825.3957251167,-1429.4245196688,18272.7291945817,56900.5185472362,52458.1532756642,40843.4782733249,55514.7273883745,38411.6545539886,22401.5450867234
6064645255,8087,1,0,3432.3004229059,45829.3988973714,-1431.5173635223,18257.3248904039,56898.8880758619,52470.2723016999,40846.5688683180,55516.5403752012,38415.7794032115,22405.9984637606
6064645255,8087,1,0,3441.4992017041,45834.6310070053,-1423.0851496240,18269.9549597061,56907.1377743079,52468.7391719002,40851.9834934042,55524.9117506153,38422.5446426451,22407.4950904698
6064645255,8087,1,0,3448.1427641694,45830.9076917775,-1418.1450647139,18280.7233713944,56908.0260161760,52464.9915212787,40849.4161093745,55523.9870056568,38424.1872817162,22409.3689157805
6064674519,8088,1,0,3429.1976602161,45827.5007366670,-1423.4136774382,18259.3082249860,56896.6370519497,52469.9559415825,40848.6860475651,55519.7526471624,38426.0732747238,22407.8479536776
6064674519,8088,1,0,3420.9114586797,45828.0117799336,-1424.8129625729,18257.8115982768,56899.5086283999,52467.6075760956,40850.9370714774,55521.1154292066,38429.8452607389,22405.6090974622
6064674519,8088,1,0,3433.2738386518,45826.7828425545,-1424.2654162158,18276.0388081176,56901.5041306789,52456.9486736787,40848.2358427827,55519.6309701942,38423.6519030560,22402.0439622931
6064674519,8088,1,0,3431.0349824364,45822.5971548474,-1432.8923132633,18266.6088430798,56897.7199769670,52462.8378389410,40845.0235708214,55513.6687987509,38420.0015940091,22401.8736145376
6064674519,8088,1,0,3425.8758789834,45824.9941911215,-1432.8801455665,18261.9486151966,56897.9268278129,52467.3763898560,40848.7712214429,55517.1609277391,38423.5910645719,22404.2706508117
6064674519,8088,1,0,3438.1774204714,45825.8337622023,-1425.4700182013,18284.1424942017,56903.2319436277,52459.1266914101,40850.2070096680,55520.6773921210,38424.0291016575,22406.0836376383
6064674519,8088,1,0,3443.5433747703,45824.4466447645,-1424.6426148173,18281.1370730864,56901.0295905028,52461.9617647698,40848.8807307143,55517.4772878565,38420.1354386742,22406.2904884843
6064674519,8088,1,0,3440.8178106820,45831.3578965599,-1422.3307524210,18265.3799057007,56904.9110857893,52474.2268031673,40853.2245984801,55521.1884353875,38424.2602878971,22407.7871151935
6064706678,8089,1,0,3454.0806002190,45833.5724173817,-1416.9039596380,18277.1947393158,56911.2747912277,52463.4218883885,40852.7987290913,55524.4372104392,38424.5158095304,22405.1223895893
6064706678,8089,1,0,3458.7164927086,45829.3380588873,-1423.0608142304,18280.7720421817,56905.5438060241,52456.4984688963,40847.8221410907,55517.8301510644,38419.5148861362,22403.2363965817
6064706678,8089,1,0,3439.3211839728,45827.4277304861,-1432.9531517474,18258.1887968783,56895.3351083897,52464.2857948630,40848.3453520541,55512.5250352496,38416.4729619304,22404.3679923863
6064706678,8089,1,0,3434.8313038451,45831.8811075233,-1428.7066255562,18265.8057750895,56898.8029019842,52463.7017454155,40855.0619207004,55515.6156302426,38421.0723513295,22408.2008168855
6064706678,8089,1,0,3446.5609635824,45827.6345813321,-1424.7886271792,18281.8184641085,56898.8272373778,52451.0351730228,40851.4602824408,55512.3790228877,38414.9519998276,22405.8889544891
6064706678,8089,1,0,3442.9228222324,45824.3493031899,-1428.8526379181,18266.5601722925,56894.1670094947,52456.1334379916,40845.7049618435,55505.8693050874,38412.3724481011,22403.9907937848
6064706678,8089,1,0,3439.3820224569,45828.0726184177,-1428.2564207738,18261.3158949618,56896.9047412798,52462.6066527014,40849.2457616190,55512.4520290686,38418.6631473586,22400.7906895203
6064706678,8089,1,0,3450.6249743213,45828.3768108383,-1423.8760499175,18282.3416750719,56902.7939065421,52457.2041953120,40850.5963759664,55519.8378210402,38419.0890167474,22397.9191130701
6064747057,8090,1,0,3445.5023739588,45824.6656633073,-1427.2830050279,18280.1636573406,56897.5861323019,52458.5548096594,40848.4670290223,55517.3434431915,38416.7649866542,22399.6590937158
6064747057,8090,1,0,3433.1156585931,45827.1357057623,-1431.3835188573,18268.6530161461,56895.9678286244,52463.8842608678,40850.5233697854,55516.0049965409,38417.0813467716,22403.8934522102
6064747057,8090,1,0,3443.8962379782,45826.7220040704,-1429.9598983290,18289.0460760213,56904.9232534861,52452.6656443971,40850.5477051791,55516.3943628393,38415.4265400037,22402.6766825279
6064747057,8090,1,0,3450.0287571770,45819.8959261527,-1436.4452807356,18290.9442367257,56896.1746794704,52445.0486661859,40843.6729564741,55506.4046837476,38406.9334876213,22398.7951872414
6064747057,8090,1,0,3431.1688271014,45816.3064555899,-1443.7824019198,18264.6985146786,56883.6541194396,52450.8769929641,40840.1686597891,55497.6561097319,38405.5463701835,22397.0917096862
6064747057,8090,1,0,3430.3779268079,45818.8251688323,-1435.9707405595,18271.3299094471,56889.2147568877,52447.3605285823,40844.0988258629,55502.6935362166,38409.5495424382,22397.4324051972
6064747057,8090,1,0,3443.9449087655,45819.2023674338,-1432.3204315126,18287.5737847057,56892.9867429028,52443.6493810513,40844.1109935597,55502.9977286372,38407.8095617925,22397.6635914368
6064747057,8090,1,0,3441.0124938312,45820.4678079034,-1435.2041756597,18274.4205044401,56889.6162908829,52453.0306753018,40844.9870677310,55500.1139844902,38407.2133446482,22399.6347583222
6064768177,8091,1,0,3440.7934752884,45825.2497127548,-1433.5493688917,18273.3132440292,56896.5883811624,52452.6413090034,40846.8000545576,55505.6259511510,38411.4842062330,22400.8271926108
6064768177,8091,1,0,3448.8363228883,45822.9500180552,-1434.2307599138,18284.7752144365,56897.7808154511,52441.3010155644,40843.6364533836,55504.3118398941,38408.4301143305,22397.1525481703
6064768177,8091,1,0,3435.4031855958,45814.2866179173,-1444.8774946339,18266.4263276275,56886.0024849265,52443.3938594180,40835.3502518472,55496.7800355607,38400.7888007257,22394.6703380184
6064768177,8091,1,0,3426.2044067977,45815.0166797267,-1443.7702342230,18254.8670156457,56882.0358157622,52449.3438631644,40838.4408468402,55497.2180726463,38403.1006631220,22399.2940628111
6064768177,8091,1,0,3445.1860138414,45816.0752693503,-1433.7562197377,18277.5719379173,56890.2003403304,52440.5466183614,40842.2615036426,55501.9878098009,38404.5607867408,22401.6545959948
6064768177,8091,1,0,3455.3947114759,45811.1838552275,-1436.5669577038,18281.7332902307,56886.7082113422,52444.7688091590,40842.4926898823,55499.7976243728,38405.5950409707,22403.5284213055
6064768177,8091,1,0,3441.8885680024,45813.6417299857,-1439.3411925795,18267.7404388843,56884.6640382759,52459.5525607989,40846.2525082006,55503.3505918451,38411.6545539886,22405.2075634671
6064768177,8091,1,0,3439.2603454887,45819.0320196783,-1432.2960961190,18280.0663157660,56893.3761092012,52454.6733143729,40852.4580335803,55512.5737060369,38418.2616133634,22406.9840472032
6064797453,8092,1,0,3439.1751716109,45815.6737353551,-1434.6809646963,18286.4543565980,56892.1106687316,52448.0540873012,40847.4936132765,55509.7629680708,38414.0515902627,22402.2873162296
6064797453,8092,1,0,3429.1368217320,45817.2677036389,-1437.1996779386,18268.6043453588,56889.4337754305,52453.9432525635,40845.6562910562,55506.9765654983,38413.6865593580,22403.5040859119
6064797453,8092,1,0,3434.1985836103,45821.4898944365,-1428.1712468960,18272.8508715500,56894.8484005167,52455.1600222458,40848.1263335113,55513.8026434160,38417.6410608255,22404.5748432323
6064797453,8092,1,0,3449.0796768248,45821.4777267397,-1419.7755360882,18292.8910682174,56900.4577087521,52451.3637008370,40848.2845135700,55517.9761634263,38415.4752107910,22408.4441708220
6064797453,8092,1,0,3438.2260912587,45821.0396896540,-1423.2068265922,18278.1924904552,56892.5730412108,52457.5813939135,40847.4814455797,55515.0194130983,38413.7839009326,22411.6321073896
6064797453,8092,1,0,3428.9908093701,45825.9676068673,-1421.1748212228,18272.1329774374,56897.7808154511,52464.3222979534,40853.3827785388,55520.0933426735,38418.3467872412,22412.3865045926
6064797453,8092,1,0,3444.7114736653,45828.3403077478,-1414.7381096035,18294.3876949266,56905.6289799019,52456.5958104709,40857.2521061285,55523.3786208157,38420.6221465471,22408.0669722205
6064797453,8092,1,0,3447.1085099395,45824.0329430725,-1417.5975183569,18289.5084485006,56898.1215109621,52453.9310848667,40854.3075234974,55516.7350583503,38418.8456628109,22406.0836376383
6064854582,8093,1,0,3435.1111608720,45826.9653580068,-1417.5123444791,18274.6760260734,56895.9434932308,52463.8355900805,40857.3859507936,55516.4552013234,38422.8975058530,22409.0282202695
6064854582,8093,1,0,3437.1918370288,45830.1897976649,-1409.7128508156,18290.5061996401,56902.3680371533,52461.2438706572,40859.2719438011,55523.3664531188,38426.3287963570,22409.1133941472
6064854582,8093,1,0,3441.7182202469,45827.2573827306,-1410.7471050455,18296.1520109659,56902.4410433342,52457.1190214343,40854.7820636734,55520.4097027909,38423.3598783322,22409.7826174725
6064854582,8093,1,0,3432.4707706615,45827.9144383590,-1418.6682756773,18277.2555777999,56898.5352126541,52465.8554277531,40854.0885049545,55519.1442623213,38421.8997547135,22407.2882396238
6064854582,8093,1,0,3440.1364196599,45834.8135224576,-1413.2293151974,18287.0870768328,56908.6465687139,52464.8211735232,40858.0795095125,55525.4227938819,38424.9903497065,22405.6334328559
6064854582,8093,1,0,3454.4577988205,45833.7184297436,-1409.8953662679,18300.4228725508,56911.1044434722,52454.2352772872,40857.0452552825,55523.7923225076,38422.6541519165,22404.8547002592
6064854582,8093,1,0,3441.1220031026,45830.4453192982,-1418.0720585330,18279.5796078931,56901.6258076471,52459.1266914101,40852.7013875167,55516.4186982329,38417.4098745858,22404.7695263814
6064854582,8093,1,0,3433.1886647740,45835.7017643257,-1416.0522208603,18277.6814471887,56905.4951352368,52465.7945892690,40855.9014917812,55522.3321988889,38420.8411650899,22405.3900789194
6064866376,8094,1,0,3452.6326442971,45837.6242604237,-1408.8367766443,18302.8199088249,56912.8687595115,52458.1897787547,40855.0619207004,55526.5422219896,38421.9970962881,22406.6433516922
6064866376,8094,1,0,3456.1734440726,45838.1961421744,-1412.2802348452,18297.4782899196,56910.4838909342,52461.6819077429,40854.0763372577,55523.8774963854,38421.3887114469,22407.8479536776
6064866376,8094,1,0,3445.8795725604,45842.0289666736,-1413.9958800973,18283.7287925097,56908.7195748949,52469.4205629223,40859.0407575615,55526.3962096277,38428.5676525725,22411.8389582356
6064866376,8094,1,0,3448.1062610789,45842.7103576957,-1410.9052851042,18297.0524205308,56910.3378785723,52461.8157524079,40860.6712289357,55529.8761709191,38429.8452607389,22410.5856854628
6064866376,8094,1,0,3445.6605540175,45835.3002303305,-1419.7268653009,18292.1001679239,56903.8403284689,52455.6588978155,40852.3485243089,55521.3222800526,38424.5279772272,22405.9619606701
6064866376,8094,1,0,3431.1079886173,45830.3236423299,-1430.9211463780,18266.7426877449,56897.3914491527,52460.3799641828,40848.9050661080,55513.3281032399,38421.4495499310,22405.1953957702
6064866376,8094,1,0,3433.3955156200,45832.0879583693,-1429.9964014194,18277.1217331348,56901.0295905028,52454.8558298252,40848.2966812668,55515.8954872695,38421.9605931976,22406.6311839953
6064866376,8094,1,0,3440.6352952297,45825.9919422610,-1428.2320853801,18287.9266479136,56897.5982999987,52442.7611391832,40841.5071064396,55510.7850546039,38416.5946388987,22406.3026561811
6064893212,8095,1,0,3424.2332399123,45821.9766023094,-1430.6656247447,18268.3974945128,56887.1827515183,52446.9468268903,40838.7693746545,55505.6259511510,38412.1777649519,22403.4797505182
6064893212,8095,1,0,3414.6937656032,45824.9941911215,-1427.6967067199,18270.6728538187,56891.5387869809,52447.4578701569,40843.5026087186,55510.3956883056,38415.3291984291,22401.7154344789
6064893212,8095,1,0,3430.3292560206,45824.5074832486,-1424.4114285777,18291.4431122954,56898.2066848399,52438.1130789968,40844.2813413152,55513.5106186922,38413.9177455976,22400.8393603076
6064893212,8095,1,0,3433.7362111311,45821.3682174683,-1431.2253387986,18279.2389123820,56892.7798920568,52448.3947828122,40841.7261249824,55509.6047880121,38412.2629388297,22401.7032667821
6064893212,8095,1,0,3434.2107513072,45830.3114746331,-1427.2099988470,18275.1140631590,56900.1291809379,52465.6485769072,40850.8032268123,55518.6332190547,38422.7636611879,22406.9597118096
6064893212,8095,1,0,3451.0265083165,45838.9383716806,-1414.3487433051,18300.1916863111,56912.7835856338,52462.4849757332,40861.8758309212,55528.5742273590,38430.0034407976,22411.3279149690
6064893212,8095,1,0,3450.4789619594,45835.6165904479,-1415.4925068065,18295.2881044915,56909.6929906407,52461.3898830191,40857.8361555760,55525.0577629772,38427.2778767092,22410.9020455802
6064893212,8095,1,0,3441.4870340073,45836.3101491668,-1419.8972130564,18276.9878884698,56905.1057689385,52466.2691294451,40859.2962791948,55522.4660435539,38426.6329887776,22410.8412070961
6064925282,8096,1,0,3449.8949125119,45835.9329505653,-1416.8187857602,18289.8978147989,56911.0192695944,52452.5317997320,40857.5684662459,55522.3565342825,38425.5865668508,22407.1422272619
6064925282,8096,1,0,3457.6213999945,45830.0194499094,-1420.2014054770,18297.2836067704,56906.3225386208,52442.7003006991,40853.7478094435,55515.7373072108,38418.1642717888,22403.4189120341
6064925282,8096,1,0,3440.1972581440,45827.1843765496,-1428.0739053214,18275.2722432177,56896.7465612211,52451.2420238688,40850.7545560251,55510.0184897041,38416.5338004146,22401.6789313884
6064925282,8096,1,0,3434.5392791214,45829.0216987699,-1424.0829007635,18277.3894224649,56898.5838834414,52453.0671783922,40854.1736788323,55516.3456920520,38420.8776681804,22403.8204460292
6064925282,8096,1,0,3447.9967518075,45830.1411268776,-1417.8530399901,18297.1619298022,56903.4752975642,52447.3361931886,40851.7036363772,55516.5403752012,38420.6586496375,22406.4243331494
6064925282,8096,1,0,3442.8619837483,45828.0239476304,-1423.7665406461,18282.6945382797,56895.6879715975,52452.2519427051,40850.1705065776,55510.1645020659,38417.3733714953,22404.6600171100
6064925282,8096,1,0,3439.3698547601,45832.9031940564,-1423.2798327732,18276.9757207729,56896.4788718910,52454.9045006125,40853.7721448371,55511.4907810196,38419.6852338917,22402.8105271929
6064925282,8096,1,0,3445.7822309858,45832.3678153962,-1420.3960886261,18293.4142791807,56898.5717157446,52440.5709537551,40852.1781765533,55511.5881225942,38419.0160105664,22400.3039816474
6064984367,8097,1,0,3437.5325325398,45828.3403077478,-1426.5651109154,18283.1569107590,56893.3152707170,52443.1870085720,40848.0289919367,55505.1270755812,38413.3945346342,22403.9542906943
6064984367,8097,1,0,3425.3891711105,45829.7030897920,-1431.5782020064,18266.9982093781,56892.0741656411,52450.8769929641,40851.4724501376,55508.5827014790,38416.1687695099,22407.3004073206
6064984367,8097,1,0,3441.2193446772,45832.4529892740,-1425.0076457220,18281.8427995021,56902.4410433342,52443.7467226259,40852.2146796438,55512.3060167068,38417.0326759843,22406.3026561811
6064984367,8097,1,0,3451.8782470941,45827.4398981829,-1424.4722670618,18285.1280776443,56899.8371562141,52438.1860851778,40846.5445329243,55506.1491621144,38411.3990323553,22404.8790356528
6064984367,8097,1,0,3438.1530850778,45828.2794692637,-1425.1293226903,18267.6552650066,56893.9966617391,52448.9909999565,40844.2691736184,55502.8152131849,38410.8758213919,22405.6699359463
6064984367,8097,1,0,3438.5424513761,45834.1321314355,-1416.7336118824,18276.4646775064,56901.6866461312,52450.8648252673,40846.9582346163,55507.8769750632,38416.3877880527,22407.1300595651
6064984367,8097,1,0,3448.9579998566,45833.8522744086,-1413.6673522830,18288.6445420261,56903.7794899848,52444.7809768558,40842.9672300584,55506.8670562269,38412.8348205804,22407.3490781079
6064984367,8097,1,0,3443.9814118560,45834.9351994258,-1423.8638822207,18274.5543491052,56899.3139452508,52454.6611466760,40842.3588452172,55504.9202247353,38411.9830818028,22409.6731082011
6064998202,8098,1,0,3443.8962379782,45840.2524829375,-1422.8296279907,18278.7522045091,56903.2806144150,52461.7062431365,40848.9537368953,55510.8215576944,38419.2350291093,22412.5081815608
6064998202,8098,1,0,3459.9819331781,45843.1727301750,-1413.7281907672,18302.7103995535,56911.6763252229,52452.3006134924,40852.0930026756,55516.9297414995,38422.1309409531,22415.1120686809
6064998202,8098,1,0,3451.9390855782,45838.9870424679,-1417.2933259363,18290.8833982416,56903.2806144150,52451.7652348322,40849.3187677999,55510.4930298802,38418.6874827522,22413.9804728764
6064998202,8098,1,0,3437.3256816938,45844.2191521018,-1416.5024256428,18279.7621233454,56902.0516770359,52460.3312933955,40852.8352321818,55513.3402709367,38423.1165243958,22411.2792441817
6064998202,8098,1,0,3451.6835639449,45847.7356164836,-1407.1211313923,18300.1795186143,56912.1386977021,52453.2131907541,40856.2665226858,55518.1100080913,38423.9560954766,22407.7262767094
6064998202,8098,1,0,3456.4411334027,45843.3430779305,-1409.5425030601,18299.6198045604,56908.6830718044,52449.3438631644,40851.9713257073,55512.9874077289,38417.3368684049,22406.4730039367
6064998202,8098,1,0,3441.5600401882,45843.0632209036,-1414.7016065130,18280.3218373993,56902.3923725470,52457.9707602119,40850.4625313013,55509.3979371661,38416.6798127764,22411.5347658150
6064998202,8098,1,0,3445.0765045700,45847.0055546742,-1409.2383106395,18290.8103920606,56911.6763252229,52456.8513321042,40852.7743936977,55516.7107229567,38421.5955622929,22418.4216822168
6065015314,8099,1,0,3453.7277370111,45845.4724248745,-1410.2238940822,18299.7049784382,56912.6132378782,52447.2996900982,40850.5355374822,55515.2871024284,38417.6653962191,22417.9714774343
6065015314,8099,1,0,3446.2202680714,45845.8374557792,-1419.1671512470,18284.7508790428,56907.5149729094,52453.0306753018,40850.7058852378,55513.1212523939,38416.8136574415,22413.9804728764
6065015314,8099,1,0,3445.1981815383,45848.9523861659,-1418.7169464646,18292.4530311317,56910.3013754819,52451.8625764068,40856.1813488081,55517.5259586438,38421.9727608944,22409.5027604456
6065015314,8099,1,0,3450.9535021355,45842.3453267910,-1418.8264557360,18310.9966010899,56908.5005563521,52446.1680942936,40854.6603867052,55516.5282075043,38421.5347238088,22407.9209598586
6065015314,8099,1,0,3435.6952103195,45835.2515595432,-1424.7034533015,18293.1952606379,56898.0241693875,52454.7584882506,40850.5233697854,55509.3005955915,38421.0601836327,22409.4784250519
6065015314,8099,1,0,3422.4932592667,45836.3709876510,-1421.1504858292,18282.8527183384,56898.2188525367,52461.2073675668,40853.1150892087,55513.3767740272,38425.3553806112,22412.1674860498
6065015314,8099,1,0,3438.4937805888,45839.5954273090,-1411.5380053390,18304.9857588594,56909.0602704059,52450.0374218833,40853.5287909007,55518.8157345071,38424.9173435256,22414.8565470477
6065015314,8099,1,0,3444.3221073670,45835.5314165702,-1417.1716489681,18300.2160217048,56906.5780602541,52448.2487704503,40848.8563953207,55513.6079602668,38419.6122277108,22417.6429496201
6065049305,8100,1,0,3434.6487883928,45835.6774289320,-1423.6935344652,18279.0442292328,56903.2319436277,52452.2762780987,40848.4426936287,55512.4641967655,38420.4152957011,22417.7767942852
6065049305,8100,1,0,3433.9430619770,45834.4728269466,-1424.8372979665,18283.8626371747,56906.1035200780,52447.3605285823,40847.9438180589,55514.3501897730,38420.2449479456,22414.8200439572
6065049305,8100,1,0,3436.3766013416,45831.0537041393,-1425.4335151108,18285.0185683729,56902.7330680580,52445.5475417557,40844.1109935597,55510.5295329706,38416.1566018131,22413.1165664020
6065049305,8100,1,0,3422.8947932618,45830.4818223886,-1430.0937429940,18268.7016869333,56896.7952320084,52453.5052154779,40844.7558814913,55508.8382231122,38416.4121234463,22414.3576714779
6065049305,8100,1,0,3429.6113619081,45834.5580008243,-1423.8152114334,18282.7797121575,56903.0737635690,52449.2221861962,40852.1781765533,55515.7129718172,38419.5270538330,22412.6541939227
6065049305,8100,1,0,3447.1328453331,45831.8446044328,-1419.5078467581,18302.0046731377,56905.0692658480,52441.5322018041,40852.8960706659,55515.2262639443,38418.8578305077,22409.2837419027
6065049305,8100,1,0,3437.3865201779,45828.2307984764,-1425.8350491060,18284.7752144365,56894.2643510692,52449.4898755263,40850.5598728759,55510.1158312786,38417.5437192509,22408.9065433012
6065049305,8100,1,0,3426.0827298294,45829.6300836110,-1429.3515134878,18278.6548629345,56895.5784623261,52452.7143151844,40854.0154987736,55514.8247299491,38422.1917794372,22410.6221885533
6065094381,8101,1,0,3441.4018601295,45830.5913316601,-1426.4921047344,18297.9406623989,56902.5748879993,52440.4006059995,40854.6847220989,55518.4750389960,38422.8001642784,22409.7704497757
6065094381,8101,1,0,3445.7092248048,45830.5304931759,-1430.8238048034,18295.3124398851,56905.3126197845,52447.5795471251,40854.6482190084,55517.3434431915,38419.7825754663,22412.9097155560
6065094381,8101,1,0,3439.3698547601,45837.2713972159,-1429.2176688228,18289.3381007451,56910.1310277263,52457.4840523390,40861.2309429896,55523.4759623902,38426.5721502935,22417.0102293853
6065094381,8101,1,0,3446.0255849222,45842.1871467323,-1420.8827964991,18308.7577448745,56919.0742848912,52450.6214713308,40864.5770596159,55531.7134931394,38429.6992483770,22416.6573661775
6065094381,8101,1,0,3443.5920455576,45840.3619922089,-1419.6538591199,18310.4125516424,56916.1418699569,52451.3028623529,40859.8316578550,55529.1704445034,38427.7037460980,22413.9683051796
6065094381,8101,1,0,3428.9299708860,45840.9338739596,-1420.0675608119,18290.6035412146,56913.2337904162,52460.8545043589,40858.9190805932,55527.7954947624,38429.2247082009,22413.5059327003
6065094381,8101,1,0,3434.2472543976,45846.0564743220,-1411.3798252803,18303.7811568739,56921.9336936446,52457.9099217278,40861.9610047990,55532.9789336090,38433.9457745682,22415.0755655905
6065094381,8101,1,0,3445.6118832302,45842.4791714561,-1408.2770625905,18316.2408784206,56923.7101773808,52449.2951923771,40859.8559932486,55530.3263757016,38430.3563040054,22415.2824164365
6065111578,8102,1,0,3438.2017558651,45841.6396003753,-1414.5920972416,18295.2881044915,56914.2072061620,52456.6931520455,40859.0894283488,55526.4692158087,38428.7380003280,22417.9106389502
6065111578,8102,1,0,3432.7506276884,45844.4260029477,-1414.9692958431,18292.0393294398,56918.3928938691,52457.6300647008,40864.8690843397,55531.6769900489,38431.3418874481,22417.5699434392
6065111578,8102,1,0,3447.4005346632,45841.8829543117,-1413.7038553735,18308.2710370016,56919.5366573705,52446.7886468316,40861.9366694053,55531.3362945379,38430.0764469785,22412.1188152625
6065111578,8102,1,0,3447.7655655679,45836.5048323160,-1422.8661310812,18296.0546693913,56910.7637479611,52448.5529628709,40857.2156030380,55522.5998882190,38424.2602878971,22410.0016360153
6065111578,8102,1,0,3443.4947039831,45839.1452225266,-1424.7886271792,18289.1312498991,56912.6375732719,52452.5074643384,40858.8704098060,55526.0311787231,38426.7790011395,22411.2062380008
6065111578,8102,1,0,3452.6569796907,45841.9194574022,-1417.7678661124,18311.2277873295,56919.3054711309,52442.0189096770,40862.9952590289,55530.1925310365,38427.5333983425,22411.8754613260
6065111578,8102,1,0,3444.3342750638,45834.0347898609,-1426.9666449105,18303.5864737247,56910.9827665040,52439.4150225569,40857.3251123094,55524.2181918964,38420.3666249138,22409.4419219614
6065111578,8102,1,0,3431.8015473362,45834.3268145847,-1433.2573441680,18282.0861534386,56907.1986127920,52450.7796513895,40856.2178518986,55524.1695211091,38421.3157052660,22411.4739273309
6065140663,8103,1,0,3444.5532936067,45837.5999250301,-1426.8328002455,18290.9929075130,56912.8322564210,52443.4912009926,40856.6680566810,55524.8509121312,38423.0313505180,22410.9993871548
6065140663,8103,1,0,3457.6213999945,45836.5413354065,-1425.9567260742,18297.8068177338,56913.8421752573,52439.4758610410,40852.5188720644,55521.5169632017,38422.0944378627,22411.5225981182
6065140663,8103,1,0,3438.8344760999,45835.7747705066,-1439.0978386430,18278.1559873648,56908.1233577506,52448.0419196044,40851.6549655900,55517.4529524629,38424.5523126209,22413.1652371893
6065140663,8103,1,0,3420.4004154131,45838.0988005998,-1439.4141987604,18283.0717368812,56910.5690648120,52446.6913052570,40857.2886092190,55519.4849578323,38428.7623357216,22412.2526599275
6065140663,8103,1,0,3426.8979655166,45835.2637272401,-1430.2640907495,18303.0024242772,56910.1796985136,52440.3884383027,40858.6392235663,55519.9716657052,38427.4482244647,22412.7028647100
6065140663,8103,1,0,3430.5726099571,45833.5480819880,-1426.6989555804,18291.7959755033,56903.4631298674,52445.6570510271,40859.0650929551,55515.6034625458,38423.7492446306,22414.1508206319
6065140663,8103,1,0,3437.9949050191,45839.7901104582,-1420.8949641959,18289.3381007451,56909.6686552471,52451.6922286512,40866.8524189218,55520.9694168447,38428.3973048169,22416.5843599965
6065140663,8103,1,0,3456.0030963170,45840.3376568152,-1417.5245121759,18308.7577448745,56915.8011744458,52441.0576616280,40868.3125425406,55525.7513216961,38429.3828882596,22416.0489813363
6065224473,8104,1,0,3448.7876521010,45834.4363238561,-1428.0739053214,18297.2106005895,56908.1720285379,52441.3861894422,40864.5283888286,55520.7625659987,38423.2868721513,22413.7492866368
6065224473,8104,1,0,3433.5293602851,45837.0767140667,-1433.6345427695,18277.8031241569,56907.7461591491,52451.9477502845,40865.5383076649,55520.8599075733,38427.5455660393,22414.4915161430
6065224473,8104,1,0,3445.2346846287,45841.1163894119,-1425.9932291647,18293.2560991220,56918.1130368422,52446.8859884062,40866.8280835282,55524.3520365615,38429.7965899516,22412.5325169545
6065224473,8104,1,0,3456.4898041900,45837.6850989078,-1424.5331055459,18297.2106005895,56913.8908460446,52444.4767844352,40859.7099808867,55518.7062252356,38427.8010876726,22410.7682009152
6065224473,8104,1,0,3444.0422503401,45838.4516638077,-1424.2167454285,18276.4890129000,56905.8723338383,52455.9265871456,40856.7045597715,55515.7981456950,38430.8308441815,22414.9660563191
6065224473,8104,1,0,3441.6817171564,45843.8906242875,-1416.3685809777,18282.2565011941,56910.3743816628,52453.8580786857,40857.1912676444,55521.7724848350,38436.4766555074,22416.7060369647
6065224473,8104,1,0,3449.9314156024,45842.7955315735,-1415.2248174764,18298.1596809417,56914.3045477366,52443.8197288068,40855.5851316638,55519.5579640132,38431.6704152623,22413.8831313018
6065224473,8104,1,0,3439.3820224569,45839.8266135487,-1425.7985460155,18284.1059911112,56908.1598608410,52442.3961082785,40854.5630451306,55513.3159355431,38423.5545614814,22412.1309829593
6065229641,8105,1,0,3432.6776215075,45840.5810107517,-1428.6701224657,18284.7752144365,56908.7925810758,52441.2645124740,40860.2696949406,55513.6566310541,38422.8001642784,22410.1598160740
6065229641,8105,1,0,3447.4492054505,45843.5377610797,-1421.1261504355,18308.7820802681,56915.6916651744,52438.5997868698,40867.6798223058,55518.7548960229,38424.2481202003,22410.8655424897
6065229641,8105,1,0,3443.8353994941,45842.3696621847,-1424.8494656633,18297.8189854306,56910.9340957167,52444.2699335892,40869.4928091324,55515.8468164822,38422.1309409531,22412.5811877418
6065229641,8105,1,0,3433.3346771359,45845.4602571777,-1428.2807561674,18282.7067059766,56911.9075114625,52450.0617572770,40872.1575347366,55518.6453867515,38426.0611070269,22414.5523546271
6065229641,8105,1,0,3444.6871382717,45846.3119959553,-1422.5984417511,18299.2791090494,56918.7822601675,52445.0486661859,40872.4008886731,55524.5588874075,38427.2413736188,22414.2359945097
6065229641,8105,1,0,3450.2842788103,45844.1704813145,-1422.4524293892,18298.7315626924,56916.1540376537,52443.9779088655,40865.5626430586,55521.1762676907,38425.7934176968,22411.8267905387
6065229641,8105,1,0,3436.9849861828,45845.4602571777,-1424.6791179078,18278.6791983282,56914.3775539176,52457.5813939135,40864.4432149509,55523.3056146347,38430.2954655213,22412.8002062846
6065229641,8105,1,0,3438.5424513761,45850.4733482687,-1415.2734882637,18291.3579384177,56923.8196866522,52459.4065484370,40869.7118276752,55533.8063369929,38439.5915858940,22414.3211683874
6065239173,8106,1,0,3444.3464427607,45846.8230392219,-1411.2216452216,18301.8099899886,56923.0774571460,52453.9310848667,40868.3125425406,55530.3872141857,38441.1733864810,22415.2945841333
6065239173,8106,1,0,3433.4563541041,45845.5941018427,-1415.8088669239,18286.4178535076,56915.2901311793,52461.4385538064,40867.5581453375,55524.7048997693,38440.5650016399,22418.7867131215
6065239173,8106,1,0,3441.3166862517,45853.5031047777,-1408.5447519206,18298.6707242083,56923.0409540555,52462.2051187063,40876.6960856516,55530.8982574522,38444.4830000169,22423.1184131904
6065239173,8106,1,0,3458.2662879261,45854.0019803474,-1403.6776731914,18319.9763613452,56926.5939215278,52452.4344581574,40877.4139797641,55531.0199344205,38443.2662303346,22423.4591087015
6065239173,8106,1,0,3450.3086142039,45851.9578072811,-1410.6254280773,18303.8419953580,56920.0598683339,52455.0261775807,40875.5158190597,55524.8752475249,38440.2243061288,22421.3175940606
6065239173,8106,1,0,3440.6352952297,45857.4576062451,-1409.9927078425,18292.9762420951,56923.1382956301,52457.3745430675,40880.7722640872,55529.2312829875,38443.9476213567,22423.1305808873
6065239173,8106,1,0,3452.8394951431,45857.2385877023,-1408.9949567030,18309.0619372950,56926.6790954056,52439.7313826743,40880.1517115493,55531.0564375109,38439.2508903830,22417.5821111360
6065239173,8106,1,0,3458.4123002880,45850.7775406893,-1418.1937355012,18303.9150015389,56921.2157995321,52436.1297444147,40874.2503785901,55524.1695211091,38429.1395343231,22414.1264852383
6065268241,8107,1,0,3447.0598391522,45852.5783598191,-1425.6403659568,18288.0726602755,56916.1053668664,52448.2244350567,40870.0646908831,55520.9207460574,38430.5753225482,22416.0368136395
6065268241,8107,1,0,3448.9579998566,45855.8149671740,-1422.1847400591,18301.8708284727,56920.7534270528,52445.6813864207,40871.2206220812,55529.2799537748,38435.4180658838,22420.2103336498
6065268241,8107,1,0,3452.9611721113,45852.0308134621,-1422.0265600004,18310.2665392805,56921.9945321287,52443.7832257163,40866.8159158313,55528.2943703321,38435.1868796441,22418.2756698549
6065268241,8107,1,0,3444.8818214209,45851.1669069877,-1426.3704277662,18293.9861609314,56918.1008691454,52453.0915137859,40868.6532380516,55526.4935512023,38437.6447544024,22417.8863035566
6065268241,8107,1,0,3449.7245647564,45854.1479927093,-1421.4303428561,18304.5112186833,56923.4668234443,52450.5606328467,40874.2503785901,55530.2168664301,38440.7475170922,22416.3288383632
6065268241,8107,1,0,3461.3812183128,45850.5098513592,-1421.2478274037,18322.7262608272,56923.9656990140,52442.2622636135,40871.4031375336,55527.0045944689,38438.3383131213,22415.8177950967
6065268241,8107,1,0,3448.1427641694,45844.5963507033,-1429.2298365196,18302.9780888836,56910.8854249294,52448.0054165139,40867.3756298852,55518.6575544483,38435.2112150378,22415.2702487396
6065268241,8107,1,0,3436.6442906717,45846.4701760140,-1426.0784030424,18294.0469994155,56909.1697796773,52448.7111429296,40870.3202125163,55519.9960010989,38439.2022195957,22417.7037881042
6065298384,8108,1,0,3446.6096343697,45843.3795810210,-1418.3519155599,18310.6437378820,56912.7105794528,52436.4096014416,40868.4098841151,55519.1442623213,38436.5861647788,22416.2436644855
6065298384,8108,1,0,3446.8043175189,45839.4007441599,-1421.0896473450,18305.7401560624,56909.7659968217,52439.9260658234,40864.7109042810,55514.5935437095,38435.5032397615,22415.7691243094
6065298384,8108,1,0,3438.9318176745,45844.7545307620,-1424.5939440300,18294.7770612249,56911.4208035896,52450.4389558785,40864.9055874301,55517.2217662232,38438.2288038499,22415.7447889157
6065298384,8108,1,0,3447.5952178124,45847.3705855789,-1423.6326959810,18313.1016126403,56916.6772486171,52438.3077621460,40866.2805371711,55522.6607267031,38436.8781895025,22410.5005115850
6065298384,8108,1,0,3447.4492054505,45842.9293762385,-1429.4366873656,18311.4346381755,56915.0954480301,52433.8543851088,40862.1070171609,55520.0325041893,38429.7722545579,22406.8258671445
6065298384,8108,1,0,3433.8092173120,45843.7446119257,-1435.5570388675,18290.1046656449,56910.3987170565,52442.2622636135,40865.2462829412,55517.5867971279,38429.6262421960,22403.4554151246
6065298384,8108,1,0,3443.6042132545,45846.7500330409,-1431.6512081874,18302.3453686488,56916.9814410377,52438.8674761999,40870.1985355481,55521.2371061748,38431.4513967195,22397.9799515542
6065298384,8108,1,0,3460.8580073494,45841.8586189181,-1431.8823944270,18314.2332084448,56916.3365531060,52430.1554052746,40866.3292079584,55515.6521333331,38427.8132553694,22393.4657360329
6065337011,8109,1,0,3449.9922540865,45835.3002303305,-1442.3344459979,18293.8888193568,56903.8038253784,52434.5114407372,40863.2021098749,55505.6137834542,38426.4626410221,22393.8672700281
6065337011,8109,1,0,3434.9651485102,45835.2150564528,-1442.7238122962,18285.9189779378,56903.0494281754,52438.3077621460,40864.4432149509,55510.2618436405,38430.1616208563,22396.6293372069
6065337011,8109,1,0,3436.9728184860,45833.8522744086,-1435.3501880215,18304.3530386246,56906.2982032271,52433.6110311723,40863.0682652099,55512.8778984575,38431.9624399861,22403.3337381563
6065337011,8109,1,0,3433.4685218010,45834.3268145847,-1434.8756478454,18299.7536492255,56903.5604714420,52443.4060271148,40862.2043587354,55512.0504950735,38431.5244029004,22408.1156430077
6065337011,8109,1,0,3429.8547158445,45842.2236498228,-1431.5538666128,18295.5801292152,56908.5978979267,52450.5606328467,40867.3877975820,55518.4750389960,38437.3648973754,22413.3599203384
6065337011,8109,1,0,3442.7646421737,45847.6017718185,-1423.8273791302,18316.6910832030,56918.2712169009,52442.6516299118,40870.5879018464,55526.2015264786,38438.5451639673,22412.9340509496
6065337011,8109,1,0,3444.5532936067,45847.9059642391,-1426.1757446170,18317.6523312520,56917.8453475121,52444.0752504401,40871.3788021399,55524.6805643757,38437.5474128278,22412.5933554386
6065337011,8109,1,0,3432.5437768424,45852.4931859413,-1428.2199176833,18300.4107048539,56920.0233652434,52453.7485694143,40874.2868816806,55525.4714646692,38441.7452682317,22411.6807781769
6065363821,8110,1,0,3443.0810022911,45858.0294879958,-1420.4812625039,18313.4058050608,56931.5948449220,52447.1536777363,40874.6154094948,55532.0055178631,38445.6997696992,22409.5514312329
6065363821,8110,1,0,3456.9278412756,45854.0384834379,-1420.8219580149,18319.8425166802,56932.4709190933,52442.9801577260,40869.0304366531,55528.4038796035,38442.9377025204,22407.3490781079
6065363821,8110,1,0,3448.8849936756,45851.0939008067,-1426.6989555804,18298.4760410591,56925.0972948186,52449.3681985581,40866.4873880171,55522.1618511334,38442.1589699237,22409.9164621375
6065363821,8110,1,0,3443.0810022911,45849.2809139801,-1429.7895505734,18301.7004807172,56922.2500537620,52447.5065409441,40867.2052821297,55522.1983542238,38443.4365780901,22408.9430463917
6065363821,8110,1,0,3448.4226211963,45844.8883754270,-1433.2938472585,18320.4022307340,56920.5709116004,52434.5844469182,40866.1588602029,55520.1055103703,38437.6082513119,22408.1034753109
