steady_timestamp,sequence,battery,flags,EEG-ch1,EEG-ch2,EEG-ch3,EEG-ch4,EEG-ch5,EEG-ch6,EEG-ch7,EEG-ch8,EEG-ch9,EEG-ch10
2558546565,14033,-2,0,38368.5809072354,39282.6669633620,28127.1034975460,49032.8614461283,50264.9380910257,37434.7710145587,50583.8899278455,55561.4391764778,56945.2348330605,12175.4841489087
2558546565,14033,-2,0,38376.1735500529,39290.2596061796,28128.3080995315,49033.7983587836,50281.3279786462,37429.8187619517,50583.3788845790,55563.0453124584,56955.0906674871,12169.8870083701
2558546565,14033,-2,0,38390.7382831499,39289.0428364973,28122.6622882056,49026.2543867534,50294.2257372786,37421.1796972074,50577.6965701626,55559.3706680179,56957.7432253945,12164.0708492888
2558546565,14033,-2,0,38365.5876538169,39280.1847532102,28119.6203639999,49018.3697192122,50270.6569085325,37426.1319498144,50570.5176290371,55551.8510313813,56935.1478123943,12167.1979473723
2558546565,14033,-2,0,38351.9111625879,39285.0761673330,28124.8281382401,49023.8573504793,50272.1413675449,37438.3848205151,50574.8858321965,55554.7347755284,56946.9869814030,12170.3250454558
2558546565,14033,-2,0,38382.4764170072,39294.6156416422,28126.8723113064,49029.2233047782,50293.1793153518,37439.1392177181,50578.1954457324,55561.6216919302,56966.2119423833,12168.0983569372
2558546565,14033,-2,0,38388.2195699076,39289.6633890352,28125.3756845972,49024.4657353205,50281.7295126414,37434.1504620207,50575.3847077663,55557.7766997341,56948.8486390169,12170.0208530352
2558546565,14033,-2,0,38369.0311120178,39283.9567392253,28124.0737410371,49022.9812763081,50270.1093621755,37433.8219342065,50574.1801057808,55556.1948991471,56941.1099838376,12171.2132873238
2558569842,14034,-2,0,38374.1415446834,39287.1081727024,28121.2264999805,49024.1493752031,50287.1563054244,37427.0688624697,50574.7641552283,55558.2390722134,56959.6657214926,12164.7157372204
2558569842,14034,-2,0,38372.9612780916,39282.1680877923,28115.0818130849,49018.7712532073,50284.5037475170,37423.4428888165,50571.8682433845,55554.9659617680,56951.4281907434,12163.9370046237
2558569842,14034,-2,0,38354.8314098254,39279.3816852199,28115.1183161754,49018.3697192122,50269.2697910947,37429.3563894725,50573.4987147587,55553.6153474207,56937.4961778811,12169.2056173480
2558569842,14034,-2,0,38372.0608685267,39288.3736131720,28118.7199544350,49024.0155305380,50286.4140759182,37434.4911575317,50578.9985137227,55559.9912205559,56956.2709340789,12171.2132873238
2558569842,14034,-2,0,38394.1817413508,39290.3691154510,28118.5374389827,49023.2976364255,50290.1495588429,37432.6173322210,50581.7605809015,55561.3296672064,56963.4255398108,12173.0384418473
2558569842,14034,-2,0,38369.2744659543,39281.2190074401,28118.4157620144,49019.7568366500,50261.8718314264,37431.2788855705,50581.1643637572,55558.2755753039,56945.3321746351,12176.2263784149
2558569842,14034,-2,0,38357.4352969455,39283.5795406238,28120.2774196283,49023.8573504793,50265.9236744684,37431.6804195656,50586.0922809705,55562.6924492506,56953.2168421764,12173.2574603901
2558569842,14034,-2,0,38382.2573984643,39289.6390536416,28114.6316083025,49026.3638960248,50288.4582489845,37424.7448323766,50588.2459633081,55565.4180133389,56962.5494656396,12164.3872094062
2558626424,14035,-2,0,38382.2695661612,39285.0031611521,28110.7866161064,49023.2489656382,50278.7484269198,37421.9827651978,50585.9706040022,55561.5730211429,56942.1564057643,12163.1826074207
2558626424,14035,-2,0,38369.9315215827,39285.3681920567,28114.0353911582,49027.1912994088,50272.0440259703,37424.9516832226,50588.5014849414,55561.9502197444,56938.2749104778,12167.4778043992
2558626424,14035,-2,0,38380.3714054568,39288.9819980132,28115.3373347182,49028.4202367879,50287.1563054244,37419.5492258332,50589.2680498413,55564.0795666884,56954.2024256190,12164.1073523792
2558626424,14035,-2,0,38374.5430786786,39281.1460012592,28111.4923425222,49022.7135869780,50276.6190799758,37412.9178310647,50583.5857354250,55558.0078859737,56939.9053818521,12161.0289250830
2558626424,14035,-2,0,38355.9265025395,39276.8264688870,28112.6969445076,49020.3652214911,50265.2057803558,37417.0548479845,50580.4951404319,55553.2016457287,56928.1635544180,12161.5886391369
2558626424,14035,-2,0,38378.4367416619,39288.7994825608,28117.1016507576,49027.3616471643,50289.6871863636,37424.1486152322,50584.2306233566,55557.9227120960,56947.4615215791,12158.7413980803
2558626424,14035,-2,0,38398.3552613611,39290.2717738764,28116.7487875497,49024.6969215601,50295.1626499339,37419.4640519554,50581.9065932634,55556.2679053281,56947.4493538823,12160.4327079387
2558626424,14035,-2,0,38374.9932834610,39282.6061248779,28116.7852906402,49022.4337299510,50271.8736782148,37421.7637466549,50580.1057741336,55550.9141187260,56929.0396285892,12166.3705439883
2558635115,14036,-2,0,38363.9815178363,39285.3438566631,28120.6302828362,49028.2012182451,50276.4365645234,37427.8110919759,50582.9043444029,55554.6739370443,56944.2005788306,12165.9081715090
2558635115,14036,-2,0,38386.0780552667,39293.7882382582,28121.4455185233,49029.5640002893,50294.3960850341,37427.6285765236,50587.4915661051,55559.8452081940,56958.3272748420,12162.8662473033
2558635115,14036,-2,0,38384.4110808020,39292.7539840283,28123.9520640689,49028.4689075752,50281.6200033700,37432.6294999178,50586.2626287260,55559.7235312258,56946.0013979604,12165.3119543647
2558635115,14036,-2,0,38383.3524911784,39297.9860936621,28131.1066698008,49033.9322034487,50283.6398410426,37439.6137578942,50590.5578257045,55563.8240450551,56955.8207292965,12166.4678855629
2558635115,14036,-2,0,38401.8230549556,39304.1064451641,28133.5888799526,49035.5261717325,50302.0495663357,37439.4555778355,50592.6871726485,55569.7862164984,56977.1263664335,12169.2907912258
2558635115,14036,-2,0,38392.3322514337,39299.7017389142,28133.9782462510,49030.1845528272,50289.7358571509,37439.6259255910,50588.0999509463,55565.9290566055,56965.6035575421,12177.3214711289
2558635115,14036,-2,0,38368.3983917830,39298.4484661414,28137.1905182122,49028.5297460593,50281.4739910081,37440.8183598797,50587.0778644131,55564.5662745613,56955.9667416584,12179.0249486842
2558635115,14036,-2,0,38389.6918612232,39310.5796598739,28139.0156727357,49034.0417127201,50305.0549874510,37442.7165205841,50590.6429995823,55568.8006330557,56973.7315790199,12175.8126767229
2558664902,14037,-2,0,38405.0231592201,39307.7567542110,28133.7835631018,49029.9290311940,50302.7917958419,37436.4866598107,50588.5014849414,55564.8217961946,56966.1024331119,12174.1700376518
2558664902,14037,-2,0,38380.2253930949,39299.1906956476,28134.4162833366,49031.1823039667,50277.4464833597,37437.5817525248,50589.5844099587,55561.5730211429,56951.5498677116,12178.6477500826
2558664902,14037,-2,0,38372.6084148837,39298.0225967526,28136.4604564029,49036.4509166911,50282.9584500205,37434.1869651112,50593.2468867024,55562.8627970061,56968.4021278114,12174.5959070406
2558664902,14037,-2,0,38386.6742724111,39296.0879329578,28131.7637254292,49034.6987683485,50291.0986391951,37432.1184566513,50591.3243906043,55561.0133070890,56974.9118456117,12169.9721822479
2558664902,14037,-2,0,38379.8481944934,39290.7341463557,28132.2382656053,49031.4864963873,50276.1688751933,37433.4812386954,50589.6209130491,55556.9492963501,56955.4313629982,12176.0560306594
2558664902,14037,-2,0,38382.5372554913,39297.1221871877,28135.7790653808,49035.8303641531,50282.2162205143,37433.2257170622,50595.1207120131,55558.8352893577,56960.4322863924,12177.1389556766
2558664902,14037,-2,0,38404.4026066821,39302.9261785722,28135.3896990824,49039.2616546572,50297.8273755382,37432.9823631257,50599.0508780869,55563.0939832457,56973.8167528976,12172.3935539157
2558664902,14037,-2,0,38388.7671162646,39294.6521447326,28133.0656689892,49033.6766818154,50278.0305328072,37428.3586383330,50594.4393209910,55558.3485814848,56957.0983374629,12173.0019387568
2558697637,14038,-2,0,38368.2402117243,39292.8513256028,28134.8786558159,49034.2242281725,50266.7997486397,37430.3541406119,50595.7899353384,55558.0808921547,56952.1339171591,12173.3304665710
2558697637,14038,-2,0,38392.1984067687,39301.8919243423,28135.2315190237,49036.7916122021,50291.5123408870,37425.1463663717,50596.2888109081,55560.7942885462,56969.4728851318,12168.5728971133
2558697637,14038,-2,0,38399.2191678355,39293.1920211139,28126.0814110129,49025.0376170711,50279.9286935116,37410.1314284922,50587.3333860464,55549.1011318993,56952.8639789685,12162.7932411224
2558697637,14038,-2,0,38372.5962471869,39281.9977400368,28121.4333508265,49020.1705383420,50258.4770440128,37408.4157832402,50582.1742825935,55542.2142154976,56931.9355404331,12164.3872094062
2558697637,14038,-2,0,38369.3474721352,39287.3393589421,28123.7695486165,49024.4535676236,50272.0440259703,37415.0836810991,50587.1508705941,55546.4729093856,56947.9238940584,12165.1051035187
2558697637,14038,-2,0,38381.0284610852,39291.0140033826,28125.3635169003,49024.4170645332,50282.6299222063,37414.7794886786,50588.0391124621,55551.0357956942,56951.5742031053,12166.7842456803
2558697637,14038,-2,0,38372.0852039204,39288.2276008101,28127.0548267587,49025.6094988218,50270.6082377452,37420.9850140583,50590.8863535187,55551.7780252004,56936.4375882576,12169.2056173480
2558697637,14038,-2,0,38380.1402192171,39295.2605295738,28130.9849928325,49032.4720798300,50285.9882065294,37428.6993338440,50596.3861524827,55560.0885621305,56952.0000724941,12171.6026536222
2558723831,14039,-2,0,38402.7477999142,39300.9671793837,28130.2670987200,49032.1192166221,50300.8206289566,37423.8200874180,50594.2203024482,55562.6559461601,56966.4796317134,12173.2696280869
2558723831,14039,-2,0,38381.7098521073,39290.9896679889,28126.4099388271,49025.1714617362,50278.9187746753,37422.5789823421,50589.4018945063,55557.2291533771,56948.6174527773,12177.4918188845
2558723831,14039,-2,0,38357.6056447011,39288.8481533481,28126.7506343381,49025.3904802790,50271.4478088260,37427.2757133157,50589.7060869269,55557.4846750104,56946.1717457159,12176.6400801069
2558723831,14039,-2,0,38384.4475838925,39297.2316964591,28127.3955222698,49029.3328140496,50294.4325881246,37428.1152843965,50593.3807313674,55562.6072753728,56964.8613280359,12173.2817957837
2558723831,14039,-2,0,38395.3133371554,39293.2285242044,28124.6091196973,49024.5265738046,50286.4140759182,37421.4960573248,50587.9417708876,55557.2656564675,56952.6936312130,12175.0096087326
2558723831,14039,-2,0,38375.1757989134,39285.5507075091,28124.2197533990,49019.7446689531,50265.4613019891,37420.2792876425,50583.3302137917,55548.2980639090,56936.5105944385,12177.3579742194
2558723831,14039,-2,0,38377.7918537303,39287.8382345118,28125.0958275702,49021.2777987528,50275.2197948411,37417.2860342241,50584.1941202661,55548.4562439677,56950.3574334230,12172.6977463362
2558723831,14039,-2,0,38379.8603621902,39284.5407886728,28120.0949041760,49017.0191048648,50274.7330869682,37412.4554585854,50580.7384943684,55544.0758731115,56943.9085541068,12170.7874179350
2558778937,14040,-2,0,38364.6264057679,39281.3406844083,28123.5748654674,49017.7491666742,50259.6694783014,37418.2594499699,50580.2517864955,55542.4697371309,56926.4600768627,12175.5693227864
2558778937,14040,-2,0,38377.1226304051,39288.6778055926,28126.7141312477,49024.5022384109,50277.6411665089,37423.1021933055,50585.4352253420,55546.0835430873,56944.9063052463,12173.8171744439
2558778937,14040,-2,0,38400.1804158845,39290.7341463557,28122.7961328707,49021.9470220781,50287.9228703243,37417.2738665273,50582.6001519823,55548.9672872343,56951.3673522593,12170.1060269129
2558778937,14040,-2,0,38378.7652694762,39283.6647145015,28121.1048230123,49014.7437455589,50263.3684581356,37419.9385921315,50578.1224395515,55545.9496984222,56931.0959693523,12175.0461118231
2558778937,14040,-2,0,38359.8688363101,39285.7940614455,28127.8213916586,49020.3165507038,50263.1616072896,37425.2680433400,50584.7538343200,55551.6928513226,56937.8003703017,12176.6522478037
2558778937,14040,-2,0,38384.7517763130,39296.3069515006,28130.3887756882,49027.4954918294,50286.4870820992,37426.9471855015,50592.0179493232,55559.3950034116,56958.7653119277,12172.9532679695
2558778937,14040,-2,0,38391.7603696831,39293.1555180234,28127.8092239617,49026.4490699026,50279.2107993991,37425.1950371590,50592.0544524137,55557.2656564675,56945.0158145177,12172.5395662775
2558778937,14040,-2,0,38378.0838784541,39290.7828171430,28129.3666891551,49028.8826092672,50270.5108961707,37429.2833832915,50593.5754145166,55557.9592151864,56940.2947481504,12172.0285230110
2558788985,14041,-2,0,38390.1298983088,39298.3389568700,28133.6740538304,49034.3459051407,50290.1738942365,37431.5222395069,50599.8661137740,55565.3450071580,56960.3957833019,12168.4877232355
2558788985,14041,-2,0,38390.0933952183,39295.2483618770,28131.9462408815,49033.8470295709,50288.9327891606,37426.4239745381,50599.9391199550,55566.0385658769,56954.8229781570,12167.0884381009
2558788985,14041,-2,0,38372.4258994314,39294.1289337693,28135.3896990824,49034.0295450233,50276.7529246408,37430.8286807880,50602.8715348893,55566.7686276863,56940.9153006884,12170.4588901208
2558788985,14041,-2,0,38390.0690598247,39303.5345634134,28137.1905182122,49040.3445796744,50295.7345316846,37432.6781707051,50606.0351360633,55569.9808996475,56958.2907717516,12168.2078662086
2558788985,14041,-2,0,38412.2507711329,39304.5688176433,28134.6231341826,49037.9475434003,50301.2464983454,37429.8674327390,50601.8616160530,55568.0340681559,56959.1790136196,12165.9933453868
2558788985,14041,-2,0,38389.2903272280,39294.6886478231,28134.3676125493,49033.0804646711,50275.0372793888,37430.4636498833,50595.2667243750,55562.4977661014,56938.6764444730,12171.5174797444
2558788985,14041,-2,0,38375.2244697007,39300.3101237553,28138.5167971659,49038.8844560556,50280.8169353797,37434.7831822555,50599.7931075931,55570.0904089189,56950.2479241516,12178.7572593541
2558788985,14041,-2,0,38395.7513742410,39307.5864064554,28138.4072878945,49040.3324119776,50301.8670508834,37426.8376762301,50601.8372806594,55574.6411275307,56966.2727808674,12178.3435576621
2558823805,14042,-2,0,38394.9848093411,39302.3177937311,28136.2536055569,49035.5626748230,50290.9647945300,37423.4915596038,50598.9170334219,55569.3360117159,56949.9802348215,12178.9519425032
2558823805,14042,-2,0,38383.4254973593,39300.6264838727,28136.7889842171,49035.2584824024,50284.1873873996,37425.1828694622,50600.0729646200,55566.5374414466,56948.2402541758,12178.1975453002
2558823805,14042,-2,0,38396.8951377423,39299.3002049190,28134.2824386715,49034.5892590771,50296.7687859146,37422.5546469484,50598.8196918473,55565.5396903071,56962.2087701285,12171.8825106491
2558823805,14042,-2,0,38389.5093457708,39289.0185011036,28131.5203714927,49027.3373117707,50282.3013943921,37425.1950371590,50592.4924894993,55560.3440837637,56949.3961853740,12169.5828159496
2558823805,14042,-2,0,38366.2447094453,39286.6336325263,28134.6353018794,49027.2764732866,50265.3639604146,37432.2279659227,50592.0909555042,55560.5631023066,56940.1852388790,12173.8050067471
2558823805,14042,-2,0,38385.4088319415,39299.8234158824,28138.9913373420,49034.4189113216,50286.1707219818,37432.7876799765,50597.7124314364,55566.1602428451,56961.3691990478,12173.4156404488
2558823805,14042,-2,0,38407.2376800418,39303.5223957166,28137.3608659677,49034.2850666566,50294.2622403690,37431.2667178737,50597.3230651381,55566.2575844197,56962.1600993413,12172.5395662775
2558823805,14042,-2,0,38385.2141487923,39297.6210627574,28138.0300892930,49032.6789306759,50275.6334965331,37437.4722432534,50596.1549662430,55564.6271130454,56942.8986352705,12176.7982601656
2558843783,14043,-2,0,38375.1027927324,39299.7382420046,28143.0188449904,49036.1710596641,50282.0093696683,37439.7597702561,50599.8417783804,55566.7564599894,56955.1758413649,12175.7761736324
2558843783,14043,-2,0,38392.3930899179,39303.1938679024,28140.8894980464,49035.8425318499,50297.0364752447,37437.3749016788,50601.0585480627,55568.1192420336,56965.2993651216,12171.2497904143
2558843783,14043,-2,0,38387.4408373109,39300.1276083030,28137.9327477184,49032.7519368569,50281.8390219128,37437.8129387644,50600.4136601311,55564.4324298963,56946.3055903810,12170.8969272064
2558843783,14043,-2,0,38381.9167029533,39302.6098184548,28139.0643435230,49036.8646183830,50279.2959732768,37439.6259255910,50604.3559939017,55567.1336585910,56949.5908685232,12171.0064364778
2558843783,14043,-2,0,38398.7081245690,39304.9460162449,28135.3896990824,49037.4730032242,50295.1261468435,37432.5078229496,50604.9643787429,55570.5041106109,56964.2042724075,12170.9455979937
2558843783,14043,-2,0,38384.7517763130,39292.8269902092,28127.3590191793,49028.2133859419,50275.0129439951,37419.4032134713,50596.3009786049,55563.9700574170,56944.9914791241,12173.3182988742
2558843783,14043,-2,0,38355.9630056300,39285.9157384138,28126.9939882746,49024.3927291395,50260.2048569616,37418.1134376081,50593.5632468198,55561.9137166539,56933.8702042279,12173.4764789329
2558843783,14043,-2,0,38371.4768190792,39290.2961092700,28124.9498152083,49026.0962066947,50280.2450536290,37419.9507598283,50594.8530226830,55566.5617768403,56951.8540601322,12164.1560231665
2558895155,14044,-2,0,38393.9505551112,39293.0460087520,28126.4464419176,49026.6680884454,50287.8498641433,37427.0810301666,50596.9823696270,55569.7132103174,56951.3916876529,12163.8153276555
2558895155,14044,-2,0,38378.0595430604,39288.2032654165,28129.8777324216,49027.3981502548,50270.3162130215,37429.4780664407,50599.5375859598,55567.2918386496,56937.8247056954,12167.3682951278
2558895155,14044,-2,0,38373.4844890550,39292.5106300918,28134.5744633953,49030.0507081622,50274.4897330318,37429.0643647487,50603.2609011876,55568.0340681559,56952.0122401909,12165.9568422963
2558895155,14044,-2,0,38384.4475838925,39291.9995868252,28131.5447068864,49027.7266780690,50280.8534384702,37423.5523980879,50599.8904491677,55566.7807953831,56954.2875994968,12162.8905826969
2558895155,14044,-2,0,38375.3096435784,39289.4200350988,28129.9385709058,49027.2886409834,50267.8948413537,37425.2558756431,50599.4524120821,55565.3206717643,56937.0824761892,12168.6702386878
2558895155,14044,-2,0,38377.2686427669,39294.3114492216,28130.3036018104,49033.1413031552,50277.1422909392,37429.2833832915,50604.5506770509,55570.2242535840,56946.9991490999,12168.4025493577
2558895155,14044,-2,0,38399.6207018307,39299.1420248603,28126.8479759127,49033.0317938838,50295.3451653863,37422.4694730707,50603.2000627035,55574.9574876481,56961.9775838889,12165.2876189711
2558895155,14044,-2,0,38382.4642493103,39288.9454949227,28122.4311019660,49025.4148156726,50275.4388133839,37417.1886926495,50597.8219407078,55567.7420434321,56942.8134613928,12167.2466181596
2558914701,14045,-2,0,38357.8246632439,39286.3294401058,28126.3004295557,49025.0862878584,50265.6073143510,37425.8034220002,50598.4181578521,55568.0340681559,56938.0923950255,12169.2786235290
2558914701,14045,-2,0,38382.0140445279,39300.0667698189,28134.4406187302,49032.9466200060,50294.0310541294,37429.9891097073,50605.4875897062,55577.9385733697,56963.9974215615,12171.5296474412
2558914701,14045,-2,0,38400.8131361193,39299.7625773983,28135.8155684712,49033.1534708520,50293.6295201342,37421.3743803566,50603.8327829383,55577.9142379761,56956.5142880154,12171.3714673825
2558914701,14045,-2,0,38378.3394000874,39291.8170713729,28134.5014572144,49030.1358820399,50273.0052740194,37420.1454429775,50600.9977095786,55572.7916376136,56941.4263439550,12173.6833297789
2558914701,14045,-2,0,38373.0951227567,39292.0360899157,28132.5181226322,49032.4477444363,50284.0048719473,37423.7957520244,50603.6502674860,55577.3666916190,56959.2763551942,12172.1380322824
2558914701,14045,-2,0,38383.2916526943,39291.9387483411,28130.8389804707,49031.8880303824,50290.7457759872,37425.0368571003,50604.5506770509,55579.2648523234,56962.9023288474,12169.3759651036
2558914701,14045,-2,0,38370.5520741207,39286.4511170740,28129.5127015169,49028.6514230275,50273.5528203764,37422.4086345866,50602.2388146545,55574.5437859561,56940.3799220282,12169.3029589226
2558914701,14045,-2,0,38374.4457371040,39290.1622646050,28131.0823344071,49030.4765775510,50277.7506757803,37419.5127227427,50603.2243980972,55574.4707797752,56946.8166336475,12165.7864945408
2558942753,14046,-2,0,38397.4791871898,39293.3867042631,28125.1323306607,49027.3373117707,50288.6772675273,37409.0971742623,50600.3284862533,55571.5748679313,56952.4137741861,12162.3187009463
2558942753,14046,-2,0,38377.7431829430,39283.0928327509,28118.8172960096,49019.3553026548,50262.7844086881,37408.6713048735,50592.7966819199,55564.0673989916,56931.3758263792,12163.3651228730
2558942753,14046,-2,0,38355.5249685443,39285.1370058171,28124.1710826117,49023.8816858730,50258.0268392303,37424.4649753496,50594.7921841989,55568.1679128209,56935.9508803846,12173.3913050551
2558942753,14046,-2,0,38378.9112818380,39297.3047026400,28128.5879565584,49027.9456966118,50286.2315604659,37425.4992295796,50597.0797112016,55573.5460348166,56958.5949641721,12179.0614517746
2558942753,14046,-2,0,38388.6819423869,39294.5061323708,28128.3324349251,49022.6405807970,50284.9052815122,37423.4185534229,50592.5533279835,55569.0561546890,56944.7724605813,12178.6112469922
2558942753,14046,-2,0,38371.5741606538,39290.3326123605,28128.2472610474,49018.0290237011,50270.7055793198,37423.8444228117,50589.7425900174,55565.4180133389,56932.5074221837,12179.9131905522
2558942753,14046,-2,0,38376.7697671972,39294.9806725469,28129.1233352186,49022.9082701271,50284.1508843092,37424.0999444449,50591.9692785360,55569.4333532905,56950.1992533643,12176.6400801069
2558942753,14046,-2,0,38379.5683374665,39290.1865999986,28124.2319210958,49019.0511102342,50280.3545629004,37417.2738665273,50587.0170259290,55566.2210813292,56945.7580440239,12173.3426342678
2558975392,14047,-2,0,38358.7129051119,39282.8494788144,28121.9322263963,49015.3399627032,50259.1706027317,37423.0535225182,50582.7096612537,55559.7356989226,56926.7886046770,12174.7784224930
2558975392,14047,-2,0,38371.3186390205,39293.2163565075,28127.5415346316,49025.0254493743,50277.8601850517,37430.4879852770,50592.2126324724,55570.2850920681,56945.1496591828,12174.5959070406
2558975392,14047,-2,0,38396.5422745345,39297.4750503956,28125.0714921766,49026.5342437804,50293.1063091709,37423.4428888165,50594.7313457148,55573.7528856626,56955.2366798490,12172.7464171235
2558975392,14047,-2,0,38374.7377618278,39286.1104215629,28122.1877480295,49019.8298428309,50268.2598722584,37418.8556671143,50592.2248001692,55566.9146400481,56934.8192845801,12176.5549062291
2558975392,14047,-2,0,38354.6123912826,39286.2442662280,28125.7163801082,49021.6428296575,50265.6316497447,37424.3554660782,50594.6218364434,55568.8493038430,56942.2902504294,12180.3633953347
2558975392,14047,-2,0,38375.0419542483,39294.2019399502,28126.7384666413,49022.7987608557,50288.5312551654,37420.8390016964,50595.9602830939,55572.3779359216,56959.7873984608,12175.7031674515
2558975392,14047,-2,0,38377.0009534368,39290.4056185414,28123.5748654674,49016.9582663807,50282.0702081525,37418.9286732952,50588.3554725795,55565.7222057595,56941.0004745662,12170.2398715780
2558975392,14047,-2,0,38368.9216027464,39291.4520404682,28127.8092239617,49023.3828103032,50276.8989370027,37431.5587425974,50593.9647808149,55571.0151538775,56934.1257258612,12173.4399758424
2559020580,14048,-2,0,38384.9829625527,39297.4142119115,28129.5127015169,49031.6811795365,50293.2523215327,37428.4559799076,50600.9612064881,55579.1188399615,56953.0951652082,12167.2344504627
2559020580,14048,-2,0,38385.7616951493,39291.3912019841,28127.2981806952,49031.2309747540,50283.7128472235,37422.7736654912,50600.5596724930,55579.6663863186,56948.2524218726,12164.1681908633
2559020580,14048,-2,0,38362.1563633128,39286.1225892598,28128.9286520695,49029.9898696781,50263.5874766784,37424.7204969829,50602.7255225274,55578.2184303966,56934.0527196803,12167.9280091816
2559020580,14048,-2,0,38374.4822401945,39297.5115534860,28131.7515577324,49033.5063340599,50285.6961818057,37424.4528076528,50607.1910672615,55582.4162858006,56952.3894387924,12168.1591954213
2559020580,14048,-2,0,38396.9924793169,39301.2835395011,28128.6731304362,49030.8294407589,50303.3028391085,37417.6145620383,50604.2099815398,55579.3378585044,56956.0397478393,12166.6990718025
2559020580,14048,-2,0,38375.5408298181,39292.2186053681,28125.9719017415,49023.7843442984,50281.1697985876,37413.1733526979,50597.6515929523,55570.7596322442,56932.8602853916,12170.6049024827
2559020580,14048,-2,0,38359.6984885546,39289.6512213384,28127.8943978395,49026.6802561422,50278.1400420786,37418.4297977255,50599.6349275344,55569.6888749238,56938.3600843556,12173.0141064536
2559020580,14048,-2,0,38377.4511582193,39292.2672761553,28126.4221065239,49028.4080690911,50287.0346284562,37417.7240713097,50601.2532312119,55572.4387744058,56951.1848368070,12171.8581752554
2559036620,14049,-2,0,38377.8283568208,39287.4245328198,28124.6456227878,49025.6703373059,50269.0994433392,37418.8069963270,50598.4059901553,55568.3625959701,56935.0383031229,12174.9731056421
2559036620,14049,-2,0,38369.9923600668,39288.9941657100,28125.8380570764,49027.3981502548,50262.5167193580,37419.0138471730,50600.3041508597,55569.5428625619,56936.7052775877,12175.8978506007
2559036620,14049,-2,0,38383.2308142102,39291.5007112555,28122.2607542105,49025.2809710076,50278.7849300103,37415.2175257642,50598.3694870648,55569.4333532905,56952.1339171591,12170.5927347859
2559036620,14049,-2,0,38379.9698714616,39282.9589880858,28116.4202597355,49019.3187995644,50267.9556798378,37409.4257020765,50590.6916703695,55564.2985852312,56938.4452582333,12173.2331249964
2559036620,14049,-2,0,38352.8480752433,39278.6759588041,28117.3328369972,49016.6662416569,50250.0569978113,37410.2896085509,50587.9296031907,55559.5531834703,56921.3496441971,12176.5670739259
2559036620,14049,-2,0,38366.9504358611,39287.6070482722,28121.2386676773,49018.6374085423,50271.2287902832,37410.7519810302,50588.4041433668,55562.6316107665,56936.4862590448,12170.6049024827
2559036620,14049,-2,0,38393.7558719620,39294.1045983756,28122.1755803327,49019.9515197991,50280.4154013845,37410.1922669763,50586.7980073862,55560.9768039985,56938.2384073873,12167.3682951278
2559036620,14049,-2,0,38375.8815253291,39287.0229988247,28124.2075857021,49018.7590855105,50260.4725462917,37410.1435961890,50585.8489270340,55560.0155559495,56923.8805251363,12172.1745353728
2559069626,14050,-2,0,38363.5069776602,39285.2951858758,28126.1787525875,49021.9470220781,50262.6262286294,37410.2652731573,50588.7083357874,55563.2886663949,56935.1964831816,12169.8018344924
2559069626,14050,-2,0,38379.8603621902,39288.0207499641,28126.6046219763,49025.1592940394,50280.7804322892,37408.9268265067,50591.2757198171,55568.6424529970,56948.5687819900,12166.5043886534
2559069626,14050,-2,0,38375.1879666102,39281.5962060416,28124.9498152083,49019.6229919849,50267.0309348793,37412.4311231917,50588.5501557287,55565.9412243023,56930.1712243937,12172.4665600966
2559069626,14050,-2,0,38372.9491103948,39286.4267816803,28128.4297764997,49024.4413999268,50271.0827779213,37417.2008603463,50593.2590543992,55569.3481794127,56933.4321671423,12179.1344579556
2559069626,14050,-2,0,38392.2227421623,39288.7386440767,28123.3315115309,49023.8695181761,50287.1319700308,37406.8583180468,50592.2126324724,55568.3747636669,56944.7967959749,12172.7829202140
2559069626,14050,-2,0,38380.2497284886,39276.5344441633,28114.8019560580,49015.1817826445,50267.1404441507,37401.5288668384,50583.8412570582,55558.6771092990,56924.2942268283,12170.0330207320
2559069626,14050,-2,0,38353.3347831162,39271.5456884659,28116.7244521560,49015.1331118573,50250.0204947208,37413.3193650598,50583.0260213711,55556.5720977486,56915.9715222014,12172.7099140331
2559069626,14050,-2,0,38372.2798870695,39284.5894594601,28124.4022688513,49018.6130731486,50275.8160119855,37419.5005550459,50588.4163110637,55565.3328394612,56941.6940332851,12174.5959070406
2559105773,14051,-2,0,38394.1574059572,39287.2298496706,28126.9209820937,49018.2723776376,50285.2703124169,37419.8534182537,50587.0900321100,55567.1458262878,56942.7404552118,12177.7838436082
2559105773,14051,-2,0,38373.7765137788,39279.6858776404,28128.7583043139,49014.2083668987,50269.2819587915,37417.7362390065,50584.5591511708,55566.0750689674,56927.9202004815,12180.5945815743
2559105773,14051,-2,0,38363.6529900221,39277.0941582171,28126.0327402256,49014.8045840430,50277.4951541470,37412.3337816172,50584.1819525693,55564.3350883217,56940.2095742727,12175.3016334563
2559105773,14051,-2,0,38374.3727309231,39274.2104140701,28116.9434706989,49011.7748275341,50284.9904553900,37401.9669039240,50580.2396187986,55561.1349840572,56942.4484304881,12171.3227965952
2559105773,14051,-2,0,38363.7016608094,39267.9318825095,28112.3684166934,49010.0591822821,50267.2986242094,37401.8573946526,50576.8204959914,55554.3332415332,56920.8629363242,12173.5859882043
2559105773,14051,-2,0,38363.1662821491,39273.1031536592,28117.1381538480,49013.9285098718,50272.0318582735,37401.9304008335,50579.4000477179,55553.8343659635,56926.7034307992,12175.7031674515
2559105773,14051,-2,0,38380.0307099457,39272.5312719085,28113.5973540725,49007.5161336461,50281.1454631939,37392.8046282163,50572.4401251351,55549.0646288089,56935.4885079054,12168.7797479592
2559105773,14051,-2,0,38362.2658725842,39259.3536562493,28105.9925435582,48997.9036531560,50254.9849150246,37390.4319273359,50563.5333710607,55536.6900811399,56915.7646713554,12169.3637974067
2559141445,14052,-2,0,38336.7502123465,39257.4798309386,28108.0002135340,48999.5706276207,50240.1403249006,37400.7501342417,50565.4071963715,55536.0816962988,56914.7547525191,12172.2962123411
2559141445,14052,-2,0,38359.4429669213,39269.8057078202,28112.1493981506,49007.3944566779,50264.3540415782,37404.5221202568,50571.5762186607,55544.2705562606,56942.4849335786,12168.6580709910
2559141445,14052,-2,0,38380.0307099457,39272.5191042117,28112.7334475981,49006.7617364431,50266.1061899207,37405.9335730883,50570.9069953354,55545.5724998207,56937.8003703017,12167.8184999102
2559141445,14052,-2,0,38366.1352001739,39270.1464033312,28118.2210788653,49005.7518176068,50249.8136438748,37412.5893032504,50570.5784675212,55544.1975500797,56924.2333883441,12170.2277038812
2559141445,14052,-2,0,38365.6241569074,39276.0964070777,28119.5351901221,49007.1511027414,50258.9880872793,37410.7398133334,50571.6613925385,55548.3954054836,56942.9716414515,12166.8572518612
2559141445,14052,-2,0,38373.8008491724,39276.7777980997,28117.2354954226,49008.3557047269,50263.5631412848,37411.5915521110,50571.3937032084,55551.8753667750,56949.5665331295,12167.1127734945
2559141445,14052,-2,0,38359.6133146768,39275.6705376889,28121.1048230123,49009.2561142918,50249.2174267305,37416.8236617448,50572.0142557463,55552.0457145305,56934.9044584579,12173.1114480282
2559141445,14052,-2,0,38364.3952195283,39283.8228945602,28126.0449079224,49014.2083668987,50261.4094589471,37423.8809259021,50577.1368561088,55556.4260853868,56945.3565100288,12174.2795469232
2559160832,14053,-2,0,38390.6531092722,39288.9454949227,28125.9475663478,49015.4008011874,50278.7484269198,37420.8024986059,50578.7308243926,55558.7379477831,56959.7022245830,12172.6490755489
2559160832,14053,-2,0,38378.1447169382,39277.7147107551,28124.0737410371,49011.1177719057,50256.7613987607,37413.7695698423,50574.5938074728,55552.3864100415,56940.1122326981,12172.4178893093
2559160832,14053,-2,0,38352.4952120354,39274.1130724955,28125.4973615654,49011.9208398960,50245.8956454978,37415.1323518864,50576.5893097518,55550.4639139435,56938.8102891380,12169.8018344924
2559160832,14053,-2,0,38371.0022789031,39282.1315847018,28125.5947031400,49016.0456891190,50268.6249031631,37413.8304083264,50579.8259171067,55554.9781294648,56958.5584610817,12167.7576614261
2559160832,14053,-2,0,38383.0482987578,39282.9468203890,28123.3558469245,49012.0790199547,50267.1404441507,37413.9277499010,50578.4996381530,55552.5324224034,56949.1406637407,12170.4710578176
2559160832,14053,-2,0,38370.1383724287,39282.9954911763,28123.8790578879,49012.9307587323,50254.5347102421,37420.3036230362,50578.6091474244,55551.7415221099,56939.7593694902,12174.1943730455
2559160832,14053,-2,0,38376.5264132607,39290.1744323018,28123.6478716483,49015.8753413635,50271.6668273688,37416.7628232607,50582.0404379284,55555.4405019441,56956.5872941963,12169.7774990987
2559160832,14053,-2,0,38376.5994194417,39284.5894594601,28117.4180108749,49010.2173623408,50271.7398335498,37410.8493226048,50574.3626212332,55551.3521558116,56951.7567185576,12165.8716684186
2559190858,14054,-2,0,38352.0693426466,39277.7147107551,28117.9898926256,49009.2926173822,50255.3134428388,37418.4176300286,50573.1093484604,55549.1132995962,56935.4763402085,12170.5075609081
2559190858,14054,-2,0,38359.5646438895,39285.6845521741,28125.1323306607,49014.8045840430,50274.5870746063,37428.7966754186,50578.1589426419,55556.5477623550,56955.0298290030,12171.7973367713
2559190858,14054,-2,0,38387.0393033158,39291.4642081650,28127.0304913651,49016.7514155347,50291.3298254347,37423.3212118483,50577.9399240991,55558.4459230594,56965.0073403978,12172.2718769474
2559190858,14054,-2,0,38372.0730362235,39283.5795406238,28126.3247649493,49010.6797348201,50268.3937169235,37419.8047474664,50574.9710060743,55553.2381488192,56942.2659150357,12175.4476458182
2559190858,14054,-2,0,38356.0116764173,39286.3537754994,28131.0214959230,49017.6274897060,50263.5631412848,37428.7845077218,50578.9863460259,55555.2214834013,56947.5466954569,12177.7108374273
2559190858,14054,-2,0,38376.0762084783,39298.5093046255,28135.4383698697,49022.8595993398,50283.1409654729,37429.9891097073,50584.3279649312,55561.2444933286,56966.5769732880,12176.0681983562
2559190858,14054,-2,0,38381.3204858090,39293.8977475296,28129.7438877566,49017.9925206106,50270.8272562881,37420.3279584298,50579.2296999623,55556.6207685359,56952.1582525528,12176.4332292609
2559190858,14054,-2,0,38369.7368384335,39289.4565381892,28126.3125972525,49016.2160368745,50257.2116035432,37418.5879777842,50577.4167131357,55553.0678010636,56941.8278779501,12176.4332292609
2559222813,14055,-2,0,38382.2087276770,39294.2749461311,28122.5771143279,49017.7856697647,50271.4356411292,37414.2197746247,50577.6844024658,55556.2435699344,56956.9888281915,12172.5639016712
2559222813,14055,-2,0,38379.9698714616,39288.8238179545,28119.1214884302,49011.6288151722,50262.6018932357,37410.9101610889,50572.8173237366,55550.2692307944,56948.2280864790,12170.3615485462
2559222813,14055,-2,0,38351.4852931991,39281.2190074401,28122.0174002740,49008.1123507904,50243.5837831015,37416.2761153878,50570.2986104943,55546.3755678110,56934.6732722182,12173.5859882043
2559222813,14055,-2,0,38358.5060542660,39287.7287252404,28123.2463376531,49008.7085679347,50262.7722409913,37415.2905319451,50573.2066900350,55546.9961203490,56950.4791103912,12172.6734109426
2559222813,14055,-2,0,38381.8558644692,39288.8968241354,28118.8416314032,49005.2772774307,50274.1003667334,37410.6303040620,50571.3572001179,55544.4165686225,56954.9933259125,12173.4643112361
2559222813,14055,-2,0,38365.9648524184,39280.0752439388,28118.2819173494,49000.7022234253,50249.1444205496,37408.0994231228,50568.8506545724,55537.7365030667,56935.6831910545,12176.2872168990
2559222813,14055,-2,0,38351.8989948911,39279.0288220120,28120.3139227188,49003.1479304867,50247.3801045102,37406.8826534405,50571.2355231497,55538.8680988713,56941.0004745662,12173.1844542091
2559222813,14055,-2,0,38366.3907218072,39280.5862872053,28117.9412218383,49001.2862728727,50263.6239797689,37402.7821396112,50568.7289776041,55540.0605331599,56952.8518112717,12164.5453894649
2559289148,14056,-2,0,38363.7381638998,39274.3199233415,28116.9434706989,48995.1415859772,50254.2183501247,37405.6050452741,50561.8055581119,55535.8261746655,56934.0283842866,12166.2488670201
2559289148,14056,-2,0,38361.5358107749,39280.1969209070,28124.6091196973,49001.2619374791,50260.5820555631,37418.9530086888,50567.7555618583,55539.3426390474,56935.8657065069,12171.6634921063
2559289148,14056,-2,0,38386.3822476873,39292.7539840283,28127.9917394141,49008.3313693332,50290.1252234492,37420.0724367966,50572.4887959224,55548.1277161535,56956.9401574042,12170.9821010842
2559289148,14056,-2,0,38386.4187507778,39291.7684005856,28127.7118823872,49007.0902642573,50287.6065102069,37415.6433951530,50571.6613925385,55548.5779209360,56948.7999682297,12172.1015291919
2559289148,14056,-2,0,38358.0436817867,39288.9454949227,28130.6077942310,49009.1952758077,50267.2986242094,37421.5690635058,50574.1557703872,55550.3300692785,56938.9684691967,12176.9564402243
2559289148,14056,-2,0,38370.6615833921,39296.5989762243,28134.3189417620,49016.2282045713,50280.2693890227,37424.6596584988,50580.6046497033,55556.5842654455,56960.1767647591,12174.6445778279
2559289148,14056,-2,0,38396.2989205980,39299.2271987381,28132.9439920210,49016.1430306936,50283.0557915951,37424.0634413545,50582.5028104077,55558.5189292403,56964.5084648281,12175.0582795199
2559289148,14056,-2,0,38376.7332641067,39292.1821022776,28132.0679178498,49012.8090817641,50259.3166150935,37426.0954467239,50579.4243831115,55555.2823218854,56945.3930131192,12180.2417183665
2559296343,14057,-2,0,38363.6894931125,39296.1731068355,28136.1075931950,49014.7559132557,50266.6172331873,37428.8331785091,50580.3734634637,55558.9082955386,56957.1470082502,12180.2417183665
2559296343,14057,-2,0,38373.0586196662,39301.0401855647,28135.9980839236,49014.3665469574,50288.5312551654,37425.8277573938,50580.5681466129,55562.7776231283,56969.7405744619,12177.7595082146
2559296343,14057,-2,0,38364.3708841346,39298.8013293493,28136.9228288821,49011.6288151722,50281.6686741573,37426.1319498144,50578.1589426419,55560.1128975241,56953.2533452669,12182.5292453692
2559296343,14057,-2,0,38364.0666917140,39302.6828246358,28141.0720134987,49015.4373042778,50284.0292073409,37427.8475950664,50583.7317477868,55560.7577854557,56958.2907717516,12184.3178968021
2559296343,14057,-2,0,38391.0424755705,39306.5399845287,28141.1815227702,49018.4913961804,50301.0761505899,37421.0458525424,50587.1265352004,55564.5541068645,56975.4228888783,12175.6301612706
2559296343,14057,-2,0,38386.0537198731,39294.3479523121,28135.0855066619,49012.6509017054,50280.5127429591,37411.8349060474,50581.3347115127,55558.1660660324,56956.9766604947,12172.8194233045
2559296343,14057,-2,0,38356.7417382266,39285.9400738074,28131.9584085784,49010.6188963359,50257.8808268684,37417.9552575494,50580.1422772241,55554.9537940712,56945.8553855985,12175.9708567816
2559296343,14057,-2,0,38374.2267185612,39297.2681995496,28134.5866310921,49018.5765700581,50281.6808418541,37427.2027071348,50585.4473930389,55563.3495048790,56969.7162390683,12179.4021472857
2559317592,14058,-2,0,38398.4039321484,39302.2082844597,28135.0125004809,49016.9947694712,50292.0598872441,37423.2968764546,50584.7416666231,55562.0718967126,56966.6743148626,12180.5215753934
2559317592,14058,-2,0,38380.1888900044,39297.8887520876,28134.7813142413,49011.8356660182,50275.2197948411,37419.1963626253,50579.7529109257,55557.3264949517,56947.9969002393,12182.8699408802
2559317592,14058,-2,0,38371.1726266586,39297.3655411242,28130.7416388961,49009.6819836806,50275.2076271443,37414.6334763167,50578.0616010673,55555.4891727314,56955.1393382744,12175.2164595786
2559317592,14058,-2,0,38377.0131211336,39291.3181958032,28123.1368283817,49005.8613268782,50273.3581372272,37406.6271318072,50575.2751984949,55552.2403976797,56957.0740020693,12168.7675802624
2559317592,14058,-2,0,38361.7669970145,39282.3384355478,28122.3702634819,49001.2132666918,50250.4098610192,37409.1215096559,50572.0629265336,55546.0835430873,56936.2672405020,12169.9965176415
2559317592,14058,-2,0,38362.0103509510,39286.1469246534,28127.2251745142,49006.3967055384,50255.9826661641,37411.5550490205,50577.1368561088,55550.3787400658,56944.0302310751,12170.8482564191
2559317592,14058,-2,0,38385.5183412129,39292.1821022776,28125.1688337512,49005.9465007559,50275.0129439951,37408.0872554260,50577.1855268961,55553.2989873033,56959.2398521037,12169.8748406733
2559317592,14058,-2,0,38376.8914441654,39285.7940614455,28124.9619829052,49000.7387265157,50261.0079249519,37409.4135343797,50573.9854226316,55550.4152431562,56941.3046669867,12176.1290368403
2559372719,14059,-2,0,38347.3847793698,39281.7178830099,28128.0647455950,48999.0717520510,50246.9664028183,37413.0516757297,50572.9755037953,55548.4440762709,56934.5637629468,12179.6576689190
2559372719,14059,-2,0,38362.8012512445,39288.1545946292,28125.7650508955,49001.8094838361,50267.5054750554,37408.9998326877,50575.9444218201,55554.2358999586,56953.0829975113,12178.4530669335
2559372719,14059,-2,0,38376.5507486544,39282.8616465112,28117.5153524495,48996.3705233563,50265.1692772654,37402.6726303397,50570.8704922450,55550.1962246134,56944.9306406400,12176.4332292609
2559372719,14059,-2,0,38362.5457296112,39278.6881265009,28118.7564575255,48996.8572312292,50250.2760163541,37408.3792801497,50571.9412495654,55549.7703552246,56933.0062977535,12178.2340483907
2559372719,14059,-2,0,38368.7634226877,39285.5750429027,28122.9299775357,49003.8171538119,50267.1404441507,37410.3382793382,50574.8858321965,55556.8884578660,56952.3529357020,12173.5981559011
2559372719,14059,-2,0,38379.2884804395,39287.8382345118,28122.2120834232,49006.2993639638,50274.9156024206,37409.3526958955,50576.6866513263,55560.1250652209,56957.3416913994,12171.9555168300
2559372719,14059,-2,0,38362.3875495525,39287.4245328198,28126.8114728223,49008.3070339396,50261.0200926488,37419.3423749872,50578.0372656737,55559.8208728004,56941.4506793486,12178.1488745129
2559372719,14059,-2,0,38368.9094350496,39300.9306762933,28137.9692508089,49016.7270801411,50279.8313519370,37429.1373709296,50587.0048582322,55568.7884653589,56959.8239015512,12181.0934571441
2559381716,14060,-2,0,38398.8663046277,39308.7058345631,28139.7213991514,49016.9460986839,50299.2509960664,37426.4483099318,50590.0102793475,55571.8303895646,56973.9262621690,12178.7815947477
2559381716,14060,-2,0,38386.9419617412,39300.9671793837,28137.2026859091,49013.2957896370,50281.5469971891,37422.7371624008,50585.6907469753,55569.8470549825,56955.8572323870,12179.9131905522
2559381716,14060,-2,0,38359.4794700118,39297.8644166939,28140.5609702322,49014.1840315051,50273.6258265573,37424.3676337751,50588.2216279145,55572.1102465915,56956.1492571107,12179.6820043126
2559381716,14060,-2,0,38379.5561697696,39309.6914180058,28142.1792739096,49022.7014192811,50295.0409729657,37425.2315402495,50593.7335945753,55579.6298832281,56979.2070425902,12178.2705514811
2559381716,14060,-2,0,38393.3178348764,39307.5620710618,28139.1008466134,49021.7401712321,50288.5555905591,37420.7294924250,50591.7624276900,55576.1499219368,56968.2804508432,12175.4354781214
2559381716,14060,-2,0,38383.0604664547,39304.9460162449,28138.3707848041,49021.9713574718,50275.3049687189,37425.5600680637,50592.3586448343,55573.6677117849,56957.6580515168,12178.7207562636
2559381716,14060,-2,0,38394.5711076492,39308.5476545044,28138.7601511024,49026.0962066947,50290.2347327206,37430.4879852770,50594.8408549862,55577.7925610078,56975.7149136020,12181.4706557456
2559381716,14060,-2,0,38399.0488200800,39306.3696367731,28139.2346912785,49021.7523389289,50288.6650998305,37424.0634413545,50592.0666201105,55575.1156677068,56973.7924175040,12186.1552190224
2559415759,14061,-2,0,38372.3893963409,39299.0203478921,28141.6925660367,49017.3354649822,50266.2522022826,37425.3897203082,50589.0855343889,55570.4432721268,56956.1857602012,12189.4161617710
2559415759,14061,-2,0,38373.1437935440,39303.7049111689,28143.2987020173,49020.3652214911,50280.1112089640,37425.8399250906,50592.4803218025,55573.9840719023,56967.9397553321,12185.1574678829
2559415759,14061,-2,0,38397.1749947693,39304.0212712863,28137.2391889995,49016.7270801411,50292.2910734837,37419.7074058919,50589.2315467508,55572.9011468850,56971.5657289854,12181.2029664155
2559415759,14061,-2,0,38383.5228389339,39291.1113449572,28131.9340731847,49010.8257471819,50268.1990337743,37420.0967721902,50583.5979031218,55565.5396903071,56948.7878005328,12186.3012313843
2559415759,14061,-2,0,38363.4948099634,39284.9666580616,28130.4252787787,49010.9960949375,50257.4792928733,37422.5059761611,50582.7826674346,55565.0894855247,56950.4791103912,12185.0601263083
2559415759,14061,-2,0,38378.3028969969,39289.4930412797,28130.1454217517,49012.0668522579,50272.8105908702,37418.0404314271,50583.7925862709,55567.0363170164,56971.1520272934,12178.5990792954
2559415759,14061,-2,0,38383.5106712371,39285.2586827853,28128.9529874631,49007.3457858906,50263.0034272309,37413.4897128153,50579.7042401384,55559.3098295338,56954.9203197316,12179.4873211634
2559415759,14061,-2,0,38372.9491103948,39285.5628752059,28131.3013529499,49006.7495687463,50257.1751004527,37414.8281594659,50579.0471845100,55556.9371286533,56949.2136699216,12183.2593071785
2559433498,14062,-2,0,38385.8590367239,39292.4011208204,28131.2283467690,49009.5481390155,50278.4929052865,37411.4090366586,50581.9674317475,55560.1859037051,56965.3480359089,12182.0668728899
2559433498,14062,-2,0,38381.1014672662,39284.6624656410,28123.8060517070,49003.8658245992,50270.8394239849,37404.9479896456,50576.2972850280,55557.4846750104,56957.7675607882,12180.8744386012
2559433498,14062,-2,0,38347.8836549395,39275.3420098746,28122.0660710613,49002.6733903106,50246.2485087057,37409.8880745558,50576.3459558153,55552.8122794303,56939.8688787616,12183.0402886357
2559433498,14062,-2,0,38356.8999182853,39283.4213605651,28128.5879565584,49008.7450710252,50262.2246946342,37419.5857289236,50582.2229533808,55561.1714871477,56958.7409765340,12185.9727035701
2559433498,14062,-2,0,38387.2826572522,39289.6877244289,28130.4617818691,49008.8302449030,50276.2540490711,37421.4108834471,50581.2495376349,55563.8848835392,56966.8081595276,12186.3864052620
2559433498,14062,-2,0,38376.0883761751,39283.5673729269,28131.0214959230,49006.3602024479,50256.9804173035,37419.0503502634,50578.9985137227,55557.9348797928,56948.0334033298,12188.1628889982
2559433498,14062,-2,0,38363.0567728777,39284.0662484967,28132.4694518449,49010.5337224582,50258.4162055287,37416.6411462925,50580.7506620652,55560.6969469716,56954.1659225286,12185.1818032766
2559433498,14062,-2,0,38372.2312162822,39287.0351665215,28129.9264032089,49010.0105114948,50274.1855406112,37411.5793844141,50580.1787803145,55562.4247599205,56963.9852538647,12182.0547051931
2559492762,14063,-2,0,38366.4272248977,39285.7210552646,28129.0016582504,49007.7594875826,50266.3982146445,37414.1467684438,50577.9155887055,55560.9768039985,56948.3132603567,12186.5689207144
2559492762,14063,-2,0,38358.6033958405,39288.7386440767,28132.3356071799,49011.5436412945,50265.2787865368,37421.3987157503,50582.4298042268,55562.4977661014,56948.3740988409,12188.9902923821
2559492762,14063,-2,0,38380.6512624837,39299.0325155889,28134.3067740652,49016.5810677792,50290.1008880556,37423.0413548214,50587.9904416749,55568.3869313637,56969.3268727700,12185.2061386702
2559492762,14063,-2,0,38380.7486040583,39294.4696292803,28132.5059549354,49014.2935407765,50283.2991455316,37419.8899213442,50588.3311371859,55567.3648448306,56959.3980321624,12184.9019462496
2559492762,14063,-2,0,38352.0815103434,39288.0450853578,28133.4550352876,49012.5170570403,50260.7280679250,37418.4297977255,50588.3311371859,55564.4567652899,56945.7823794176,12185.7536850272
2559492762,14063,-2,0,38362.9715990000,39296.2461130165,28136.9836673662,49014.6707393780,50279.5149918196,37420.5348092758,50589.9616085602,55568.5572791192,56965.3967066962,12183.4904934182
2559492762,14063,-2,0,38388.4385884504,39300.5048069045,28134.7569788476,49012.8820879450,50288.7016029209,37415.6190597594,50586.7006658116,55565.8317150309,56965.5427190580,12182.3345622200
2559492762,14063,-2,0,38377.9256983954,39296.0879329578,28133.4428675908,49010.7040702137,50270.1458652660,37418.8434994174,50584.8268405009,55561.2809964191,56949.2623407089,12187.7856903967
2559505420,14064,3,0,38369.9558569763,39295.1145172119,28133.2481844416,49011.2029457835,50272.4455599655,37418.5514746937,50586.1044486673,55562.7411200379,56957.7675607882,12186.4715791398
2559505420,14064,3,0,38380.1037161267,39293.9950891042,28130.2792664168,49008.3070339396,50283.5911702553,37412.8204894901,50582.9165120997,55565.0651501310,56968.8158295034,12182.0060344058
2559505420,14064,3,0,38366.7922558024,39287.3515266389,28128.9408197663,49003.5737998755,50267.5541458427,37412.7839863996,50580.3856311605,55560.9768039985,56949.9437317310,12186.9217839222
2559505420,14064,3,0,38357.3379553710,39289.5903828543,28132.5789611163,49004.6567248927,50266.5928977937,37415.6312274562,50580.9575129112,55561.4026733873,56952.4381095797,12189.4404971646
2559505420,14064,3,0,38375.9301961164,39291.8900775538,28128.9286520695,49003.3912844231,50285.3311509010,37410.8128195143,50581.4563884809,55561.8285427762,56967.5138859433,12185.1087970956
2559505420,14064,3,0,38372.7544272456,39282.8616465112,28123.0638222008,48998.5728764812,50269.5983189089,37407.9412430641,50575.3968754631,55556.1462283598,56955.5408722696,12185.6076726654
2559505420,14064,3,0,38344.9025692179,39278.2500894153,28125.5825354431,48999.5827953175,50251.9429908188,37410.2652731573,50575.3238692822,55554.2602353523,56948.5566142932,12187.5423364602
2559505420,14064,3,0,38356.4375458061,39286.5971294359,28127.1400006365,49004.9974204037,50271.0584425277,37408.2089323942,50580.7263266716,55559.1759848687,56966.7473210435,12185.2791448512
2559536331,14065,3,0,38377.5119967034,39288.4222839593,28125.0471567829,49002.9775827311,50276.9597754868,37401.3706867797,50578.4509673657,55557.5941842818,56960.4931248765,12182.9064439707
2559536331,14065,3,0,38367.1937897975,39283.5552052301,28125.2783430226,49003.6711414500,50261.3607881598,37397.7933839137,50579.0836876005,55554.6496016506,56940.1244003949,12184.5004122545
2559536331,14065,3,0,38367.6318268832,39284.9788257584,28124.7916351496,49005.2286066434,50265.4491342923,37394.6419504366,50581.2495376349,55557.2048179834,56949.6882100977,12179.9375259459
2559536331,14065,3,0,38374.8594387960,39281.4988644670,28117.6126940241,48997.5994607354,50267.7853320823,37389.1299837758,50575.5550555218,55552.1187207114,56951.0266567483,12175.0217764294
2559536331,14065,3,0,38351.0350884167,39270.4992665391,28112.9037953536,48986.8675521376,50245.8469747105,37390.9551382993,50566.0399166063,55542.9321096101,56927.0076232198,12178.4652346303
2559536331,14065,3,0,38345.0485815798,39274.8187989112,28115.6050240483,48988.6927066610,50250.6288795620,37397.5987007646,50566.6239660538,55541.8491845929,56931.7530249807,12177.7351728209
2559536331,14065,3,0,38374.5917494659,39281.8760630686,28116.5297690069,48991.0289044510,50271.7885043371,37399.6063707404,50565.7722272762,55545.7063444857,56949.8342224596,12174.4377269819
2559536331,14065,3,0,38371.6106637443,39276.3884318014,28117.2963339067,48989.8608055560,50256.7735664576,37399.9714016451,50562.3166013785,55542.1412093166,56937.5691840621,12178.5504085081
2559570796,14066,3,0,38344.4766998291,39273.4803522607,28121.6888724598,48993.6327915711,50246.0538255565,37402.9403196699,50565.1395070414,55543.5404944513,56934.0405519834,12181.4706557456
2559570796,14066,3,0,38355.1842730333,39281.4623613766,28122.9056421421,48999.4246152588,50264.5365570306,37400.0444078260,50568.5342944550,55551.1818080561,56951.9027309195,12175.8005090261
2559570796,14066,3,0,38372.4502348250,39283.1293358413,28122.0417356677,48999.0474166573,50269.1967849138,37401.1881713273,50569.0088346311,55553.5788443302,56946.5854474079,12174.3525531041
2559570796,14066,3,0,38363.8598408680,39283.8959007412,28127.2860129984,48999.6558014985,50257.1872681495,37405.9700761788,50573.7907394825,55554.9172909807,56933.5173410200,12177.8568497892
2559570796,14066,3,0,38372.4745702187,39292.8148225124,28131.4230299182,49005.1677681593,50274.5627392127,37406.0674177534,50580.7506620652,55563.4468464536,56951.1726691101,12177.1389556766
2559570796,14066,3,0,38383.4620004498,39292.0482576125,28128.0404102014,49002.3691978900,50277.5681603280,37402.6604626429,50579.5582277766,55562.7532877347,56952.4867803670,12173.8536775344
2559570796,14066,3,0,38362.7647481540,39281.6448768289,28126.0084048319,48999.0109135669,50253.3179405598,37404.5464556505,50577.6235639817,55555.2944895822,56933.1158070249,12175.1312857008
2559570796,14066,3,0,38364.4195549219,39287.5218743944,28129.8777324216,49004.8270726482,50260.1683538712,37408.9146588099,50582.3933011363,55557.5211781008,56943.8842187132,12176.4940677450
2559608005,14067,3,0,38393.8045427493,39293.0460087520,28129.0016582504,49006.2750285702,50279.6488364847,37404.8019772838,50584.2671264470,55558.9326309323,56957.3173560057,12174.4377269819
2559608005,14067,3,0,38386.0780552667,39285.3316889663,28125.2175045385,49001.6878068679,50263.3319550451,37398.6816257818,50581.2738730286,55554.5400923792,56936.5470975290,12176.6644155005
2559608005,14067,3,0,38360.1000225498,39283.8228945602,28128.4054411061,49002.9410796407,50255.6176352594,37408.5374602084,50586.3721379974,55558.1660660324,56937.8612087858,12179.4994888603
2559608005,14067,3,0,38374.6039171627,39290.5151278128,28132.2869363926,49007.0902642573,50275.2441302348,37410.3747824287,50590.8863535187,55565.4666841262,56960.1280939718,12177.7230051241
2559608005,14067,3,0,38381.9897091342,39287.9112406927,28130.5226203533,49005.7031468195,50272.2265414227,37405.3738590344,50586.0436101832,55563.5320203314,56953.8617301080,12177.1146202830
2559608005,14067,3,0,38368.9946089273,39286.5484586486,28132.5546257227,49005.1556004624,50262.6992348103,37410.4842917001,50587.4793984083,55560.6604438811,56944.5291066448,12177.1389556766
2559608005,14067,3,0,38380.8702810265,39295.7472374467,28134.3554448525,49012.7604109768,50282.0337050620,37416.3612892656,50591.8110984773,55567.4986894956,56966.4917994102,12178.7937624445
2559608005,14067,3,0,38389.2416564407,39296.5381377402,28134.6109664858,49010.9595918470,50284.7105983630,37414.1954392311,50590.0589501348,55568.5937822097,56967.3800412783,12184.5612507386
2559626880,14068,3,0,38363.0689405746,39288.8968241354,28134.8664881190,49007.7351521889,50261.8353283359,37413.6113897836,50586.9683551417,55563.7997096615,56947.0599875840,12189.8176957661
2559626880,14068,3,0,38364.9792689758,39297.5237211829,28140.3541193862,49011.6896536564,50272.8592616575,37413.5992220867,50588.3068017922,55564.8461315882,56958.8139827149,12187.5788395507
2559626880,14068,3,0,38394.6197784364,39301.0036824742,28136.0224193172,49010.3390393090,50286.4505790087,37401.9547362272,50584.7781697136,55561.6460273238,56965.7252345104,12182.5292453692
2559626880,14068,3,0,38385.3114903669,39291.5128789523,28129.8047262407,49003.5981352691,50262.5532224484,37391.3080015071,50576.7109867200,55553.4693350588,56940.8909652947,12181.7626804693
2559626880,14068,3,0,38364.8940950980,39289.3105258274,28128.0039071109,49003.7319799342,50255.6176352594,37393.6563669939,50577.8304148277,55555.2214834013,56940.7692883265,12180.7527616330
2559626880,14068,3,0,38378.3272323905,39294.7616540041,28128.5514534679,49007.2849474065,50275.0251116920,37395.1408260063,50582.3933011363,55561.5973565365,56958.8991565927,12177.7595082146
2559626880,14068,3,0,38378.0960461509,39289.1766811623,28126.3977711303,49001.5661298997,50263.0886011087,37396.1872479331,50579.0593522068,55558.1417306388,56944.7846282781,12176.8104278624
2559626880,14068,3,0,38368.1307024529,39288.3979485657,28131.6663838546,49003.0019181248,50254.6685549072,37405.7388899391,50582.8070028283,55560.1250652209,56939.7715371870,12180.8257678140
2559662844,14069,3,0,38388.3655822695,39295.3213680579,28133.4550352876,49007.4674628588,50276.2297136774,37401.5897053225,50587.9904416749,55566.5617768403,56960.5904664511,12178.9276071096
2559662844,14069,3,0,38394.1939090476,39289.7850660035,28127.5537023285,49005.0825942815,50272.2387091195,37390.0425610375,50585.4473930389,55563.4590141504,56954.3727733746,12175.2529626690
2559662844,14069,3,0,38363.6286546284,39280.8661442322,28124.9498152083,49000.8725711808,50248.4873649211,37390.5414366073,50582.1012764125,55557.5211781008,56934.9774646388,12175.7883413293
2559662844,14069,3,0,38366.1960386581,39288.9941657100,28127.4685284507,49005.6301406385,50264.9502587226,37398.4261041485,50585.0336913469,55560.7942885462,56952.3894387924,12176.7739247719
2559662844,14069,3,0,38392.6486115511,39295.5525542975,28129.3666891551,49006.4818794161,50285.8543618644,37398.7181288723,50586.6641627212,55562.5342691919,56960.8946588717,12181.8235189534
2559662844,14069,3,0,38382.7319386404,39291.5980528301,28131.5082037959,49004.0726754452,50273.0661125035,37401.0178235718,50585.6907469753,55559.1881525656,56942.5579397595,12190.3409067295
2559662844,14069,3,0,38369.0797828051,39293.5083812313,28133.5280414685,49004.1578493230,50273.5893234669,37401.5775376257,50587.4063922274,55559.8817112845,56946.8531367380,12191.2169809007
2559662844,14069,3,0,38376.3925685957,39292.1455991871,28129.1355029154,49002.7220610979,50284.7349337567,37392.5126034926,50585.8002562467,55563.1913248203,56956.8428158296,12187.5666718539
2559692666,14070,3,0,38365.0157720662,39280.7931380513,28122.0782387581,48992.7932204903,50265.4004635050,37387.8402079126,50577.5505578008,55554.4184154110,56934.4055828881,12184.0258720784
2559692666,14070,3,0,38355.6223101189,39281.1581689560,28123.9885671593,48994.5088657424,50259.4991305459,37393.7293731749,50578.3779611847,55554.5157569856,56931.5340064379,12182.5779161565
2559692666,14070,3,0,38377.8161891240,39287.0351665215,28122.9178098389,48998.2200132734,50279.8556873307,37391.5026846563,50580.5316435224,55556.9979671374,56950.4547749976,12176.8712663465
2559692666,14070,3,0,38379.4344928014,39281.0364919878,28116.9069676084,48993.0000713363,50267.9191767474,37385.3214946702,50576.3702912089,55551.3034850243,56939.3943385855,12176.6522478037
2559692666,14070,3,0,38349.3194431646,39272.9206382069,28116.8339614274,48991.8563078350,50241.4544361575,37389.5193500741,50572.8538268271,55547.1786358013,56925.1337979090,12178.3070545716
2559692666,14070,3,0,38355.9386702363,39279.5398652786,28119.8028794522,48997.0640820752,50258.1241808049,37390.0425610375,50574.7519875315,55551.3156527211,56942.5579397595,12176.0073598721
2559692666,14070,3,0,38380.6999332710,39283.7377206825,28118.7686252223,48996.0054924516,50269.9268467232,37384.7131098291,50572.9755037953,55552.2282299828,56946.1960811095,12174.0361929868
2559692666,14070,3,0,38371.1969620523,39279.8318900023,28120.0827364792,48995.5796230628,50253.3666113471,37387.8158725189,50572.4036220447,55548.9551195375,56928.7232684718,12179.2561349238
2559728833,14071,3,0,38364.4560580124,39282.2897647605,28123.5870331642,48998.7432242368,50259.1949381253,37391.4418461722,50575.2021923139,55551.9605406527,56936.7052775877,12180.6919231489
2559728833,14071,3,0,38375.9545315101,39284.6502979442,28122.0295679708,48996.4800326277,50271.5938211879,37392.3179203434,50574.2166088713,55554.1993968682,56947.2181676427,12182.5535807628
2559728833,14071,3,0,38359.7471593419,39277.5686983932,28121.4090154329,48990.7247120304,50253.8776546137,37396.2602541141,50568.8506545724,55546.9839526522,56928.5772561099,12187.8951996681
2559728833,14071,3,0,38356.0968502950,39284.0662484967,28130.5712911405,48994.9955736153,50260.1196830839,37405.9700761788,50572.8416591303,55550.7194355768,56934.1743966485,12192.8352845782
2559728833,14071,3,0,38384.0095468068,39290.3691154510,28130.4374464755,48996.3948587499,50282.1310466366,37392.7924605195,50571.7587341130,55551.8753667750,56951.5863708021,12186.6054238049
2559728833,14071,3,0,38381.9288706501,39279.3938529167,28122.5041081469,48988.1208249103,50267.4081334808,37379.6513479507,50565.2003455255,55545.0857919478,56933.7971980470,12181.7383450757
2559728833,14071,3,0,38348.2000150569,39267.5181808175,28117.5031847527,48982.5723551591,50240.4566850180,37378.8361122636,50560.1750867376,55539.2452974728,56917.5533227883,12179.3048057111
2559728833,14071,3,0,38357.1311045250,39273.2369983243,28117.2476631194,48985.3344223379,50255.4837905943,37383.1434769389,50564.7988115303,55545.2804750969,56936.1090604433,12179.2926380143
2559760280,14072,3,0,38382.1235537993,39276.6682888283,28117.3571723908,48985.8576333013,50259.9736707220,37381.5981794424,50564.9813269827,55545.5724998207,56932.5074221837,12183.7338473546
2559760280,14072,3,0,38370.8197634508,39270.4505957518,28114.6316083025,48984.5678574380,50238.8992198246,37382.0362165280,50564.4337806256,55540.7175887883,56913.9638522256,12187.0434608905
2559760280,14072,3,0,38369.1284535924,39272.9449736005,28112.7334475981,48987.6827878247,50244.8857266615,37383.7883648705,50565.4802025524,55542.7252587641,56924.8417731853,12183.5026611150
2559760280,14072,3,0,38379.3858220141,39273.5046876544,28112.3075782093,48988.3276757563,50254.3400270930,37381.2209808409,50565.2733517064,55543.0294511847,56933.3591609614,12180.3025568506
2559760280,14072,3,0,38358.8710851706,39265.2063184211,28113.5000124980,48983.5944416922,50235.4922647142,37382.9852968802,50564.0565820241,55538.3083848174,56915.4361435412,12183.9041951102
2559760280,14072,3,0,38355.3302853952,39272.1297379134,28119.8758856332,48988.7413774483,50243.8514724316,37391.4175107785,50568.9966669342,55540.6567503042,56923.1869664174,12188.1385536045
2559760280,14072,3,0,38389.1686502598,39283.6647145015,28122.4676050565,48994.2533441091,50272.1657029386,37390.8821321183,50572.9146653112,55549.2714796549,56944.9914791241,12187.4814979761
2559760280,14072,3,0,38386.0293844795,39277.1063259140,28117.1503215448,48989.3254268958,50258.2945285604,37381.6225148361,50565.7965626698,55544.3557301384,56928.1513867211,12184.1232136530
2559783750,14073,3,0,38357.7638247598,39270.5357696296,28116.7487875497,48986.6607012916,50236.1006495554,37381.9997134376,50563.6307126353,55541.0947873899,56919.5001542800,12182.5657484596
2559783750,14073,3,0,38367.1451190102,39272.7259550577,28114.6316083025,48988.9117252038,50249.1565882464,37377.5828394908,50566.1615935745,55544.6720902558,56937.9463826636,12180.3633953347
2559783750,14073,3,0,38379.3249835300,39269.7205339424,28110.1052250844,48984.2758327143,50250.7992273175,37375.7211818769,50563.6793834226,55543.1754635466,56928.9301193178,12181.5923327138
2559783750,14073,3,0,38369.8341800081,39271.1806575612,28114.4004220629,48987.7192909152,50243.3769322555,37384.3480789244,50566.6848045379,55544.6842579526,56918.5997447151,12187.5910072475
2559783750,14073,3,0,38377.0617919209,39283.5308698365,28120.8979721663,48994.7278842852,50265.4613019891,37383.5328432373,50573.0363422795,55551.2061434497,56936.1942343211,12187.4571625825
2559783750,14073,3,0,38383.4133296625,39282.2897647605,28116.9313030020,48991.3817676589,50271.1801194959,37378.5805906303,50570.6514737022,55549.1984734739,56939.0779784681,12184.5247476481
2559783750,14073,3,0,38356.8147444076,39273.9183893463,28117.1746569385,48988.5953650864,50245.7618008328,37385.3823331543,50567.3296924695,55546.2538908428,56920.6439177814,12187.2868148269
2559783750,14073,3,0,38355.4154592729,39281.5597029512,28124.9254798147,48993.6084561775,50250.2151778700,37390.9673059961,50571.3206970274,55550.4274108531,56934.2108997390,12189.6473480106
2559848791,14074,3,0,38385.5305089097,39287.4975390008,28124.6942935751,48994.3141825932,50262.8330794754,37384.6157682545,50572.3306158637,55552.9217887018,56945.5633608748,12189.3066524995
2559848791,14074,3,0,38383.6080128117,39281.0486596846,28124.5969520005,48990.5786996686,50245.5671176836,37379.5296709825,50568.7046422105,55550.1475538261,56926.0342074739,12191.2291485976
2559848791,14074,3,0,38361.8156678018,39280.3064301784,28124.6699581814,48992.3916864952,50238.5341889200,37382.5229244010,50574.8006583188,55552.1917268924,56920.5587439036,12190.6450991501
2559848791,14074,3,0,38373.3141412995,39287.2906881548,28124.1345795212,48999.7896461635,50260.5455524727,37381.8171979852,50580.9453452144,55557.1561471961,56939.3456677982,12182.9186116675
2559848791,14074,3,0,38381.7828582882,39286.4024462867,28119.2066623079,48999.1204228383,50256.9925850004,37381.5130055647,50578.8403336640,55554.6982724379,56927.9323681783,12179.5238242539
2559848791,14074,3,0,38373.3749797836,39285.3925274504,28122.5162758438,49000.6657203348,50245.4454407154,37392.5126034926,50579.3757123242,55551.9118698654,56918.5754093215,12183.0402886357
2559848791,14074,3,0,38390.6044384849,39293.6178905027,28127.6632115999,49005.8734945750,50261.8474960327,37396.0412355712,50584.4618095962,55557.9592151864,56939.5890217347,12182.4562391882
2559848791,14074,3,0,38396.3475913853,39289.5417120670,28124.3535980640,49002.6003841296,50259.4747951522,37390.7847905437,50581.6510716301,55557.0709733184,56941.5845240137,12180.2903891537
2559854526,14075,3,0,38363.1297790587,39278.1770832344,28122.6622882056,48997.3926098894,50231.1362292516,37388.7527851743,50579.7772463194,55553.3476580906,56923.6615065935,12180.6310846648
2559854526,14075,3,0,38361.4141338066,39285.8062291424,28124.5604489100,49004.1091785357,50243.2309198936,37394.0944040796,50584.6199896549,55560.8307916367,56937.8612087858,12179.7915135840
2559854526,14075,3,0,38391.8698789545,39295.7959082340,28123.7817163133,49007.0415934700,50267.4446365713,37393.3278391797,50585.0701944374,55565.3085040675,56949.1284960439,12178.4408992367
2559854526,14075,3,0,38390.0933952183,39293.8734121360,28123.6965424356,49004.9730850101,50258.2945285604,37391.4661815658,50584.1454494788,55562.5951076760,56934.0648873771,12183.7946858388
2559854526,14075,3,0,38377.9622014858,39295.4065419357,28128.5149503775,49006.9929226827,50259.9858384188,37393.7050377812,50586.0071070927,55564.2985852312,56938.2505750842,12185.4859956971
2559854526,14075,3,0,38389.0591409884,39298.1929445081,28128.2107579569,49006.1776869956,50276.1202044060,37386.5747674430,50584.7660020168,55565.8317150309,56952.6327927289,12182.0303697994
2559854526,14075,3,0,38384.8856209781,39292.3767854268,28125.1444983575,49000.0451677968,50266.6780716714,37387.8158725189,50579.4487185051,55562.2422444681,56939.3943385855,12183.5634995991
2559854526,14075,3,0,38375.9180284196,39292.3646177299,28129.6100430915,49002.6733903106,50262.2733654215,37397.0146513171,50583.4275553663,55564.1769082630,56933.9797134993,12185.5103310908
2559907278,14076,3,0,38396.8708023487,39300.2127821807,28131.9949116688,49007.0172580764,50285.8908649549,37398.5234457231,50587.0048582322,55570.6744583664,56954.9568228221,12183.4539903277
2559907278,14076,3,0,38408.1137542131,39297.7184043320,28131.8002285197,49005.7518176068,50286.6939329452,37390.4197596390,50585.8610947308,55572.0007373201,56950.5521165722,12186.9096162254
2559907278,14076,3,0,38373.5574952359,39285.7575583551,28129.4153599424,48997.8671500655,50259.5964721205,37387.6820278539,50579.9354263781,55565.3693425516,56929.9643735477,12190.1218881867
2559907278,14076,3,0,38367.4736468245,39289.0671718909,28128.1134163823,48997.6846346132,50269.5618158185,37388.3755865728,50577.0638499279,55565.0651501310,56941.4993501359,12189.6351803138
2559907278,14076,3,0,38388.8157870519,39291.6588913142,28127.9065655363,48995.2145921581,50282.6177545095,37386.8059536826,50574.3747889300,55564.4567652899,56947.8630555743,12186.6540945921
2559907278,14076,3,0,38376.7210964099,39284.3217701300,28125.5095292622,48990.7977182114,50264.3053707909,37384.0925572911,50571.7709018099,55557.5333457977,56928.1757221148,12190.7667761183
2559907278,14076,3,0,38364.0545240172,39283.3605220810,28126.0084048319,48994.6305427106,50258.9029134016,37383.0461353643,50574.3504535363,55556.0853898757,56933.3226578709,12190.6572668469
2559907278,14076,3,0,38376.5994194417,39284.0175777094,28122.6257851152,48997.9766593369,50268.6979093440,37380.4787513347,50575.4333785536,55558.0565567610,56946.9018075253,12186.6662622890
2559918782,14077,3,0,38369.2866336511,39276.4492702855,28119.3526746698,48993.7057977521,50251.1642582222,37385.1511469147,50571.4180386020,55551.8266959877,56931.5218387411,12185.4373249098
2559918782,14077,3,0,38362.2902079779,39281.5962060416,28124.9619829052,48998.5972118749,50249.4972837574,37399.1318305643,50576.5893097518,55557.2169856803,56936.2672405020,12186.3620698684
2559918782,14077,3,0,38387.7571974283,39291.4520404682,28128.6487950425,49001.6878068679,50269.9633498136,37399.4360229848,50578.9620106322,55561.5121826587,56959.8482369449,12184.4395737704
2559918782,14077,3,0,38391.9672205290,39287.4123651230,28125.8258893796,48997.3074360116,50260.8862479837,37394.2282487446,50574.9101675902,55556.1583960567,56952.4624449734,12187.0434608905
2559918782,14077,3,0,38359.1996129849,39277.8972262075,28124.4022688513,48991.6981277763,50231.7446140928,37392.8532990036,50572.8416591303,55548.3589023931,56937.6543579398,12184.9749524306
2559918782,14077,3,0,38359.8688363101,39283.1901743254,28123.9277286752,48995.6526292437,50241.4787715511,37390.9308029056,50574.2652796586,55549.3323181390,56955.5530399664,12180.1078737014
2559918782,14077,3,0,38378.5462509333,39285.1491735139,28121.6767047630,48992.4403572825,50249.8501469653,37388.8136236584,50573.6568948174,55545.8888599381,56957.4633683676,12179.9740290363
2559918782,14077,3,0,38369.5543229812,39280.2455916943,28123.3923500150,48990.4448550035,50233.1560669242,37387.2561584651,50571.0043369100,55542.0560354389,56939.8080402775,12187.9560381522
2559973934,14078,3,0,38365.3321321836,39281.1094981687,28122.4189342692,48993.1704190918,50234.2633273351,37383.2408185135,50571.8317402940,55540.5229056392,56947.8265524838,12188.4792491156
2559973934,14078,3,0,38374.3970663167,39279.4425237040,28115.3616701119,48990.1406625829,50239.6657847245,37374.5895860724,50567.6095494964,55539.2087943823,56953.4236930224,12182.6265869438
2559973934,14078,3,0,38355.2816146079,39269.4528446123,28112.3319136030,48983.1685723034,50216.6566700323,37375.5508341214,50558.7879692998,55531.6891577457,56932.5560929710,12183.7825181419
2559973934,14078,3,0,38345.4501155749,39272.2392471848,28118.7077867382,48983.5579386017,50217.2163840862,37385.8933764209,50561.5135333881,55532.9545982153,56935.4276694212,12187.8830319713
2559973934,14078,3,0,38376.1005438719,39284.0540807999,28123.6478716483,48988.9238929006,50248.4021910434,37392.3300880402,50565.8939042444,55539.6589991647,56957.8283992723,12189.3918263773
2559973934,14078,3,0,38381.8558644692,39282.1680877923,28124.9254798147,48985.7237886362,50245.5062791995,37389.3611700155,50563.7402219067,55536.5805718685,56946.8044659507,12192.3364090085
2559973934,14078,3,0,38353.2496092384,39276.0842393808,28121.4455185233,48983.5214355113,50226.0866350701,37386.9276306509,50561.8298935055,55532.1880333155,56931.8260311617,12191.1439747198
2559973934,14078,3,0,38359.1022714103,39283.2875159000,28120.3017550220,48988.0599864262,50240.4323496243,37384.9686314624,50563.2048432465,55535.7410007878,56951.2700106847,12187.4206594920
2559980749,14079,3,0,38373.1194581503,39279.6493745500,28113.0254723219,48980.2604927627,50240.0551510228,37378.0695473638,50554.3224245658,55528.0145133052,56945.4295162097,12184.0988782593
2559980749,14079,3,0,38361.4749722908,39273.5411907448,28113.9137141899,48977.8269533981,50221.5480841551,37382.9366260929,50553.0813194898,55523.9870056568,56929.3681564034,12186.6662622890
2559980749,14079,3,0,38367.3032990689,39277.9824000852,28119.1458238238,48983.7647894477,50232.9978868655,37386.5139289589,50556.9263116859,55529.0000967478,56945.2104976669,12184.0745428657
2559980749,14079,3,0,38381.2596473249,39279.2478405548,28116.7244521560,48985.3100869442,50243.9609817030,37380.3935774569,50559.4206895346,55532.0785240441,56954.0685809540,12183.1984686944
2559980749,14079,3,0,38358.1166879676,39270.4627634486,28112.1859012411,48982.2924981321,50221.5845872456,37377.8991996082,50555.9163928496,55530.1195248556,56934.9409615483,12187.8221934871
2559980749,14079,3,0,38350.7673990866,39275.2446683001,28114.8141237548,48987.5367754628,50227.1573923905,37386.8059536826,50559.7127142583,55534.7675850419,56941.4993501359,12191.4359994436
2559980749,14079,3,0,38382.7441063373,39285.3681920567,28115.5685209579,48990.3596811257,50253.5977975868,37389.2273253504,50564.1174205082,55540.8636011502,56960.2619386369,12190.7181053310
2559980749,14079,3,0,38386.2484030223,39280.2699270879,28111.6383548840,48985.3709254283,50241.3814299765,37385.7230286654,50558.8123046934,55536.5440687781,56944.6629513099,12188.6009260838
2559998727,14080,3,0,38359.7836624324,39274.9404758795,28114.4734282438,48983.8377956286,50224.7116853291,37386.7451151985,50558.4229383951,55533.5386476628,56932.4100806092,12188.4184106315
2559998727,14080,3,0,38365.1009459440,39281.6327091321,28117.2719985131,48989.0820729593,50241.9289763336,37388.6189405093,50560.7591361851,55536.2277086607,56952.5841219416,12187.0677962841
2559998727,14080,3,0,38373.5939983264,39280.5984549021,28115.2034900532,48985.8211302108,50242.4156842065,37390.7482874533,50557.8875597349,55533.2709583327,56945.9892302636,12187.4936656729
2559998727,14080,3,0,38365.5754861201,39280.4889456307,28118.8416314032,48987.3299246168,50227.9604603808,37396.6982911997,50559.4571926251,55531.7256608362,56934.8801230642,12191.3751609594
2559998727,14080,3,0,38377.6823444589,39290.3326123605,28122.4797727533,48993.5719530870,50242.0993240891,37400.8961466036,50567.0863385330,55539.9631915853,56956.1127540203,12189.3066524995
2559998727,14080,3,0,38390.6166061817,39289.7363952162,28117.1259861512,48991.8076370477,50245.0682421139,37393.7780439622,50566.4779536919,55541.3138059327,56960.5296279670,12187.0069578000
2559998727,14080,3,0,38363.6164869316,39281.9855723400,28117.1259861512,48989.7147931941,50223.1785555294,37396.9294774393,50564.3607744447,55541.1799612676,56940.5867728742,12187.2624794333
2559998727,14080,3,0,38359.1996129849,39288.5804640180,28122.9056421421,48994.7035488915,50235.5287678047,37396.7956327743,50569.9822503769,55546.0348723000,56948.4349373250,12184.6829277068
2560036951,14081,3,0,38389.6188550422,39296.0757652609,28123.4045177118,48996.1271694198,50262.6383963262,37393.6563669939,50568.8628222692,55548.6995979042,56962.9144965443,12180.6310846648
2560036951,14081,3,0,38389.0956440788,39291.0991772603,28119.8272148459,48991.3695999621,50256.6153863989,37393.5711931162,50565.6748857016,55544.5260778939,56945.2835038478,12182.4440714914
2560036951,14081,3,0,38368.8364288686,39291.1843511381,28124.3049272767,48993.2555929696,50252.9042388679,37398.4991103295,50568.5099590613,55546.8744433808,56942.4727658817,12185.1939709734
2560036951,14081,3,0,38376.1857177497,39295.6012250848,28125.1810014480,48995.8959831802,50266.5928977937,37397.2945083440,50570.5297967339,55550.9992926037,56962.3426147936,12184.2205552276
2560036951,14081,3,0,38377.7675183367,39289.5052089765,28123.2220022595,48991.0045690574,50254.0114992787,37393.0114790623,50568.6438037264,55546.8257725935,56951.1361660197,12186.0335420542
2560036951,14081,3,0,38363.3366299047,39284.7111364283,28124.3414303672,48989.5931162259,50234.0808118828,37394.1795779573,50568.8019837851,55542.2385508912,56938.0072211477,12187.5301687634
2560036951,14081,3,0,38382.1478891929,39294.7738217009,28129.8899001185,48996.0176601484,50250.8357304080,37400.4094387307,50573.4257085778,55549.7460198310,56958.3394425388,12185.9362004796
2560036951,14081,3,0,38399.2800063196,39298.2416152954,28130.3522725977,48998.5972118749,50257.8321560811,37396.8443035616,50573.3161993064,55550.4639139435,56961.7342299524,12190.7181053310
2560086838,14082,3,0,38374.9932834610,39293.3867042631,28130.8389804707,48997.4412806767,50240.3471757466,37399.0588243833,50572.4279574383,55547.0447911363,56943.4583493244,12196.1692335077
2560086838,14082,3,0,38371.3916452015,39302.4394706993,28134.6474695762,49003.7198122373,50256.6762248830,37405.9335730883,50579.1445260846,55555.2214834013,56957.4512006708,12195.4148363047
2560086838,14082,3,0,38396.7369576836,39310.4093121184,28133.0413335956,49005.0825942815,50276.8259308218,37399.4846937721,50580.3247926764,55558.7136123895,56967.3435381878,12192.0200488911
2560086838,14082,3,0,38391.3101649006,39302.0257690073,28128.8434781917,49000.2763540364,50257.5157959638,37392.4152619180,50577.2707007738,55553.5058381493,56944.7724605813,12192.1417258593
2560086838,14082,3,0,38374.8594387960,39295.2118587865,28126.0935787097,49000.0695031905,50245.4089376249,37390.7361197564,50576.9178375660,55551.3399881148,56944.4317650702,12189.7568572820
2560086838,14082,3,0,38381.1014672662,39291.3303635000,28120.4721027775,48996.7477219578,50254.1696793374,37385.2484884893,50574.5329689887,55550.8167771514,56960.6513049352,12181.8356866503
2560086838,14082,3,0,38371.1117881745,39281.3650198020,28115.1669869627,48987.9869802453,50240.7487097417,37385.4188362448,50568.9479961469,55541.4598182945,56945.8188825080,12183.4053195404
2560086838,14082,3,0,38357.2527814932,39282.7278018462,28119.1093207333,48988.9847313848,50236.3440034918,37391.9042186514,50572.1237650177,55540.1943778250,56942.4362627913,12190.9736269643
2560100597,14083,3,0,38379.6048405569,39293.6178905027,28120.8249659854,48992.9879036395,50260.6793971377,37391.1741568421,50574.8736644997,55545.6333383048,56961.8437392239,12185.6685111495
2560100597,14083,3,0,38390.9329662991,39293.0095056615,28116.6879490656,48989.7634639814,50260.4725462917,37383.8735387483,50571.8682433845,55544.3800655321,56956.7698096487,12182.7117608215
2560100597,14083,3,0,38362.5578973080,39286.3537754994,28119.3648423666,48989.7147931941,50237.7797917169,37389.0083068076,50570.4446228562,55543.1267927593,56935.1843154848,12186.2282252033
2560100597,14083,3,0,38362.9107605159,39295.5282189039,28124.2440887926,48997.3074360116,50251.1399228285,37394.0944040796,50575.8957510328,55548.6144240264,56948.5687819900,12186.4959145334
2560100597,14083,3,0,38388.6819423869,39300.8820055060,28121.5671954916,48997.6602992195,50264.5122216369,37387.2196553746,50575.3482046758,55548.9916226279,56950.7833028118,12183.8311889292
2560100597,14083,3,0,38379.3736543173,39291.9630837348,28117.2598308162,48989.6661224068,50243.8758078252,37384.7739483132,50569.0818408120,55541.4233152041,56928.0905482370,12185.3886541226
2560100597,14083,3,0,38367.8630131228,39291.8900775538,28119.0728176429,48990.1284948861,50242.6468704461,37388.7649528711,50570.5662998244,55544.0150346274,56934.2474028294,12186.3985729589
2560100597,14083,3,0,38382.0505476183,39294.1045983756,28118.4644328017,48992.2456741333,50258.0268392303,37391.8677155610,50573.3527023969,55549.6000074691,56953.4236930224,12184.0502074720
2560129353,14084,3,0,38372.3528932505,39286.7309741009,28119.1701592175,48991.6007862017,50242.1236594827,37393.7050377812,50571.6127217512,55550.1718892198,56940.5746051774,12187.1042993746
2560129353,14084,3,0,38360.7935812687,39286.4754524676,28123.8182194038,48994.0586609599,50237.9866425629,37397.6960423392,50575.2873661917,55551.3278204180,56940.6111082678,12190.4382483041
2560129353,14084,3,0,38383.8635344450,39291.5858851333,28123.8547224943,48995.1537536740,50260.2656954457,37395.9195586030,50574.9831737711,55554.6009308633,56960.3106094242,12186.7636038636
2560129353,14084,3,0,38391.2128233260,39288.5561286244,28121.8592202153,48993.0244067300,50257.0534234845,37396.8929743488,50572.7321498589,55553.6640182080,56952.1704202496,12189.1606401377
2560129353,14084,3,0,38362.0225186478,39281.1216658655,28122.8448036580,48991.4426061430,50236.5508543378,37395.8343847253,50573.0241745826,55549.7581875278,56936.9607992209,12193.0664708178
2560129353,14084,3,0,38359.2482837722,39284.9544903648,28121.9930648804,48992.2700095269,50250.6897180461,37393.6685346908,50573.5838886365,55549.4783305009,56951.1361660197,12187.1042993746
2560129353,14084,3,0,38380.9189518138,39289.1888488591,28120.5451089584,48991.6251215953,50261.1174342233,37395.1894967936,50572.5983051938,55549.7581875278,56954.0564132572,12188.9781246853
2560129353,14084,3,0,38374.7012587373,39285.4533659345,28125.1079952670,48989.3132591990,50242.4765226906,37402.1007485891,50569.9944180737,55545.6455060016,56937.5448486684,12195.9867180553
2560165690,14085,3,0,38372.0487008299,39287.9355760864,28129.5127015169,48990.9802336637,50245.1047452043,37401.7843884717,50571.6005540544,55545.7306798794,56949.1893345280,12197.2886616154
2560165690,14085,3,0,38380.6634301805,39287.2906881548,28122.8083005675,48988.7535451451,50255.3499459293,37395.4450184269,50568.8628222692,55545.4143197620,56961.6125529842,12191.9835458006
2560165690,14085,3,0,38361.3046245352,39277.7998846329,28117.0651476671,48983.3875908462,50235.4192585333,37394.8244658890,50565.0178300731,55541.5936629596,56942.0103934025,12193.3341601479
2560165690,14085,3,0,38351.0107530230,39280.7566349608,28123.1733314722,48988.6562035705,50235.0542276286,37401.0178235718,50571.5762186607,55545.1587981287,56945.1374914860,12195.5121778792
2560165690,14085,3,0,38380.9067841170,39291.0626741699,28124.0250702498,48992.2335064365,50262.2368623311,37397.5135268868,50576.0295956979,55550.0502122515,56963.9487507742,12192.4094151894
2560165690,14085,3,0,38386.0172167826,39285.0031611521,28120.1557426601,48986.8432167439,50250.3855256255,37388.1444003332,50569.4347040199,55542.2750539817,56947.4858569728,12191.5333410181
2560165690,14085,3,0,38358.7615758992,39276.9359781584,28119.3770100634,48984.8842175554,50229.7247764202,37388.0227233649,50567.6095494964,55536.6049072622,56932.7264407266,12193.1516446956
2560165690,14085,3,0,38361.0734382956,39281.3650198020,28120.0705687823,48987.8774709739,50241.1867468274,37386.2949104161,50569.8849088023,55540.4133963678,56948.0699064203,12192.1782289498
2560207737,14086,3,0,38374.9324449769,39282.7521372398,28118.1359049875,48986.2956703869,50247.3314337229,37381.1966454473,50569.1305115993,55539.5738252870,56946.9991490999,12193.2368185734
2560207737,14086,3,0,38364.6020703742,39281.0973304719,28119.9367241173,48984.4096773793,50233.0830607433,37386.6599413208,50567.6582202837,55536.6900811399,56929.9157027605,12197.2399908281
2560207737,14086,3,0,38373.7156752946,39291.8170713729,28124.8159705433,48991.0289044510,50247.9884893514,37395.4328507301,50574.8249937124,55544.4044009257,56946.8409690412,12196.2422396886
2560207737,14086,3,0,38391.6751958053,39297.0856840972,28124.6091196973,48992.5742019475,50259.6451429078,37394.5932796493,50576.5406389645,55548.2372254249,56956.2952694726,12193.4801725098
2560207737,14086,3,0,38369.5421552844,39289.4443704924,28124.5726166068,48988.0599864262,50235.3827554428,37396.1142417522,50571.8439079908,55545.6576736985,56936.2915758957,12196.7532829552
2560207737,14086,3,0,38354.9530867937,39293.8734121360,28130.2427633263,48993.8518101139,50238.5220212231,37402.1737547700,50574.5329689887,55549.6000074691,56943.2393307816,12198.1038973025
2560207737,14086,3,0,38381.0406287820,39304.1307805577,28133.8078984954,48996.9180697133,50264.8650848448,37398.2314209994,50576.1147695757,55553.9438752349,56962.7684841824,12194.8064514635
2560207737,14086,3,0,38380.5052501218,39296.7814916767,28128.5636211648,48990.9558982701,50252.8434003837,37392.6099450672,50570.1404304356,55545.8523568476,56944.0667341655,12194.0885573510
2560226713,14087,3,0,38357.4474646424,39291.0018356858,28130.2549310232,48991.1140783288,50239.3250892135,37396.2115833268,50571.4180386020,55543.6135006322,56935.3181601498,12195.6460225443
2560226713,14087,3,0,38362.6552388826,39295.0658464246,28128.9286520695,48993.7301331457,50254.5225425453,37392.9263051846,50575.1656892235,55546.5215801729,56953.7887239271,12191.0222977516
2560226713,14087,3,0,38368.8485965655,39291.8779098570,28121.8105494280,48989.4592715609,50251.2250967063,37389.0326422012,50570.1769335261,55544.0150346274,56947.1451614617,12188.4305783283
2560226713,14087,3,0,38357.4718000360,39287.8017314213,28125.1566660543,48989.8608055560,50239.4467661817,37394.1187394732,50569.3982009294,55543.0416188815,56932.8359499980,12194.6482714048
2560226713,14087,3,0,38369.5178198907,39294.8103247913,28126.6897958540,48994.1681702313,50257.2116035432,37395.0556521286,50573.9489195412,55545.1709658255,56949.5787008263,12194.4414205588
2560226713,14087,3,0,38384.1068883814,39293.7273997741,28122.7596297802,48991.1992522065,50264.5122216369,37393.3156714829,50572.5496344065,55545.1222950383,56955.5773753600,12193.3341601479
2560226713,14087,3,0,38355.9143348427,39285.7940614455,28122.3459280882,48986.6363658979,50239.8848032673,37392.9871436687,50569.7875672277,55541.3016382358,56936.6444391035,12195.6703579379
2560226713,14087,3,0,38342.9800731199,39290.2109353923,28126.0935787097,48989.0090667784,50245.2385898694,37395.2868383682,50573.5960563333,55545.0127857668,56947.1208260681,12193.2489862702
2560254034,14088,3,0,38371.8661853775,39301.7337442836,28128.8921489790,48993.9613193853,50271.2774610705,37399.9105631609,50576.6744836295,55552.2038945892,56962.8049872729,12192.1660612529
2560254034,14088,3,0,38377.6580090653,39300.8455024155,28131.0945021039,48992.5620342507,50263.5996443752,37406.1890947216,50577.2463653802,55551.4738327798,56949.2501730121,12199.2963315912
2560254034,14088,3,0,38360.8665874496,39300.5899807822,28133.9295754637,48996.5530388086,50253.3422759535,37409.3526958955,50579.5582277766,55553.6640182080,56947.5953662442,12200.5861074544
2560254034,14088,3,0,38371.9270238617,39303.6562403816,28132.4207810576,48999.6071307112,50265.7046559256,37405.1061697043,50582.7583320410,55558.3729168784,56962.1966024317,12196.4612582314
2560254034,14088,3,0,38374.7255941309,39300.1154406061,28131.1675082849,48998.3903610289,50260.0466769029,37404.2179278363,50579.9475940749,55557.2048179834,56953.4601961129,12198.6149405691
2560254034,14088,3,0,38362.1198602224,39300.3344591490,28135.5113760507,48998.9257396891,50251.0182458603,37408.4401186338,50582.3689657427,55557.2656564675,56943.3245046593,12200.7564552099
2560254034,14088,3,0,38381.9167029533,39313.2322177813,28142.8241618413,49007.1754381351,50274.4653976381,37415.0958487960,50590.2414655871,55564.4932683804,56968.8401648970,12197.3981708868
2560254034,14088,3,0,38399.8153849798,39314.6436706127,28142.7633233571,49007.8081583698,50278.9309423721,37411.8957445315,50591.6529184186,55566.7564599894,56974.4008023451,12197.5198478550
2560283982,14089,3,0,38375.5164944244,39309.7765918836,28143.4447143792,49004.5593833181,50255.1795981737,37409.8515714653,50590.4118133426,55561.9502197444,56957.8040638786,12203.8105471125
2560283982,14089,3,0,38368.9702735337,39316.2376388965,28147.2410357880,49010.2051946440,50262.2733654215,37410.9709995730,50595.4370721305,55567.4378510115,56968.7914941098,12203.9808948680
2560283982,14089,3,0,38399.9613973417,39327.3345783991,28149.2243703701,49015.1452795541,50284.1873873996,37412.8569925805,50598.2964808839,55573.4000224548,56978.8785147760,12199.8317102514
2560283982,14089,3,0,38402.2975951317,39327.6996093038,28155.4177280530,49015.0236025859,50273.6014911637,37417.4928850701,50597.9557853728,55571.1733339362,56960.3471125146,12202.2652496160
2560283982,14089,3,0,38394.5832753460,39333.1872405709,28162.6331722690,49019.4769796230,50273.7110004351,37420.5956477599,50600.4744986152,55573.0958300342,56959.6657214926,12203.0804853031
2560283982,14089,3,0,38407.8947356703,39338.3098409334,28163.3754017752,49019.8298428309,50289.5533416986,37417.4685496764,50600.4136601311,55573.4486932421,56974.0114360468,12192.9812969401
2560283982,14089,3,0,38400.1804158845,39334.0754824390,28162.7061784499,49013.7703298131,50279.7826811497,37417.3590404050,50595.7534322479,55568.3260928796,56960.9676650526,12188.9781246853
2560283982,14089,3,0,38382.5007524008,39335.1219043657,28169.4957532771,49014.5733978034,50272.3725537846,37424.5014784401,50593.9161100276,55564.9313054660,56953.9347362889,12191.1196393262
2560321683,14090,3,0,38409.2818531081,39350.4897054531,28178.1713211119,49020.2192091292,50295.9900533179,37432.6294999178,50599.5254182630,55571.2585078139,56975.2768765164,12190.0002112185
2560321683,14090,3,0,38433.6537498444,39358.2161929357,28185.1677467851,49025.4634864599,50300.0540640568,37435.5254117617,50601.3505727864,55574.1544196578,56978.2701299348,12192.5310921576
2560321683,14090,3,0,38413.8447394167,39357.3401187644,28195.4616182973,49028.6514230275,50277.2639679074,37440.7940244860,50603.2365657940,55573.5582025135,56963.6202229600,12198.1404003930
2560321683,14090,3,0,38411.5815478076,39367.9260150004,28204.4535462494,49037.2418169845,50294.6881097578,37447.0360529562,50610.0018052276,55580.9926652723,56982.4436499451,12198.4202574199
2560321683,14090,3,0,38436.4888232042,39377.5019924001,28209.1502772231,49039.3833316254,50315.2758527823,37445.0162152836,50611.0360594575,55583.7303970574,56992.1778074035,12196.0597242363
2560321683,14090,3,0,38435.6735875171,39379.3149792267,28216.2683798645,49039.0426361143,50306.6124526443,37449.6156046827,50610.5858546751,55582.8421551894,56975.8244228734,12200.2940827307
2560321683,14090,3,0,38434.5419917125,39389.4628383770,28225.0534569707,49045.4185092496,50309.8612276960,37452.8278766439,50616.4141814532,55586.7844889600,56983.9646120480,12200.5131012735
2560321683,14090,3,0,38453.8764619642,39396.8851334390,28225.0169538802,49048.2049118220,50326.4214630721,37445.3447430978,50619.1275778448,55591.3473752686,56999.7339471305,12196.6316059870
2560347636,14091,3,0,38442.2563114983,39389.7913661912,28221.1841293810,49045.3698384623,50307.9022285076,37443.0815514887,50617.1442432626,55587.4293768916,56980.8618493581,12195.0863084904
2560347636,14091,3,0,38431.1837073894,39392.8454580938,28226.2458912593,49050.2004141010,50303.2054975339,37453.2902491232,50623.0577439186,55588.3297864565,56978.7568378077,12196.2544073854
2560347636,14091,3,0,38460.7755460628,39406.9964894989,28233.7776955927,49057.4036906202,50329.3173749159,37456.1983286639,50629.5796294157,55596.3969694501,57001.0358906906,12193.1516446956
2560347636,14091,3,0,38472.9189074921,39406.4854462323,28233.9967141356,49053.9115616320,50326.1172706515,37455.0302297689,50626.5012021195,55596.8958450199,56994.7451914331,12194.4779236493
2560347636,14091,3,0,38447.3545764671,39400.5719455764,28236.0895579891,49053.3518475781,50304.9819812700,37460.8828919407,50626.2091773957,55594.3162932934,56981.6527496516,12198.9069652928
2560347636,14091,3,0,38445.0548817675,39407.1425018607,28239.6060223709,49058.3892740628,50320.1794346019,37467.5751251933,50631.6724732692,55601.3248866634,57000.3910027589,12198.0430588184
2560347636,14091,3,0,38462.7102098576,39413.3358595436,28241.4068415007,49060.9688257893,50336.8856823398,37469.1082549930,50633.0474230102,55605.8391021847,57009.7114585253,12197.2886616154
2560347636,14091,3,0,38455.0445608592,39410.0627490983,28241.7110339213,49059.1558389627,50323.2091911108,37468.5850440296,50630.4800389806,55603.2960535487,56992.3724905526,12198.7366175373
2560376914,14092,3,0,38459.0355654171,39415.9762497542,28245.7142061760,49063.2076820047,50331.0695232584,37469.6679690469,50635.2984469225,55606.2041330894,57002.0579772237,12195.8528733903
2560376914,14092,3,0,38474.6102173505,39415.7815666050,28241.1999906547,49063.0129988555,50341.8501026436,37470.1546769198,50635.6756455240,55608.1266291874,57010.1981663982,12188.5157522061
2560376914,14092,3,0,38455.3122501893,39406.9356510148,28241.3460030166,49058.3649386692,50321.2501919223,37474.3525323237,50632.5972182278,55605.8025990943,56994.9520422791,12192.6162660354
2560376914,14092,3,0,38440.6623432145,39411.7053881694,28249.1454966801,49062.2829370462,50320.7634840494,37481.8478335666,50638.5593896710,55613.0788817944,57000.5613505145,12201.7055355621
2560376914,14092,3,0,38469.4024431103,39424.6396498921,28253.9274015315,49069.7782382891,50347.2525600329,37477.8446613119,50645.7870015838,55621.0000524261,57024.8602410699,12202.3382557969
2560376914,14092,3,0,38479.8909977716,39422.0600981657,28250.8976450226,49066.3712831787,50344.7581821842,37473.9023275412,50643.1344436764,55618.3596622155,57013.7024630832,12201.2553307797
2560376914,14092,3,0,38457.3077524682,39418.6531430552,28253.9395692284,49066.6754755992,50329.2808718255,37483.2592863981,50643.0492697987,55616.8508678095,57002.4838466125,12198.5297666913
2560376914,14092,3,0,38462.8318868259,39425.9050903617,28259.0743372876,49075.4483850086,50348.4693297152,37491.3751401790,50648.1962055548,55624.0541443287,57024.3491978033,12196.9601338012
2560403881,14093,3,0,38475.0969252234,39427.6207356138,28258.0400830577,49073.5623920010,50353.5432592904,37488.8929300271,50645.6896600092,55623.8351257859,57024.2883593192,12198.5175989945
2560403881,14093,3,0,38463.2212531242,39422.3399551926,28257.9427414831,49069.2185242352,50337.7982596015,37487.9316819781,50643.8280023953,55619.6616057756,57006.8398820751,12204.8934721297
2560403881,14093,3,0,38471.0694175750,39428.4724743914,28260.1937653953,49072.6011439520,50348.6883482581,37492.0078604138,50645.3246291046,55622.5210145290,57019.8714853725,12205.0273167948
2560403881,14093,3,0,38492.8009241008,39432.6581620985,28263.1018449360,49074.4506338691,50360.4545110858,37486.1917013324,50647.3931375645,55626.1713235759,57031.7471574717,12206.4996081104
2560403881,14093,3,0,38471.3857776924,39424.4936375303,28258.1739277227,49070.0094245287,50336.2286267114,37478.2218599134,50644.0348532413,55622.9590516146,57009.8453031904,12208.9331474750
2560403881,14093,3,0,38454.9837223751,39424.7734945572,28255.8864007200,49072.1752745632,50333.2110378993,37482.2737029554,50648.0258577992,55625.0518954682,57008.9935644128,12204.0660687458
2560403881,14093,3,0,38482.7625742218,39434.2034595950,28254.1464200743,49077.6872412240,50358.9943874671,37482.2493675618,50654.6207494773,55628.6413660309,57024.4465393779,12199.3693377721
2560403881,14093,3,0,38488.3110439731,39430.8330075750,28252.5524517905,49075.2658695562,50351.3409061655,37478.4895492435,50652.0777008413,55624.6625291698,57006.7547081973,12204.4554350441
2560441860,14094,3,0,38460.5321921263,39422.5954768259,28248.6344534136,49068.0504253402,50329.5485611556,37472.5760485876,50643.1222759796,55615.9382905478,56990.7176837847,12205.4045153963
2560441860,14094,3,0,38462.1504958038,39423.2525324543,28245.4586845428,49066.0184199708,50338.3214705649,37464.0586608115,50640.3602088008,55614.8188624401,57003.3842561774,12199.3450023785
2560441860,14094,3,0,38459.5222732900,39414.0172505657,28235.2256515147,49054.0697416907,50328.9888471017,37453.6187769374,50631.4656224232,55607.2627227130,56989.8051065230,12192.0808873752
2560441860,14094,3,0,38440.4919954589,39408.8703148096,28233.4978385658,49051.6848731134,50314.9716603617,37459.6052837743,50627.2434316257,55604.5493263215,56970.9938472347,12195.6216871507
2560441860,14094,3,0,38454.5943560767,39417.4728764634,28235.8705394463,49059.2531805372,50335.3403848433,37465.5917906112,50632.1470134453,55609.2095542047,56991.0705469926,12197.9578849407
2560441860,14094,3,0,38473.4177830618,39415.4652064876,28235.1404776369,49056.8196411727,50344.9041945461,37461.9049784738,50629.8108156553,55609.5259143221,56996.2053150518,12198.6149405691
2560441860,14094,3,0,38443.7529382075,39402.7256279140,28236.1747318669,49047.9007194014,50318.9991680101,37462.4525248309,50625.8928172783,55603.0161965218,56978.4039745999,12202.3382557969
2560441860,14094,3,0,38426.4018025380,39397.5665244611,28235.8340363558,49046.2459126335,50316.0667530757,37459.1672466887,50625.6129602514,55603.0405319155,56985.5585803318,12201.2796661733
2560473003,14095,3,0,38447.3667441639,39398.4791017228,28230.2612312109,49044.1165656895,50329.8770889698,37451.0635606046,50623.8364765152,55602.1766254410,56999.4175870131,12196.7289475615
2560473003,14095,3,0,38445.4929188532,39388.9152920200,28222.1332097332,49037.2053138941,50313.6332137112,37448.4961765749,50617.0590693849,55593.2212005793,56981.1173709914,12196.9844691948
2560473003,14095,3,0,38429.3950559564,39388.6962734772,28222.4495698506,49039.4928408968,50304.5561118812,37452.2803302869,50619.5412795367,55593.2820390635,56977.9781052111,12199.0043068674
2560473003,14095,3,0,38436.9876987739,39393.2834951794,28219.8091796400,49042.6442743739,50321.2745273160,37450.7837035777,50620.7458815222,55596.6768264771,56993.6014279317,12194.9889669159
2560473003,14095,3,0,38433.5199051794,39388.7814473549,28217.3026340945,49039.3711639286,50313.0248288700,37451.7206162330,50617.0590693849,55592.9291758556,56981.7257558325,12195.2688239428
2560473003,14095,3,0,38417.5923900382,39387.5403422790,28220.9772785350,49040.0525549506,50298.4965988634,37457.1595767129,50619.6994595954,55591.7610769606,56970.6044809364,12198.4202574199
2560473003,14095,3,0,38434.1404577174,39393.8797123237,28222.6807560902,49042.1088957137,50318.2326031102,37453.2902491232,50622.0721604759,55596.4578079342,56988.0164550900,12194.1250604414
2560473003,14095,3,0,38448.7173585112,39389.4750060738,28215.1246163632,49036.4144136006,50320.3376146606,37446.1843141786,50616.6697030865,55592.7953311905,56986.2521390507,12191.2048132039
2560507657,14096,2,0,38419.7947431631,39375.2022977005,28210.4522207832,49030.2575590082,50293.3131600168,37443.1545576697,50611.0482271543,55586.8331597473,56964.7639864614,12193.6505202653
2560507657,14096,2,0,38405.3030162470,39373.4136462675,28209.4301342500,49030.8537761525,50293.5078431660,37446.6101835674,50611.1455687289,55588.0499294296,56973.6099020516,12191.3873286563
2560507657,14096,2,0,38425.9029269682,39375.5794963020,28208.0551845090,49029.4788264115,50308.2185886249,37442.4488312539,50609.6854451102,55588.4392957279,56984.5243261018,12189.0267954726
2560507657,14096,2,0,38427.4603921616,39370.3717220618,28204.5995586113,49026.1327097852,50294.4204204277,37438.5916713611,50607.5804335598,55583.0976768227,56964.9586696105,12195.3783332142
2560507657,14096,2,0,38422.6054811292,39371.4181439886,28204.8064094573,49030.3670682796,50292.0112164568,37434.5033252286,50611.9851398097,55583.6330554829,56962.5251302459,12201.5351878066
2560507657,14096,2,0,38432.7655079764,39372.0143611329,28199.1362627378,49028.6879261180,50303.5096899545,37419.5613935300,50609.7341158975,55582.3067765292,56973.4030512056,12198.2255742708
2560507657,14096,2,0,38418.6266442681,39360.2481983051,28191.4219429521,49020.5112338530,50285.4284924756,37418.1134376081,50603.8206152415,55572.6942960390,56956.1735925044,12196.3152458696
2560507657,14096,2,0,38394.2669152286,39354.1035114095,28190.2538440571,49018.1141975789,50270.2188714469,37424.6474908020,50602.1293053831,55567.0971555005,56945.0766530018,12197.9213818502
2560561012,14097,2,0,38414.6113043165,39363.2657871172,28189.2925960081,49022.4702330415,50293.4713400755,37421.5082250217,50604.6236832318,55571.7695510805,56962.5981364269,12192.9569615464
2560561012,14097,2,0,38431.5852413845,39360.7105707844,28182.9288905697,49017.9925206106,50291.6096824616,37412.0660922871,50599.9147845613,55566.9754785323,56955.1150028808,12188.6374291743
2560561012,14097,2,0,38404.5486190440,39348.7497248074,28179.7652893957,49011.4097966294,50263.0155949277,37409.8394037685,50595.1693828004,55561.6703627175,56934.4664213722,12187.7005165189
2560561012,14097,2,0,38393.8288781430,39349.3581096486,28181.3227545890,49012.7969140673,50268.2233691679,37410.7033102429,50597.2622266539,55565.5153549135,56946.7192920729,12187.2868148269
2560561012,14097,2,0,38408.9654929907,39352.1201768274,28180.7752082320,49010.2173623408,50278.9674454626,37407.9169076704,50593.5632468198,55566.8051307767,56954.6526304015,12186.6905976826
2560561012,14097,2,0,38403.2953462712,39348.6402155360,28182.9897290538,49008.7815741157,50265.5464758669,37411.7375644728,50591.9814462328,55564.6027776518,56938.8346245317,12193.7721972336
2560561012,14097,2,0,38401.7013779874,39353.2639403288,28186.7130442816,49012.0425168642,50272.1657029386,37414.1711038374,50596.5686679350,55567.3161740433,56944.5899451289,12195.1106438841
2560561012,14097,2,0,38421.8510839262,39358.6298946277,28186.9198951276,49015.3764657937,50292.7656136598,37408.1237585164,50599.5375859598,55571.8303895646,56962.5372979428,12194.3440789842
2560578907,14098,2,0,38408.7708098415,39349.1025880153,28181.7851270683,49009.5116359251,50275.0372793888,37406.1769270248,50594.2689732355,55565.8317150309,56943.8112125323,12194.8307868572
2560578907,14098,2,0,38391.7725373799,39347.4842843379,28183.4034307458,49012.1520261356,50266.5320593096,37410.6789748492,50598.1383008252,55568.4477698478,56940.1000650013,12196.9723014980
2560578907,14098,2,0,38415.7307324243,39351.5847981672,28181.0794006526,49013.9041744781,50283.5303317712,37405.9579084819,50599.7079337153,55571.4045201758,56958.6071318690,12190.6085960596
2560578907,14098,2,0,38426.2436224793,39344.0529938338,28175.2510738744,49007.1997735287,50276.8746016091,37401.0056558750,50594.8286872894,55567.0241493195,56949.5178623422,12188.5157522061
2560578907,14098,2,0,38398.0389012437,39334.4405133437,28172.3064912432,49003.9509984770,50254.5833810294,37402.8673134889,50591.6772538122,55562.4369276173,56931.6435157093,12194.1493958351
2560578907,14098,2,0,38392.1862390719,39335.3530906054,28173.0000499621,49004.9365819196,50265.4734696860,37402.8429780953,50591.9936139296,55563.9578897202,56946.3785965619,12190.9371238738
2560578907,14098,2,0,38405.6193763644,39336.9348911924,28169.9702934532,49003.5616321786,50278.9309423721,37402.0399101050,50588.5501557287,55562.8019585220,56951.7445508608,12190.8032792088
2560578907,14098,2,0,38394.9239708570,39331.3620860475,28170.0067965437,49000.6170495475,50266.2400345858,37404.6316295282,50586.2869641196,55558.3364137880,56934.7949491865,12197.8848787597
2560605464,14099,2,0,38393.8653812334,39335.5842768450,28172.3186589401,49005.6788114258,50274.4288945476,37403.0133258508,50588.8421804525,55559.9182143749,56945.1739945764,12199.2111577134
2560605464,14099,2,0,38412.1412618615,39337.5919468208,28169.2280639470,49004.8392403450,50285.0391261772,37396.9781482266,50589.6817515332,55561.3661702969,56953.9469039858,12198.1890711803
2560605464,14099,2,0,38389.3633334089,39325.9596286581,28164.1906374623,48996.5408711118,50253.0015804424,37392.1597402847,50581.6997424174,55551.8875344718,56930.8769508095,12199.2598285007
2560605464,14099,2,0,38366.5002310786,39322.6865182127,28164.6043391543,48996.6747157769,50240.0429833260,37398.7059611755,50581.5293946619,55552.0943853178,56925.9003628089,12200.6347782417
2560605464,14099,2,0,38389.4850103772,39330.2548256366,28162.5601660881,49000.5562110634,50262.4923839643,37394.1795779573,50584.1697848725,55555.9150421202,56943.1663246006,12192.1295581625
2560605464,14099,2,0,38398.5864476007,39328.3079941449,28156.6710008258,48998.2808517575,50260.5698878663,37388.6311082061,50583.3180460948,55552.2890684670,56932.6047637583,12190.3165713358
2560605464,14099,2,0,38376.3438978084,39326.1786472009,28160.3578129631,49000.1303416746,50247.2219244515,37394.0213978986,50585.7029146721,55553.2989873033,56924.8052700948,12196.3639166569
2560605464,14099,2,0,38378.9721203221,39333.1020666931,28164.5435006702,49003.9996692643,50263.4292966197,37394.3134226224,50591.4947383599,55560.4779284288,56944.4317650702,12195.5121778792
2560627965,14100,2,0,38387.1488125872,39329.3787514653,28160.1509621171,49001.0185835426,50262.6018932357,37391.7095355023,50588.0512801590,55558.2999106975,56942.2294119453,12190.3530744263
2560627965,14100,2,0,38376.7697671972,39323.8302817141,28160.5768315059,49000.4710371856,50245.9078131947,37396.4306018696,50587.2117090782,55557.5820165849,56925.3893195423,12191.6671856832
2560627965,14100,2,0,38389.4241718930,39331.6906138617,28164.5800037607,49007.5891398270,50257.8199883843,37399.8618923737,50593.2225513087,55561.9623874412,56938.0193888445,12188.2115597855
2560627965,14100,2,0,38409.6833871033,39333.7591223216,28162.7426815404,49005.2894451275,50268.8074186154,37395.1043229159,50591.3973967853,55561.7920396857,56946.8166336475,12186.8487777413
2560627965,14100,2,0,38389.4850103772,39325.7406101153,28162.8765262055,49000.8239003935,50249.4729483638,37390.7117843628,50588.3068017922,55556.1827314503,56929.0396285892,12193.2124831797
2560627965,14100,2,0,38370.1018693382,39327.0182182817,28166.1253012572,49005.1434327656,50250.2516809605,37391.8190447737,50593.0400358564,55559.5896865607,56933.8823719247,12194.9889669159
2560627965,14100,2,0,38393.6585303874,39335.0732335785,28166.4173259809,49007.4674628588,50277.0084462741,37388.8014559616,50593.8066007562,55563.3130017885,56952.8396435749,12189.2944848027
2560627965,14100,2,0,38400.6306206670,39330.8632104777,28164.9328669685,49001.4809560219,50270.3648838088,37388.6311082061,50588.5744911224,55559.8330404972,56939.2969970109,12192.2390674339
2560675781,14101,2,0,38382.1357214961,39323.2340645697,28164.7381838194,48998.8892365986,50256.5180448243,37389.7748717074,50583.5857354250,55556.6451039296,56927.8350266037,12195.0619730968
2560675781,14101,2,0,38387.5138434918,39321.1412207162,28160.8688562297,48998.0374978210,50267.4689719649,37384.8956252814,50582.0161025348,55556.5234269613,56940.3190835441,12187.8343611840
2560675781,14101,2,0,38388.4264207536,39308.6084929886,28151.0981956809,48989.6782901037,50257.5279636606,37379.3106524397,50574.7641552283,55548.6995979042,56929.5020010685,12183.7216796578
2560675781,14101,2,0,38370.2478817001,39301.3565456821,28150.3194630842,48989.3740976831,50242.9388951699,37389.8113747979,50574.4234597173,55546.4485739919,56913.6961628955,12190.5720929691
2560675781,14101,2,0,38383.2551496038,39310.7743430230,28155.5880758085,48995.9689893611,50264.2201969132,37398.1462471216,50584.4496418994,55552.2525653765,56937.0824761892,12195.5730163634
2560675781,14101,2,0,38405.0231592201,39313.3538947495,28155.7705912609,48995.7013000310,50277.0692847582,37394.3377580160,50586.2504610292,55554.1750614745,56948.8729744106,12196.2057365982
2560675781,14101,2,0,38381.4786658677,39304.0821097704,28156.9265224590,48992.1118294683,50251.8821523347,37393.0114790623,50584.6199896549,55550.6585970927,56931.6921864966,12200.4157596989
2560675781,14101,2,0,38364.2370394696,39304.8000038830,28159.1288755840,48994.7400519820,50249.9961593272,37394.4837703779,50587.8079262225,55550.7072678800,56939.4673447665,12199.3815054689
2560691877,14102,2,0,38384.2407330465,39310.8230138103,28157.6322488748,48994.3020148964,50266.6902393682,37388.8744621425,50583.7925862709,55551.2061434497,56952.3286003083,12192.1052227688
2560691877,14102,2,0,38383.0604664547,39302.2569552470,28153.2762134122,48985.5047700934,50249.8136438748,37386.7937859858,50574.4599628077,55541.4476505977,56932.5560929710,12191.7766949546
2560691877,14102,2,0,38366.6584111373,39298.6431492906,28153.7264181946,48982.4871812813,50238.5950274041,37391.3201692039,50571.8074049003,55539.8050115266,56925.2676425741,12191.8983719228
2560691877,14102,2,0,38378.7409340825,39304.7391653989,28155.5272373244,48987.1474091645,50255.2769397483,37392.2327464657,50576.7718252041,55545.8888599381,56947.3885153982,12189.3066524995
2560691877,14102,2,0,38372.7300918520,39299.9085897602,28149.7110782430,48984.8477144650,50244.6423727251,37387.1223138000,50574.3869566268,55544.4895748035,56938.1410658128,12189.8420311598
2560691877,14102,2,0,38350.3171943041,39298.4119630509,28149.6380720621,48986.5390243233,50227.9117895935,37391.4175107785,50576.3337881185,55542.2872216785,56926.0342074739,12193.0421354242
2560691877,14102,2,0,38368.3618886925,39310.9203553849,28152.2176237886,48990.6517058495,50249.0835820655,37391.6121939277,50581.3833823000,55546.3025616301,56944.2735850115,12187.9073673649
2560691877,14102,2,0,38389.6188550422,39312.1127896736,28153.2397103217,48990.9437305732,50257.6861437193,37388.0348910617,50577.7087378595,55546.8501079871,56949.7977193691,12187.3963240983
2560720819,14103,2,0,38363.6529900221,39300.3709622394,28151.1346987713,48983.6431124795,50228.0578019554,37386.7572828953,50570.9313307291,55538.1502047587,56929.1856409511,12193.3584955416
2560720819,14103,2,0,38350.2806912136,39300.0911052125,28151.5240650697,48985.2370807633,50229.7977826011,37388.1565680300,50570.7853183672,55539.5494898933,56941.1464869280,12192.9691292433
2560720819,14103,2,0,38370.7467572698,39305.3597179368,28149.0661903114,48986.2956703869,50245.7496331360,37385.9177118146,50570.3229458879,55541.0217812089,56952.0487432814,12189.8785342502
2560720819,14103,2,0,38374.2510539548,39303.8387558340,28150.3194630842,48985.6386147584,50234.6770290271,37386.1488980542,50568.8141514819,55538.8802665681,56934.1622289517,12196.2300719918
2560720819,14103,2,0,38368.0820316656,39307.1240339762,28155.2352126007,48989.4836069545,50234.2024888510,37393.9118886272,50574.1679380840,55540.1092039472,56936.2429051084,12198.3472512390
2560720819,14103,2,0,38382.3912431294,39313.2200500845,28156.2572991338,48991.0410721478,50251.9429908188,37395.5545276983,50578.6699859085,55545.0979596446,56956.5021203186,12194.7699483730
2560720819,14103,2,0,38372.5232410060,39307.5499033650,28155.2473802975,48987.6097816438,50239.2885861230,37392.7437897322,50574.2166088713,55543.5161590576,56945.6363670557,12199.2476608039
2560720819,14103,2,0,38349.7696479471,39307.2700463380,28160.2604713885,48991.2479229938,50229.4084163028,37396.2480864172,50576.7474898105,55545.6455060016,56940.1609034854,12207.6068685212
2560797414,14104,2,0,38370.4182294556,39318.2939796596,28161.8301042787,48996.3948587499,50250.6532149556,37390.7604551501,50580.4951404319,55547.4949959187,56958.3516102357,12203.4941869951
2560797414,14104,2,0,38391.4561772625,39318.9632029849,28160.0049497552,48996.2731817817,50254.2548532152,37387.1831522841,50579.9354263781,55544.7937672240,56952.9248174526,12198.9921391706
2560797414,14104,2,0,38369.6638322526,39311.4922371356,28160.6498376869,48994.3750210773,50231.7932848800,37388.0348910617,50578.2197811260,55542.5670787054,56934.2108997390,12200.3305858211
2560797414,14104,2,0,38360.2095318212,39315.1668815761,28160.8445208360,48998.2200132734,50238.1204872280,37390.0303933407,50580.9088421239,55544.5139101971,56949.2380053153,12197.5198478550
2560797414,14104,2,0,38374.8229357055,39317.8681102708,28155.9044359259,48996.3948587499,50249.7649730875,37389.3368346218,50579.6799047448,55544.5747486812,56955.9180708711,12193.9668803827
2560797414,14104,2,0,38368.5809072354,39312.0519511895,28153.6290766200,48992.2943449206,50233.9347995209,37392.3665911307,50575.8349125487,55540.3403901868,56936.8756253432,12195.9380472680
2560797414,14104,2,0,38367.8143423355,39315.6292540554,28157.2672179701,48996.7842250483,50238.8383813405,37397.2823406472,50579.8137494098,55543.2971405148,56944.2735850115,12195.9623826617
2560797414,14104,2,0,38390.4097553357,39322.4431642762,28159.2018817649,49000.5805464570,50258.8907457047,37393.7050377812,50583.9751017233,55549.4296597136,56961.0893420208,12195.2566562460
2560799760,14105,2,0,38376.1857177497,39315.1547138793,28158.0459505667,48994.1316671409,50240.2011633847,37386.7451151985,50577.0030114437,55544.7937672240,56943.2149953879,12199.7222009800
2560799760,14105,2,0,38352.3248642799,39314.9356953365,28163.1807186260,48996.3096848722,50230.5400121073,37392.8046282163,50579.8015817130,55544.6234194685,56939.4916801601,12205.1611614598
2560799760,14105,2,0,38373.5453275391,39322.3579903985,28161.7692657946,48997.3682744958,50253.0502512297,37391.4053430817,50579.2418676592,55547.6531759774,56961.8437392239,12201.0363122369
2560799760,14105,2,0,38388.1708991203,39318.0506257232,28153.3127165026,48991.0410721478,50249.8744823589,37386.0515564796,50574.2774473554,55543.2241343339,56955.6017107537,12196.4490905346
2560799760,14105,2,0,38365.1131136408,39308.2191266902,28149.6989105462,48985.6507824553,50226.3299890065,37388.6919466902,50569.0453377215,55536.1181993893,56937.5935194557,12193.9547126859
2560799760,14105,2,0,38361.4384692003,39310.8960199913,28151.9864375489,48990.0554887052,50233.5697686162,37393.5468577225,50574.8128260156,55540.4012286709,56954.3849410714,12194.7699483730
2560799760,14105,2,0,38373.9346938374,39312.1371250672,28151.0738602872,48989.5201100450,50240.7365420449,37388.7406174775,50574.8371614093,55538.8194280840,56960.2741063337,12197.0939784662
2560799760,14105,2,0,38366.1230324771,39308.4868160203,28152.5583192996,48986.9162229249,50227.3399078429,37390.5779396977,50572.2941127733,55533.9401816580,56940.5746051774,12205.2950061249
2560809884,14106,2,0,38370.7224218762,39316.5174959235,28157.8634351144,48992.8175558840,50239.3494246071,37396.9903159234,50576.3216204217,55537.9433539127,56949.0676575598,12207.6068685212
2560809884,14106,2,0,38393.4030087542,39324.2804864965,28158.2041306254,48993.9856547790,50262.5167193580,37395.9438939967,50578.6213151212,55542.6035817959,56964.8248249455,12206.7794651373
2560809884,14106,2,0,38376.2100531433,39318.2696442660,28158.0094474763,48989.5687808323,50249.8379792685,37398.1705825153,50573.9489195412,55540.7540918788,56947.7778816965,12209.8822278271
2560809884,14106,2,0,38352.9089137274,39317.5760855471,28162.7305138436,48992.7810527935,50251.7726430633,37406.2377655089,50575.6280617027,55542.2020478007,56948.8851421074,12212.5469534314
2560809884,14106,2,0,38376.0397053878,39324.9010390345,28163.8499419513,48997.6237961290,50276.1810428901,37404.5342879537,50577.4167131357,55547.7140144615,56966.9055011022,12209.6875446780
2560809884,14106,2,0,38386.9054586507,39318.5738366865,28159.2870556427,48990.9437305732,50263.5753089816,37398.1097440311,50573.4500439714,55542.7374264610,56955.7842262060,12207.5703654308
2560809884,14106,2,0,38367.4979822181,39311.7599264657,28160.9418624106,48990.3961842162,50232.2434896625,37398.7181288723,50575.2265277076,55538.1015339714,56943.7868771386,12209.2130045019
2560809884,14106,2,0,38367.2546282816,39311.6139141038,28158.4596522587,48992.5863696443,50234.1659857605,37395.4815215174,50576.8326636882,55538.2232109396,56957.4512006708,12203.8227148093
2560845418,14107,2,0,38372.4502348250,39312.5143236687,28155.0892002388,48991.5399477176,50235.1394015064,37393.1818268179,50576.4432973899,55537.4566460398,56955.6625492378,12199.5031824372
2560845418,14107,2,0,38356.3767073219,39312.6238329401,28158.2771368064,48991.6737923826,50230.0898073248,37397.5013591900,50577.9277564023,55537.1767890129,56939.6741956125,12203.3360069364
2560845418,14107,2,0,38364.1762009855,39322.8446982714,28160.9418624106,48997.6481315227,50255.1430950833,37398.5477811168,50583.4397230631,55543.6256683290,56952.5719542448,12203.6280316601
2560845418,14107,2,0,38386.0658875699,39325.9352932644,28158.7881800729,48994.6792134979,50273.3338018336,37389.4098408027,50579.5460600797,55543.4188174830,56958.6192995658,12200.5739397576
2560845418,14107,2,0,38363.8841762617,39311.9424419180,28152.4488100282,48985.9793102695,50243.0240690476,37383.7153586896,50571.2598585433,55535.4976468513,56933.9553781057,12198.9678037770
2560845418,14107,2,0,38341.7754711344,39310.8351815072,28152.3149653631,48987.1474091645,50230.0776396280,37388.8136236584,50573.4865470619,55534.0253555357,56936.8877930400,12200.8537967845
2560845418,14107,2,0,38362.7282450635,39319.7541032784,28153.1667041407,48990.0554887052,50251.1885936158,37390.2494118835,50576.9300052628,55538.9289373554,56955.3705245141,12201.3040015670
2560845418,14107,2,0,38369.5908260717,39318.2939796596,28153.5804058327,48986.1861611155,50246.9907382119,37385.3336623671,50572.1967711987,55536.8239258050,56941.2924992899,12203.8227148093
2560877384,14108,2,0,38351.3636162309,39312.5021559719,28154.5173184881,48983.3632554526,50237.2809161472,37383.8735387483,50568.0719219757,55532.9424305185,56928.5772561099,12206.4996081104
2560877384,14108,2,0,38357.9585079089,39314.1447950430,28154.4199769135,48985.2614161569,50253.1232574107,37382.0848873153,50569.6780579563,55534.4147218341,56946.5611120142,12205.5505277582
2560877384,14108,2,0,38358.7737435961,39310.4458152088,28152.7286670551,48981.4772624450,50248.2683463783,37380.7342729680,50566.1615935745,55533.1736167581,56941.9860580088,12209.6023708002
2560877384,14108,2,0,38337.2734233099,39306.9050154333,28155.4298957498,48980.7228652420,50231.0875584643,37386.8546244699,50567.2080155013,55533.6481569342,56927.1658032785,12217.5965476129
2560877384,14108,2,0,38349.1855984996,39315.5927509649,28159.3600618236,48986.0644841472,50246.1268317375,37390.7604551501,50572.0750942304,55539.7563407393,56946.6219504984,12213.8123939009
2560877384,14108,2,0,38373.9346938374,39319.0848799531,28156.0626159846,48985.5656085775,50255.6176352594,37386.1975688415,50571.0651753941,55539.6346637711,56952.9004820590,12211.3301837491
2560877384,14108,2,0,38353.4321246908,39311.1637093214,28153.0571948693,48982.9860568510,50231.6594402150,37383.4841724500,50566.5266244792,55533.2466229391,56933.3956640518,12213.0336613043
2560877384,14108,2,0,38335.8132996912,39313.8527703192,28157.6930873589,48987.7436263088,50231.7567817896,37389.7748717074,50570.7853183672,55536.7022488368,56942.8621321801,12214.4816172262
2560915737,14109,2,0,38356.3523719283,39320.0461280021,28160.3821483568,48989.1307437466,50253.5247914058,37389.5436854678,50572.3671189542,55539.4156452283,56957.9014054532,12211.1720036904
2560915737,14109,2,0,38361.6574877431,39318.9266998944,28161.0635393788,48988.6562035705,50248.8645635226,37387.0006368318,50573.3405347000,55536.4832302940,56941.8643810406,12210.6244573333
2560915737,14109,2,0,38353.1766030575,39318.7441844421,28162.4263214230,48989.7756316782,50240.3471757466,37390.6752812723,50576.0174280011,55536.6049072622,56936.4497559544,12210.5271157588
2560915737,14109,2,0,38371.8661853775,39324.5603435234,28161.2217194375,48993.2677606664,50257.5279636606,37386.9884691350,50580.0814387399,55541.0947873899,56954.7134688856,12208.1909179688
2560915737,14109,2,0,38367.8265100323,39314.6558383096,28153.5925735296,48984.6773667094,50248.5968741925,37383.3138246944,50574.2287765681,55536.7874227145,56942.2659150357,12204.2972549854
2560915737,14109,2,0,38343.1139177849,39312.2831374291,28158.3014722000,48982.8157090955,50233.9226318241,37390.6387781819,50575.1778569203,55534.9622681911,56929.1491378606,12204.8082982520
2560915737,14109,2,0,38359.4916377086,39325.3877469074,28163.2658925038,48988.6075327832,50261.3242850693,37394.3620934097,50578.5726443339,55540.8027626661,56951.8540601322,12203.8470502030
2560915737,14109,2,0,38385.2628195796,39329.7194469764,28162.9008615991,48990.4691903972,50273.8448451001,37389.3490023186,50578.6334828180,55542.6035817959,56955.9059031743,12204.6379504965
2560943771,14110,2,0,38364.2735425600,39318.3061473564,28157.0968702146,48984.2880004111,50248.5117003148,37383.6301848118,50574.1070995999,55536.6900811399,56932.5682606679,12207.9232286386
2560943771,14110,2,0,38349.7696479471,39319.7541032784,28158.3988137746,48988.4858558150,50247.4774460848,37391.6243616245,50576.4919681772,55542.5792464023,56942.7161198182,12208.3977688147
2560943771,14110,2,0,38367.1086159198,39327.0547213721,28161.5137441613,48991.5764508080,50266.6172331873,37395.7127077570,50578.0494333705,55547.8113560361,56956.6481326805,12208.4099365116
2560943771,14110,2,0,38364.6872442520,39325.7892809026,28162.9860354769,48987.4881046755,50251.7483076697,37393.2791683924,50574.8249937124,55543.4674882703,56941.7183686787,12211.2206744777
2560943771,14110,2,0,38358.0801848772,39329.2205714066,28167.6219279664,48989.3254268958,50246.4188564612,37394.3377580160,50575.6280617027,55542.5792464023,56943.4461816276,12210.0525755827
2560943771,14110,2,0,38376.3195624147,39334.6716995833,28166.3686551936,48988.7292097515,50261.2999496757,37387.0128045286,50576.5771420549,55544.0028669305,56960.6148018447,12206.9498128928
2560943771,14110,2,0,38366.0256909025,39324.1709772251,28159.8346019997,48980.5160143960,50244.9100620552,37380.2232297014,50569.5807163817,55535.1812867339,56944.2005788306,12203.1413237872
