steady_timestamp,sequence,battery,flags,EEG-ch1,EEG-ch2,EEG-ch3,EEG-ch4,EEG-ch5,EEG-ch6,EEG-ch7,EEG-ch8,EEG-ch9,EEG-ch10
6098939976,8706,-2,0,4042.7051017257,45902.9404569693,-788.9777973932,19307.9081694904,57339.3587008525,51287.2801457862,41743.3767949561,55532.2245364059,38757.8741993886,22598.6739429518
6098939976,8706,-2,0,4036.8889426443,45907.3329955224,-785.6925192510,19295.8621496356,57339.4925455175,51305.8237157443,41746.9175947316,55533.8306723866,38764.8706250617,22605.6947040187
6098939976,8706,-2,0,4033.7861799544,45913.8305456258,-776.8101005703,19298.9892477191,57347.3772130588,51309.1454969770,41753.3421386541,55541.6910045342,38770.5042686908,22608.3715973197
6098939976,8706,-2,0,4039.5901713390,45912.8571298800,-775.1066230151,19313.0186021560,57350.1271125408,51292.1958953026,41748.4993953185,55540.8636011502,38765.5885191743,22604.6482820919
6098939976,8706,-2,0,4031.0241127756,45904.5587606467,-790.5109271929,19293.1244178505,57337.9229126273,51287.7060151750,41737.4511266033,55528.4038796035,38756.0855479556,22602.3485873924
6098939976,8706,-2,0,4026.4733941639,45903.9138727151,-796.9719742059,19281.8571305924,57339.4560424270,51291.5631750678,41734.7620656054,55527.5399731291,38754.5645858527,22604.5874436078
6098939976,8706,-2,0,4040.7461025372,45904.2667359230,-789.2454867233,19302.2258550740,57345.2356984179,51284.3112277614,41735.1514319038,55533.7454985088,38754.2968965226,22603.1516553827
6098939976,8706,-2,0,4042.3400708210,45900.3852406365,-789.5740145375,19299.2204339588,57340.6728121093,51282.9362780204,41732.2311846663,55529.2677860780,38751.5348293438,22601.9348857004
6098963802,8707,-2,0,4022.8474205106,45901.8940350425,-791.0828089436,19281.2852488418,57333.7737280107,51291.4049950091,41734.2753577325,55527.6373147037,38749.8921902727,22603.4071770160
6098963802,8707,-2,0,4028.3107163841,45905.9093749941,-785.8263639161,19296.5070375673,57342.4979666328,51285.3941527786,41737.4511266033,55531.6404869584,38753.3113130800,22600.0488926928
6098963802,8707,-2,0,4040.9407856863,45904.9967977323,-787.9922139505,19303.4426247563,57343.8850840706,51282.2792223919,41736.8914125494,55528.0023456084,38749.5393270648,22596.0700558317
6098963802,8707,-2,0,4036.8889426443,45907.9413803635,-790.8516227039,19287.0162340454,57341.0013399235,51292.3905784518,41739.7994920901,55528.3673765131,38751.2914754073,22596.8487884284
6098963802,8707,-2,0,4035.7208437493,45912.7597883054,-786.2522333049,19296.7503915037,57346.2212818606,51290.4924177474,41747.2704579394,55533.1614490613,38755.4771631144,22600.0488926928
6098963802,8707,-2,0,4038.7627679550,45907.4060017033,-787.1283074761,19309.0519329917,57344.3231211562,51277.2052928168,41743.6809873766,55530.9590959363,38752.2283880627,22598.9416322819
6098963802,8707,-2,0,4027.0452759145,45902.1008858885,-797.2883343233,19292.7958900363,57334.6619698788,51284.2990600645,41737.7918221143,55525.0212598868,38750.7804321408,22596.5689314015
6098963802,8707,-2,0,4025.9745185941,45905.4348348180,-795.5118505871,19291.7738035031,57339.2978623683,51292.4270815423,41740.7972432296,55528.8419166892,38756.5357527380,22595.9727142572
6098998039,8708,-2,0,4046.8907894327,45908.7079452633,-783.9647063022,19316.6202404156,57348.3262934110,51288.0588783828,41745.6399865651,55536.7022488368,38758.4095780488,22596.1795651031
6098998039,8708,-2,0,4051.7213650715,45908.8417899284,-782.3464026247,19312.1060248943,57345.2235307211,51291.8186967011,41745.9320112889,55534.8770943133,38757.4970007870,22596.4107513428
6098998039,8708,-2,0,4041.6100090116,45916.6291158951,-782.5654211675,19300.1330112205,57346.0022633178,51305.6777033824,41751.8455119448,55539.1479558982,38762.7899489050,22598.4670921059
6098998039,8708,-2,0,4051.6848619810,45925.7427208155,-771.0304445794,19319.7595061959,57357.9509415979,51306.5781129473,41756.4935721312,55548.6874302074,38769.4456790672,22601.9348857004
6098998039,8708,-2,0,4063.7795526230,45930.1595947622,-763.2187832190,19326.4030686612,57363.6697591047,51311.3356824051,41757.6130002389,55553.2259811223,38775.3226766327,22608.1647464737
6098998039,8708,-2,0,4057.0143131894,45937.7035667924,-761.4422994829,19309.6603178329,57365.2758950853,51327.8594146907,41761.3606508604,55559.5410157734,38784.2537661007,22612.5816204205
6098998039,8708,-2,0,4060.7862992045,45942.0352668614,-755.7113142793,19319.6865000150,57373.6229351059,51319.4515361860,41765.8261955944,55566.9389754418,38790.7756515978,22610.9024782589
6098998039,8708,-2,0,4066.9918245842,45935.5012136675,-758.6315615168,19329.7005145002,57366.1519692566,51298.6934454061,41757.3209755152,55554.1872291713,38778.9364825891,22599.0998123406
6099050421,8709,-2,0,4060.2874236348,45934.1019285328,-767.8425080118,19311.7044908991,57351.6724100373,51301.6015249468,41751.0059408641,55540.8757688470,38771.2830012874,22593.7338580417
6099050421,8709,-2,0,4067.9044018460,45943.2398688469,-764.1435281776,19320.1367047974,57357.4764014218,51307.2473362726,41756.7734291581,55545.0492888573,38770.7476226272,22592.6022622372
6099050421,8709,-2,0,4096.2551354434,45950.3944745787,-755.1272648318,19348.3049229425,57367.6607636626,51298.7786192838,41764.7189351835,55552.3499069511,38769.8958838496,22590.3512383250
6099050421,8709,-2,0,4101.9861206470,45951.9154366816,-762.9024231016,19340.7244478218,57364.1929700681,51299.8980473915,41766.2520649832,55548.1033807599,38762.3275764258,22585.1434640847
6099050421,8709,-2,0,4095.7805952673,45957.5855834011,-765.2142854980,19331.2214766031,57363.5967529238,51305.8237157443,41770.2552372380,55550.9506218164,38765.5520160838,22578.6459139813
6099050421,8709,-2,0,4112.5963522766,45961.4184079003,-759.5076356880,19352.8434738575,57371.7734451888,51296.1868998605,41772.5305965438,55555.7690297583,38765.8562085044,22573.9613507044
6099050421,8709,-2,0,4124.1313288648,45962.5500037049,-763.1579447349,19355.5081994617,57371.0555510762,51292.7069385692,41769.2939891889,55549.0159580216,38762.8264519955,22572.7445810222
6099050421,8709,-2,0,4118.1813251184,45964.7158537393,-772.2472142617,19336.9524618067,57368.0988007482,51296.0530551955,41768.9532936779,55546.3390647205,38761.7556946751,22571.4791405526
6099058315,8710,-2,0,4120.1524920037,45965.4702509424,-775.5689954943,19346.6987869619,57369.4007443083,51283.3864828028,41768.2840703526,55546.4729093856,38757.7646901172,22561.9153308497
6099058315,8710,-2,0,4120.0794858227,45960.1894705212,-781.8231916613,19353.7560511192,57362.8423557207,51272.4720587526,41764.8406121517,55540.6810856979,38749.2351346443,22554.1401725799
6099058315,8710,-2,0,4101.8522759820,45955.9916151173,-794.6966149000,19334.2147300216,57351.1735344675,51279.6388321814,41763.2466438679,55534.6580757705,38742.7984230249,22549.3582677285
6099058315,8710,-2,0,4105.4539142416,45960.7491845751,-793.9665530906,19341.3084972693,57358.6445003168,51278.5315717705,41769.7928647587,55538.4422294825,38744.3558882183,22546.4015174005
6099058315,8710,-2,0,4129.2052584400,45960.4449921545,-792.7132803178,19363.0035007046,57368.4151608656,51267.9700109281,41771.5328454044,55541.0217812089,38742.2387089711,22542.0819850283
6099058315,8710,-2,0,4129.5337862542,45956.5513291711,-802.9219779523,19350.3977667961,57362.6233371779,51267.7023215980,41768.6977720446,55535.6558269100,38736.5077237675,22540.1351535367
6099058315,8710,-2,0,4124.8248875837,45957.7680988534,-808.4826154004,19343.0363102182,57362.5746663906,51267.1912783315,41773.1024782945,55536.0816962988,38736.4590529802,22541.3397555221
6099058315,8710,-2,0,4137.5279630668,45958.7780176898,-806.9616532975,19364.5366305043,57366.7846894914,51257.3354439049,41775.3413345099,55537.0307766510,38734.8407493027,22538.6628622211
6099115602,8711,-2,0,4139.7303161918,45950.4431453660,-820.4312936805,19358.0634157945,57354.9576881795,51248.8302238257,41766.3494065578,55526.5300542928,38723.4882881669,22532.2504859954
6099115602,8711,-2,0,4131.6387978045,45947.9000967300,-831.7715871195,19340.3350815235,57348.5331442570,51247.5526156592,41763.6603455599,55522.4052050698,38718.3778555013,22529.0868848214
6099115602,8711,-2,0,4137.0412551939,45943.6414028420,-832.1974565083,19353.8047219065,57349.6282369710,51236.8085393646,41760.0343719067,55523.0379253046,38714.4355217307,22525.7042651047
6099115602,8711,-2,0,4137.7469816097,45934.2722762883,-839.2303852720,19355.1431685570,57343.7147363151,51229.3740766058,41754.1938774317,55516.0049965409,38705.6382769277,22520.8615217691
6099115602,8711,-2,0,4116.3196675045,45927.1420059501,-851.0938896743,19329.0434588718,57333.3356909251,51234.3384969095,41751.9793566099,55509.6047880121,38702.0244709713,22517.8317652602
6099115602,8711,-2,0,4114.9568854603,45927.3001860088,-850.9965480997,19333.6063451804,57339.1518500065,51230.9558771928,41757.2966401215,55516.5890459884,38704.7622027564,22516.7123371525
6099115602,8711,-2,0,4126.1389988406,45919.7318785849,-853.2475720120,19349.0228170551,57340.8918306521,51218.1311247414,41755.3133055394,55514.1311712302,38698.9217082814,22513.0011896215
6099115602,8711,-2,0,4113.0222216654,45909.1338146521,-868.1530006201,19327.4008198007,57327.2640102104,51216.5371564576,41750.7382515340,55503.6426165688,38692.5336674494,22511.5532336996
6099124225,8712,-2,0,4098.9076933508,45905.4470025148,-872.7523900192,19319.5891584404,57327.4465256628,51222.4019863262,41752.1132012750,55505.4921064859,38697.5832616309,22513.1837050739
6099124225,8712,-2,0,4099.1023765000,45899.1198001669,-869.2967641214,19330.1872223732,57326.9354823962,51214.7850081151,41749.6553265167,55507.1590809507,38699.4449192448,22512.9525188342
6099124225,8712,-2,0,4092.2762985823,45890.5415739067,-875.3197740488,19313.5418131194,57315.6195243509,51213.2275429217,41740.5173862027,55497.3884204018,38693.0933815032,22513.9381022769
6099124225,8712,-2,0,4086.5574810755,45891.4054803811,-877.9358288657,19300.9117438172,57313.4171712259,51216.7196719099,41741.7706589754,55496.9260479226,38693.2515615619,22515.1305365655
6099124225,8712,-2,0,4097.9099422113,45891.1621264447,-875.1372585965,19325.4904913995,57324.7818000586,51210.8183389508,41745.1046079049,55503.6061134784,38695.7581071074,22516.2134615828
6099124225,8712,-2,0,4095.1843781230,45884.9566010650,-883.8371618249,19329.1408004464,57319.3671749724,51208.9931844273,41741.4421311612,55497.3519173114,38692.5458351462,22516.2743000669
6099124225,8712,-2,0,4074.0247533479,45881.8903414656,-893.0481083198,19307.0077599255,57308.9394587951,51214.7120019341,41737.7796544175,55491.0977211444,38693.0203753223,22519.4135658472
6099124225,8712,-2,0,4071.9075741007,45879.6514852502,-891.0404383440,19310.9257583024,57309.1341419443,51206.8760051802,41736.0640091655,55491.6087644110,38694.4926666379,22517.9047714412
6099174272,8713,-2,0,4081.8364147082,45871.0732589900,-891.9530156058,19316.8270912616,57304.6685972102,51198.4681266755,41728.9702419177,55486.6930148945,38688.4696567105,22512.2102893280
6099174272,8713,-2,0,4075.8499078714,45868.1895148429,-894.2527103053,19299.2569370492,57299.0227858844,51212.6556611711,41727.1085843038,55483.2860597841,38690.4164882022,22513.9137668832
6099174272,8713,-2,0,4073.0026668148,45871.6694761343,-890.2982088378,19298.3930305748,57304.9241188435,51214.8336789024,41731.5862967346,55490.2581500636,38694.3831573665,22516.6393309716
6099174272,8713,-2,0,4080.2059433340,45871.1949359582,-885.4189624118,19313.2376206988,57307.5766767509,51200.9138337369,41731.8418183679,55489.9174545526,38689.5525817277,22516.9435233921
6099174272,8713,-2,0,4068.9143206823,45866.1575094735,-893.8755117038,19299.0379185064,57297.6721715371,51199.0278407294,41728.0454969592,55481.3148928987,38683.7729257368,22512.5753202327
6099174272,8713,-2,0,4057.5618595465,45868.6518873222,-896.2725479779,19293.2217594251,57301.0912943443,51202.8728329254,41731.3794458887,55482.0449547081,38683.9797765828,22512.2954632058
6099174272,8713,-2,0,4070.9706614454,45869.0290859237,-889.3612961825,19314.6855766207,57309.1341419443,51195.9737488268,41732.1703461821,55486.7173502881,38684.2109628225,22512.5509848391
6099174272,8713,-2,0,4075.6065539349,45866.0845032926,-891.0161029504,19309.2466161409,57304.8632803594,51197.8840772280,41731.0630857713,55481.7042591971,38679.9644366313,22512.2711278121
6099179977,8714,-2,0,4060.9931500505,45866.9970805543,-891.7339970630,19289.8756427988,57301.1521328284,51208.8593397623,41732.6205509646,55483.7119291729,38684.6733353017,22512.2346247217
6099179977,8714,-2,0,4063.7552172293,45868.9682474396,-883.9101680058,19303.8198233578,57308.8907880078,51205.4037138646,41736.1978538305,55491.4992551395,38689.0537061580,22510.9813519489
6099179977,8714,-2,0,4070.9219906581,45865.5491246324,-883.8371618249,19313.1889499115,57309.3531604871,51198.6628098247,41733.8616560405,55490.8300318143,38687.5449117520,22510.1052777776
6099179977,8714,-2,0,4057.5618595465,45862.3733557616,-892.0138540899,19293.1609209410,57303.9750384913,51206.9855144516,41730.5033717174,55486.8876980436,38687.8247687789,22509.9957685062
6099179977,8714,-2,0,4054.8971339422,45865.9749940212,-888.2905388621,19300.0721727364,57308.3432416508,51208.3847995862,41735.3096119625,55494.1761484406,38693.5679216793,22511.6384075773
6099179977,8714,-2,0,4059.1436601335,45862.9452375123,-885.9300056784,19314.1867010510,57310.6064332598,51201.8142433018,41733.2654388962,55493.7867821423,38690.2339727498,22509.8862592348
6099179977,8714,-2,0,4048.5820992911,45860.4508596636,-892.0868602708,19296.7625592005,57304.2062247310,51209.5894015717,41729.3352728224,55489.8444483716,38688.4574890137,22511.5897367900
6099179977,8714,-2,0,4044.3599084936,45863.5292869598,-892.7195805056,19289.8513074051,57306.6275963987,51209.9057616891,41731.2090981331,55492.6673540345,38690.1609665689,22515.5685736511
6099218145,8715,-2,0,4062.0639073710,45860.8645613555,-891.5879847011,19310.3295411581,57309.5965144235,51192.9196569242,41730.2843531746,55491.4749197459,38684.8923538446,22512.1981216312
6099218145,8715,-2,0,4059.9102250333,45852.5418567286,-902.5389118417,19298.7215583890,57300.3977356254,51190.1697574423,41723.4461075601,55480.3536448497,38678.8815116140,22508.2679555574
6099218145,8715,-2,0,4039.3954881898,45849.5729387038,-907.4181582677,19279.3627527437,57290.3715534433,51197.3365308710,41719.1995813689,55475.7907585411,38680.0982812963,22510.7136626188
6099218145,8715,-2,0,4036.5360794364,45847.4192563662,-903.3419798320,19289.2915933513,57291.1259506463,51184.4509399355,41713.7484531922,55474.2576287414,38679.4047225774,22513.6825806436
6099218145,8715,-2,0,4035.5261606001,45840.4106629962,-907.8318599597,19288.4763576641,57286.3805488854,51179.4621842381,41704.5131713036,55465.6185639971,38671.2401980092,22512.7821710787
6099218145,8715,-2,0,4026.9844374304,45839.9726259105,-914.4389193346,19269.4947506203,57278.9460861265,51186.9696531778,41704.2333142767,55460.5081313315,38670.0477637206,22513.0498604088
6099218145,8715,-2,0,4035.5991667811,45844.3894998573,-910.0585484783,19281.2000749640,57285.2854561713,51185.5703680432,41712.4708450258,55466.9691783445,38671.8607505472,22512.1737862375
6099218145,8715,-2,0,4046.8542863423,45844.7180276715,-905.7025130157,19297.7481426432,57288.2178711056,51181.9200589963,41717.2649175740,55467.6627370634,38671.2401980092,22511.9182646043
6099255458,8716,-2,0,4035.1002912113,45844.9370462143,-910.0950515688,19278.6570263280,57283.2291154082,51191.3986948214,41719.1874136721,55465.3265392734,38674.6958239069,22514.6194932990
6099255458,8716,-2,0,4031.9245223405,45850.1448204545,-905.1062958714,19276.6371886554,57290.6635781670,51196.7768168171,41723.2879275014,55473.7830885653,38682.6048268418,22518.9998641552
6099255458,8716,-2,0,4047.4018326993,45848.4656782930,-898.2315471664,19293.9639889313,57297.0272836054,51187.4198579603,41719.3942645181,55475.0363613381,38682.8360130815,22518.6470009474
6099255458,8716,-2,0,4047.3044911247,45843.8662888939,-903.6705076463,19284.7773778299,57291.6369939129,51192.2139305085,41713.6146085272,55470.3396303644,38680.8040077120,22518.7321748251
6099255458,8716,-2,0,4036.0493715635,45846.3119959553,-905.4956621697,19276.3694993253,57290.5175658052,51198.0300895899,41716.1819925568,55472.8218405163,38683.5052364067,22522.3094776911
6099255458,8716,-2,0,4039.1399665565,45845.9956358379,-899.2658013964,19298.7823968731,57294.4355641822,51189.0138262441,41717.3257560582,55478.5163226295,38681.4610633405,22519.1458765171
6099255458,8716,-2,0,4038.4099047472,45841.9316250990,-903.0256197146,19301.3011101155,57290.4932304115,51178.9633086683,41714.9165520872,55472.8826790004,38674.9635132370,22517.8926037443
6099255458,8716,-2,0,4026.1570340465,45839.9482905169,-910.2897347179,19280.7620378784,57283.1196061368,51186.0814113097,41714.1986579747,55469.6582393424,38673.1748618041,22518.6226655537
6099292001,8717,-2,0,4035.3558128446,45840.1064705756,-908.8296110992,19286.8458862898,57286.5265612472,51180.7762954949,41715.0382290554,55471.5929031372,38673.0531848358,22514.6803317831
6099292001,8717,-2,0,4045.2481503617,45838.3056514458,-909.3893251530,19292.2483436792,57287.5608154772,51181.5550280916,41714.9287197840,55471.7997539832,38670.5953100776,22514.4734809371
6099292001,8717,-2,0,4033.7861799544,45840.5810107517,-915.4853412613,19274.2644877749,57283.1074384400,51195.6087179221,41718.1166563516,55472.1161141006,38671.8972536377,22518.1602930744
6099292001,8717,-2,0,4032.4355656071,45848.5386844739,-908.0752138962,19282.2951676781,57292.3427203286,51196.0832580982,41723.5677845283,55479.1368751674,38678.2731267729,22521.0683726151
6099292001,8717,-2,0,4046.9637956137,45848.7577030167,-898.9251058853,19302.2380227709,57299.9840339334,51184.4752753291,41722.0711578191,55481.0107004782,38677.6647419317,22520.5694970454
6099292001,8717,-2,0,4040.1498853928,45844.0853074367,-903.7313461304,19285.8237997567,57290.7609197416,51184.8159708402,41714.9773905713,55472.1282817974,38673.3573772564,22518.2576346490
6099292001,8717,-2,0,4031.5838268295,45846.1659835934,-902.9891166242,19274.7633633447,57287.8771755946,51190.4739498628,41717.2162467868,55472.7001635481,38675.9004258924,22519.0850380330
6099292001,8717,-2,0,4039.1521342534,45844.9127108207,-896.5280696112,19293.5502872393,57291.0894475558,51184.9498155052,41718.5425257404,55477.0805344044,38678.9788531886,22520.3869815930
6099312306,8718,-2,0,4039.6996806104,45840.4106629962,-899.8133477534,19290.8612262414,57284.8230836920,51180.2652522284,41714.3933411238,55471.0331890834,38674.8418362688,22522.0539560578
6099312306,8718,-2,0,4033.5793291085,45841.9559604927,-904.1937186096,19276.9657164696,57284.8474190857,51186.6411253636,41716.9850605471,55471.7754185896,38675.5475626845,22523.7696013098
6099312306,8718,-2,0,4043.1431388113,45844.5355122191,-901.1396267071,19293.8909827503,57292.1967079667,51177.9412221352,41720.4285187480,55476.6911681060,38675.2068671735,22521.8471052118
6099312306,8718,-2,0,4045.2481503617,45842.0046312800,-903.5001598907,19300.8387376362,57289.6658270276,51173.8163729122,41718.6642027087,55473.4058899638,38669.0743479747,22519.2797211821
6099312306,8718,-2,0,4030.4035602377,45844.3894998573,-908.8174434024,19281.0053918148,57284.7379098143,51184.6699584783,41721.2924252224,55473.6249085066,38668.8431617351,22519.9854475979
6099312306,8718,-2,0,4029.7100015188,45847.2610763075,-909.4744990308,19284.9598932823,57290.8704290130,51182.9056424390,41724.2005047631,55478.2608009962,38670.9725086791,22515.8119275876
6099312306,8718,-2,0,4043.5811758969,45844.6206860969,-908.1847231676,19300.5832160029,57297.5869976593,51182.7839654707,41724.3586848218,55481.6799238034,38672.1771106646,22517.8195975634
6099312306,8718,-2,0,4035.2706389668,45843.3065748400,-910.8372810750,19283.1590741525,57292.8050928079,51186.1787528843,41723.3609336823,55478.0539501502,38672.9923463517,22519.2067150012
6099340111,8719,-2,0,4024.1128609802,45843.5985995638,-907.4789967518,19278.8152063867,57290.0916964164,51184.6091199942,41723.0689089586,55475.8394293284,38675.2190348703,22520.0949568693
6099340111,8719,-2,0,4034.9056080622,45844.4260029477,-898.7182550393,19300.6927252744,57293.0362790475,51177.8073774701,41720.3798479607,55476.0097770839,38674.5011407578,22517.9777776221
6099340111,8719,-2,0,4038.2395569916,45843.8176181066,-902.5389118417,19295.9108204229,57285.9790148902,51182.5162761406,41718.6276996182,55471.3008784135,38670.7048193490,22517.2112127222
6099340111,8719,-2,0,4038.5802525027,45851.4224286209,-900.8719373770,19291.4939464762,57288.2422064993,51194.2459358779,41726.5732056436,55475.6082430888,38676.3019598876,22521.7254282436
6099340111,8719,-2,0,4055.1648232723,45855.6567871153,-892.9994375325,19312.8117513100,57298.1832148036,51185.7163804051,41732.3528616345,55484.5149971632,38680.1347843868,22519.6447520868
6099340111,8719,-2,0,4057.7930457861,45852.2498320049,-895.5303184717,19310.6337335787,57293.3648068617,51180.2895876220,41728.0454969592,55479.9034400673,38675.2190348703,22517.1138711477
6099340111,8719,-2,0,4037.0471227030,45849.0618954373,-905.6538422284,19279.2045726850,57282.0731842100,51185.4486910750,41721.9129777604,55472.8218405163,38674.6958239069,22517.0773680572
6099340111,8719,-2,0,4035.3314774510,45849.6216094911,-902.0278685752,19283.9986452333,57287.3539646312,51183.5140272801,41720.8422204400,55475.7177523602,38678.8693439172,22517.9169391380
6099372593,8720,-2,0,4047.8885405722,45845.4845925713,-899.4604845455,19298.1253412447,57288.4612250421,51178.6104454605,41716.6200296424,55470.7776674501,38678.9058470077,22518.6713363410
6099372593,8720,-2,0,4039.9065314564,45842.5886807275,-906.7611026393,19280.6160255165,57284.3972143032,51188.7704723076,41714.4055088207,55465.0588499433,38677.5917357508,22519.5595782091
6099372593,8720,-2,0,4036.3535639841,45846.6161883759,-903.1351289860,19281.0053918148,57288.3030449834,51190.8754838580,41719.2360844594,55472.4811450053,38682.1181189689,22517.1382065413
6099372593,8720,-2,0,4043.9948775889,45847.1028962488,-894.2040395180,19298.6242168144,57294.0461978838,51181.7983820281,41720.6353695940,55475.7420877538,38681.9356035166,22517.2598835095
6099372593,8720,-2,0,4036.0372038667,45846.0564743220,-894.5812381195,19285.7629612726,57287.0741076043,51187.6997149872,41719.2360844594,55474.8903489762,38681.4123925532,22520.9345279501
6099372593,8720,-2,0,4026.4612264670,45847.2367409138,-894.9341013274,19275.4325866699,57285.3949654427,51190.2670990168,41721.4992760684,55475.9367709030,38681.7530880642,22518.0507838030
6099372593,8720,-2,0,4038.0813769329,45847.1150639456,-892.4518911755,19299.2082662620,57290.3837211401,51177.5518558369,41722.3996856333,55479.2828875293,38679.6359088170,22513.0255250152
6099372593,8720,-2,0,4042.5469216670,45842.2114821260,-900.7137573183,19297.6751364623,57283.7036555843,51174.4125900565,41719.4307676085,55471.2643753230,38674.2942899118,22509.1075266382
6099419593,8721,-2,0,4031.0606158661,45841.5787618912,-909.6326790895,19278.5718524502,57275.5634664098,51182.2364191137,41720.8543881368,55465.1805269115,38674.2699545181,22511.9182646043
6099419593,8721,-2,0,4034.7960987907,45844.4381706446,-904.6682587857,19291.8711450777,57281.1971100388,51183.0273194072,41725.2225912962,55471.9701017387,38677.4457233889,22514.7290025704
6099419593,8721,-2,0,4047.0246340978,45843.6107672606,-899.9228570248,19304.0023388102,57284.1173572763,51181.9808974804,41725.2347589931,55469.8407547947,38677.5674003571,22512.4779786581
6099419593,8721,-2,0,4044.3355730999,45845.2412386349,-899.4726522423,19288.7197116006,57283.4724693447,51190.7903099802,41726.6827149150,55470.2057856994,38679.5507349393,22513.0985311961
6099419593,8721,-2,0,4049.5676827338,45849.9623050022,-890.6024012584,19295.2415970977,57289.4833115752,51191.3135209436,41733.4236189549,55476.8858512552,38685.9144403777,22516.5176540033
6099419593,8721,-2,0,4058.9733123779,45849.8041249435,-887.1467753607,19309.8306655884,57294.6545827250,51183.9155612753,41735.0419226324,55481.3635636860,38684.9653600255,22519.8029321455
6099419593,8721,-2,0,4048.3509130515,45850.3151682100,-892.2937111168,19293.6719642075,57291.0529444654,51195.1585131397,41734.5552147594,55480.8646881163,38687.4719055710,22521.9931175737
6099419593,8721,-2,0,4040.3080654515,45856.2651719565,-889.5803147253,19287.3690972532,57297.8911900799,51201.7899079082,41737.0374249113,55487.9584553641,38692.9595368382,22523.5019119797
6099437091,8722,-2,0,4062.8183045740,45860.7428843873,-879.1525985480,19312.6779066449,57310.6186009567,51193.6983895209,41740.2618645694,55494.4803408612,38696.4760012200,22525.4244080777
6099437091,8722,-2,0,4065.6898810242,45859.1367484067,-883.4842986170,19305.8883318177,57306.0435469512,51192.1409243276,41735.7841521386,55489.2360635305,38692.6188413271,22520.5451616517
6099437091,8722,-2,0,4052.7434516046,45858.7473821083,-889.2396192142,19285.9454767249,57300.4585741095,51201.0233430083,41735.2366057815,55488.1409708164,38690.7085129259,22516.4324801256
6099437091,8722,-2,0,4059.3018401921,45861.3756046221,-885.1512730817,19301.9338303503,57307.6253475382,51199.4172070277,41739.1059333712,55493.5799312963,38694.4074927601,22518.0386161062
6099437091,8722,-2,0,4070.0702518805,45864.0768333168,-883.2774477710,19310.2200318867,57311.7988675485,51203.4568823729,41738.6070578015,55495.7336136339,38696.0501318312,22520.0584537788
6099437091,8722,-2,0,4062.6114537280,45868.1408440557,-884.6280621184,19295.3632740659,57310.4360855043,51211.1712021586,41740.6025600804,55496.6340231988,38702.2069864236,22522.8205209576
6099437091,8722,-2,0,4065.1423346672,45870.2215202124,-879.6514741178,19302.9194137929,57317.0553125760,51205.2211984122,41742.7197393276,55501.5619404121,38705.3705875976,22526.6168423664
6099437091,8722,-2,0,4071.6763878611,45866.1210063830,-878.7023937656,19312.6900743418,57315.1693195684,51192.2626012958,41738.7895732538,55499.5907735268,38701.0023844381,22525.6312589237
6099468578,8723,-2,0,4056.5762761038,45859.5261147050,-884.3847081819,19293.0635793664,57303.5978398898,51198.9183314579,41734.0198360992,55491.2315658094,38698.9703790687,22523.6722597352
6099468578,8723,-2,0,4053.0719794188,45865.4517830578,-876.5365437311,19296.4096959927,57309.7911975727,51212.1446179045,41741.6611497040,55500.7588724218,38706.7577050354,22524.0981291240
6099468578,8723,-2,0,4071.7858971325,45867.7758131510,-865.2935918667,19318.3602210613,57316.6781139745,51203.6028947348,41743.7296581639,55503.8859705053,38707.6702822971,22521.3238942484
6099468578,8723,-2,0,4068.8899852886,45861.8258094045,-871.0610801608,19306.8374121699,57311.2026504042,51202.9093360159,41739.4101257918,55493.5799312963,38702.7788681743,22516.8096787271
6099468578,8723,-2,0,4057.5740272433,45864.4296965247,-874.9182400536,19296.2636836308,57310.2292346583,51211.8890962712,41743.2429502910,55495.0157195214,38706.5386864926,22519.6447520868
6099468578,8723,-2,0,4064.3270989800,45869.3819491316,-869.4306087865,19320.7937604259,57320.4014292023,51208.4699734640,41749.6674942135,55504.0928213513,38712.1844978184,22522.0661237546
6099468578,8723,-2,0,4070.9219906581,45871.0489235963,-869.2845964246,19325.8433546074,57323.0418194129,51209.8814262954,41750.6165745657,55505.6624542415,38712.2453363025,22520.6668386200
6099468578,8723,-2,0,4064.2175897086,45874.9669219733,-874.1030043665,19309.8671686788,57323.8205520096,51218.3136401937,41753.2813001700,55509.9211481295,38713.5594475594,22519.1702119107
6099496929,8724,-2,0,4075.8620755682,45880.1138577294,-870.6108753783,19327.5589998594,57335.2581870231,51215.1013682325,41760.8496075938,55519.8499887370,38716.9298995794,22517.5032374460
6099496929,8724,-2,0,4085.6084007233,45879.3959636169,-870.8055585275,19341.7952051422,57338.2514404416,51209.5650661780,41762.7842713887,55522.1010126492,38715.9321484399,22514.4856486339
6099496929,8724,-2,0,4072.8931575434,45878.7024048980,-878.6050521910,19322.9109396730,57330.9629900446,51216.8656842718,41764.1105503424,55519.5579640132,38716.3458501319,22516.1526230986
6099496929,8724,-2,0,4071.7980648293,45883.2774589034,-876.6703883961,19324.6144172283,57333.9562434631,51216.5371564576,41768.4787535018,55523.1109314855,38719.3512712471,22518.2332992554
6099496929,8724,-2,0,4088.4191386894,45882.8029187273,-872.4968683859,19341.5761865994,57339.5777193953,51204.9413413853,41765.4124939024,55521.4196216272,38717.1245827285,22518.0751191967
6099496929,8724,-2,0,4082.3839610653,45876.2323624429,-881.5983056094,19324.5779141378,57328.7484692228,51205.7079062851,41758.7567637403,55510.3348498215,38710.7365418965,22516.3594739446
6099496929,8724,-2,0,4068.0625819047,45876.8772503745,-884.4698820597,19311.6314847182,57325.1468309633,51211.9134316648,41758.0145342341,55509.5074464375,38712.3670132708,22515.9336045558
6099496929,8724,-2,0,4073.5137100813,45875.1616051225,-882.2796966315,19327.4129874975,57328.8214754038,51201.9359202700,41758.3552297451,55512.9509046384,38711.9776469724,22513.4513944040
6099529348,8725,-2,0,4069.8025625503,45869.6253030681,-889.8845071459,19322.5702441620,57321.7885466401,51201.1693553702,41752.9649400526,55507.7796334886,38706.8793820036,22513.7312514309
6099529348,8725,-2,0,4060.6767899331,45873.4094567800,-892.3788849946,19309.2344484441,57323.3703472271,51212.4244749314,41755.1064546934,55510.5051975770,38711.0285666202,22516.8096787271
6099529348,8725,-2,0,4069.7903948535,45876.3053686238,-881.8051564554,19326.3178947835,57334.7593114534,51208.9445136401,41756.4692367376,55518.0004988199,38715.1777512369,22520.8615217691
6099529348,8725,-2,0,4072.8079836656,45869.3941168284,-881.5861379126,19327.4494905880,57329.6002080005,51198.4559589787,41749.6066557294,55512.2816813131,38710.7973803806,22519.2067150012
6099529348,8725,-2,0,4050.7601170224,45861.7041324363,-895.3356353225,19295.9594912102,57312.2490723309,51199.2955300595,41741.1136033470,55501.9878098009,38707.1835744242,22513.3662205262
6099529348,8725,-2,0,4045.5645104790,45857.7374632720,-896.8687651222,19293.3677717869,57309.8763714505,51191.1066700976,41737.3537850287,55501.2699156884,38704.8108735437,22507.5378937480
6099529348,8725,-2,0,4059.6425357032,45851.9213041907,-900.3365587168,19304.7810714069,57310.5090916853,51174.3152484820,41730.9779118935,55496.4515077465,38695.6120947456,22504.5446403296
6099529348,8725,-2,0,4056.4667668324,45847.9911381169,-913.2464850459,19290.6422076986,57303.0867966233,51178.9268055779,41727.8264784164,55487.0458781023,38686.0361173459,22502.0015916936
6099557224,8726,-2,0,4048.4482546261,45851.5076024987,-915.8382044692,19290.9950709065,57305.2039758705,51182.4554376565,41734.2388546420,55491.6209321078,38686.9730300013,22501.4905484270
6099557224,8726,-2,0,4053.6316934727,45854.2818373743,-909.0242942484,19312.6657389481,57313.6118543751,51181.1048233092,41739.8968336647,55498.8363763238,38689.3822339722,22502.9020012585
6099557224,8726,-2,0,4047.3044911247,45854.2940050711,-907.0409596662,19305.0852638274,57310.1683961742,51187.4806964444,41740.9432555915,55497.0720602845,38690.1853019625,22508.2314524669
6099557224,8726,-2,0,4040.8677795054,45858.3823512037,-904.4614079397,19292.1875051951,57308.6717694650,51190.3036021073,41744.4597199733,55499.3352518935,38692.8743629604,22511.6749106678
6099557224,8726,-2,0,4058.9611446811,45857.1047430372,-897.9273547458,19309.0762683854,57311.4581720374,51175.4225088929,41742.7075716308,55496.3663338687,38688.0316196249,22509.7889176603
6099557224,8726,-2,0,4066.5781228923,45849.0983985277,-903.1959674702,19308.8572498425,57302.3932379044,51167.8298660753,41735.7841521386,55483.0062027571,38679.5750703329,22506.6496518799
6099557224,8726,-2,0,4056.3329221674,45850.5341867529,-910.5574240480,19289.1699163830,57297.6113330529,51185.2661756226,41738.4610454396,55480.3536448497,38684.6976706954,22509.3752159683
6099557224,8726,-2,0,4062.0760750678,45857.0439045531,-904.2302217001,19302.1650165899,57309.0733034602,51185.2175048353,41746.5647315237,55490.8421995111,38691.4629101289,22511.3707182472
6099583514,8727,-2,0,4074.6818089763,45854.8780545186,-903.3298121352,19317.3624699218,57311.8597060326,51174.6924470835,41744.5570615479,55490.4528332128,38688.7495137374,22507.9150923495
6099583514,8727,-2,0,4065.7993902956,45850.7775406893,-913.9035406744,19298.4903721494,57304.2305601246,51175.1913226532,41739.7143182124,55484.0769600775,38680.8161754089,22502.8289950775
6099583514,8727,-2,0,4060.2630882412,45850.6193606306,-917.7120297799,19299.1839308683,57301.2859774935,51171.1151442175,41740.1401876012,55484.0891277744,38679.3317163965,22499.5437169353
6099583514,8727,-2,0,4066.5781228923,45845.6792757205,-919.2208241860,19316.8270912616,57299.8623569652,51157.9983670424,41736.7575678844,55483.2130536031,38673.1870295009,22495.7717309202
6099583514,8727,-2,0,4059.6547034000,45842.9415439353,-927.0689886368,19301.8973272598,57289.1061129737,51162.2692286273,41734.1293453706,55475.3892245460,38669.5002173635,22493.8127317317
6099583514,8727,-2,0,4048.5334285038,45846.2876605616,-928.2857583191,19289.6079534687,57288.3517157707,51169.3873312687,41737.7796544175,55477.2387144631,38673.6007311929,22492.4864527780
6099583514,8727,-2,0,4061.2243362902,45848.4778459898,-920.2064076286,19309.2101130504,57297.4896560847,51159.2151367247,41739.3371196109,55477.7010869423,38675.5597303814,22492.7784775018
6099583514,8727,-2,0,4063.1590000850,45839.7171042773,-924.7449585436,19304.7689037100,57292.2332110572,51159.7991861722,41733.9589976151,55470.2544564867,38671.3010364933,22489.4445285723
6099641511,8728,-2,0,4048.2049006896,45837.9649559348,-930.0987451457,19286.6633708375,57285.2002822935,51169.2656543004,41732.9977495661,55468.2224511173,38673.1018556231,22486.9136476331
6099641511,8728,-2,0,4047.6451866358,45840.6175138422,-923.9783936437,19299.6463033476,57292.7320866269,51166.9659596009,41736.0396737718,55477.8592670010,38677.8107542936,22487.0474922982
6099641511,8728,-2,0,4053.7777058345,45836.3223168637,-921.1798233745,19310.9379259993,57292.1480371794,51159.2273044215,41734.3118608230,55476.7276711965,38672.9923463517,22489.4080254818
6099641511,8728,-2,0,4047.0854725819,45836.5656708001,-925.5236911403,19293.5867903298,57285.6626547728,51166.3819101534,41732.3285262408,55473.9777717145,38672.5786446597,22492.3891112034
6099641511,8728,-2,0,4049.1661487386,45840.4228306930,-921.8733820934,19298.4782044526,57292.0141925144,51169.1561450290,41736.5142139479,55480.5848310894,38677.1050278779,22495.3945323187
6099641511,8728,-2,0,4056.4789345292,45837.4660803650,-919.3059980637,19312.0208510165,57293.3891422554,51162.2813963241,41734.2996931262,55479.8791046736,38676.3384629780,22494.0074148809
6099641511,8728,-2,0,4043.6420143810,45834.1929699196,-924.6232815754,19294.4993675915,57287.5973185677,51167.0998042660,41731.7931475806,55472.7731697290,38674.9148424497,22492.1944280543
6099641511,8728,-2,0,4034.3458940083,45835.6652612352,-924.0757352183,19288.0139851848,57290.6514104702,51173.7677021249,41734.9932518451,55475.7177523602,38679.0761947632,22486.8771445427
6099655447,8729,-2,0,4050.7722847193,45837.2105587317,-919.2694949733,19313.7851670558,57299.2539721240,51166.7591087549,41737.0495926081,55479.2585521357,38680.1469520836,22484.7599652955
6099655447,8729,-2,0,4058.7907969256,45837.1253848540,-924.0879029152,19315.1479491000,57299.4851583637,51174.7654532644,41738.6557285888,55480.3658125466,38682.0937835753,22490.2232611690
6099655447,8729,-2,0,4054.4469291598,45841.4935880134,-927.7868827493,19304.4282081990,57298.3900656496,51185.4243556813,41744.6787385161,55485.5492513931,38690.7693514100,22492.2430988416
6099655447,8729,-2,0,4061.7718826472,45845.0343877889,-921.1311525872,19318.7860904501,57305.3499882323,51178.1359052844,41748.9130970105,55493.3365773598,38696.9140383056,22493.2286822842
6099655447,8729,-2,0,4067.9774080269,45843.3917487178,-922.6156115996,19318.3967241517,57301.8335238505,51170.4337531954,41744.7760800907,55490.7083548461,38693.8112756158,22495.6257185583
6099655447,8729,-2,0,4059.2288340112,45844.8032015492,-926.1807467687,19295.7404726674,57295.0561167201,51177.5883589273,41741.6368143104,55488.0314615450,38691.4629101289,22497.1466806612
6099655447,8729,-2,0,4064.3149312832,45846.3971698331,-917.0063033642,19302.7125629470,57300.1543816889,51173.2566588584,41741.9775098214,55490.0878023081,38690.6233390482,22496.3436126709
6099655447,8729,-2,0,4072.6011328196,45842.6738546052,-914.7431117551,19316.1700356331,57297.9520285640,51164.8609480505,41738.1568530190,55487.0823811928,38684.9531923287,22493.6058808857
6099684354,8730,-2,0,4059.5086910381,45840.8000292945,-922.4209284504,19303.0775938516,57291.3693045828,51177.0773156608,41738.7043993761,55482.7871842143,38684.6246645144,22491.1601738243
6099684354,8730,-2,0,4051.7335327683,45846.7013622536,-920.7539539857,19304.5377174704,57299.2053013367,51180.8127985854,41746.9175947316,55490.9152056920,38691.3655685544,22491.0749999466
6099684354,8730,-2,0,4067.1256692493,45847.0055546742,-913.6723544347,19326.8532734437,57307.5158382668,51176.3715892450,41750.0203574214,55493.6164343867,38692.4971643589,22490.0285780198
6099684354,8730,-2,0,4070.9463260517,45844.8275369429,-916.7751171246,19318.6765811787,57303.3179828629,51178.0994021939,41746.1145267412,55488.0192938482,38692.6188413271,22489.8338948706
6099684354,8730,-2,0,4064.6312914006,45847.2610763075,-919.5128489097,19302.8099045215,57300.9696173761,51182.6744561993,41748.3533829567,55489.5889267383,38694.1154680363,22491.5982109100
6099684354,8730,-2,0,4072.2482696118,45846.9082130996,-915.2906581122,19317.2894637408,57306.5059194305,51172.0277214793,41750.1907051769,55494.0788068660,38693.6652632539,22492.2674342352
6099684354,8730,-2,0,4074.4262873431,45840.7878615977,-919.1478180050,19317.3259668313,57301.8213561537,51168.2679031610,41747.1974517585,55486.3523193834,38687.3867316933,22491.3913600640
6099684354,8730,-2,0,4070.7759782962,45844.1339782240,-920.2794138096,19303.2114385167,57301.6388407013,51183.8060520039,41748.5358984090,55487.0823811928,38690.0271219038,22495.2728553505
6099713799,8731,-2,0,4084.5984818870,45850.3881743910,-911.3969951288,19318.6157426945,57310.4482532011,51181.9200589963,41751.0911147418,55493.4460866312,38694.2736480950,22490.2110934721
6099713799,8731,-2,0,4096.5349924704,45850.2421620291,-912.7232740825,19332.0488799871,57311.9083768199,51173.0376403156,41748.5115630154,55495.7336136339,38691.8401087305,22486.5972875157
6099713799,8731,-2,0,4078.0644286931,45847.9911381169,-923.9418905533,19311.2664538135,57303.1719705010,51176.6879493624,41747.5381472695,55489.5037528606,38690.4773266863,22488.1547527091
6099713799,8731,-2,0,4069.0481653473,45850.9722238385,-924.4651015167,19309.8428332852,57306.8101118511,51176.7366201497,41752.1253689718,55495.0278872182,38690.8301898941,22489.1768392422
6099713799,8731,-2,0,4085.2677052123,45851.3980932273,-917.9918868069,19331.0389611508,57313.7822021306,51171.8573737237,41755.2524670553,55497.8021220938,38690.0271219038,22490.7221367387
6099713799,8731,-2,0,4084.3064571633,45851.6779502542,-921.1189848904,19322.9596104603,57311.3243273724,51181.8713882090,41757.3331432120,55495.0643903087,38689.2118862167,22490.7708075260
6099713799,8731,-2,0,4078.5268011724,45859.2097545876,-914.8282856329,19321.9496916240,57315.3883381113,51192.6519675941,41763.7333517409,55501.3185864757,38697.1330568484,22491.9267387242
6099713799,8731,-2,0,4087.4578906404,45862.8113928472,-904.3032278810,19344.2652475973,57323.6502042540,51185.6555419209,41766.8969529148,55508.9842354741,38701.1362291032,22488.7509698534
6099783639,8732,-2,0,4084.8175004299,45859.8303071256,-907.9900400184,19338.5585977873,57319.5496904247,51185.4608587718,41763.8306933154,55503.5209396006,38699.1163914306,22488.6657959756
6099783639,8732,-2,0,4077.0058390695,45864.3201872533,-912.3825785715,19323.1056228222,57321.0706525276,51193.3576940099,41766.1425557118,55505.4556033955,38703.0587252012,22493.5207070080
6099783639,8732,-2,0,4090.8648457509,45868.9560797428,-909.0486296420,19341.7100312645,57330.0869158734,51182.6257854120,41769.5495108222,55512.5980414305,38703.5819361646,22493.1556761033
6099783639,8732,-2,0,4100.6476739965,45864.6608827643,-917.4686758435,19348.6577861504,57327.8115565675,51174.2544099978,41765.8870340785,55509.0815770487,38697.1573922421,22491.9024033305
6099783639,8732,-2,0,4086.3384625327,45864.0524979231,-925.5601942307,19327.5103290721,57319.9998952072,51182.0417359645,41766.4224127387,55506.5871992000,38696.4516658263,22493.7153901571
6099783639,8732,-2,0,4080.3519556958,45866.3400249259,-916.7629494277,19331.9028676252,57325.7795511981,51181.8227174217,41770.7297774140,55512.2330105258,38701.8297878221,22493.0096637414
6099783639,8732,-2,0,4089.4412252226,45861.2660953507,-911.0806350114,19344.5572723211,57328.6632953451,51174.6072732057,41769.6468523968,55511.5881225942,38698.0091310197,22490.5517889832
6099783639,8732,-2,0,4082.0919363415,45856.1799980787,-915.7286951978,19324.9064419520,57320.0242306008,51178.5982777636,41762.8937806601,55502.5231884611,38692.6918475081,22487.9235664694
6099792430,8733,-2,0,4073.5867162623,45854.9875637901,-917.3348311784,19313.2132853052,57316.3495861603,51177.8073774701,41762.0055387920,55500.0531460061,38690.6963452291,22485.0154869287
6099792430,8733,-2,0,4079.4637138278,45853.1015707825,-914.7066086647,19331.3553212682,57320.6204477451,51171.6018520904,41760.6549244447,55503.2167471800,38688.9928676739,22483.2146677989
6099792430,8733,-2,0,4070.0824195773,45849.0010569532,-918.3082469243,19323.7261753602,57315.2301580526,51177.6370297146,41757.7225095103,55498.1793206953,38687.8856072630,22486.6337906062
6099792430,8733,-2,0,4057.7200396052,45854.1966634966,-918.1622345624,19311.5584785372,57316.4225923412,51184.5969522973,41759.4259870655,55500.6736985440,38692.4363258748,22491.2088446116
6099792430,8733,-2,0,4070.0094133963,45858.1633326608,-911.2996535542,19326.4639071453,57323.9057258873,51172.3319138998,41760.3994028114,55504.0806536545,38692.8500275668,22488.4954482201
6099792430,8733,-2,0,4076.4947958030,45852.0186457653,-916.3735831294,19327.8753599768,57319.3063364882,51163.9118676983,41752.9284369621,55497.5952712478,38684.7463414827,22482.4115998086
6099792430,8733,-2,0,4062.8548076644,45850.6923668116,-926.9229762749,19307.4457970111,57309.2071481252,51173.9258821836,41753.5124864096,55492.0346337998,38683.9189380987,22482.7887984101
6099792430,8733,-2,0,4060.9809823537,45853.4179308999,-923.9053874628,19316.9000974425,57312.9669664435,51174.4490931470,41759.2434716132,55495.3685827292,38685.5859125635,22485.0398223224
6099808465,8734,-2,0,4074.4141196462,45855.5594455407,-912.0905538477,19334.0200468724,57316.1427353143,51176.6514462720,41760.2047196622,55497.4857619764,38685.9752788618,22490.5274535895
6099808465,8734,-2,0,4072.4186173673,45861.0470768079,-905.8850284680,19322.9717781572,57314.2445746099,51189.0746647282,41762.4922466649,55494.8575394627,38690.4773266863,22496.0272525535
6099808465,8734,-2,0,4071.2140153818,45864.6487150675,-897.2824668142,19322.3268902255,57317.1526541506,51188.3811060093,41763.5021655012,55498.1428176049,38695.2348961441,22497.1710160549
6099808465,8734,-2,0,4079.5732230992,45858.3580158100,-893.2549591658,19336.6239339925,57316.2279091920,51173.1593172838,41758.7810991339,55496.4758431401,38691.9739533955,22495.1025075950
6099808465,8734,-2,0,4066.8944830097,45850.3151682100,-903.2203028638,19320.1245371006,57305.4229944133,51176.5662723942,41752.7824246002,55487.9341199704,38686.9486946076,22492.7541421081
6099808465,8734,-2,0,4053.0719794188,45851.5562732860,-908.7201018278,19306.8739152604,57305.7758576211,51182.5284438374,41752.6972507224,55488.7493556576,38687.8369364757,22492.5351235653
6099808465,8734,-2,0,4066.2495950780,45854.5130236140,-902.3320609957,19327.2061366515,57314.2810777004,51176.4202600323,41753.0501139303,55492.9958818488,38687.6057502361,22491.7928940591
6099808465,8734,-2,0,4072.7714805751,45853.9533095601,-904.7412649667,19325.0402866171,57310.4482532011,51171.9790506920,41748.8765939200,55487.4717474912,38682.6778330228,22493.3868623429
6099836220,8735,-2,0,4061.6258702853,45856.9465629785,-910.0220453878,19305.3529531575,57308.5865955872,51179.3770103603,41750.7382515340,55485.1842204884,38682.7751745974,22498.3512826467
6099836220,8735,-2,0,4064.9719869116,45860.1344995462,-908.9026172801,19318.6035749977,57315.3031642335,51175.4225088929,41756.7612614613,55490.6353486651,38685.8657695904,22500.0182571114
6099836220,8735,-2,0,4073.4772069909,45856.0826565041,-911.8106968208,19330.8442780016,57313.4171712259,51167.0754688723,41753.6828341651,55485.8169407232,38683.0550316243,22497.2805253263
6099836220,8735,-2,0,4065.7872225988,45852.7487075746,-919.3425011542,19311.7044908991,57305.8366961052,51173.2201557679,41749.9351835436,55479.8060984927,38680.5241506851,22493.9587440936
6099836220,8735,-2,0,4067.2838493080,45854.0628188315,-917.3104957848,19311.9965156229,57306.2017270099,51172.1493984475,41746.9054270347,55480.8646881163,38683.6025779813,22491.7442232718
6099836220,8735,-2,0,4077.2126899155,45850.8627145671,-912.4069139651,19323.9208585093,57307.6618506287,51165.8708668868,41743.4132980465,55481.5825822288,38683.5052364067,22491.8415648464
6099836220,8735,-2,0,4064.9111484275,45846.8960454028,-915.8260367724,19305.6936486686,57299.4973260605,51175.6780305261,41740.3957092345,55478.2608009962,38683.5174041036,22495.4675384996
6099836220,8735,-2,0,4055.8583819913,45852.5661921223,-909.3649897594,19300.5223775188,57303.0624612296,51184.8889770211,41748.2438736852,55487.1675550706,38694.0424618554,22499.6897292972
6099889123,8736,-2,0,4074.8521567319,45855.8758056581,-896.6375788826,19325.5269944900,57315.3761704144,51180.1557429570,41754.9969454220,55493.5677635994,38695.5269208678,22501.3323683683
6099889123,8736,-2,0,4077.1275160378,45853.1015707825,-898.6452488584,19321.7428407780,57312.6749417197,51177.8195451670,41751.6021580084,55490.0391315208,38692.4241581779,22500.2616110479
6099889123,8736,-2,0,4064.8989807307,45854.6712036727,-902.4172348735,19306.8495798668,57309.6451852108,51186.5924545763,41755.0212808156,55489.7349391002,38693.6287601634,22501.3080329747
6099889123,8736,-2,0,4074.5479643113,45859.7573009446,-894.5934058163,19325.4418206122,57322.2265837258,51179.7298735682,41759.8275210607,55497.2545757368,38698.2646526530,22500.2251079574
6099889123,8736,-2,0,4082.8098304541,45856.5206935897,-898.4383980124,19327.6198383435,57318.6006100725,51171.0178026429,41756.1163735297,55491.9737953156,38691.9496180019,22497.4143699913
6099889123,8736,-2,0,4078.4902980819,45858.2606742354,-907.0652950599,19308.5408897251,57313.3563327418,51176.0673968245,41753.7436726492,55488.5911755989,38688.6886752533,22497.4752084754
6099889123,8736,-2,0,4086.7764996184,45864.0038271358,-904.5100787270,19318.0681963375,57321.8737205179,51175.3008319246,41756.2502181947,55493.5555959026,38689.7837679674,22499.9330832337
6099889123,8736,-2,0,4099.6377551602,45861.2539276539,-902.5875826290,19335.1273072833,57323.8570551000,51167.6351829262,41754.0722004634,55494.2126515311,38687.7395949011,22500.7239835272
6099908225,8737,1,0,4084.8418358235,45859.1610838003,-907.6493445074,19317.6909977360,57315.0963133875,51176.6149431815,41752.7094184193,55491.7547767728,38686.3524774633,22500.4441265002
6099908225,8737,1,0,4068.7561406236,45860.6212074191,-907.8683630502,19315.9996878776,57319.3671749724,51182.0539036614,41757.4791555739,55498.7633701428,38691.5237486131,22498.7771520355
6099908225,8737,1,0,4076.2514418665,45862.4098588521,-900.2392171422,19342.7442854944,57328.8093077070,51176.3594215482,41762.5165820586,55504.1779952290,38692.4849966621,22500.5049649843
6099908225,8737,1,0,4077.6993977884,45860.8888967492,-905.3861528983,19341.2598264820,57326.4366068265,51180.5937800426,41763.1736376870,55501.3550895661,38691.1222146179,22504.9096712343
6099908225,8737,1,0,4071.7737294357,45864.5757088865,-912.8206156571,19328.5932540894,57325.3901848997,51185.8137219796,41766.8969529148,55504.3361752877,38694.4074927601,22507.6839061099
6099908225,8737,1,0,4081.5200545908,45864.2471810723,-909.9977099942,19341.7221989613,57329.7340526655,51175.5320181643,41765.9722079563,55507.4754410681,38696.0744672248,22504.7514911756
6099908225,8737,1,0,4079.4515461309,45856.6545382548,-911.7011875494,19333.0101280361,57320.1702429627,51167.5865121389,41756.6274167963,55497.5831035510,38689.8932772388,22500.1642694733
6099908225,8737,1,0,4065.9575703543,45855.9853149295,-909.5353375149,19310.6702366692,57315.8385428937,51179.4378488444,41754.2060451285,55494.6020178294,38692.9230337477,22501.5392192143
6099940845,8738,1,0,4071.7493940420,45858.7595498052,-898.6087457679,19324.6630880155,57323.8448874032,51176.4567631228,41757.1627954565,55500.7102016345,38697.6441001150,22504.5081372391
6099940845,8738,1,0,4077.2491930060,45853.8559679855,-900.5677449564,19334.8352825595,57320.5109384737,51163.1696381921,41751.6873318861,55495.6971105435,38691.7549348527,22499.0205059719
6099940845,8738,1,0,4062.1369135519,45848.7820384104,-911.7376906399,19313.9433471145,57309.7790298759,51167.0754688723,41749.9960220278,55488.0314615450,38685.0018631160,22496.2341033995
6099940845,8738,1,0,4059.9710635174,45855.1457438487,-909.4014928499,19316.1213648458,57317.3351696029,51173.4513420075,41756.4449013439,55494.2248192279,38690.1001280848,22496.9641652089
6099940845,8738,1,0,4076.7381497394,45856.7640475262,-902.6362534163,19335.5775120657,57323.8448874032,51167.0389657818,41756.2015474075,55496.6583585925,38688.2141350772,22497.4873761723
6099940845,8738,1,0,4079.9382540039,45857.5062770324,-903.8773584922,19325.4174852186,57319.4766842438,51176.1038999149,41756.1407089233,55495.7944521180,38687.7152595075,22499.2273568179
6099940845,8738,1,0,4075.0955106683,45862.5315358203,-900.4582356850,19318.1290348216,57316.8241263364,51185.8867281606,41762.0663772761,55500.6006923631,38695.6485978360,22500.5658034685
6099940845,8738,1,0,4081.1185205957,45860.3048473017,-897.1851252396,19334.6284317135,57318.4911008011,51173.0133049219,41763.4656624108,55503.4235980260,38694.0181264618,22494.9564952331
6099967493,8739,1,0,4074.4749581304,45853.1989123571,-904.1328801255,19327.7171799181,57307.9782107461,51168.4260832197,41758.8297699212,55492.5091739758,38687.1555454536,22492.7054713208
6099967493,8739,1,0,4061.9178950091,45854.0263157410,-913.6601867379,19308.7964113584,57304.9119511467,51174.5220993280,41758.1118758087,55489.0778834718,38688.7373460406,22495.9420786757
6099967493,8739,1,0,4074.7304797636,45856.0948242009,-909.9247038132,19324.1642124458,57314.0498914607,51167.1484750532,41759.9248626353,55492.6186832473,38690.7328483196,22498.6554750673
6099967493,8739,1,0,4087.0928597357,45853.4544339904,-909.3163189721,19332.5599232536,57313.6970282529,51164.9582896251,41754.3520574904,55490.4406655159,38688.2871412582,22500.1399340797
6099967493,8739,1,0,4077.4560438520,45854.0384834379,-912.1757277255,19314.2962103224,57309.6451852108,51175.5928566484,41753.8288465270,55489.2969020146,38688.6400044660,22503.6320630678
6099967493,8739,1,0,4076.4339573189,45859.1610838003,-909.0973004293,19320.9884435750,57315.2544934462,51175.2886642278,41760.8617752906,55495.4415889102,38693.7017663444,22503.7537400361
6099967493,8739,1,0,4093.9554407439,45860.4021888763,-905.8606930744,19342.1602360469,57321.9102236084,51168.7181079434,41763.1979730806,55498.1184822112,38693.0568784127,22504.4472987550
6099967493,8739,1,0,4093.9311053502,45859.2949284654,-912.5164232365,19329.5058313511,57315.7412013191,51176.0065583403,41762.3584019999,55491.5965967141,38691.2560592830,22502.9385043489
6099999649,8740,1,0,4087.7134122737,45861.9474863728,-911.5551751875,19323.5436599078,57316.6902816713,51178.1724083748,41764.2200596138,55492.2414846457,38694.9550391171,22500.9551697668
6099999649,8740,1,0,4092.4223109442,45860.2440088176,-907.9413692311,19341.1016464233,57318.0287283218,51164.6419295077,41761.5675017064,55493.9084591105,38692.2538104224,22501.5878900016
6099999649,8740,1,0,4083.0045136032,45852.1403227335,-918.4177561957,19327.6076706467,57305.4960005942,51160.7117634339,41754.3155543999,55482.6898426397,38684.3569751843,22501.6000576984
6099999649,8740,1,0,4070.5204566629,45852.3593412763,-922.1167360298,19311.2542861167,57302.1377162711,51167.7203568039,41754.2668836126,55481.7894330748,38684.5516583335,22503.2426967695
6099999649,8740,1,0,4087.0320212516,45856.0826565041,-910.9711257400,19330.9781226667,57312.2734077246,51163.0601289207,41757.0046153978,55487.4230767039,38686.1577943141,22505.0678512929
6099999649,8740,1,0,4099.4917427983,45855.3890977852,-909.5110021213,19336.1493938164,57312.3585816023,51162.7559365002,41753.0987847176,55484.7218480092,38684.3448074875,22503.2061936790
6099999649,8740,1,0,4088.5651510513,45856.1069918978,-914.4875901219,19316.9000974425,57307.4306643891,51173.1593172838,41754.5589083364,55484.1499662585,38687.1920485441,22505.9804285547
6099999649,8740,1,0,4084.3429602538,45858.4796927782,-910.8129456813,19324.1520447490,57311.3608304629,51170.1295607749,41756.0311996519,55488.1044677259,38691.1830531020,22506.1507763102
6100029551,8741,1,0,4090.9013488413,45854.7685452472,-910.2653993243,19334.5554255326,57310.9836318614,51160.6509249498,41751.9671889131,55484.0769600775,38689.2362216103,22504.4594664518
6100029551,8741,1,0,4085.1703636377,45854.4521851298,-915.8260367724,19317.0582775012,57306.0800500417,51168.2314000705,41749.1321155533,55478.6379995977,38689.0415384612,22507.4770552639
6100029551,8741,1,0,4080.2911172117,45856.5815320739,-914.5849316964,19315.1357814032,57310.6672717440,51168.5234247942,41747.5868180568,55479.9277754609,38691.0492084370,22507.5987322321
6100029551,8741,1,0,4083.7345754126,45851.8117949193,-915.8260367724,19331.4648305396,57311.6771905803,51158.9717827882,41745.4939742033,55478.2242979057,38687.8491041725,22501.8312439380
6100029551,8741,1,0,4073.1000083894,45846.1903189871,-920.7782893793,19320.0758663133,57301.6753437918,51164.3134016935,41743.1091056260,55474.1967902573,38682.3858082990,22500.2981141384
6100029551,8741,1,0,4061.3460132584,45849.0010569532,-914.4632547282,19308.9667591140,57302.1742193615,51169.4846728433,41749.3876371866,55480.1711293974,38686.4254836442,22504.5446403296
6100029551,8741,1,0,4074.1951011034,45844.8275369429,-905.0576250841,19326.0867085438,57307.5401736605,51156.1367094285,41748.1830352011,55484.3081463172,38683.2375470766,22501.7460700603
6100029551,8741,1,0,4086.8738411929,45841.9437927959,-904.4492402429,19329.5423344415,57305.3864913228,51155.6986723429,41748.1465321107,55480.0737878228,38680.4511445042,22502.5734734442
6100060831,8742,1,0,4079.9382540039,45843.4160841114,-909.5718406054,19315.0141044350,57299.8015184811,51165.6396806472,41749.3511340961,55479.1125397738,38682.0816158785,22505.3233729262
6100060831,8742,1,0,4082.2014456129,45847.9424673296,-906.7854380329,19328.5810863925,57305.3013174450,51166.1750593074,41754.7779268792,55486.4374932612,38688.0316196249,22509.6550729952
6100060831,8742,1,0,4085.3650467869,45845.1195616666,-906.6394256711,19331.3431535713,57304.9727896308,51159.4341552675,41751.9063504290,55484.8070218869,38685.0748692969,22509.7037437825
6100060831,8742,1,0,4072.6376359101,45843.9149596812,-913.3681620141,19306.1803565415,57298.4144010433,51165.0921342902,41744.7274093034,55479.0638689865,38684.5516583335,22509.5455637238
6100060831,8742,1,0,4072.4186173673,45846.5918529822,-908.5619217691,19306.4967166589,57303.0867966233,51161.0889620354,41744.0703536750,55482.5438302779,38685.5372417762,22506.5644780022
6100060831,8742,1,0,4083.9900970459,45843.6351026542,-906.0188731331,19321.4508160543,57305.6785160466,51149.1159483617,41741.2961187993,55479.0517012897,38679.9279335408,22499.3125306957
6100060831,8742,1,0,4078.2956149328,45841.0190478373,-914.0373853394,19307.7986602189,57297.5626622656,51154.7374242938,41742.0626836992,55474.5374857684,38675.5475626845,22499.0813444561
6100060831,8742,1,0,4068.6587990490,45842.6616869084,-917.4321727530,19301.2646070250,57295.7010046517,51154.3967287828,41746.3943837682,55477.6402484582,38675.4867242004,22500.5901388621
6100114433,8743,1,0,4079.5245523119,45843.6959411384,-911.7133552462,19324.6265849251,57301.8335238505,51144.3462112071,41749.6674942135,55481.9962839208,38671.9580921218,22500.9916728573
6100114433,8743,1,0,4076.6529758617,45838.1718067807,-915.5826828359,19323.7626784507,57298.9619474003,51145.6481547671,41746.7837500665,55476.5573234410,38668.2591122876,22501.3567037620
6100114433,8743,1,0,4060.7984669014,45840.1916444534,-920.5106000492,19309.4047961996,57296.6744203976,51158.9474473946,41749.4849787612,55477.7254223360,38673.0045140485,22504.4351310582
6100114433,8743,1,0,4065.6290425401,45842.3209913974,-913.4290004983,19322.2782194382,57302.1742193615,51156.6477526950,41751.3344686783,55482.3856502192,38679.7575857853,22505.9195900706
6100114433,8743,1,0,4072.4186173673,45838.7071854410,-911.6403490653,19322.9231073699,57298.3900656496,51153.1556237069,41746.0171851667,55477.3603914313,38679.2952133060,22504.4959695423
6100114433,8743,1,0,4065.3126824227,45838.5246699886,-915.3879996867,19301.1550977536,57291.7343354875,51160.9429496735,41741.5881435231,55473.3450514797,38682.7995099910,22503.6807338551
6100114433,8743,1,0,4072.0900895531,45844.3164936763,-909.4379959403,19307.4457970111,57299.1931336399,51157.5481622599,41742.9995963546,55478.4554841454,38686.9851976981,22504.0214293662
6100114433,8743,1,0,4083.4303829920,45843.5134256860,-907.8075245661,19323.0812874286,57301.3833190681,51145.8306702195,41740.7607401391,55479.5870799499,38682.3371375117,22504.6784849946
6100126375,8744,1,0,4067.4785324572,45839.2668994948,-918.2474084401,19305.6571455781,57290.9677705876,51147.0231045081,41737.6823128429,55470.4248042422,38674.5376438482,22502.7681565934
6100126375,8744,1,0,4057.5861949401,45843.5742641701,-919.6466935748,19302.9924199739,57293.1214529253,51153.6179961861,41743.1456087164,55475.8881001157,38677.2023694525,22504.0457647598
6100126375,8744,1,0,4072.2361019149,45842.3453267910,-916.7264463373,19323.1056228222,57299.9110277525,51144.0541864833,41745.0802725113,55478.8813535342,38675.9247612860,22501.1133498255
6100126375,8744,1,0,4076.8476590108,45838.6706823505,-920.7661216825,19316.0118555744,57295.2994706566,51145.4656393148,41742.5858946626,55472.9556851814,38670.0720991142,22501.4905484270
6100126375,8744,1,0,4069.5957117044,45843.2214009623,-922.0924006362,19301.6174702329,57296.2485510088,51154.7982627780,41745.2019494795,55476.7398388933,38673.9414267039,22503.4008768282
6100126375,8744,1,0,4074.0004179543,45846.0929774125,-918.1013960783,19319.7108354086,57304.9606219340,51151.8780155405,41747.6841596314,55484.5028294663,38679.0761947632,22505.9925962515
6100126375,8744,1,0,4071.9927479785,45841.2502340769,-921.8855497902,19321.3534744797,57299.5703322414,51148.5197312173,41744.4110491860,55479.3315583166,38677.5795680540,22506.7956642418
6100126375,8744,1,0,4058.6934553510,45841.6152649816,-920.8147924698,19304.0631772943,57295.7983462263,51155.3944799223,41744.5935646384,55478.0417824534,38678.8328408267,22507.5135583544
6100154336,8745,1,0,4068.4884512935,45846.6283560727,-907.5154998423,19314.0041855986,57305.3013174450,51154.7495919907,41748.0370228393,55484.1621339553,38683.2740501671,22505.8709192833
6100154336,8745,1,0,4083.2235321461,45843.4769225956,-902.8431042623,19325.3931498249,57306.7736087606,51148.2520418872,41746.2240360126,55483.7119291729,38680.0739459027,22504.7393234787
6100154336,8745,1,0,4075.3266969080,45840.5201722676,-912.6624355984,19305.3164500671,57300.3368971413,51157.7550131059,41742.7197393276,55478.9178566246,38680.7188338343,22505.0800189898
6100154336,8745,1,0,4073.1851822671,45847.6747779995,-914.6092670901,19309.2587838377,57304.7416033912,51162.6950980161,41749.7039973040,55487.0337104055,38687.4597378742,22507.0633535719
6100154336,8745,1,0,4086.8251704056,45848.9158830754,-911.8350322145,19332.4869170727,57310.3874147170,51152.3525557165,41752.6120768447,55488.1288031196,38688.5548305883,22502.6099765347
6100154336,8745,1,0,4086.6061518628,45844.9370462143,-917.4443404498,19318.0316932470,57302.1012131806,51156.3557279713,41749.5701526390,55479.7087569181,38683.6634164654,22500.5901388621
6100154336,8745,1,0,4078.0400932995,45848.2466597501,-913.1613111682,19305.9735056955,57301.0791266475,51161.8433592384,41750.0081897246,55478.9056889278,38686.8635207299,22504.7636588724
6100154336,8745,1,0,4084.1117740141,45848.1979889628,-900.6772542278,19323.7383430570,57305.6906837434,51153.6058284893,41746.9906009125,55480.6335018767,38684.9653600255,22507.1485274497
6100185691,8746,1,0,4079.2568629818,45841.2258986833,-905.0089542968,19316.0240232713,57295.8956878009,51150.9532705819,41739.6169766378,55473.2477099051,38679.3317163965,22507.8664215622
6100185691,8746,1,0,4067.3203523985,45842.3088237006,-911.0319642241,19301.3619485996,57293.6811669791,51162.3787378987,41741.6246466136,55477.6159130646,38682.5196529641,22512.6604941105
6100185691,8746,1,0,4076.0932618078,45844.3773321604,-908.1238846835,19320.0758663133,57303.1598028042,51151.8780155405,41745.3357941446,55486.3036485961,38684.1744597320,22512.1494508439
6100185691,8746,1,0,4082.2987871875,45839.2668994948,-910.5209209576,19331.5986752046,57300.4707418063,51146.0618564591,41742.5493915721,55482.0327870113,38680.2199582645,22509.6794083888
6100185691,8746,1,0,4066.2495950780,45836.4804969224,-918.0527252910,19313.7608316622,57294.1070363679,51155.3944799223,41742.4398823007,55475.8881001157,38680.0739459027,22510.3851348046
6100185691,8746,1,0,4058.3892629304,45839.2303964043,-911.4700013098,19317.6666623424,57298.0980409259,51156.3800633649,41748.5237307122,55481.3148928987,38686.6566698839,22509.4238867556
6100185691,8746,1,0,4066.6632967700,45836.8576955239,-905.0941281745,19333.3994943344,57298.5482457083,51147.3272969287,41745.5791480810,55481.6677561066,38685.3668940206,22506.9903473910
6100185691,8746,1,0,4062.8304722708,45833.5602496849,-910.2897347179,19316.0118555744,57288.1813680152,51151.0141090660,41740.8945848042,55472.8705113036,38681.1203678294,22505.8709192833
6100242104,8747,1,0,4060.7497961141,45835.1420502718,-910.6425979258,19308.5287220283,57288.9357652182,51153.6179961861,41739.9333367552,55473.4058899638,38682.5683237514,22509.3630482714
6100242104,8747,1,0,4076.0324233237,45840.2524829375,-901.9913654847,19330.4549117033,57297.8060162021,51151.7076677849,41740.3957092345,55479.3680614071,38686.1091235268,22514.4126424530
6100242104,8747,1,0,4070.6908044184,45837.7824404824,-907.9170338375,19323.4219829396,57293.0727821380,51152.3768911102,41737.3294496351,55476.0706155681,38683.1767085925,22512.3197985994
6100242104,8747,1,0,4057.4401825782,45840.2403152406,-913.9765468553,19306.9955922286,57290.9677705876,51156.4165664554,41741.0892679534,55477.8714346978,38683.1523731989,22510.8840103743
6100242104,8747,1,0,4070.4596181788,45843.2700717496,-908.6227602532,19328.0213723387,57299.9962016302,51150.7829228264,41747.2096194553,55483.8336061411,38685.5250740793,22509.6550729952
6100242104,8747,1,0,4083.0166813001,45839.5224211281,-908.1360523803,19335.8330336990,57297.7816808085,51152.0970340833,41747.8058365996,55481.0593712655,38681.8504296388,22508.1706139828
6100242104,8747,1,0,4073.0391699053,45840.6053461453,-914.0495530362,19315.6589923666,57295.8226816200,51164.5932587204,41751.6994995830,55478.6136642041,38686.5593283093,22510.4824763792
6100242104,8747,1,0,4072.4916235482,45844.9857170016,-908.9877911579,19319.6743323181,57302.0768777870,51157.9496962551,41756.1772120138,55485.3058974567,38691.1343823147,22511.0665258267
6100246752,8748,1,0,4076.1297648983,45842.1749790355,-907.6493445074,19328.8852788131,57300.9331142856,51145.9158440972,41750.8964315927,55480.7916819354,38684.5394906367,22507.6108999289
6100246752,8748,1,0,4067.6975510000,45841.7247742530,-914.4389193346,19312.2155341657,57296.3945633706,51154.1655425432,41747.8180042965,55476.0219447808,38682.9455223529,22511.6627429710
6100246752,8748,1,0,4069.9120718218,45846.0929774125,-915.5218443518,19314.8802597699,57300.0692078112,51158.7040934581,41750.6774130498,55481.6555884098,38687.2772224218,22514.2909654847
6100246752,8748,1,0,4085.4137175742,45846.3850021362,-908.5497540723,19338.9966348730,57303.4396598311,51146.2200365178,41749.1929540374,55483.7849353538,38687.4475701774,22513.1106988929
6100246752,8748,1,0,4074.9738337001,45840.1794767565,-910.8859518623,19327.4251551944,57294.7154212091,51148.3493834618,41744.3015399146,55477.5064037932,38682.3493052086,22507.7325768972
6100246752,8748,1,0,4061.1878331997,45844.3651644636,-909.1824743070,19316.8270912616,57296.7109234880,51157.9861993456,41747.8788427806,55481.2662221115,38688.0316196249,22508.7303280367
6100246752,8748,1,0,4076.5191311966,45849.6581125816,-899.4361491519,19340.9921371519,57309.7181913918,51153.9100209099,41752.1862074559,55488.9927095940,38689.9297803293,22511.1638674012
6100246752,8748,1,0,4085.0973574568,45845.2534063317,-902.9039427464,19340.8582924869,57306.5667579146,51153.3381391592,41747.3921349076,55485.1355497011,38686.5228252188,22510.0322715967
6100279460,8749,1,0,4077.2735283996,45847.3949209725,-910.8737841654,19319.3214691103,57299.8988600557,51165.0677988965,41746.1266944381,55483.1157120285,38691.1830531020,22510.1904516554
6100279460,8749,1,0,4075.2536907270,45849.3660878579,-909.7421883609,19327.5224967689,57304.4009078801,51162.4152409891,41752.3078844241,55489.6254298288,38696.6463489755,22507.3310429020
6100279460,8749,1,0,4074.1585980130,45843.3917487178,-911.4456659161,19334.8231148627,57301.1399651316,51155.0172813208,41750.9937731672,55486.1089654470,38694.2006419141,22508.0489370146
6100279460,8749,1,0,4063.2320062660,45842.0654697641,-914.7187763615,19318.1168671248,57296.1877125247,51166.8807857231,41750.2637113579,55479.3680614071,38694.0181264618,22511.5897367900
6100279460,8749,1,0,4069.3280223743,45850.2178266355,-904.1693832160,19323.7140076634,57307.6253475382,51168.3044062514,41754.9117715442,55488.0071261514,38699.5787639098,22515.7875921940
6100279460,8749,1,0,4084.1361094078,45849.9988080926,-897.1607898460,19338.4247531223,57313.4658420132,51155.4674861032,41752.5269029669,55489.0657157750,38695.3079023250,22512.9646865310
6100279460,8749,1,0,4074.3654488590,45845.6671080237,-904.3518986683,19322.1687101668,57302.7947718995,51159.7870184754,41748.0978613234,55483.8822769284,38690.8910283783,22511.9547676947
6100279460,8749,1,0,4066.2009242908,45852.4931859413,-901.1274590103,19319.1267859611,57307.8687014747,51176.7852909370,41757.1141246692,55492.4361677949,38698.7391928291,22515.1913750496
6100309078,8750,1,0,4085.9855993249,45855.1457438487,-891.6244877915,19346.2120790890,57318.3937592265,51170.6162686478,41763.9888733741,55504.3726783782,38702.7667004775,22514.3883070593
6100309078,8750,1,0,4094.4421486168,45852.6757013937,-892.2693757232,19348.3414260330,57318.5276038916,51169.6306852051,41762.1272157602,55503.1072379086,38703.3872530154,22512.8916803501
6100309078,8750,1,0,4083.8684200777,45853.5152724745,-895.7250016209,19332.6207617378,57313.5266804973,51175.8240428880,41761.4458247381,55501.4159280502,38706.2223263752,22511.9060969074
6100309078,8750,1,0,4086.7886673152,45855.6811225090,-892.9994375325,19346.5892776905,57317.6880328108,51169.3751635718,41763.6968486504,55504.8715539480,38706.8672143068,22513.5365682817
6100309078,8750,1,0,4090.0496100637,45854.2331665870,-895.0922813861,19352.2594244100,57315.7290336223,51164.5932587204,41762.9667868410,55501.1847418106,38702.0853094554,22514.7898410545
6100309078,8750,1,0,4079.2446952850,45854.9875637901,-902.9039427464,19333.3143204567,57313.1494818958,51172.9159633473,41765.4855000834,55497.9237990621,38702.1096448490,22514.1327854260
6100309078,8750,1,0,4083.4182152952,45859.9519840938,-898.7669258266,19341.0164725456,57321.8007143369,51170.4337531954,41769.5738462159,55503.7399581434,38706.0641463165,22510.7379980124
6100309078,8750,1,0,4095.1843781230,45856.9587306754,-897.3311376015,19356.1044166060,57326.1810851932,51161.6973468766,41766.8604498244,55503.6304488720,38704.2146563994,22508.2557878606
6100355525,8751,1,0,4081.4713838035,45853.5517755649,-904.9237804190,19333.7766929359,57315.8872136810,51164.2403955126,41762.2123896380,55496.2689922941,38699.5300931226,22507.7204092004
6100355525,8751,1,0,4066.0549119289,45854.5495267044,-906.2865624632,19323.7991815411,57313.2346557736,51167.2093135374,41762.6625944204,55499.9071336442,38700.1019748732,22507.1120243592
6100355525,8751,1,0,4078.6363104438,45854.3791789489,-897.4284791761,19345.4211787955,57318.1017345028,51164.0092092729,41765.6923509293,55504.6403677083,38704.2511594899,22507.7812476845
6100355525,8751,1,0,4087.9445985134,45850.9478884448,-897.4041437824,19340.2012368584,57315.2301580526,51166.7226056644,41765.9478725626,55501.5862758058,38703.2047375631,22509.8862592348
6100355525,8751,1,0,4083.4668860825,45854.1966634966,-896.8322620318,19327.8631922800,57314.4635931527,51174.8871302326,41768.1745610812,55503.2045794832,38706.8672143068,22510.8718426775
6100355525,8751,1,0,4090.6458272080,45856.6058674675,-890.7727490139,19346.8326316269,57321.1314910117,51170.9934672493,41769.9510448174,55506.0153174493,38709.9334739062,22513.5244005849
6100355525,8751,1,0,4083.9779293491,45851.8848011002,-897.5988269316,19344.0097259640,57314.2810777004,51162.8532780747,41761.3849862540,55499.3230841967,38701.9758001840,22514.5221517244
6100355525,8751,1,0,4062.4289382756,45848.5630198675,-905.2644759301,19313.7243285717,57305.9097022862,51165.3476559235,41753.5124864096,55493.3852481471,38697.7292739928,22514.7898410545
6100394737,8752,1,0,4064.5096144324,45848.9402184690,-897.9881932299,19319.7595061959,57309.5478436362,51160.0060370182,41751.9185181258,55495.0400549150,38697.7779447800,22513.9015991864
6100394737,8752,1,0,4077.2005222187,45844.9613816080,-893.3036299531,19333.4725005154,57310.6186009567,51150.9411028851,41747.5138118759,55492.9228756678,38692.6553444176,22509.4725575429
6100394737,8752,1,0,4066.4077751367,45841.1407248055,-901.0666205261,19315.6468246697,57300.4220710190,51154.5792442352,41744.9829309367,55484.4054878918,38687.3988993901,22506.3211240657
6100394737,8752,1,0,4060.5916160554,45844.1461459208,-900.1783786581,19316.4377249632,57302.6487595376,51157.9253608615,41752.0401950940,55487.9462876672,38689.5039109404,22503.2426967695
6100394737,8752,1,0,4076.6529758617,45846.1781512902,-895.5668215622,19341.9898882914,57310.5334270789,51155.7595108270,41759.0852915545,55492.7890310028,38692.0104564860,22502.4761318697
6100394737,8752,1,0,4076.8354913140,45846.4823437108,-898.5235718902,19334.7744440754,57307.8200306874,51164.0943831507,41762.3949050903,55491.2924042936,38693.2637292587,22506.7226580609
6100394737,8752,1,0,4072.2726050054,45853.5882786554,-893.2306237722,19328.8487757226,57312.9304633530,51173.1714849806,41768.7099397414,55496.9747187099,38702.2799926045,22511.9182646043
6100394737,8752,1,0,4081.7877439209,45854.0628188315,-885.6258132578,19347.1976625316,57318.4302623170,51160.2007201673,41769.7563616682,55501.6106111994,38703.6184392551,22511.5288983059
6100400336,8753,1,0,4074.2559395875,45843.9392950748,-892.4397234787,19338.0232191271,57307.3819936018,51151.4521461517,41760.2777258431,55491.4140812618,38696.9018706088,22507.3797136893
6100400336,8753,1,0,4055.1648232723,45842.4305006688,-903.4636568003,19315.6346569729,57299.6433384224,51160.9794527640,41759.0487884640,55485.8047730264,38696.9505413961,22506.8808381196
6100400336,8753,1,0,4060.9809823537,45844.0244689526,-903.3419798320,19331.7203521729,57305.7150191370,51155.4431507096,41761.5675017064,55487.4230767039,38694.1154680363,22504.9705097184
6100400336,8753,1,0,4073.9274117733,45842.7955315735,-902.8431042623,19343.7298689371,57307.6983537192,51149.0186067871,41759.2678070068,55484.5515002536,38688.5548305883,22504.3499571804
6100400336,8753,1,0,4064.7408006720,45841.1650601992,-907.7710214756,19323.1664613063,57301.1886359189,51149.6999978091,41755.3376409330,55478.1877948152,38682.9576900497,22503.4495476155
6100400336,8753,1,0,4061.9787334932,45842.6860223021,-904.5344141207,19322.5945795556,57303.3909890438,51146.1226949432,41755.3619763267,55481.9719485272,38681.5949080055,22501.9042501190
6100400336,8753,1,0,4075.8377401745,45840.6175138422,-899.8985216311,19340.4810938854,57308.7691110396,51144.2367019356,41754.3885605808,55485.3545682440,38680.6823307438,22504.0214293662
6100400336,8753,1,0,4079.1351860135,45842.5400099402,-901.2004651912,19333.1804757916,57306.9074534257,51159.0082858787,41756.1772120138,55486.0846300533,38687.3502286028,22507.5500614448
6100474464,8754,1,0,4083.6250661412,45850.1934912418,-893.9728532784,19333.1683080948,57310.5577624725,51170.8231194938,41764.2200596138,55493.6164343867,38698.7148574354,22511.8695938170
6100474464,8754,1,0,4098.2506377224,45851.5076024987,-884.9687576294,19354.7659699555,57318.3329207424,51160.2372232578,41768.1988964749,55498.1549853017,38702.9492159298,22510.3121286236
6100474464,8754,1,0,4089.0640266211,45842.0533020673,-892.9629344421,19341.5031804185,57306.7492733670,51155.9055231888,41760.5940859605,55487.0093750119,38695.0523806917,22507.0511858751
6100474464,8754,1,0,4067.9044018460,45839.6075950059,-898.0855348045,19320.2705494625,57298.0615378354,51162.8654457716,41758.8297699212,55484.4054878918,38695.2713992345,22507.2093659338
6100474464,8754,1,0,4077.3830376710,45843.9514627716,-890.8700905885,19336.4779216306,57308.1485585016,51160.4075710133,41762.2488927285,55490.9395410857,38698.9947144623,22507.7690799876
6100474464,8754,1,0,4090.1104485478,45843.9027919844,-893.5348161927,19340.5662677631,57307.6740183255,51152.3038849293,41757.7955156913,55486.7660210754,38693.3975739238,22509.0101850636
6100474464,8754,1,0,4079.2081921945,45843.3065748400,-904.6925941794,19317.6909977360,57300.3003940508,51153.8126793353,41755.4471502044,55478.6014965072,38687.8247687789,22509.3508805746
6100474464,8754,1,0,4078.8188258961,45845.7157788110,-904.2545570938,19324.0790385680,57304.5955910293,51147.1934522636,41758.2457204737,55481.2053836273,38685.8414341967,22508.5113094938
6100477615,8755,1,0,4086.8981765866,45840.1673090597,-904.3397309715,19337.6216851320,57301.5293314299,51136.4615436658,41753.3421386541,55477.0805344044,38679.0153562791,22506.1142732197
6100477615,8755,1,0,4075.7038955095,45837.1618879444,-909.1094681261,19320.5139033989,57294.3138872139,51143.9811803024,41753.3056355636,55472.6271573672,38674.9756809339,22505.4450498945
6100477615,8755,1,0,4071.8467356166,45840.4593337835,-903.9625323700,19321.2561329051,57300.1300462953,51150.6977489486,41756.5544106153,55477.7740931233,38680.9865231644,22505.8344161928
6100477615,8755,1,0,4087.1536982199,45836.5535031033,-897.0634482714,19339.9213798315,57304.4617463643,51143.7378263659,41755.0577839061,55478.8205150500,38682.3006344213,22502.3057841141
6100477615,8755,1,0,4085.0973574568,45832.9153617532,-897.3676406920,19329.1408004464,57297.8668546862,51150.1745379852,41751.5413195243,55474.7808397048,38684.2839690034,22504.0701001535
6100477615,8755,1,0,4071.3478600469,45836.5656708001,-896.3820572493,19318.3602210613,57296.4067310675,51157.8888577710,41755.7148395345,55479.0395335928,38691.7671025495,22507.6108999289
6100477615,8755,1,0,4081.9945947669,45840.4715014803,-891.0282706472,19339.6901935919,57306.3964101591,51151.2452953057,41758.8784407085,55486.1454685374,38694.8698652394,22507.7204092004
6100477615,8755,1,0,4094.3448070422,45841.4084141357,-895.2504614448,19340.7366155187,57305.7271868338,51148.7630851538,41753.0866170208,55481.6677561066,38690.3799851117,22503.7537400361
6100506145,8756,1,0,4088.1514493593,45843.6229349574,-901.3829806435,19317.8613454915,57299.9110277525,51156.8789389347,41751.0424439545,55478.8083473532,38688.8590230088,22502.9750074394
6100506145,8756,1,0,4094.0649500153,45846.2876605616,-897.9151870490,19329.0677942655,57304.2670632151,51155.3579768318,41754.2182128253,55485.4884129090,38692.3633196938,22505.0556835961
6100506145,8756,1,0,4102.7040147596,45843.5985995638,-897.1486221492,19339.6780258951,57302.0403746965,51147.6193216524,41754.9239392410,55484.3446494077,38689.6012525150,22506.2237824911
6100506145,8756,1,0,4086.9468473739,45839.9604582137,-905.0576250841,19319.4431460785,57293.7906762505,51154.2020456336,41752.1983751527,55477.8105962137,38687.5449117520,22506.4914718212
6100506145,8756,1,0,4084.4524695252,45844.0731397399,-901.3586452499,19321.5359899321,57299.7406799970,51152.9609405577,41754.7535914855,55481.6190853193,38689.9054449356,22507.7082415035
6100506145,8756,1,0,4094.2352977708,45842.0776374609,-898.6939196457,19336.1737292100,57304.6077587261,51143.7013232754,41749.5944880326,55478.8448504437,38686.6566698839,22503.9970939725
6100506145,8756,1,0,4082.7733273636,45837.5390865460,-907.8318599597,19318.5792396041,57294.3017195171,51150.7585874327,41743.2794533815,55471.9822694355,38682.6169945387,22503.4738830091
6100506145,8756,1,0,4069.0968361346,45840.1429736661,-907.8926984438,19309.8793363757,57296.3823956738,51157.8036838932,41746.0293528635,55476.8006773774,38687.1555454536,22505.6032299532
6100529553,8757,1,0,4078.9039997739,45841.7734450403,-898.9129381885,19331.6960167792,57303.3666536502,51145.6968255544,41748.2925444725,55482.4221533096,38687.1920485441,22502.5734734442
6100529553,8757,1,0,4086.1559470804,45839.9847936074,-899.1684598218,19332.4625816791,57302.3202317234,51142.5940628646,41748.0735259297,55479.5992476467,38685.4033971111,22501.7947408476
6100529553,8757,1,0,4076.5678019839,45840.3863276025,-902.9769489273,19317.2529606504,57297.5018237815,51151.9510217214,41750.4827299007,55477.7984285169,38686.6323344902,22502.4517964760
6100529553,8757,1,0,4080.7534896910,45845.2655740285,-897.0391128778,19333.1318050043,57304.4130755770,51149.9920225329,41756.8342676422,55485.2815620630,38691.3412331607,22502.2692810237
6100529553,8757,1,0,4082.2379487034,45841.4570849229,-901.5289930054,19335.9912137577,57300.2152201730,51143.8838387278,41753.5003187128,55481.1445451432,38685.4155648079,22498.0835933166
6100529553,8757,1,0,4073.8909086829,45841.9194574022,-909.3163189721,19316.6567435060,57294.9587751455,51154.3602256923,41755.1551254807,55477.3238883408,38684.1136212479,22498.1809348912
6100529553,8757,1,0,4085.8882577503,45847.5044302439,-903.2324705606,19330.6860979429,57302.1985547552,51151.4278107580,41760.1317134813,55485.7926053296,38688.8103522215,22496.9885006025
6100529553,8757,1,0,4103.1055487547,45844.1339782240,-898.7425904330,19346.4797684191,57306.4085778559,51140.5133867078,41758.6229190752,55485.9629530851,38683.7729257368,22497.3291961136
6100561539,8758,1,0,4093.0428634822,45838.0136267221,-904.6925941794,19323.5679953015,57297.1854636641,51147.2664584446,41753.0014431430,55477.2752175535,38677.9445989587,22501.9042501190
6100561539,8758,1,0,4081.4957191972,45842.1263082482,-901.1031236166,19314.0163532955,57299.7041769065,51154.8712689589,41758.5742482879,55481.1202097496,38684.4056459716,22507.8542538654
6100561539,8758,1,0,4086.5939841660,45839.6197627027,-895.2504614448,19330.0290423145,57301.9308654251,51143.9446772119,41757.4548201802,55478.9178566246,38682.6048268418,22507.4040490830
6100561539,8758,1,0,4085.2312021218,45835.0447086972,-899.4483168487,19323.1907967000,57295.8835201041,51146.7919182685,41753.3786417445,55472.0431079197,38681.7895911547,22506.4062979435
6100561539,8758,1,0,4079.9990924880,45839.4980857344,-901.0179497389,19311.6923232023,57296.0782032533,51154.8834366557,41755.2889701457,55476.4964849569,38687.3137255123,22508.9371788826
6100561539,8758,1,0,4089.2830451639,45842.0654697641,-894.7272504814,19330.7591041238,57305.5081682910,51149.5783208409,41760.6305890510,55485.4762452122,38690.8423575910,22506.7713288482
6100561539,8758,1,0,4090.2321255161,45838.2083098712,-896.8200943349,19335.2854873420,57303.9385354009,51146.4998935447,41758.7445960434,55484.0404569871,38688.1167935026,22503.0966844076
6100561539,8758,1,0,4075.5578831476,45837.3809064873,-901.1882974944,19317.9708547629,57299.6433384224,51158.3390625534,41761.0321230462,55485.7195991486,38690.7815191069,22502.6343119284
6100595954,8759,1,0,4086.8251704056,45843.5620964733,-891.7096616693,19331.1484704222,57311.9570476072,51156.2462186999,41767.7608593893,55492.2049815553,38694.1641388236,22503.1940259822
6100595954,8759,1,0,4105.8189451463,45844.4138352509,-887.8159986860,19346.5406069032,57316.0575614365,51147.4854769874,41765.6680155357,55494.5168439516,38690.7693514100,22503.8875847011
6100595954,8759,1,0,4099.1145441968,45843.6959411384,-897.0391128778,19329.3476512924,57310.1075576901,51155.1997967731,41764.6094259121,55490.7570256333,38686.2429681919,22505.2747021389
6100595954,8759,1,0,4088.9788527433,45847.2975793980,-899.5456584233,19328.9582849940,57311.3851658565,51154.4575672669,41769.5616785191,55493.6651051740,38688.7251783438,22502.4517964760
6100595954,8759,1,0,4093.2375466313,45847.6504426058,-895.8101754986,19347.8547181601,57316.3495861603,51144.8815898673,41770.3282434189,55495.0643903087,38686.8878561235,22502.5369703538
6100595954,8759,1,0,4084.5741464934,45844.9492139111,-901.5046576118,19336.6482693861,57310.3509116266,51150.6977489486,41765.8992017753,55487.9097845768,38684.8558507541,22504.5446403296
6100595954,8759,1,0,4080.4371295736,45849.2079077992,-900.4704033818,19330.1263838890,57312.3707492992,51162.8776134684,41770.5837650522,55491.2559012031,38691.6575932781,22509.6550729952
6100595954,8759,1,0,4094.7341733406,45850.3273359069,-895.9075170732,19351.2981763610,57318.4911008011,51155.5404922842,41772.4454226661,55495.3077442451,38695.2348961441,22509.9836008094
6100639228,8760,1,0,4095.5129059372,45842.5521776370,-904.2910601842,19344.1557383259,57309.7425267854,51145.9401794909,41765.1083014819,55487.6299275498,38689.8081033610,22507.4405521734
6100639228,8760,1,0,4080.0842663657,45841.6274326785,-911.5916782780,19320.7694250322,57303.9507030977,51154.8591012621,41762.6504267236,55485.6830960582,38690.1001280848,22509.0710235477
6100639228,8760,1,0,4091.0108581127,45846.2146543807,-904.8386065413,19334.7136055913,57313.7578667370,51151.2087922152,41766.5197543133,55492.9107079710,38692.7283505985,22507.9029246527
6100639228,8760,1,0,4102.1077976153,45842.6981899989,-903.4393214066,19345.3481726145,57312.3829169960,51143.5309755199,41762.6869298141,55489.6010944352,38687.0338684854,22501.2593621874
6100639228,8760,1,0,4093.8337637757,45844.5476799160,-905.5565006538,19330.6374271556,57308.9759618856,51159.8721923531,41766.6535989784,55489.0778834718,38688.7251783438,22501.4905484270
6100639228,8760,1,0,4092.4831494283,45851.9213041907,-901.0909559198,19340.7731186091,57317.3351696029,51165.0069604124,41774.5869373069,55499.0067240793,38696.8410321247,22506.1386086134
6100639228,8760,1,0,4104.8333617036,45853.6856202300,-897.2459637237,19359.9250734084,57322.9809809288,51159.3246459961,41777.5680230285,55503.7034550530,38701.1970675873,22510.1052777776
6100639228,8760,1,0,4101.3534004122,45854.4643528267,-901.5533283991,19341.4301742376,57319.3428395787,51165.2381466520,41773.9177139817,55499.0675625634,38701.9758001840,22512.5388171422
6100646608,8761,1,0,4100.2704753950,45860.4143565731,-898.8764350980,19329.4206574733,57324.1490798238,51168.1462261927,41775.5481853559,55503.1924117864,38706.7090342481,22514.5221517244
6100646608,8761,1,0,4110.2844898803,45859.4409408272,-890.4807242902,19343.5108503943,57327.9697366262,51152.9122697704,41774.6112727006,55504.2510014100,38704.0443086439,22512.1007800566
6100646608,8761,1,0,4100.9883695075,45851.2764162591,-894.4838965449,19329.8830299526,57316.0453937397,51147.5341477747,41766.1425557118,55492.0468014966,38694.5778405156,22509.6429052984
6100646608,8761,1,0,4080.1937756371,45848.2953305374,-899.2658013964,19311.2542861167,57309.2679866093,51155.3093060445,41764.6094259121,55489.1752250464,38694.2979834887,22508.9250111858
6100646608,8761,1,0,4084.6593203712,45850.4733482687,-893.2184560753,19331.9272030188,57315.8385428937,51153.8735178194,41766.2520649832,55495.4415889102,38697.6075970245,22507.2823721147
6100646608,8761,1,0,4096.3768124117,45851.7266210415,-890.0183518109,19345.1169863749,57320.3040876277,51153.0704498291,41763.9523702837,55495.4659243038,38695.8919517725,22508.8641727017
6100646608,8761,1,0,4089.8062561273,45853.4179308999,-894.9827721147,19328.4229063338,57317.7245359013,51162.9627873462,41763.9158671932,55496.3176630814,38698.0578018070,22510.1782839586
6100646608,8761,1,0,4093.9311053502,45858.2850096291,-892.0260217867,19335.3949966134,57326.5704514915,51161.9163654194,41768.4909211986,55504.2144983195,38703.0222221107,22511.1516997044
6100707411,8762,1,0,4101.4629096836,45855.8027994772,-891.2229537964,19346.8934701111,57327.4951964501,51153.4233130370,41768.8559521033,55504.9688955225,38701.5499307952,22512.3197985994
6100707411,8762,1,0,4091.0595289000,45852.0794842494,-898.6574165552,19327.8996953704,57321.9953974861,51162.2083901431,41767.6756855115,55501.1360710233,38701.1605644968,22514.1327854260
6100707411,8762,1,0,4092.7265033648,45856.4963581961,-896.6132434890,19328.1308816101,57326.4122714328,51166.9659596009,41775.2439929354,55505.9301435716,38707.3174190892,22517.1017034508
6100707411,8762,1,0,4112.2191536751,45856.5815320739,-892.2085372390,19348.8281339059,57330.5371206558,51154.1655425432,41776.2417440748,55506.2708390826,38705.9789724387,22515.0088595973
6100707411,8762,1,0,4109.3597449217,45848.8915476818,-899.9350247216,19337.1836480464,57318.6736162535,51150.1867056821,41770.0848894824,55495.2712411547,38697.7171062959,22512.2224570248
6100707411,8762,1,0,4093.4443974773,45849.8771311244,-904.2302217001,19322.0835362891,57312.7236125070,51157.3899822012,41768.4300827145,55493.9449622010,38696.5611750978,22511.0908612203
6100707411,8762,1,0,4101.9252821629,45855.1944146360,-892.0503571803,19345.8348804875,57322.2387514226,51150.7585874327,41771.4476715266,55498.5930223873,38699.5422608194,22509.2657066969
6100707411,8762,1,0,4110.0411359438,45853.5152724745,-893.0116052294,19351.1034932118,57319.9147213294,51148.7265820633,41770.4620880839,55493.0688880297,38695.0280452981,22508.6451541589
6100717465,8763,1,0,4103.0812133611,45853.2597508412,-899.3266398805,19331.1241350285,57314.2324069131,51154.6400827193,41770.6324358395,55489.4307466796,38695.2592315377,22510.1417808681
6100717465,8763,1,0,4106.2204791414,45851.5562732860,-896.8322620318,19339.8605413474,57320.5231061705,51150.0650287138,41774.1002294340,55494.7115271008,38698.0334664133,22509.4117190587
6100717465,8763,1,0,4109.8464527947,45844.1339782240,-899.7525092693,19346.4676007223,57317.9070513536,51143.3484600676,41771.8127024313,55493.2392357852,38695.0158776012,22507.0025150878
6100717465,8763,1,0,4096.8026818005,45840.1916444534,-908.8661141897,19327.2669751357,57309.6816883013,51146.9987691145,41770.5472619617,55490.0512992176,38693.3489031365,22504.5324726327
6100717465,8763,1,0,4100.5503324219,45846.4215052267,-906.2865624632,19335.9060398799,57317.9313867473,51154.1898779368,41779.1254882219,55500.1869906711,38697.9604602324,22504.1917771217
6100717465,8763,1,0,4122.0141496176,45849.6216094911,-899.2171306091,19359.8155641370,57327.5803703278,51148.8360913347,41782.6054495132,55504.6403677083,38697.9969633229,22505.4085468040
6100717465,8763,1,0,4120.6391998766,45848.6725291389,-902.8917750496,19347.1489917443,57321.5208573100,51151.0749475501,41778.9064696791,55498.2766622699,38695.4295792932,22504.6298142073
6100717465,8763,1,0,4107.1208887063,45851.1790746845,-904.7777680571,19331.9758738061,57321.9953974861,51159.5071614484,41779.3688421583,55499.2500780158,38697.8631186578,22505.7857454055
6100747980,8764,1,0,4113.7522834748,45851.8239626161,-896.0656971319,19343.2188256705,57326.0594082250,51152.6810835308,41778.6022772585,55502.4866853707,38699.4084161543,22505.1530251707
6100747980,8764,1,0,4121.0529015686,45851.7266210415,-893.9728532784,19340.5541000663,57325.6457065330,51155.4553184064,41776.4120918304,55499.9923075220,38697.9239571419,22506.7348257577
6100747980,8764,1,0,4120.4445167274,45859.5626177955,-890.6632397425,19328.8974465099,57327.9454012325,51167.8542014690,41781.9362261880,55504.4335168623,38704.6283580914,22511.7479168487
6100747980,8764,1,0,4129.4242769828,45862.9330698154,-885.9543410721,19346.0782344239,57332.5447906316,51155.3579768318,41783.4328528972,55507.5971180363,38705.9546370451,22512.9160157437
6100747980,8764,1,0,4128.0858303322,45857.0439045531,-890.2738734442,19355.3135163125,57327.2396748168,51148.0330233444,41779.0524820409,55501.8904682263,38701.4160861301,22511.7235814551
6100747980,8764,1,0,4104.2736476497,45851.6049440733,-898.7182550393,19333.1804757916,57316.4834308253,51154.5792442352,41773.2119875659,55492.9837141519,38696.5855104914,22506.8199996355
6100747980,8764,1,0,4102.3268161581,45852.5540244255,-893.3401330436,19336.4900893274,57316.0088906492,51152.2917172324,41772.2750749106,55495.6606074530,38699.1772299147,22501.8555793317
6100747980,8764,1,0,4118.1569897247,45848.2466597501,-888.2905388621,19351.5902010847,57319.0143117645,51141.9248395393,41770.4012495998,55494.2734900152,38694.9185360267,22499.5072138449
6100781519,8765,1,0,4110.4548376358,45843.8054504098,-896.9417713032,19333.1804757916,57308.5135894063,51144.1758634515,41767.5661762401,55487.5934244594,38691.6819286718,22497.7550655024
6100781519,8765,1,0,4099.5769166761,45846.9082130996,-901.7966823355,19325.4783237027,57308.8299495237,51145.9036764004,41771.3868330425,55490.2581500636,38693.6530955571,22498.4121211308
6100781519,8765,1,0,4104.6143431608,45845.0222200921,-903.4028183162,19341.6978635677,57310.3752470202,51130.0126643496,41769.0871383430,55489.1143865622,38686.9486946076,22494.2386011205
6100781519,8765,1,0,4101.7549344074,45839.8752843360,-911.4091628256,19332.5599232536,57303.9993738850,51129.9761612592,41761.9447003079,55477.9201054851,38678.9180147045,22491.1601738243
6100781519,8765,1,0,4096.8878556782,45846.1051451093,-910.9467903464,19321.5238222352,57306.5180871273,51142.1925288694,41765.7045186262,55480.4631541211,38682.2519636340,22494.9443275363
6100781519,8765,1,0,4111.2457379293,45850.0718142736,-901.5898314895,19343.7542043307,57318.3450884392,51139.6616479302,41771.7518639472,55487.5934244594,38687.0338684854,22498.2174379816
6100781519,8765,1,0,4117.9379711819,45846.0078035347,-903.9747000668,19348.5239414853,57315.5221827763,51140.5377221015,41771.3746653457,55484.7461834028,38685.6224156539,22501.7217346666
6100781519,8765,1,0,4106.8653670730,45849.5364356134,-908.3307355294,19328.0457077323,57311.8353706390,51155.6865046460,41775.5725207496,55487.4595797943,38690.7693514100,22508.4748064034
6100826968,8766,1,0,4112.7180292449,45856.8127183135,-899.4726522423,19337.1471449559,57319.1238210359,51152.9122697704,41777.7018676936,55493.4582543280,38697.4615846626,22510.5554825601
6100826968,8766,1,0,4127.5504516720,45855.6324517217,-895.8345108923,19350.8723069722,57323.1148255938,51146.7919182685,41773.3336645342,55493.3974158439,38696.5246720073,22509.3752159683
6100826968,8766,1,0,4119.3615917102,45854.3305081616,-899.6551676947,19331.8906999284,57316.8241263364,51154.7252565970,41770.2917403284,55488.7493556576,38695.9406225598,22509.6307376016
6100826968,8766,1,0,4111.3187441102,45858.0051526021,-896.7835912445,19327.9848692482,57320.1945783563,51158.0105347392,41773.4675091992,55493.6772728709,38699.7612793622,22512.3806370835
6100826968,8766,1,0,4118.2664989961,45857.3724323674,-893.4374746182,19343.7663720276,57324.7818000586,51150.4422273153,41772.1290625487,55495.1252287928,38697.5710939341,22513.1350342866
6100826968,8766,1,0,4114.6891961302,45855.8879733549,-900.7624281056,19333.0222957329,57320.3040876277,51156.2583863967,41766.8482821275,55489.9904607335,38696.3664919486,22511.8695938170
6100826968,8766,1,0,4109.4935895868,45858.4066865973,-901.9548623942,19325.0159512234,57321.4843542196,51157.1831313553,41769.9267094237,55492.3388262203,38699.6396023940,22508.9858496699
6100826968,8766,1,0,4119.2764178324,45856.1799980787,-897.8665162617,19343.9488874799,57326.9841531835,51142.6183982582,41768.5395919859,55491.8156152569,38694.3709896696,22508.0002662273
6100845724,8767,1,0,4120.1281566100,45851.7144533447,-901.8940239101,19344.0097259640,57320.0120629040,51143.0320999502,41765.4611646897,55486.5104994421,38687.8247687789,22508.0854401050
6100845724,8767,1,0,4106.6220131366,45853.0407322984,-906.3108978568,19325.5148267932,57316.6781139745,51151.2574630025,41769.0628029493,55486.0237915692,38691.2803946766,22510.8353395870
6100845724,8767,1,0,4112.6328553671,45856.2773396533,-896.5037342175,19336.8429525353,57324.3194275793,51151.3791399707,41773.8568754975,55494.1274776533,38695.0767160854,22510.3242963205
6100845724,8767,1,0,4128.2805134814,45855.8758056581,-891.8191709407,19349.3270094756,57327.8967304452,51145.8185025226,41772.0438886709,55494.2978254088,38695.8797840757,22507.1120243592
6100845724,8767,1,0,4122.6347021556,45855.0118991837,-896.3090510684,19332.2313954394,57322.4821053590,51158.0713732233,41769.3913307635,55491.9737953156,38698.3254911371,22507.6839061099
6100845724,8767,1,0,4122.0749881017,45861.2052568666,-890.5537304711,19335.2733196452,57329.5758726068,51164.8244449601,41774.8789620307,55502.1946606469,38707.2565806051,22512.1007800566
6100845724,8767,1,0,4130.7505559365,45861.7893063141,-886.6478997910,19349.3756802629,57331.5105364017,51156.6112496046,41774.0758940404,55505.1635786717,38709.0087289476,22510.9570165553
6100845724,8767,1,0,4122.2575035541,45858.7595498052,-893.9850209752,19333.2169788821,57324.6601230903,51158.7040934581,41770.5472619617,55499.2865811062,38707.6094438130,22511.0786935235
6100872051,8768,1,0,4116.0276427807,45861.0714122015,-893.5834869800,19328.5932540894,57325.9985697409,51162.4760794732,41773.5526830770,55502.5718592484,38710.0064800871,22513.1106988929
6100872051,8768,1,0,4126.1389988406,45862.5680389107,-886.5383905196,19353.5735356669,57335.5258763532,51151.5859908167,41776.7892904319,55505.4191003050,38708.7167042239,22513.3175497389
6100872051,8768,1,0,4122.2575035541,45857.9808172085,-891.4541400360,19353.7803865128,57330.1355866607,51149.1767868458,41775.3291668131,55497.7534513065,38702.4381726632,22514.4248101498
6100872051,8768,1,0,4101.2195557472,45855.4864393598,-900.2392171422,19335.3098227356,57322.9444778383,51148.8725944252,41775.5116822655,55492.6551863377,38699.1772299147,22514.4126424530
6100872051,8768,1,0,4103.5922566277,45855.5229424503,-897.9881932299,19350.6776238230,57329.6245433941,51143.9203418183,41777.5558553317,55495.4537566070,38698.3011557434,22512.2102893280
6100872051,8768,1,0,4117.1470708884,45853.8194648951,-898.9494412790,19359.7547256529,57331.0481639224,51144.6017328403,41776.3999241335,55493.8476206264,38697.1208891516,22508.3652971320
6100872051,8768,1,0,4113.8739604430,45857.6401216975,-903.7800169177,19342.2210745311,57329.7948911496,51154.2628841178,41775.4021729941,55494.4803408612,38697.9969633229,22508.3774648288
6100872051,8768,1,0,4116.3196675045,45862.9209021186,-902.3442286926,19346.9421408984,57334.3699451550,51149.4809792663,41776.8987997033,55501.5741081089,38699.2867391861,22508.1827816796
6100904269,8769,1,0,4121.0894046590,45857.5184447292,-901.6750053673,19356.9561553836,57333.9927465535,51140.6350636761,41772.9929690231,55498.7877055365,38694.3101511855,22507.4283844766
6100904269,8769,1,0,4103.2150580261,45850.6801991147,-909.1703066102,19336.1493938164,57320.6204477451,51146.5485643320,41769.0749706461,55490.4041624255,38690.1244634784,22506.5279749117
6100904269,8769,1,0,4096.6810048322,45854.7442098536,-904.3275632747,19331.6960167792,57319.3063364882,51151.4399784548,41772.1168948519,55492.7525279123,38691.7305994590,22507.0633535719
6100904269,8769,1,0,4114.5066806778,45854.1966634966,-895.7006662272,19353.8533926938,57325.2198371442,51145.3682977402,41772.8104535708,55497.4492588860,38692.7405182954,22507.3310429020
6100904269,8769,1,0,4114.7256992207,45850.8748822639,-899.5091553328,19343.4378442133,57317.4203434807,51146.8527567526,41768.8559521033,55492.5091739758,38689.9662834197,22505.9682608578
6100904269,8769,1,0,4100.6720093902,45852.9312230270,-901.2369682817,19326.5125779326,57315.6195243509,51151.4034753644,41768.9046228906,55491.7426090760,38693.3732385301,22508.8276696112
6100904269,8769,1,0,4101.6332574392,45855.4499362693,-895.6763308336,19343.3648380324,57322.3360929972,51143.3484600676,41769.1601445239,55496.1716507196,38694.2858157919,22509.8497561444
6100904269,8769,1,0,4107.4615842174,45854.6347005822,-893.6199900705,19349.0958232360,57324.2950921857,51142.4237151090,41765.1934753596,55491.1342242349,38689.3457308817,22512.2102893280
6100946057,8770,1,0,4100.4408231505,45855.5351101471,-899.2171306091,19331.4283274491,57321.4478511291,51149.8946809583,41763.8550287091,55487.4717474912,38688.6521721628,22512.3806370835
6100946057,8770,1,0,4105.5025850289,45860.2075057271,-896.0048586478,19341.5396835090,57329.7097172719,51143.5431432167,41764.8284444549,55492.5335093695,38690.6476744418,22511.9912707852
6100946057,8770,1,0,4110.9902162960,45854.9145576091,-898.3288887410,19349.7042080772,57326.7894700344,51136.4737113626,41759.1948008259,55490.9517087825,38687.3137255123,22509.8619238412
6100946057,8770,1,0,4090.9500196286,45850.4733482687,-907.4911644487,19326.5247456295,57317.0066417887,51143.9325095151,41754.3520574904,55483.2617243904,38684.8923538446,22507.7325768972
6100946057,8770,1,0,4085.4258852710,45854.4278497362,-904.0112031573,19327.5833352531,57321.1071556180,51145.7454963417,41759.1461300386,55487.3500705229,38690.3313143244,22507.1241920560
6100946057,8770,1,0,4098.6156686271,45848.9767215595,-901.5411607022,19347.3436748935,57322.0197328798,51133.7968180616,41757.8806895690,55485.8534438137,38687.0460361822,22504.5689757232
6100946057,8770,1,0,4094.6246640692,45841.6517680721,-911.1779765860,19333.3873266376,57309.6208498172,51134.4417059932,41753.1717908985,55474.5374857684,38680.1104489931,22504.6663172978
6100946057,8770,1,0,4086.0829408994,45843.5012579892,-913.8305344934,19317.9586870661,57304.7537710880,51140.4768836174,41755.8243488059,55475.9732739935,38682.0086096975,22507.3432105988
6100963348,8771,1,0,4096.5349924704,45846.1173128061,-905.3009790205,19333.9592083883,57310.3022408393,51132.2150174746,41761.2633092858,55479.6357507372,38683.4200625290,22507.1485274497
6100963348,8771,1,0,4101.5359158646,45844.9857170016,-905.8850284680,19332.9979603393,57308.5622601936,51133.9671658171,41761.9812033984,55477.5307391868,38682.1667897562,22505.9804285547
6100963348,8771,1,0,4096.8026818005,45851.1547392908,-902.6849242036,19319.5283199563,57308.4649186190,51142.3142058376,41765.5828416579,55478.5041549326,38684.0892858542,22507.3675459925
6100963348,8771,1,0,4105.7337712685,45854.7442098536,-893.6808285546,19334.4337485644,57315.8020398032,51136.5102144531,41767.4079961814,55485.3545682440,38686.9121915172,22507.0511858751
6100963348,8771,1,0,4109.9559620661,45849.7189510657,-893.5348161927,19338.7167778460,57312.6992771134,51129.4894533862,41761.4579924350,55480.5604956957,38682.6169945387,22503.4982184028
6100963348,8771,1,0,4089.9887715796,45844.1583136176,-901.2004651912,19314.2597072319,57303.5126660121,51135.9261650056,41755.2402993584,55473.8804301399,38679.7332503916,22501.4053745492
6100963348,8771,1,0,4088.2122878435,45849.5729387038,-893.4496423150,19322.2173809541,57310.4239178075,51141.9005041456,41761.3971539509,55480.1102909133,38688.3844828327,22502.2936164173
6100963348,8771,1,0,4103.7139335959,45847.9789704200,-890.5780658648,19341.0164725456,57312.8087863848,51134.9649169566,41762.2002219412,55480.2684709720,38686.9730300013,22500.6753127399
6100997510,8772,1,0,4098.5913332334,45842.8685377544,-899.8741862375,19326.0502054534,57304.0358769755,51137.6296425608,41758.4769067133,55474.7078335239,38682.7630069005,22499.8357416591
6100997510,8772,1,0,4091.8504291935,45846.9933869774,-899.3753106678,19320.8302635163,57306.0922177385,51146.4633904542,41762.7964390855,55479.6600861308,38687.6909241138,22499.5558846322
6100997510,8772,1,0,4100.8545248425,45846.9082130996,-890.6997428330,19341.6978635677,57312.2247369373,51139.2479462382,41764.1713888265,55484.9286988552,38689.4795755468,22499.9087478400
6100997510,8772,1,0,4099.8932767935,45843.8541211971,-894.2162072148,19338.0353868240,57307.9538753524,51140.1605235000,41762.0055387920,55481.1080420528,38686.3768128569,22500.6874804367
6100997510,8772,1,0,4094.4299809200,45846.7865361314,-897.9030193522,19325.6973422455,57306.9074534257,51147.1326137795,41765.7531894135,55483.3225628745,38689.8567741483,22501.0890144318
6100997510,8772,1,0,4107.3764103396,45847.9546350264,-891.5758170043,19339.9092121347,57312.0422214849,51136.2303574262,41768.9046228906,55486.0481269629,38689.7350971801,22501.3567037620
6100997510,8772,1,0,4110.6251853913,45841.0433832310,-896.1387033129,19338.0232191271,57303.7316845549,51126.8612308725,41762.2367250316,55478.9421920183,38683.2253793798,22501.6730638793
6100997510,8772,1,0,4090.3903055748,45836.7116831620,-907.0652950599,19309.9888456471,57291.7221677906,51134.8675753820,41756.9559446105,55470.2787918803,38680.0617782058,22501.3810391556
6101064613,8773,1,0,4088.8815111687,45837.6120927269,-901.6263345800,19315.1479491000,57294.8492658741,51135.2447739835,41758.0632050214,55473.2355422083,38683.1523731989,22500.6388096494
6101064613,8773,1,0,4103.3002319039,45837.2348941254,-896.2238771906,19328.6784279671,57297.8790223830,51125.9973243981,41755.3984794171,55474.2211256510,38682.7508392037,22499.3855368766
6101064613,8773,1,0,4095.7319244800,45833.9617836800,-907.1504689376,19310.7189074565,57291.4909815510,51126.3988583932,41753.5733248937,55467.8817556062,38676.2167860098,22496.7451466661
6101064613,8773,1,0,4094.0284469248,45838.7436885314,-907.9900400184,19315.1357814032,57296.4797372484,51133.1032593427,41762.6747621173,55474.7686720080,38682.5439883577,22499.1300152434
6101064613,8773,1,0,4104.2614799529,45836.7603539493,-906.8341088202,19339.3494980808,57299.0227858844,51119.9743144707,41766.2520649832,55476.1557894458,38679.1857040346,22496.8668236343
6101064613,8773,1,0,4095.8414337514,45829.9464437284,-911.3848274320,19330.4670794001,57290.5784042893,51119.4997742946,41760.5697505669,55470.3639657581,38673.6859050706,22494.5549612379
6101064613,8773,1,0,4085.2555375155,45831.0172010489,-908.6714310405,19319.7595061959,57287.8771755946,51128.8202300610,41760.3994028114,55470.0719410343,38675.8639228019,22494.5306258443
6101064613,8773,1,0,4095.4155643626,45832.5746662422,-897.1242867555,19338.0475545208,57294.0827009743,51123.8071389699,41759.9491980289,55474.1359517732,38678.6138222839,22494.2629365142
6101070266,8774,1,0,4097.8977745145,45830.7495117188,-895.8345108923,19335.8695367895,57292.1115340890,51128.4430314595,41756.6030814026,55469.0863575917,38677.0076863033,22497.3900345977
6101070266,8774,1,0,4079.9869247912,45833.5845850785,-899.7525092693,19314.7342474080,57290.7730874384,51141.8396656615,41759.3894839751,55470.6438227850,38682.8603484751,22500.7969897081
6101070266,8774,1,0,4083.4425506889,45838.4881668981,-894.8975982369,19326.7802672627,57301.5293314299,51140.1483558031,41765.8748663817,55480.9255266004,38689.3822339722,22501.5635546079
6101070266,8774,1,0,4099.8202706125,45836.9063663112,-895.3721384130,19342.2819130152,57304.9849573276,51129.8058135036,41766.0208787436,55479.6357507372,38685.7197572285,22499.7262323877
6101070266,8774,1,0,4097.8491037272,45835.6287581448,-902.7822657782,19327.3278136198,57299.3269783050,51133.4804579442,41766.6292635847,55476.1922925363,38683.1888762893,22499.7627354781
6101070266,8774,1,0,4096.2429677466,45836.4926646192,-901.9913654847,19329.3111482019,57302.0282069997,51131.8743219635,41769.6346847000,55478.9056889278,38685.1113723874,22500.5901388621
6101070266,8774,1,0,4103.8112751705,45835.0203733036,-896.6984173667,19345.4333464923,57304.0480446723,51123.7341327890,41768.0772195066,55479.2220490452,38683.2375470766,22499.7262323877
6101070266,8774,1,0,4092.9211865139,45833.7305974404,-903.6705076463,19327.4981613753,57299.0714566717,51133.3101101886,41764.4999166407,55474.0751132891,38680.8283431057,22497.2318545390
6101089563,8775,1,0,4085.8030838725,45838.3786576267,-903.7070107367,19314.4665580779,57302.6487595376,51137.4836301989,41765.0352953009,55477.4333976122,38684.9045215414,22496.5869666074
6101089563,8775,1,0,4099.6377551602,45839.4615826440,-897.1486221492,19333.7766929359,57311.8232029421,51131.9716635381,41764.6094259121,55483.9309477157,38686.3038066760,22498.5337980990
6101089563,8775,1,0,4097.7882652431,45834.4484915529,-898.1707086823,19328.9461172972,57305.2648143546,51133.0059177681,41759.6693410020,55479.3315583166,38683.2497147735,22501.6243930921
6101089563,8775,1,0,4081.4470484099,45837.0523786730,-896.6132434890,19311.2907892071,57302.1377162711,51143.4579693390,41762.4070727872,55480.0007816419,38689.3822339722,22508.6694895525
6101089563,8775,1,0,4084.5376434029,45837.0523786730,-888.5095574049,19324.5414110473,57305.2404789609,51135.0744262280,41764.1105503424,55482.6046687620,38691.1952207988,22508.1097754987
6101089563,8775,1,0,4095.6589182991,45834.5823362180,-886.9764276052,19333.1318050043,57305.6906837434,51133.5656318219,41762.6139236331,55480.5239926053,38689.0050353707,22507.0998566624
6101089563,8775,1,0,4088.8328403814,45837.1253848540,-894.5934058163,19318.4575626358,57302.5879210535,51140.2213619841,41762.7356006014,55476.3018018077,38688.4453213169,22503.0480136203
6101089563,8775,1,0,4093.6147452328,45843.6229349574,-893.6199900705,19329.1529681432,57311.5433459152,51139.6129771429,41767.3106546068,55482.9331965762,38689.3944016690,22503.6320630678
6101119610,8776,1,0,4108.9825463202,45847.8816288455,-890.3833827156,19351.8822258085,57317.4203434807,51136.9969223260,41770.1457279665,55487.0458781023,38689.6012525150,22506.6009810926
6101119610,8776,1,0,4103.0447102706,45849.4147586451,-895.4816476844,19337.8285359780,57312.3220785119,51146.1835334273,41769.3183245826,55485.0990466107,38691.6940963686,22509.3022097873
6101119610,8776,1,0,4102.1564684026,45858.2241711450,-886.8182475465,19335.7235244276,57320.3649261118,51157.2804729298,41776.9718058842,55495.5510981816,38702.4016695728,22516.6393309716
6101119610,8776,1,0,4117.5607725804,45860.9010644460,-875.5266248948,19357.9174034326,57328.5294506800,51146.6459059066,41778.5779418648,55501.4402634439,38705.1515690548,22515.8971014654
6101119610,8776,1,0,4116.8915492551,45856.6788736484,-879.5906356337,19346.7352900524,57321.0463171339,51143.7256586691,41773.1633167786,55494.1518130469,38700.9658813477,22513.6947483404
6101119610,8776,1,0,4105.8676159335,45856.6058674675,-883.9101680058,19327.1696335611,57316.7754555491,51144.5165589626,41773.0294721136,55492.8255340932,38700.7468628048,22510.6284887410
6101119610,8776,1,0,4110.5886823008,45855.1944146360,-881.7808210618,19341.0164725456,57321.6303665814,51135.0014200470,41772.4454226661,55493.7989498391,38697.9847956260,22508.9128434890
6101119610,8776,1,0,4114.7378669175,45851.3980932273,-884.5672236342,19344.6911169861,57316.3617538571,51133.5899672156,41769.3304922794,55487.8124430022,38691.2925623734,22509.9470977189
6101172875,8777,1,0,4104.7481878258,45850.9235530512,-892.5492327501,19326.7072610818,57311.1174765264,51143.0564353438,41769.8902063333,55485.2937297598,38691.8279410336,22512.5509848391
6101172875,8777,1,0,4107.2547333714,45854.1844957997,-889.3491284857,19337.0254679877,57319.2698333978,51142.1560257789,41775.4265083877,55490.5380070905,38695.3809085059,22512.6848295041
6101172875,8777,1,0,4113.6549419002,45851.0817331099,-890.0548549014,19345.5428557637,57319.8417151485,51136.8995807514,41774.0393909499,55490.4163301223,38694.1884742173,22512.4171401740
6101172875,8777,1,0,4099.3822335269,45850.3638389973,-898.6695842520,19323.5071568174,57311.8597060326,51144.1636957547,41770.4620880839,55487.3622382197,38694.4318281537,22514.2422946974
6101172875,8777,1,0,4095.8901045387,45857.4819416388,-895.7615047113,19327.7901860990,57318.6614485566,51146.3782165765,41774.7086142752,55493.3974158439,38701.4525892206,22517.2598835095
6101172875,8777,1,0,4113.4115879638,45858.6378728369,-888.1810295907,19352.3080951973,57325.5605326552,51141.6936532997,41773.9298816785,55496.0378060545,38701.9392970935,22517.6857528983
6101172875,8777,1,0,4112.1704828878,45855.7541286899,-891.0891091313,19344.1679060227,57319.6470319993,51144.5773974467,41768.7951136192,55487.5812567626,38698.4593358021,22517.0043618763
6101172875,8777,1,0,4101.8157728915,45859.5504500987,-889.8115009649,19332.4260785886,57319.5131873342,51150.0893641075,41772.7009442994,55490.0999700049,38700.7225274112,22517.2112127222
6101187450,8778,1,0,4106.8045285889,45858.9664006512,-884.8349129643,19350.4586052802,57326.0107374377,51134.7458984138,41774.2949125832,55493.9327945041,38697.8996217483,22516.6271632747
6101187450,8778,1,0,4103.7382689895,45850.1569881513,-891.6001523979,19347.1976625316,57319.3671749724,51129.7206396259,41769.7563616682,55486.4739963517,38689.3700662754,22514.4004747561
6101187450,8778,1,0,4092.8725157266,45847.1880701265,-896.2117094938,19331.4526628427,57313.5023451037,51139.3939586001,41769.3426599762,55483.8092707474,38686.6810052775,22514.1692885165
6101187450,8778,1,0,4103.7261012927,45848.6481937453,-888.9840975810,19348.5361091822,57319.2576657010,51138.3232012797,41773.8933785880,55489.7836098875,38690.6111713513,22510.8231718902
6101187450,8778,1,0,4112.0001351323,45844.7423630651,-891.1134445250,19355.4960317649,57316.7389524586,51133.1275947363,41770.9974667442,55487.4474120975,38690.3678174149,22507.4648875671
6101187450,8778,1,0,4092.6900002743,45841.4327495293,-902.0643716656,19332.2192277426,57305.5203359879,51141.5111378473,41767.1524745481,55483.9431154125,38691.1100469211,22509.3630482714
6101187450,8778,1,0,4086.6548226501,45844.9127108207,-899.6916707852,19334.8839533468,57312.2247369373,51143.7013232754,41772.4332549693,55490.9882118730,38697.0235475770,22512.7578356850
6101187450,8778,1,0,4104.6751816449,45846.6770268600,-891.1256122218,19355.4595286744,57323.1878317748,51133.5412964283,41777.3003336984,55494.7480301913,38696.8288644279,22514.5221517244
6101222232,8779,1,0,4104.9185355814,45845.9713004443,-894.0215240657,19341.5153481153,57320.7299570165,51132.8599054062,41776.0835640161,55489.4307466796,38691.6575932781,22512.7335002914
6101222232,8779,1,0,4100.5625001187,45849.4755971293,-893.3036299531,19335.4193320070,57324.2950921857,51137.0212577196,41780.1840778455,55493.9449622010,38696.4273304327,22511.4072213377
6101222232,8779,1,0,4107.6075965792,45846.5431821949,-890.4807242902,19352.1012443513,57326.5217807042,51129.1000870879,41778.0547309015,55495.9161290863,38695.6242624424,22508.8155019144
6101222232,8779,1,0,4102.6675116691,45839.9361228201,-899.4483168487,19345.3846757050,57316.3252507666,51135.7558172501,41773.1024782945,55488.0801323323,38694.7116851807,22511.7114137583
6101222232,8779,1,0,4096.6323340449,45846.7500330409,-902.1982163307,19333.8010283296,57317.5420204489,51152.0240279023,41776.7892904319,55491.4384166554,38703.2169052599,22519.7664290551
6101222232,8779,1,0,4110.9293778119,45852.2011612176,-893.4861454055,19350.0692389819,57326.5826191884,51140.1361881063,41779.1254882219,55496.7922032575,38705.9059662578,22519.2432180917
6101222232,8779,1,0,4120.5053552115,45849.9623050022,-890.4807242902,19355.6298764299,57324.4167691539,51133.5169610346,41776.9596381874,55492.9958818488,38701.9392970935,22515.9092691622
6101222232,8779,1,0,4106.3664915033,45851.0330623226,-895.1287844766,19337.5000081638,57319.8295474516,51142.8495844978,41779.0038112536,55487.2405612515,38701.5742661888,22516.5419893970
6101252970,8780,1,0,4106.9262055571,45853.5517755649,-888.4730543144,19347.2098302285,57324.8791416332,51140.2578650745,41784.8443057287,55494.6385209199,38705.5044322626,22517.6127467174
6101252970,8780,1,0,4121.3692616860,45850.0353111831,-885.7961610134,19360.5821290369,57325.5361972616,51130.8279000368,41780.6221149311,55491.8156152569,38700.2236518415,22515.2643812306
6101252970,8780,1,0,4117.5851079740,45845.6792757205,-892.3302142073,19339.7510320760,57317.7367035981,51139.7346541112,41774.5626019133,55484.1012954712,38693.8842817967,22515.4712320766
6101252970,8780,1,0,4114.3728360128,45851.3615901368,-889.7871655713,19336.2589030878,57319.9877275103,51142.1560257789,41775.9740547447,55486.8390272564,38698.9703790687,22516.0796169177
6101252970,8780,1,0,4121.1137400527,45850.5220190560,-886.8790860306,19353.0746600971,57321.4843542196,51131.9594958413,41775.8402100797,55489.7957775843,38698.1308079879,22513.1106988929
6101252970,8780,1,0,4112.6693584576,45845.6671080237,-895.1896229607,19341.2476587852,57311.3851658565,51131.8013157826,41771.6545223726,55481.2418867178,38692.5458351462,22511.3342151568
6101252970,8780,1,0,4104.8576970972,45850.2178266355,-896.0656971319,19332.0853830775,57311.3608304629,51139.5764740525,41776.0348932289,55484.9408665520,38696.0501318312,22515.3617228052
6101252970,8780,1,0,4118.6680329913,45853.0528999952,-889.8480040554,19355.2891809189,57320.6934539261,51133.2614394014,41779.9042208185,55491.0977211444,38696.1109703153,22516.8948526048
6101300480,8781,1,0,4123.3160931776,45848.4535105961,-892.5614004469,19361.7502279319,57316.8606294268,51130.1951798020,41778.4806002903,55486.3888224739,38692.1321334542,22515.7875921940
6101300480,8781,1,0,4106.2691499287,45846.4823437108,-898.3532241346,19343.9610551767,57310.9836318614,51136.6927299054,41779.9163885154,55483.4442398428,38694.2736480950,22515.8971014654
6101300480,8781,1,0,4103.7017658991,45846.5796852854,-894.7759212687,19350.6411207325,57313.3806681355,51129.9761612592,41782.2282509117,55485.9507853883,38693.8112756158,22511.7965876360
6101300480,8781,1,0,4112.6085199735,45841.7734450403,-896.2117094938,19353.6222064541,57312.7479479007,51122.2131706861,41776.4607626177,55481.0715389623,38687.7517625979,22508.4504710097
6101300480,8781,1,0,4108.2889876013,45839.8996197296,-903.3663152257,19328.7392664512,57308.4892540126,51129.6719688386,41771.8857086122,55476.1801248395,38683.9432734924,22510.5433148633
6101300480,8781,1,0,4108.5201738409,45843.2335686591,-904.3397309715,19326.8897765341,57313.3198296514,51128.3943606722,41772.0317209741,55479.2220490452,38685.7805957126,22511.9182646043
6101300480,8781,1,0,4119.6901195244,45842.0167989768,-902.4050671767,19344.1557383259,57314.2202392163,51121.7751336005,41771.6666900694,55480.8768558131,38684.5759937272,22513.1472019834
6101300480,8781,1,0,4109.3232418313,45837.7216019983,-909.5231698181,19332.7667740996,57307.3454905113,51129.0027455133,41768.9289582843,55475.7177523602,38683.5539071940,22512.6604941105
6101306172,8782,1,0,4098.4331531747,45839.5467565217,-908.2333939549,19327.2183043484,57307.0656334844,51133.1762655236,41771.5328454044,55477.9079377883,38690.0757926911,22514.1692885165
6101306172,8782,1,0,4112.1461474942,45842.1141405514,-896.8931005159,19349.2540032947,57316.8484617300,51128.3700252785,41775.5116822655,55484.1621339553,38694.3466542760,22513.6460775531
6101306172,8782,1,0,4114.1173143795,45838.2448129617,-897.5988269316,19346.9786439888,57312.2247369373,51132.3610298365,41773.5405153801,55479.2342167420,38692.0834626669,22514.3761393625
6101306172,8782,1,0,4102.6796793659,45842.2844883069,-901.5533283991,19329.7248498939,57309.4018312744,51141.5841440282,41774.6599434879,55480.3049740624,38696.2326472835,22516.6880017589
6101306172,8782,1,0,4107.4129134301,45846.2998282585,-894.4108903640,19342.8416270690,57315.7777044096,51134.6363891423,41775.2926637227,55488.2504800878,38701.8906263062,22518.4644854950
6101306172,8782,1,0,4112.4990107021,45843.3795810210,-895.0192752051,19349.3026740820,57316.0697291333,51125.7539704616,41768.8437844065,55484.2594755299,38696.4516658263,22516.8826849080
6101306172,8782,1,0,4105.6242619971,45841.6030972848,-900.3608941104,19331.1363027254,57311.3973335533,51130.3290244670,41768.1867287781,55480.3171417593,38691.7792702463,22514.7168348735
6101306172,8782,1,0,4109.8586204915,45844.5355122191,-897.2216283301,19336.6969401734,57315.6681951382,51124.5250330825,41771.6910254631,55482.5925010651,38691.3168977671,22513.6095744627
6101340394,8783,1,0,4118.9113869277,45839.3764087662,-897.0512805746,19348.1467428838,57315.9237167715,51113.2455781276,41769.3913307635,55478.3703102676,38683.5174041036,22511.7965876360
6101340394,8783,1,0,4107.4737519142,45838.4881668981,-904.3153955779,19329.8100237716,57310.9592964677,51126.4596968773,41769.0749706461,55475.2432121841,38683.1888762893,22512.0399415725
6101340394,8783,1,0,4101.6089220455,45844.2678228890,-905.2644759301,19327.5346644658,57314.5365993337,51134.7824015042,41774.9884713021,55483.3590659650,38689.9541157229,22511.4802275186
6101340394,8783,1,0,4117.8771326978,45849.2444108896,-900.1053724771,19353.9507342684,57324.3559306698,51128.7107207896,41777.2029921239,55490.0999700049,38693.8599464031,22508.9736819731
6101340394,8783,1,0,4116.8793815583,45846.4458406203,-903.8651907954,19351.6267041752,57319.5010196374,51128.6133792150,41775.9253839574,55486.4861640485,38691.7671025495,22509.8375884475
6101340394,8783,1,0,4105.5269204225,45847.1515670361,-905.2523082332,19338.4612562128,57314.5122639400,51133.9793335139,41778.8456311949,55485.7439345423,38694.7238528775,22512.1251154503
6101340394,8783,1,0,4108.8608693520,45847.6261072122,-898.7790935234,19356.5911244789,57318.1260698964,51129.3799441148,41781.2426674691,55486.8268595595,38695.4782500805,22515.9336045558
6101340394,8783,1,0,4111.8784581641,45843.5134256860,-898.4627334060,19358.3919436087,57313.5631835878,51124.4885299920,41777.0448120652,55481.5947499257,38690.5138297767,22514.9115180227
6101375196,8784,1,0,4105.4539142416,45844.1096428303,-903.6948430399,19337.8528713716,57309.5843467267,51130.5723784035,41775.7672038987,55479.2342167420,38689.4309047595,22514.0476115483
6101375196,8784,1,0,4115.2854132745,45850.2786651196,-898.2558825600,19346.9178055047,57319.8660505421,51131.1077570637,41779.4296806425,55487.5082505816,38691.6454255813,22512.1372831471
6101375196,8784,1,0,4123.4377701459,45845.7522819014,-897.0999513619,19355.1066654665,57320.5717769578,51123.4177726716,41778.0547309015,55488.8223618385,38688.7008429501,22509.3022097873
6101375196,8784,1,0,4109.8707881883,45843.4039164146,-904.9602835095,19331.7081844760,57309.6330175140,51130.4993722225,41776.4485949208,55484.1012954712,38686.5349929157,22507.8055830781
6101375196,8784,1,0,4105.6729327844,45848.4413428993,-900.0445339930,19329.1894712337,57317.1526541506,51136.0600096706,41782.2160832149,55493.8719560200,38691.9131149114,22509.0953589413
6101375196,8784,1,0,4122.5251928842,45851.8726334034,-891.8435063344,19351.1643316959,57327.7628857802,51131.7039742080,41783.5788652591,55499.6881151014,38696.4760012200,22510.1539485649
6101375196,8784,1,0,4124.9830676424,45852.2376643081,-892.7682512929,19345.0683155876,57325.9012281663,51138.6517290939,41782.5567787259,55496.7678678639,38699.4814223353,22513.0498604088
6101375196,8784,1,0,4115.4922641205,45855.4499362693,-895.2626291416,19334.5797609262,57326.2784267678,51140.7810760379,41784.2359208875,55498.3009976636,38705.2002398420,22516.5541570938
