steady_timestamp,sequence,battery,flags,EEG-ch1,EEG-ch2,EEG-ch3,EEG-ch4,EEG-ch5,EEG-ch6,EEG-ch7,EEG-ch8,EEG-ch9,EEG-ch10
9435965378,19330,-2,0,20338.9866305696,45429.0938395934,44674.0882517299,59152.2603535930,69412.5490225707,56741.3772404890,58516.3521822325,58689.8635389276,63613.9722631135,11386.1656560044
9435965378,19330,-2,0,20340.4224187947,45444.2182867444,44691.5975674581,59177.5569952879,69439.8046634541,56761.5147787309,58543.6443262063,58722.0227616306,63625.2273826748,11384.5960231143
9435965378,19330,-2,0,20553.8194856755,45478.1661608804,44734.4643633653,59207.6842126215,69474.1905746757,56709.2545208764,58551.1274597524,58749.1688932426,63615.5662313973,11379.8019505660
9435965378,19330,-2,0,20737.6855523670,45484.3595185632,44753.1296102917,59201.3205071832,69473.1198173553,56668.0790348276,58522.5333722185,58738.1084568306,63595.7693886664,11370.8586934012
9435965378,19330,-2,0,20586.0273791658,45437.6112273695,44715.2150669914,59157.4194570460,69423.1470865034,56705.2513486217,58479.0825268638,58678.3650654299,63571.9572059839,11364.1421247549
9435965378,19330,-2,0,20291.1675820555,45393.0409539071,44658.8907983980,59136.8438817184,69384.3808044256,56713.6105563390,58468.9711708039,58641.0345715771,63564.1820477141,11366.8190180560
9435965378,19330,-2,0,20282.2364925874,45409.8202078259,44671.1801721892,59160.4127104644,69411.8554638518,56748.4953431304,58498.0519662107,58684.5705908096,63593.3845200891,11367.4395705939
9435965378,19330,-2,0,20553.4179516803,45456.0087849658,44715.3245762628,59206.1267474282,69457.3748176664,56747.2907411449,58536.0151802983,58735.6992528596,63599.8942378894,11367.7437630145
9436006477,19331,-2,0,20731.1514991731,45470.7195304247,44735.4499468080,59223.7699078215,69461.1346359847,56704.2535974822,58549.3509760163,58725.5635614061,63580.2069044299,11374.4238285703
9436006477,19331,-2,0,20621.8369109157,45443.5612311159,44705.8824435282,59209.9960750179,69429.5594627291,56681.1471412154,58542.6587427637,58689.2186509960,63575.7413596959,11383.1115641019
9436006477,19331,-2,0,20373.1413555516,45395.6448410272,44657.9417180458,59165.5231431301,69390.9148576195,56681.6338490883,58516.6685423498,58660.5880603716,63573.0522986980,11379.5707643264
9436006477,19331,-2,0,20291.0337373904,45388.0521982097,44649.3269886952,59149.9971619840,69390.8418514385,56703.9615727584,58499.4390836486,58665.2482882548,63577.2866571924,11371.0412088535
9436006477,19331,-2,0,20464.7762803252,45432.1722668896,44706.8558592741,59161.8241632959,69434.0493428568,56752.6201923534,58510.0979860655,58710.2200957124,63602.0722556207,11367.2570551416
9436006477,19331,-2,0,20710.8436131756,45472.3986725863,44760.3572222045,59186.8287802670,69466.7804473105,56750.3935038348,58520.9394039347,58736.3441407912,63610.1881094016,11368.9240296063
9436006477,19331,-2,0,20640.8915241405,45439.5945619516,44724.6937028165,59168.9300982405,69423.2079249876,56705.8840688564,58500.5706794531,58684.4245784478,63580.9856370265,11367.8411045891
9436006477,19331,-2,0,20330.8707767887,45380.2405368493,44653.8168688229,59152.6253844977,69370.6799778029,56686.0628907319,58496.3363209587,58636.0336481829,63565.6908421201,11362.2804671410
9436055971,19332,-2,0,20238.0555854233,45374.2540300124,44636.6482486057,59161.8850017800,69379.5745641805,56667.4828176832,58520.5135345459,58663.3866306409,63576.0090490260,11357.9852701625
9436055971,19332,-2,0,20469.6798621449,45425.7842260576,44688.0445999858,59215.2646877422,69433.6356411648,56685.3814997098,58544.0580278983,58716.9731674491,63583.7233688117,11362.5846595616
9436055971,19332,-2,0,20692.2148693396,45461.5815901107,44722.1263187869,59229.3062098759,69456.0485387127,56701.6740457557,58541.2594576290,58721.2440290340,63571.8841998030,11370.2624762569
9436055971,19332,-2,0,20644.3228146445,45440.6044807879,44702.8770224130,59167.3361299567,69423.7068005573,56713.7200656104,58496.3363209587,58681.5043312102,63561.3956451416,11371.3454012741
9436055971,19332,-2,0,20404.7651995945,45397.4943309443,44657.6253579284,59122.2061424404,69381.8985942737,56724.7561666288,58470.0905989116,58646.0963334555,63566.1288792057,11368.9727003936
9436055971,19332,-2,0,20264.8853569179,45392.2743890072,44639.5563281464,59145.9696543356,69383.4317240734,56725.3280483795,58491.5544161073,58653.5307962143,63586.3029205382,11371.1142150345
9436055971,19332,-2,0,20439.6134832954,45441.7969150766,44684.0900985183,59206.8203061471,69438.6243968622,56722.8336705308,58534.0805165035,58709.5022015998,63602.5589634936,11375.5310889812
9436055971,19332,-2,0,20724.0942350158,45484.9314003139,44740.4508702022,59231.4233891231,69478.0720699622,56708.8773222749,58553.0499558504,58745.2508948656,63599.5048715911,11375.5797597685
9436092329,19333,-2,0,20705.1126279720,45458.5761689954,44732.3228487245,59180.9517827015,69443.4184694105,56709.8750734144,58517.1430825259,58701.6905402395,63585.1104862495,11373.2800650689
9436092329,19333,-2,0,20437.5936456228,45409.8567109164,44668.5884527659,59155.3387808893,69403.3259083789,56745.3439096532,58508.4918500848,58660.6488988557,63594.1632526858,11378.2931561600
9436092329,19333,-2,0,20281.4090892035,45402.0693849497,44654.5225952386,59157.4316247428,69406.8910435480,56748.4953431304,58510.7793770876,58679.7765182614,63609.2755321399,11380.0331368057
9436092329,19333,-2,0,20400.1779778922,45427.1105050113,44703.1933825304,59163.4059638829,69432.8812439618,56714.0364257278,58501.3007412625,58708.8573136682,63601.1961814494,11366.8068503591
9436092329,19333,-2,0,20621.6178923729,45451.0200292684,44727.0907390906,59175.8656854296,69446.1562011956,56666.8257620548,58497.2488982204,58714.3814480258,63574.8896209182,11361.5747407253
9436092329,19333,-2,0,20671.8218094644,45440.5436423038,44704.1059597921,59164.6227335652,69428.7442270420,56671.5346607253,58491.4570745327,58697.7360387721,63567.7958536705,11362.0979516887
9436092329,19333,-2,0,20488.7709784601,45408.8711274737,44670.1824210497,59169.3559676293,69399.9919594494,56722.3469626579,58502.2254862210,58670.8454287933,63574.9991301897,11365.7725961292
9436092329,19333,-2,0,20248.5198046911,45375.1422718805,44634.2390446347,59147.1255855338,69374.7196531481,56715.5695555275,58492.4669933690,58649.3207731136,63574.6584346786,11362.1344547791
9436110827,19334,-2,0,20320.4430606115,45395.3649840002,44649.9110381427,59151.8588195979,69404.3844980025,56693.2783349479,58496.7621903475,58685.1911433476,63579.5620164983,11362.7915104076
9436110827,19334,-2,0,20645.7707705665,45454.1592950487,44726.8352174573,59205.3601825284,69458.8957797692,56692.1589068402,58529.1891023807,58739.3860649970,63586.1447404795,11375.1052195924
9436110827,19334,-2,0,20731.6382070460,45460.4743296998,44738.8082311311,59225.3882114989,69454.7952659399,56711.9922526616,58543.6078231158,58719.8812469898,63579.9270474029,11384.8028739603
9436110827,19334,-2,0,20504.6254874203,45420.3696009714,44678.1279270751,59216.1285942167,69414.0213138862,56741.2312281271,58546.0291947836,58676.5520786033,63581.6548603518,11390.4486852861
9436110827,19334,-2,0,20306.7787370793,45394.4767421322,44641.2598057016,59201.3205071832,69399.6999347256,56756.0149797670,58540.6754081815,58676.4060662414,63601.8775724715,11384.4500107524
9436110827,19334,-2,0,20333.6085085739,45396.7521014381,44660.1075680803,59164.2820380541,69404.9685474500,56697.0503209630,58509.9154706131,58689.9730481990,63595.7085501823,11366.0402854593
9436110827,19334,-2,0,20559.5018000918,45428.8261502633,44706.0162881933,59142.8668916457,69427.5882958438,56666.1808741232,58489.5102430410,58703.4305208852,63579.5620164983,11357.4377238055
9436110827,19334,-2,0,20706.3293976543,45442.6121507637,44721.7612878822,59135.5906089456,69431.5306296145,56661.8856771447,58484.4484811627,58703.1263284646,63573.6120127518,11357.0605252040
9436129558,19335,-2,0,20540.1186590529,45405.1234768522,44676.8624866055,59144.8623939247,69395.2830607789,56680.8307810980,58486.7968466495,58664.6642388073,63563.1112903936,11360.3336356493
9436129558,19335,-2,0,20255.3337149119,45361.5874576198,44615.4886238306,59138.7177070291,69360.2765970193,56722.9188444086,58482.5989912456,58634.3910091118,63557.2221251313,11361.8302623586
9436129558,19335,-2,0,20272.4414966450,45382.5523992457,44632.5355670795,59149.0724170254,69390.9391930131,56728.1387863456,58496.0686316286,58677.5863328333,63583.4921825721,11362.5968272584
9436129558,19335,-2,0,20580.6979279574,45438.7914939613,44713.9739619155,59181.2073043348,69447.7988402667,56732.1662939940,58520.6595469078,58736.2224638230,63594.6499605587,11369.6905945062
9436129558,19335,-2,0,20728.5962828402,45458.9168645065,44744.4418747601,59191.1726480328,69459.2486429771,56708.0012481036,58530.0408411583,58731.4162235780,63589.6733725581,11381.5784343022
9436129558,19335,-2,0,20541.4814410970,45415.1739944280,44690.8310025583,59163.3207900051,69413.8996369180,56690.0417275930,58517.1187471323,58682.3195668974,63578.5277622683,11381.1769003070
9436129558,19335,-2,0,20312.9477593685,45377.0039294944,44645.8470274038,59155.3874516765,69384.0887797018,56692.6699501067,58506.5085155027,58665.0171020152,63579.7932027379,11375.3972443161
9436129558,19335,-2,0,20278.8903759611,45374.1566884379,44636.2832177010,59150.9219069425,69386.4979836727,56674.6374234151,58491.3962360486,58669.2636282064,63564.4010662569,11362.9131873758
9436185933,19336,-2,0,20483.5753719167,45416.5732795626,44677.8845731386,59156.7624014175,69422.9889064447,56697.4761903518,58494.8153588558,58700.3764289826,63565.0216187948,11358.8370089401
9436185933,19336,-2,0,20702.5817470328,45457.7974363988,44722.2966665424,59177.5569952879,69456.0972095000,56726.0337747952,58513.9794813520,58726.4396355774,63581.6305249582,11361.4408960602
9436185933,19336,-2,0,20619.8049055463,45441.1398594482,44687.8742522303,59188.0090468589,69437.1764409403,56745.2830711691,58535.6744847873,58699.6828702637,63578.7346131143,11375.5189212844
9436185933,19336,-2,0,20327.0014491990,45393.9535311688,44631.8541760575,59176.0482008819,69395.2465576884,56720.9720129169,58527.7533141556,58657.5826392563,63577.1163094368,11374.2169777243
9436185933,19336,-2,0,20257.9741051225,45388.9039369873,44635.8208452217,59185.6241782816,69398.1546372291,56679.9912100172,58515.1719156406,58674.2280485101,63579.1848178967,11363.4120629455
9436185933,19336,-2,0,20536.4683500060,45439.8379158881,44701.1248740705,59218.3187796448,69445.7424995036,56673.1164613123,58527.5586310064,58725.1133566237,63584.4899337115,11367.3787321098
9436185933,19336,-2,0,20736.6756335307,45468.6266865712,44740.2440193562,59200.3470914373,69460.3924064785,56700.4329406798,58512.2516684031,58721.3657060022,63574.4272484390,11370.4814947997
9436185933,19336,-2,0,20607.3208486060,45437.2583641616,44695.6494105001,59148.8655661794,69420.2268392659,56704.5091191155,58482.8058420916,58679.8130213519,63571.9207028934,11363.5094045201
9436192498,19337,-2,0,20339.4246676553,45390.5709114520,44626.5003894554,59125.8686191841,69380.3776321708,56697.8168858628,58472.5971444572,58650.6835551577,63567.5038289467,11364.1664601486
9436192498,19337,-2,0,20200.2627190913,45374.7529055822,44606.5331989689,59112.0947863805,69373.0770140770,56700.6154561321,58474.9820130345,58652.8737405859,63571.4704981110,11363.5702430042
9436192498,19337,-2,0,20373.8592496642,45411.3898407161,44653.0746393167,59136.0286460312,69408.6310241937,56677.8618630732,58493.7202661418,58689.6323526880,63569.1099649274,11366.6973410877
9436192498,19337,-2,0,20670.3008473615,45454.8771891612,44722.1628218773,59181.9373661442,69447.2877970002,56694.4099307524,58513.3954319045,58720.3679548627,63564.8877741298,11371.0655442472
9436192498,19337,-2,0,20669.8628102759,45442.3322937368,44708.3403182865,59182.3145647457,69426.0064952568,56694.8844709285,58503.4179205097,58686.9554593869,63552.0873570721,11379.3882488741
9436192498,19337,-2,0,20380.1012781344,45391.0697870217,44628.1186931328,59151.3234409377,69378.4794714664,56703.8885665775,58485.4949030895,58638.2238336110,63555.1414489746,11381.8826267228
9436192498,19337,-2,0,20259.2395455921,45386.2757144735,44614.7828974149,59160.2666981025,69389.3695601230,56704.6429637805,58502.9677157272,58664.2627048121,63580.5354322441,11380.1183106834
9436192498,19337,-2,0,20453.4846576735,45430.3836154567,44677.9332439259,59197.0861486888,69435.6068080501,56706.8696522991,58531.0994307819,58716.6203042413,63591.0118192086,11374.9957103210
9436230200,19338,-2,0,20661.7956272823,45458.4909951177,44728.1493287142,59187.2789850495,69450.8894352598,56702.6596291984,58527.4734571286,58720.8546627356,63579.3429979554,11369.2525574205
9436230200,19338,-2,0,20671.8339771612,45454.0984565646,44718.8775437351,59198.8017939408,69437.4076271799,56695.8578866743,58534.2508642590,58700.3520935890,63571.6165104729,11380.7388632214
9436230200,19338,-2,0,20467.7086952595,45411.3776730192,44654.1818997276,59184.1275515723,69394.8450236933,56704.2414297853,58518.3233491178,58667.2559582306,63564.5957494060,11384.4256753588
9436230200,19338,-2,0,20261.5027372011,45377.4906373673,44606.3871866070,59152.0413350502,69369.9985867808,56703.6208772474,58499.6702698882,58650.4158658276,63568.0027045165,11373.7181021546
9436230200,19338,-2,0,20344.7662865605,45396.1558842937,44633.9835230015,59129.4824251405,69394.2488065490,56687.1093126586,58486.1154556274,58677.5619974396,63566.2018853867,11359.5914061431
9436230200,19338,-2,0,20620.8026566858,45439.6554004358,44711.1510562526,59135.8948013662,69434.1466844314,56672.0578716887,58486.9185236178,58712.6779704706,63562.1500423446,11350.3804596482
9436230200,19338,-2,0,20667.9889849652,45434.8734955843,44720.2403257793,59140.6037000367,69418.3165108647,56661.5814847241,58482.8301774853,58684.3394045700,63541.4771254424,11354.4809734775
9436230200,19338,-2,0,20425.1460917729,45397.0197907682,44655.2526570480,59141.8083020221,69379.7327442392,56689.8105413533,58483.9982763803,58642.7988876165,63542.6938951247,11369.8122714744
9436246879,19339,-2,0,20278.6713574183,45391.4956564105,44622.1686893864,59164.3307088414,69383.6994134035,56709.8507380207,58503.3205789351,58662.8634196775,63572.7724416711,11376.1273061255
9436246879,19339,-2,0,20408.6101917905,45422.7423018519,44654.2549059085,59184.0910484819,69419.7157959994,56703.4261940982,58517.9583182131,58702.2380865965,63585.0861508559,11370.6153394647
9436246879,19339,-2,0,20634.4304771275,45462.5063350692,44711.2118947367,59190.1748968933,69449.8308456362,56710.5321290428,58526.3418613241,58720.3922902564,63580.1582336426,11363.9231062121
9436246879,19339,-2,0,20713.2649848433,45471.8146231388,44733.2840967735,59181.7061799046,69447.9935234159,56718.5993120364,58520.7690561792,58708.5166181572,63570.9959579349,11365.0181989262
9436246879,19339,-2,0,20558.3945396809,45449.3165517132,44712.2826520571,59187.8995375874,69423.2809311685,56747.3515796290,58518.6032061447,58682.5872562275,63573.5511742677,11374.8131948686
9436246879,19339,-2,0,20324.4462328662,45424.3484378325,44678.9674981559,59178.3478955814,69402.5350080854,56763.4859456163,58509.1245703196,58669.6894975952,63595.0758299475,11377.1372249618
9436246879,19339,-2,0,20355.1574996473,45443.8167527492,44681.1820189777,59175.5736607058,69426.9677433059,56719.4023800267,58513.6022827505,58705.4868616483,63609.5918922573,11368.6928433667
9436246879,19339,-2,0,20653.2295687189,45491.9278259871,44734.5008664558,59199.5805265375,69471.7205322206,56692.2684161116,58531.4157908993,58749.2418994236,63595.1245007348,11358.7761704560
9436343475,19340,-2,0,20779.2990755014,45500.6033938219,44757.3518010893,59217.6495563195,69469.0193035259,56738.5421671292,58533.8980010511,58726.9506788439,63572.0180444680,11348.7743236675
9436343475,19340,-2,0,20578.6172518007,45465.2318991576,44717.1497307863,59204.5692822349,69428.8902394039,56773.6703078571,58522.1440059202,58676.7467617525,63576.2280675688,11338.3466074903
9436343475,19340,-2,0,20354.3909347475,45438.7671585677,44686.1342715846,59179.5890006574,69409.7382846046,56739.6129244496,58514.5270277090,58667.5723183480,63583.9058842640,11340.3542774661
9436343475,19340,-2,0,20403.8282869391,45467.5924323412,44715.3245762628,59209.1200008467,69440.1940297524,56771.9424949082,58532.8029083371,58708.3462704017,63596.9253198646,11358.9951889988
9436343475,19340,-2,0,20689.7326591878,45539.0289803887,44792.5529479980,59282.5033803858,69505.4372201170,56796.5334101874,58578.7724669341,58764.3176757872,63625.7262582445,11378.4878393092
9436343475,19340,-2,0,20837.3876601342,45555.3336941315,44813.8464174382,59264.3491767260,69507.6760763324,56738.3596516769,58573.3700095448,58766.0211533424,63623.1102034276,11376.6505170889
9436343475,19340,-2,0,20657.6951134530,45508.0135211870,44768.0837096871,59202.4034322004,69455.8538555635,56724.5128126924,58530.4302074566,58718.6888127012,63609.0686812939,11367.3908998066
9436343475,19340,-2,0,20346.5306025999,45455.7775987261,44693.3618834974,59150.3256897982,69406.3921679783,56739.7224337211,58496.4579979269,58673.0964527056,63590.9144776341,11366.1741301243
9436354854,19341,-2,0,20332.1605526520,45474.1629886256,44703.3880656795,59176.8756042659,69434.0250074631,56773.8528233094,58516.9970701641,58708.1150841620,63606.5743034452,11379.1570626344
9436354854,19341,-2,0,20665.4459363292,45551.5252050259,44798.3447716858,59273.7669740670,69511.9834410077,56788.3688856192,58580.7192984258,58782.4597117502,63631.6397589004,11393.0404047094
9436354854,19341,-2,0,20855.2011682830,45572.4536435613,44831.4530747410,59278.3176926787,69520.0871270918,56815.0526447519,58568.5637692997,58770.2433441400,63626.3103076920,11388.5748599754
9436354854,19341,-2,0,20682.1278486734,45535.8045407306,44799.2086781602,59223.1371875867,69477.5245236052,56823.1441631391,58533.2531131195,58720.2584455913,63629.1332133549,11382.7221978035
9436354854,19341,-2,0,20435.8293295834,45504.0833551132,44765.6380026257,59202.4399352909,69455.8051847762,56803.8826990684,58532.7299021561,58709.3683569348,63637.1882286517,11388.5261891881
9436354854,19341,-2,0,20396.9778736278,45512.3087181655,44771.0039569246,59224.7676589610,69473.6308606218,56789.5978229983,58552.4537387061,58734.4824831773,63646.9102184132,11395.1089131693
9436354854,19341,-2,0,20606.1527497110,45559.0083385720,44804.7936510019,59272.1486703895,69521.4255737424,56794.9029388131,58580.4272737021,58777.2276021163,63668.9094142691,11395.6442918295
9436354854,19341,-2,0,20830.1357128277,45585.0350420763,44843.3409145370,59271.6741302134,69539.1052372261,56800.6217563199,58573.8080466304,58788.4340508903,63661.4141130262,11385.4477618919
9436359580,19342,-2,0,20762.4711507953,45553.9465766936,44813.4448834430,59230.0241039885,69498.5624714120,56782.0538509681,58544.2405433506,58740.0674560191,63622.8425140975,11379.0718887567
9436359580,19342,-2,0,20448.9826098490,45502.0756851374,44740.8280688037,59191.3551634852,69448.5410697729,56811.8403727906,58525.7821472702,58693.1853201603,63613.4855552406,11376.8086971476
9436359580,19342,-2,0,20353.6122021508,45512.7832583416,44745.9506691662,59223.1006844962,69471.8908799762,56854.5489886392,58555.5686690928,58731.3432173970,63650.6943721252,11386.9078855106
9436359580,19342,-2,0,20620.1212656637,45578.7443428188,44832.9618691470,59295.3889713213,69537.4139273677,56847.6134014501,58601.3800476312,58803.6801750094,63684.1798737819,11397.5546202307
9436359580,19342,-2,0,20828.4687383629,45606.4866915751,44872.1540206137,59295.6444929546,69552.4897037313,56794.7934295417,58602.7915004626,58806.4787452787,63677.5971498007,11409.7344847505
9436359580,19342,-2,0,20754.0754399875,45580.7641804914,44837.7437739985,59255.7466150722,69522.2894802168,56788.4783948906,58587.0221653801,58768.5398665848,63661.4992869039,11412.5695581102
9436359580,19342,-2,0,20524.2033116085,45532.5435979821,44782.2469087890,59231.5450660913,69483.6692105008,56830.3109365679,58575.5723626697,58738.9723633050,63649.5992794111,11406.8507406034
9436359580,19342,-2,0,20422.9559063448,45516.5065735695,44760.4058929918,59256.8173723926,69479.4956904905,56816.0503958914,58574.0392328700,58739.9336113540,63647.2630816211,11399.4527809351
9436410827,19343,-2,0,20548.1980097433,45544.6991271082,44790.8251350492,59266.7462130001,69507.1041945817,56823.6552064057,58572.2019106498,58771.6061261841,63657.3379345905,11391.9574796922
9436410827,19343,-2,0,20784.7988744654,45581.6889254500,44846.4801803173,59249.7479405385,69538.7402063214,56775.6293070456,58561.0563003599,58800.4192322609,63661.7426408404,11390.8015484940
9436410827,19343,-2,0,20786.0156441477,45567.0755215656,44837.7194386048,59227.4688876557,69513.4070615360,56783.6234838582,58543.4009722699,58769.3916053624,63639.1228924466,11392.8213861666
9436410827,19343,-2,0,20505.3433815329,45519.2199699610,44781.6871947352,59204.2285867238,69466.7317765232,56822.9494799900,58537.0616022251,58718.2264402219,63631.4937465386,11396.7272168467
9436410827,19343,-2,0,20370.3306175855,45510.7390852754,44766.5262444938,59237.2638835981,69468.7272788022,56821.6353687331,58563.5750136023,58730.1751185020,63655.5127800671,11391.4586041224
9436410827,19343,-2,0,20536.6995362456,45534.2227401437,44788.6836204084,59254.4446715121,69496.0924289570,56778.9510882782,58568.0770614268,58763.2834215572,63651.9233095043,11384.0971475445
9436410827,19343,-2,0,20761.3030519003,45553.8370674222,44801.2893543169,59244.4914955109,69509.0875291639,56756.3313398844,58560.5574247902,58765.4249361981,63625.9452767873,11387.6622827137
9436410827,19343,-2,0,20767.7032604292,45538.2867508825,44779.8620402117,59214.0600857568,69487.5872088777,56762.4273559927,58537.4631362203,58738.9236925177,63608.0587624576,11390.1566605624
9436424848,19344,-2,0,20554.1236780961,45492.8039001584,44736.0096608618,59186.0500476704,69446.3752197384,56777.0164244834,58514.5270277090,58706.3994389100,63605.3575337629,11390.9718962495
9436424848,19344,-2,0,20340.6414373376,45464.8912036465,44703.0230347748,59168.7840858786,69424.8627317555,56781.0439321318,58502.8582064558,58695.6431949185,63618.8150064491,11385.8249604934
9436424848,19344,-2,0,20418.8432248186,45486.4280270231,44721.5057662489,59196.4047576667,69450.1715411472,56786.3977187339,58527.6194694905,58728.0092684675,63628.5369962106,11383.2210733733
9436424848,19344,-2,0,20748.7094856886,45540.0023961346,44791.1049920761,59265.2252508972,69500.9838430798,56746.2321515213,58571.9585567133,58776.7287265466,63622.3923093150,11384.8028739603
9436424848,19344,-2,0,20819.8053382250,45525.8148616390,44789.9733962716,59232.1777863261,69477.4271820306,56734.1009577888,58549.2536344417,58745.0440440196,63587.3615101618,11381.5540989085
9436424848,19344,-2,0,20555.1092615387,45470.2571579455,44722.5278527820,59175.2694682852,69424.8748994523,56763.6684610686,58525.5752964242,58690.7761161893,63582.5917730072,11380.4711738913
9436424848,19344,-2,0,20337.7333577969,45437.5260534917,44680.9264973444,59163.7223240003,69408.2294901985,56737.2523912660,58528.3251959062,58689.7053588689,63592.6909613702,11374.5455055385
9436424848,19344,-2,0,20402.1126416871,45452.4314820998,44697.9126021092,59180.4164040413,69433.4044549252,56721.0328514010,58536.0030126015,58726.0137661886,63593.7617186906,11373.8762822133
9436443533,19345,-2,0,20662.6717014535,45501.3942941154,44738.3093555614,59239.6974229627,69475.5776921135,56743.7621090663,58555.9336999975,58754.9242138399,63598.7139712976,11383.6347750653
9436443533,19345,-2,0,20782.9250491547,45512.1262027132,44742.1665154542,59239.1498766057,69480.6516216887,56745.6481020738,58551.5898322317,58747.1855586605,63603.2038514252,11387.9299720438
9436443533,19345,-2,0,20594.4717607609,45466.8380351382,44707.8657781104,59177.9341938895,69434.7429015757,56738.9680365180,58513.1034071807,58702.1650804156,63590.7562975754,11380.6901924341
9436443533,19345,-2,0,20303.0189187610,45409.3821707403,44654.2549059085,59107.8482601893,69384.1496181859,56726.0946132794,58468.8738292293,58658.9332536037,63576.9337939845,11366.3931486672
9436443533,19345,-2,0,20293.6497922074,45411.6818654398,44656.0557250383,59107.2398753482,69396.3659857961,56717.3825423541,58475.8702549025,58683.4024919146,63583.0419777896,11363.1687090091
9436443533,19345,-2,0,20616.3979504359,45468.4685065125,44719.9604687524,59183.8598622422,69454.8317690304,56725.0481913526,58522.3386890693,58745.4334103180,63599.7238901339,11364.3976463882
9436443533,19345,-2,0,20796.1513356012,45494.0328375375,44762.2432152121,59221.9934240853,69469.2626574624,56744.9180402644,58553.2324713028,58748.7065207634,63595.6963824855,11374.5941763258
9436443533,19345,-2,0,20604.0234027670,45457.9677841543,44712.5260059936,59204.1069097556,69429.3526118832,56718.7331567015,58550.5434103049,58699.3178393590,63575.8387012704,11387.7109535009
9436473526,19346,-2,0,20336.0420479385,45401.7895279228,44645.3481518341,59141.6987927507,69383.3952209829,56683.6171836705,58506.5936893805,58663.9706800884,63556.5285664124,11371.7104321788
9436473526,19346,-2,0,20310.7819093341,45393.0409539071,44642.6469231394,59118.4219887284,69387.5200702059,56688.0462253140,58486.4439834417,58677.6228359237,63553.6448222654,11353.8360855459
9436473526,19346,-2,0,20512.7535088981,45428.3272746936,44681.0481743126,59128.0588046122,69420.9812364690,56729.6232453580,58487.7215916081,58705.9492341275,63565.3623143059,11340.5611283120
9436473526,19346,-2,0,20739.0605021080,45468.0669725173,44724.0123117944,59172.7629227397,69453.6515024386,56741.1217188557,58510.8523832685,58731.0755280669,63582.5431022199,11348.1902742200
9436473526,19346,-2,0,20675.5816277827,45453.2345500902,44709.0095416117,59183.1176327360,69437.8456642656,56739.7467691147,58515.2814249120,58709.1493383920,63577.5908496129,11366.5999995131
9436473526,19346,-2,0,20358.6374609387,45403.7241917176,44651.0061308568,59153.3067755198,69395.5629178058,56724.8778435971,58510.5360231511,58672.6462479231,63570.2537284287,11379.6681059010
9436473526,19346,-2,0,20267.1363808302,45397.1171323427,44638.8262663370,59162.9192560099,69403.3989145598,56705.3730255899,58528.8970776569,58692.8202892556,63586.0352312081,11378.1106407076
9436473526,19346,-2,0,20525.2984043225,45444.5346468617,44698.4844838599,59205.8103873108,69455.3306446001,56706.3221059421,58565.3028265512,58751.6511033945,63601.0623367844,11373.5112513086
9436499850,19347,-2,0,20729.4966924051,45465.2440668544,44726.7378758828,59219.6207232049,69462.5704242098,56737.5809190802,58563.5871812991,58746.8691985431,63591.2186700546,11364.9330250484
9436499850,19347,-2,0,20619.6710608813,45440.8113316339,44694.5664854829,59194.6891124146,69428.5373761960,56763.3886040417,58535.5528078191,58704.1727503914,63591.6445394434,11368.1574647065
9436499850,19347,-2,0,20362.3121053792,45395.0607915797,44641.8073520586,59137.6104466182,69384.8918476921,56728.4673141598,58495.4724144843,58672.8287633755,63583.4435117848,11360.5648218890
9436499850,19347,-2,0,20275.9579610268,45388.8065954127,44638.2422168895,59134.6050255030,69387.6782502646,56716.1292695814,58499.0862204407,58683.0982994940,63583.7842072958,11363.2295474932
9436499850,19347,-2,0,20450.9294413407,45426.6603002288,44673.1026682872,59174.1378724807,69428.2331837754,56701.8687289049,58524.7113899498,58717.7032292585,63587.7022056728,11371.1872212154
9436499850,19347,-2,0,20692.9814342395,45460.7541867267,44715.1298931137,59191.6471882089,69455.1237937541,56686.1967353969,58531.7078156230,58739.6294189334,63582.7012822786,11372.9880403452
9436499850,19347,-2,0,20659.6541126415,45437.1001841029,44693.3132127101,59156.6893952366,69425.3616073252,56713.4767116740,58507.3480865835,58707.0199914480,63572.7846093679,11372.9393695579
9436499850,19347,-2,0,20350.6311164292,45375.7749921153,44605.7909694627,59108.3471357591,69367.1026749370,56715.6425617084,58478.9243468051,58647.7876433139,63557.7453360947,11371.6495936947
9436527160,19348,-2,0,20200.3235575754,45361.3684390769,44572.6339956202,59113.3115560628,69364.9003218120,56691.8060436323,58480.2627934556,58654.6380566252,63564.1090415331,11375.2268965606
9436527160,19348,-2,0,20438.1290242830,45410.4772634543,44637.6216643515,59167.5186454090,69414.7635433924,56680.1128869855,58511.5216065937,58709.5387046903,63572.5655908251,11378.6216839742
9436527160,19348,-2,0,20685.3522883315,45444.3156283189,44691.8165860009,59184.5412532643,69435.0470939963,56703.3653556141,58504.9632180062,58717.9830862854,63571.7746905316,11371.9537861152
9436527160,19348,-2,0,20652.2683206699,45434.0582598972,44678.8214857940,59177.1311258991,69413.4737675292,56718.6601505205,58492.5399995500,58687.0649686583,63565.8611898756,11367.4517382908
9436527160,19348,-2,0,20431.9234989033,45400.9256214483,44629.9560153531,59159.2446115694,69380.2072844153,56724.9508497780,58485.6774185418,58663.1554444013,63567.6255059149,11373.2313942816
9436527160,19348,-2,0,20262.9385254262,45381.6033188935,44605.6084540104,59152.9295769183,69365.9832468293,56713.3915377962,58492.9537012419,58662.3767118046,63572.9549571234,11379.9844660184
9436527160,19348,-2,0,20362.3121053792,45410.4894311512,44636.1858761264,59171.4123083924,69397.5340846912,56692.3292545957,58519.2724294700,58696.1055673978,63577.7246942780,11386.4455130314
9436527160,19348,-2,0,20626.5823126767,45459.8902802523,44691.8165860009,59188.5687609127,69441.0457685300,56717.2000269018,58534.1413549876,58739.9092759604,63598.6044620262,11382.0894775688
9436561348,19349,-2,0,20675.8006463255,45454.6946737089,44688.1054384699,59148.6343799398,69423.7554713446,56692.4144284735,58498.6846864455,58712.1304241136,63576.9702970750,11374.2048100275
9436561348,19349,-2,0,20394.5321665664,45394.9512823083,44616.4985426669,59089.4507025930,69362.2720992983,56685.3693320130,58443.9300507423,58644.8673960764,63545.2247760639,11375.8961198859
9436561348,19349,-2,0,20209.7656903100,45371.2607765940,44581.3460665454,59098.3939597579,69349.6420299961,56682.8384510738,58445.5605221166,58640.0976589218,63549.1549421377,11376.0786353382
9436561348,19349,-2,0,20384.2747981446,45416.8774719832,44636.6482486057,59177.7760138308,69401.3912445840,56697.5005257454,58501.2399027784,58700.6927891000,63569.4871635289,11376.6991878762
9436561348,19349,-2,0,20646.8901986742,45463.2728999691,44691.4637227931,59205.8590580981,69436.4098760404,56690.3094169231,58519.1264171081,58724.8943380809,63574.1108883216,11373.0732142229
9436561348,19349,-2,0,20682.5172149718,45459.1845538366,44690.3199592917,59162.7975790417,69422.0154906989,56698.0602397993,58496.3241532619,58700.1939135303,63569.9130329177,11374.3386546925
9436561348,19349,-2,0,20487.6880534428,45417.5588630053,44645.2386425627,59118.4098210316,69383.0301900782,56723.5028938561,58474.0694357727,58667.2681259274,63572.8089447615,11377.5022558665
9436561348,19349,-2,0,20270.9327022389,45377.8435005752,44594.3411667523,59106.8140059594,69352.0268985733,56701.7835550271,58464.7246446127,58643.9913219051,63571.2028087809,11367.9506138605
9436596126,19350,-2,0,20326.4904059325,45392.1162089485,44589.7782804437,59140.2873399193,69371.7385674265,56670.1962140748,58481.1997061110,58666.1121947292,63570.3875730938,11363.8987708185
9436596126,19350,-2,0,20630.7680003838,45446.6639938058,44649.6068457221,59190.0653876219,69421.1637519213,56645.6539695829,58520.0998328539,58714.1624294830,63558.8890995961,11371.6130906042
9436596126,19350,-2,0,20745.6188906955,45447.7834219135,44665.2545038364,59163.5276408511,69410.8333773186,56652.4070413196,58496.4579979269,58692.0902274462,63527.5937833675,11373.0123757388
9436596126,19350,-2,0,20497.8359125931,45399.1491377122,44619.7716531123,59108.9676882970,69360.3374355034,56704.6551314773,58457.6430450618,58634.7925431070,63522.9457231811,11371.1507181249
9436596126,19350,-2,0,20265.7249279987,45371.5649690146,44576.1626276988,59110.8901843950,69346.4175903380,56720.2419511075,58459.8575658835,58633.1012332486,63543.1197645135,11367.4882413812
9436596126,19350,-2,0,20327.7801817957,45391.0697870217,44597.2614139898,59135.4932673710,69373.3812064976,56679.8817007458,58472.6701506381,58672.8530987691,63560.5317386672,11362.6820011362
9436596126,19350,-2,0,20562.0935195151,45426.6968033193,44647.4774987781,59146.3225175435,69401.7684431855,56679.3219866920,58486.2858033830,58696.2515797596,63554.7155795858,11370.4814947997
9436596126,19350,-2,0,20708.3248999332,45448.0146081531,44684.3699555453,59163.2842869146,69415.2745866590,56712.5032959281,58504.5495163142,58699.4638517209,63562.4298993716,11380.8970432801
9436618951,19351,-2,0,20588.1202230194,45411.1708221732,44642.4279045966,59136.5031862073,69375.0725163560,56659.0749391786,58481.1997061110,58657.7408193150,63542.8399074866,11384.8393770507
9436618951,19351,-2,0,20323.8256803283,45362.6947180306,44580.8593586725,59105.5363977930,69334.9434522339,56672.1552132632,58462.4857883973,58622.7221878586,63533.9939918963,11385.5816065569
9436618951,19351,-2,0,20279.5474315896,45368.5595478993,44588.7805293042,59114.2363010214,69350.5181041673,56659.3912992960,58475.2131992741,58642.2026704721,63546.3442041716,11379.9966337152
9436618951,19351,-2,0,20567.6054861759,45418.4592725702,44655.2161539575,59154.1585142974,69400.6246796842,56637.1487495036,58492.0897947675,58691.0438055194,63550.1283578836,11369.9826192299
9436618951,19351,-2,0,20748.1376039379,45424.1415869865,44678.5537964639,59137.7564589801,69399.4444130924,56632.5615278014,58464.3474460112,58676.3330600605,63532.6312098522,11362.9861935567
9436618951,19351,-2,0,20572.5942418733,45384.3775537691,44630.6495740720,59102.7864983110,69355.9205615567,56669.2227983289,58435.8263646582,58626.9930494435,63527.6059510643,11375.2147288638
9436618951,19351,-2,0,20303.9071606291,45345.6721101754,44577.3307265938,59078.7431293888,69326.7667599689,56672.5567472584,58422.7582582704,58610.5788264293,63531.8646449523,11378.8285348202
9436618951,19351,-2,0,20279.5839346800,45353.7757962594,44583.8161090005,59095.4007063394,69347.7560369885,56689.6645289915,58442.0440577347,58642.5920367705,63545.1761052766,11376.8086971476
9436651554,19352,-2,0,20507.9351009562,45399.7940256438,44633.8983491237,59128.7158602407,69391.5597455511,56686.7807848444,58467.1095131900,58680.0685429851,63554.8007534636,11371.6252583010
9436651554,19352,-2,0,20723.6683656269,45428.6679702046,44667.1039937535,59142.5870346188,69412.8167119008,56663.7351670618,58478.5958189909,58694.3899221457,63547.1837752524,11370.1894700759
9436651554,19352,-2,0,20662.8420492091,45400.6700998150,44639.8240174765,59119.2980628997,69384.8310092080,56671.1087913365,58459.5533734630,58662.9485935553,63534.9552399454,11370.0677931077
9436651554,19352,-2,0,20357.6518774960,45344.1754834661,44571.8430953267,59093.2713593954,69337.2309792367,56678.0443785256,58441.6668591332,58616.5775009630,63528.8957269275,11368.8631911222
9436651554,19352,-2,0,20240.7811495117,45344.2971604344,44566.1729486072,59116.2561386940,69349.4595145437,56700.0314066846,58467.9612519676,58639.1850816601,63553.4379714194,11370.7735195234
9436651554,19352,-2,0,20504.2969596061,45403.7850302017,44643.0362894377,59176.3645609993,69408.1199809271,56683.4346682181,58509.6842843735,58703.3696824011,63573.5511742677,11370.3598178314
9436651554,19352,-2,0,20740.4841226363,45426.5872940479,44675.5727107423,59169.3316322356,69417.1727473634,56659.5981501420,58500.2178162452,58701.2038323666,63547.0620982842,11372.2458108390
9436651554,19352,-2,0,20643.6049205320,45393.3816494181,44629.2989597246,59125.4427497953,69369.5970527857,56671.9726978109,58468.6548106865,58640.9615653962,63518.9303832295,11373.8884499101
9436702661,19353,-2,0,20385.4672324333,45350.1498226062,44570.7966733999,59099.9270895576,69332.0232049964,56698.1940844643,58456.5114492572,58614.3143093540,63527.2774232501,11368.0966262224
9436702661,19353,-2,0,20279.6569408610,45344.2849927375,44570.2977978302,59104.9645160423,69339.3968292711,56693.3391734320,58466.0995943537,58632.4441776201,63538.6663874763,11362.3534733219
9436702661,19353,-2,0,20448.3863927047,45385.9228512656,44624.5778933573,59132.3540015907,69380.2437875058,56665.4994831011,58479.2528746193,58671.6971675710,63548.2667002696,11358.5084811259
9436702661,19353,-2,0,20694.3807193741,45421.2578428395,44663.3928462225,59145.9453189419,69407.7184469319,56642.7945608295,58476.9775153134,58690.8369546734,63538.1310088161,11356.2939603041
9436702661,19353,-2,0,20712.5957615181,45406.9851344662,44631.8541760575,59136.8317140216,69387.9216042010,56646.5543791478,58464.0189181970,58664.9440958342,63521.9236366480,11366.9041919337
9436702661,19353,-2,0,20439.0537692415,45356.0876586558,44557.9475855549,59109.1623714462,69343.5338461909,56671.9848655077,58451.5226935598,58616.2854762393,63509.3909089204,11382.6005208353
9436702661,19353,-2,0,20248.1304383927,45341.5107578619,44535.5833587943,59106.9235152308,69343.5703492814,56669.2958045099,58471.5750579240,58628.2098191258,63528.1048266340,11389.2805863911
9436702661,19353,-2,0,20435.0262615931,45386.5677391973,44602.7003744697,59152.4915398327,69393.8959433411,56669.1741275416,58504.6225224951,58691.7008611479,63548.4005449347,11382.6248562290
9436718827,19354,-2,0,20715.3456610001,45424.3971086198,44663.1981630733,59161.3374554230,69422.9889064447,56684.6027671131,58496.2511470810,58707.2755130812,63547.4514645825,11371.1020473376
9436718827,19354,-2,0,20710.3447376058,45410.1122325496,44649.3391563920,59131.6239397813,69399.9067855716,56682.4369170786,58467.7544011216,58668.2415416732,63535.4297801214,11368.8631911222
9436718827,19354,-2,0,20485.9115697067,45371.4554597432,44603.5764486409,59108.4079742432,69364.5352909073,56709.3396947542,58456.7548031937,58639.4284355965,63548.4613834188,11368.2669739779
9436718827,19354,-2,0,20306.2311907223,45351.4274307726,44578.1702976746,59112.0339478964,69354.6551210871,56689.8227090502,58464.9923339428,58637.4207656207,63558.1468700899,11369.9947869267
9436718827,19354,-2,0,20367.3008610766,45374.1931915283,44598.7215376086,59122.3521548023,69379.4407195154,56673.4206537328,58481.7472524680,58664.7980834723,63551.8318354388,11378.7798640329
9436718827,19354,-2,0,20646.4278261949,45425.3461889720,44661.6893686673,59157.0179230508,69422.4170246941,56664.3800549934,58507.6644467009,58706.9713206607,63547.1716075556,11386.3481714568
9436718827,19354,-2,0,20760.6459962719,45428.9964980189,44666.6659566679,59160.8507475500,69415.1772450844,56672.0700393855,58502.0794738591,58691.9807181748,63533.7141348694,11388.4896860976
9436718827,19354,-2,0,20520.6990149235,45378.8777548052,44595.3875886791,59118.8843612077,69365.2288496262,56708.9381607590,58474.7386590980,58636.5568591463,63535.2472646691,11384.4621784492
9436763753,19355,-2,0,20284.4875164997,45352.0114802201,44557.7407347089,59111.0240290601,69349.7880423579,56694.1544091191,58478.8878437146,58633.2229102168,63555.4334736984,11377.9037898617
9436763753,19355,-2,0,20383.7029163939,45377.9286744530,44593.6719434271,59132.8650448573,69383.8697611590,56672.3498964124,58499.5729283136,58681.6625112689,63562.9531103349,11371.6860967851
9436763753,19355,-2,0,20652.0858052176,45420.0167377635,44656.9926376936,59155.6308056130,69419.4481066693,56675.1484666817,58506.1556522948,58708.1880903430,63551.0165997516,11371.0168734599
9436763753,19355,-2,0,20732.5872873982,45423.6670468104,44667.9435648343,59142.9885686140,69414.0456492799,56673.8465231216,58494.6815141908,58691.0194701258,63544.7380681910,11371.2480596995
9436763753,19355,-2,0,20559.0759307030,45385.8376773879,44610.4877004364,59120.1619693741,69372.8458278374,56665.4264769202,58479.0946945606,58653.8471563317,63527.3747648247,11376.3463246683
9436763753,19355,-2,0,20325.1519592820,45348.4098419605,44543.7843864530,59109.5152346541,69342.8402874720,56690.3337523167,58475.4078824233,58634.1111520849,63527.2774232501,11378.5851808837
9436763753,19355,-2,0,20322.8522645824,45364.3495247986,44554.3946180826,59125.5157559762,69361.1405034937,56673.7126784566,58492.0897947675,58657.6434777405,63538.8123998382,11375.9569583700
9436763753,19355,-2,0,20599.7403734853,45408.3357488135,44618.9929205156,59146.1400020911,69400.7220212588,56646.3840313923,58503.1623988764,58697.2128278087,63535.7704756325,11364.9695281389
9436779162,19356,-2,0,20785.9426379668,45422.9978234851,44645.8956981911,59149.8511496221,69406.4408387655,56649.4137879012,58498.8063634138,58690.4232529815,63520.1836560023,11360.4553126176
9436779162,19356,-2,0,20603.5975333782,45385.7160004196,44599.0378977260,59125.0898865874,69365.8615698610,56680.7821103107,58480.7738367222,58640.3531805551,63516.4968438650,11371.5887552106
9436779162,19356,-2,0,20328.0722065195,45352.2548341566,44554.1390964493,59105.0253545264,69343.2904922545,56678.7501049413,58473.1446908142,58625.9587952135,63531.9741542237,11378.0011314362
9436779162,19356,-2,0,20339.2786552934,45368.6082186866,44575.2743858308,59122.1939747436,69369.5240466047,56656.3737104839,58486.3953126544,58666.1365301229,63545.9305024796,11377.9646283458
9436779162,19356,-2,0,20569.9781870564,45406.7417805297,44618.2020202221,59138.6933716355,69400.0162948430,56670.4395680112,58489.6562554029,58690.7761161893,63539.4207846794,11371.0898796408
9436779162,19356,-2,0,20736.1767579609,45426.9644926494,44644.5815869343,59158.0278418871,69414.5566925465,56693.4851857939,58494.2678124988,58689.2064832992,63538.5568782049,11365.7117576451
9436779162,19356,-2,0,20649.7252720339,45409.3456676498,44635.3584727425,59163.7466593939,69396.1347995565,56696.1620790949,58500.3638286071,58666.3920517562,63540.0656726110,11369.7514329903
9436779162,19356,-2,0,20399.8129469875,45372.5748878509,44581.7476005406,59146.4563622085,69363.5862105551,56703.7060511251,58499.5120898295,58640.6452052788,63541.4284546552,11375.7987783113
9436818777,19357,-2,0,20312.6922377353,45371.7109813764,44564.6276511107,59141.1390786969,69369.9985867808,56695.8578866743,58501.8969584068,58658.4587134276,63559.4123105595,11371.3332335773
9436818777,19357,-2,0,20554.0263365215,45415.6850376946,44620.4408764375,59157.0300907476,69414.3255063068,56655.5706424936,58510.1831599432,58705.7545509784,63561.1157881147,11361.5990761189
9436818777,19357,-2,0,20756.8131717726,45423.3750220867,44648.3170698589,59128.6793571502,69411.4174267661,56632.9630617966,58483.1952083899,58693.8058726982,63521.5464380465,11358.0826117371
9436818777,19357,-2,0,20620.5593027493,45384.0246905613,44611.0352467934,59096.2646128139,69368.5141277684,56664.4895642648,58461.2446833214,58638.9903985109,63504.5481655848,11367.0015335083
9436818777,19357,-2,0,20361.7888944158,45346.2318242292,44562.7294904063,59091.0690062705,69343.5338461909,56684.1647300275,58458.7868085631,58622.5883431936,63521.9114689512,11373.5599220959
9436818777,19357,-2,0,20307.7764882188,45345.5504332071,44551.0363337595,59102.9446783697,69355.3121767155,56672.2647225347,58468.7399845643,58649.3207731136,63539.0557537747,11372.4161585945
9436818777,19357,-2,0,20510.6971681350,45390.1085389727,44588.7075231233,59140.9565632445,69398.1424695323,56692.1954099306,58503.6977775366,58693.8910465760,63560.3978940021,11379.0475533630
9436818777,19357,-2,0,20746.0569277812,45437.9032520932,44641.6370043031,59182.3023970489,69434.1953552187,56722.5173104134,58533.8858333543,58723.1300220415,63575.6805212117,11381.1403972166
9436841306,19358,-2,0,20728.0730718769,45426.9766603462,44630.1263631086,59165.4988077364,69412.6706995389,56705.8110626755,58518.6275415383,58695.9108842486,63566.2870592644,11377.7577774998
9436841306,19358,-2,0,20449.1529576046,45375.4342966043,44570.7845057031,59127.0367180791,69365.1193403548,56691.1854910943,58487.1253744638,58644.0156572988,63551.6614876833,11373.6815990641
9436841306,19358,-2,0,20272.5753413100,45355.2237521814,44551.5108739356,59108.6513281796,69353.9980654587,56672.2038840505,58477.8900925751,58635.9728096988,63542.6452243375,11367.5977506526
9436841306,19358,-2,0,20476.7249586053,45409.1996552879,44619.9176654741,59149.9484911967,69411.3930913725,56691.1611557007,58514.1376614107,58695.9473873391,63549.8971716439,11373.8884499101
9436841306,19358,-2,0,20751.4228820801,45453.5995809948,44677.5317099308,59180.4407394350,69444.3675497627,56676.1583855180,58533.8128271734,58721.1345197626,63540.4307035157,11380.3616646199
9436841306,19358,-2,0,20708.4587445983,45435.0681787335,44648.6455976731,59165.9125094284,69415.7977976224,56681.0619673376,58516.1453313865,58678.5110777918,63528.2995097832,11383.4765950066
9436841306,19358,-2,0,20466.5892671518,45397.5186663379,44589.0238832407,59173.6389969110,69381.9472650610,56688.7032809424,58524.2125143801,58652.8859082827,63539.2991077111,11382.5761854417
9436841306,19358,-2,0,20332.9636206423,45381.4573065316,44568.3874694290,59158.2590281268,69370.2906115046,56695.1034894713,58515.0989094597,58653.1901007033,63546.5388873208,11378.8163671234
9436884029,19359,-2,0,20450.3088888027,45408.2749103294,44606.5697020594,59138.1336575816,69392.1681303922,56710.8971599475,58498.8306988074,58673.7656760309,63556.9666034981,11374.0953007561
9436884029,19359,-2,0,20703.8106844119,45445.4350564266,44657.3820039920,59134.1304853269,69421.8694783370,56715.6668971021,58493.8176077164,58697.9915604053,63571.7381874411,11369.2525574205
9436884029,19359,-2,0,20768.7253469623,45439.3512080152,44665.9115594649,59125.6130975508,69408.9595520079,56680.5022532838,58485.9937786592,58680.4944123739,63548.2423648760,11371.7591029661
9436884029,19359,-2,0,20497.8480802900,45382.5402315489,44597.1884078089,59101.5575609318,69355.6528722266,56668.2493825831,58471.4655486526,58626.5550123578,63522.3738414304,11372.0511276898
9436884029,19359,-2,0,20264.3134751672,45354.3720134038,44545.9502364875,59104.2222865361,69342.0980579658,56677.5211675622,58482.5259850647,58624.0119637218,63541.8908271344,11373.7546052450
9436884029,19359,-2,0,20418.4295231266,45396.4114059270,44576.7223417527,59157.1761031095,69394.0906264903,56690.0417275930,58524.8087315244,58685.0572986825,63566.1897176898,11385.2774141364
9436884029,19359,-2,0,20717.3654986727,45447.4670617961,44631.7324990892,59194.1659014513,69438.6365645591,56692.1224037497,58557.8075253082,58719.7230669311,63559.0229442611,11394.7073791741
9436884029,19359,-2,0,20748.7581564759,45436.7959916824,44621.0005904914,59170.1103648323,69416.2601701017,56717.1878592050,58538.5825643280,58683.8526966971,63534.7605567962,11385.3139172268
9436921251,19360,-2,0,20520.7233503171,45386.2878821703,44580.5916693424,59129.8474560452,69367.0175010592,56706.9548261769,58499.7919468564,58639.5501125647,63534.2981843169,11368.9605326968
9436921251,19360,-2,0,20314.4930568651,45353.4351007484,44561.3058698780,59105.0496899200,69340.8204497994,56660.6810751592,58472.4876351858,58626.7253601134,63535.8313141166,11360.8446789159
9436921251,19360,-2,0,20364.2954399614,45374.0228437728,44584.0837983306,59116.4386541463,69366.3117746435,56660.7175782497,58472.5728090635,58652.4478711971,63541.8178209535,11364.5436587501
9436921251,19360,-2,0,20643.0573741750,45431.3205281120,44643.3648172520,59147.2229271083,69421.0542426499,56665.5481538884,58497.1515566459,58702.7856329536,63564.3645631664,11372.6108417437
9436921251,19360,-2,0,20787.7556247934,45450.7401722415,44662.9426414401,59167.2631237757,69431.9321636096,56689.1534857249,58514.4540215281,58708.6382951254,63561.2252973861,11385.5451034665
9436921251,19360,-2,0,20565.0624375399,45414.7602927360,44613.2497676152,59148.5005352748,69393.7499309792,56721.8724224818,58515.8776420564,58668.2050385828,63555.2996290333,11398.5402036734
9436921251,19360,-2,0,20306.6692278079,45386.2270436862,44579.1558811173,59132.8285417668,69375.8512489527,56739.2113904545,58518.3355168146,58658.6412288799,63568.7936048100,11398.2846820401
9436921251,19360,-2,0,20380.2107874058,45410.7084496940,44622.0226770245,59159.1837730853,69407.5115960860,56722.9188444086,58530.5518844248,58702.9559807091,63584.8793000099,11394.0016527584
9436956242,19361,2,0,20635.0023588782,45440.6288161816,44672.1535879350,59173.1036182508,69427.6126312375,56696.6244515742,58522.0831674361,58717.2286890824,63571.3609888396,11385.2652464395
9436956242,19361,2,0,20738.0140801812,45439.0956863819,44660.8984683738,59142.5505315283,69414.2403324290,56685.9655491573,58495.7644392080,58688.8171170008,63556.3947217474,11382.3328315052
9436956242,19361,2,0,20591.2108180124,45403.8945394731,44606.2168388515,59105.6702424580,69376.9463416667,56689.8348767470,58470.2974497576,58652.4113681066,63553.7543315368,11379.8871244438
9436956242,19361,2,0,20361.0344972128,45372.4167077922,44558.9575043912,59098.8076614499,69355.4095182901,56699.0336555451,58467.4502087011,58637.3842625303,63560.2518816403,11379.0718887567
9436956242,19361,2,0,20345.4111744922,45393.7101772323,44580.4699923742,59138.2066637626,69386.3154682204,56756.3070044907,58501.2033996879,58669.5069821428,63580.4989291536,11381.1282295197
9436956242,19361,2,0,20613.7697279221,45450.3386382463,44659.4748478455,59186.4029108782,69439.2571170970,56714.7664875372,58538.5703966311,58717.5207138062,63583.2001578483,11375.4702504971
9436956242,19361,2,0,20810.4240439745,45463.3094030596,44692.2424553897,59179.0657896940,69439.2936201875,56666.6675819961,58522.6915522772,58707.0199914480,63556.3460509601,11376.6505170889
9436956242,19361,2,0,20631.9726023693,45413.6530323251,44621.8036584817,59130.6748594291,69386.2911328268,56676.5599195132,58483.8400963216,58644.9404022573,63534.9917430358,11382.7100301067
9436997526,19362,2,0,20332.7446020995,45367.9998338454,44554.9786675301,59103.4922247267,69352.0268985733,56702.7813061666,58474.8360006726,58619.5464189878,63543.9715032912,11379.1935657249
9436997526,19362,2,0,20320.6864145479,45379.0237671670,44564.3477940838,59126.2214823920,69376.1554413732,56696.8069670265,58488.1474609969,58662.4740533792,63560.5439063640,11376.5288401207
9436997526,19362,2,0,20565.8411701366,45428.7409763856,44615.7198100702,59165.9125094284,69419.6427898184,56708.9746638495,58509.2462472879,58707.3850223526,63567.5281643404,11383.0385579209
9436997526,19362,2,0,20777.1940639511,45470.5856857597,44660.3022512295,59207.2461755359,69451.7046709469,56770.9812468592,58539.7384955262,58727.1818650836,63581.4480095058,11392.8457215602
9436997526,19362,2,0,20734.4854481025,45462.1899749518,44649.0592993651,59206.5647845138,69432.4675422698,56736.5953356376,58542.5979042795,58705.7545509784,63581.6061895645,11396.7637199372
9436997526,19362,2,0,20436.6689006642,45404.7706136444,44583.8647797878,59148.1111689764,69376.9463416667,56685.5153443748,58510.8037124812,58657.2054406548,63559.1689566230,11390.6312007385
9436997526,19362,2,0,20283.4289268761,45389.4514833443,44561.6587330859,59134.6050255030,69368.4654569811,56669.9406924415,58505.9244660552,58655.9156647916,63558.4023917232,11386.5063515155
9436997526,19362,2,0,20499.9530918403,45428.4489516618,44616.8149027843,59154.5843836862,69410.8333773186,56667.0569482944,58516.7050454403,58702.1042419315,63560.8237633909,11379.9114598374
9437010398,19363,2,0,20765.9024412994,45456.1182942372,44667.9435648343,59166.7034097219,69430.8370708955,56684.6514379004,58514.3566799535,58715.2453545003,63552.0508539816,11376.6626847857
9437010398,19363,2,0,20699.8440152476,45434.9343340684,44633.0466103461,59165.2919568904,69407.8036208097,56723.7949185798,58506.6423601677,58679.3871519631,63550.9557612675,11386.8835501170
9437010398,19363,2,0,20434.3692059647,45401.8138633164,44576.0531184274,59161.5564739658,69381.8377557896,56737.8242730167,58512.6288670046,58662.0116808999,63564.9364449171,11397.8223095608
9437010398,19363,2,0,20332.1240495615,45392.7245937897,44574.6538332928,59148.4761998811,69384.0887797018,56722.6024842912,58510.5725262416,58680.9811202469,63576.4714215052,11394.0868266362
9437010398,19363,2,0,20491.6060518198,45418.7756326876,44618.3480325840,59147.7948088590,69410.5291848981,56712.4059543535,58511.4607681096,58705.5477001324,63579.4646749237,11387.7839596819
9437010398,19363,2,0,20718.0833927852,45450.6428306669,44652.7339438056,59169.1491167833,69433.6964796489,56680.1493900759,58522.4116952503,58718.4941295520,63573.0522986980,11388.3801768262
9437010398,19363,2,0,20730.6282882097,45434.6788124352,44638.0353660435,59150.3500251918,69409.1177320666,56662.8955959810,58503.9654668667,58690.5205945560,63547.7678246999,11387.3215872026
9437010398,19363,2,0,20472.5271032014,45381.3599649570,44580.3361477091,59117.9717839460,69360.2157585352,56693.8137136081,58483.9252701993,58647.7633079202,63532.9110668791,11389.4509341466
9437027397,19364,2,0,20290.7417126667,45371.2729442908,44561.2571990907,59130.0299714975,69359.3518520608,56718.8670013665,58496.3119855651,58651.9368279305,63554.8615919477,11396.1309997024
9437027397,19364,2,0,20473.8533821551,45416.0257332056,44616.8270704811,59165.4866400396,69408.8622104333,56719.5970631759,58518.3111814209,58705.5111970419,63573.6120127518,11392.7848830761
9437027397,19364,2,0,20772.5946745520,45456.1061265404,44670.4501103798,59183.0324588583,69439.3787940653,56697.6952088946,58525.1494270354,58727.9849330739,63568.1852199688,11389.9011389291
9437027397,19364,2,0,20757.2877119487,45434.6788124352,44638.4003969482,59162.2135295942,69407.3655837241,56688.2044053727,58512.6410347015,58682.1613868387,63543.8498263229,11387.0173947820
9437027397,19364,2,0,20486.2644329145,45381.0192694460,44567.4018859863,59129.0200526612,69358.6582933419,56688.6667778520,58499.5729283136,58640.8033853375,63534.3103520137,11373.9249530006
9437027397,19364,2,0,20310.0396798279,45351.6951201027,44534.3909245057,59123.3377382449,69346.5149319126,56672.8974427694,58495.5575883620,58640.5356960074,63533.6532963853,11360.6743311604
9437027397,19364,2,0,20422.2380122322,45380.4108846048,44564.3721294774,59154.4018682339,69381.3753833103,56679.5410052348,58509.9641414004,58672.4759001676,63541.4771254424,11361.0150266714
9437027397,19364,2,0,20690.1828639702,45427.6093805810,44622.4363787165,59172.2153763827,69424.3760238826,56682.3274078072,58516.4008530197,58706.0100726117,63547.5609738539,11369.5932529316
9437054618,19365,2,0,20788.4248481186,45430.1767646107,44637.2809688405,59150.6663853092,69417.1605796666,56681.5730106042,58493.7932723227,58690.7639484925,63536.2328481118,11374.0466299688
9437054618,19365,2,0,20552.4567036313,45381.5181450157,44580.1049614695,59116.4143187527,69366.9809979687,56721.2397022470,58467.7057303343,58639.1364108728,63526.3648459884,11379.3760811772
9437054618,19365,2,0,20288.8192165686,45354.1043240736,44549.4910362630,59100.5354743987,69349.1309867295,56731.2780521259,58470.0540958212,58629.1102286907,63552.5132264609,11382.9655517400
9437054618,19365,2,0,20379.7605826233,45386.0201928402,44595.2172409236,59124.1773093257,69388.4934859517,56688.5085977933,58493.0632105133,58679.2898103885,63568.4772446926,11383.6956135494
9437054618,19365,2,0,20662.4770183044,45426.5994617447,44644.5207484501,59144.7042138660,69420.6405409579,56678.6040925794,58505.8149567838,58708.2610965239,63551.8196677419,11382.3936699893
9437054618,19365,2,0,20741.8225692868,45425.7355552703,44629.5058105706,59149.3279386587,69408.1686517144,56719.7309078410,58503.7707837175,58685.3736587999,63545.0057575211,11383.2819118574
9437054618,19365,2,0,20569.5401499707,45399.9643733993,44592.1144782337,59159.3176177504,69381.1928678579,56708.3784467052,58506.5085155027,58661.3059544842,63543.5578015992,11390.3148406211
9437054618,19365,2,0,20368.4324568812,45371.4554597432,44568.5699848813,59149.6199633825,69361.4325282175,56690.8204601896,58506.5206831995,58657.3271176231,63538.4352012367,11395.5226148613
9437127482,19366,2,0,20380.7705014596,45385.5821557546,44592.6620245908,59153.5014586690,69380.7548307723,56697.4275195645,58522.3508567662,58681.7233497531,63549.8241654630,11391.5316103034
9437127482,19366,2,0,20641.0618718960,45430.9433295105,44654.5347629354,59169.7209985340,69422.7942232956,56687.3161635046,58529.1404315934,58716.4256210921,63558.6700810533,11384.2188245128
9437127482,19366,2,0,20807.7106475830,45438.2074445138,44666.2644226727,59143.5482826678,69415.8343007129,56663.3336330666,58501.3737474434,58701.0334846111,63536.9385745275,11377.8186159839
9437127482,19366,2,0,20609.6448786992,45390.8386007821,44602.4813559269,59096.1794389361,69362.5519563252,56693.0349810114,58465.5642156935,58637.9318088873,63517.6162719727,11376.6870201794
9437127482,19366,2,0,20323.7648418441,45361.5752899229,44553.6645562732,59095.8874142124,69340.2850711392,56732.5191572019,58474.1302742568,58622.3693246507,63539.7858155841,11385.6667804347
9437127482,19366,2,0,20375.2341994052,45401.5948447736,44600.8387168558,59159.8408287137,69391.9977826367,56761.2957601881,58527.9723326984,58683.9013674844,63581.0708109043,11393.0647401030
9437127482,19366,2,0,20661.4792671649,45462.0561302868,44675.3171891090,59210.9938261574,69448.3220512301,56716.9323375717,58565.4731743067,58731.8055898763,63591.8392225926,11399.8664826271
9437127482,19366,2,0,20795.8714785743,45465.3414084290,44679.3446967574,59195.8450436128,69442.0313519726,56691.9033852069,58542.6222396732,58709.8063940204,63563.0747873032,11391.5802810906
9437142629,19367,2,0,20677.4797884871,45427.3051881605,44630.9659341894,59152.5767137104,69401.3547414936,56698.3887676135,58509.6964520703,58668.3632186415,63547.2567814333,11383.4279242193
9437142629,19367,2,0,20423.5886265796,45380.9827663555,44574.0941192390,59112.9100220677,69363.1360057727,56706.7966461182,58487.5877469430,58639.8056341980,63538.0214995447,11383.7929551240
9437142629,19367,2,0,20328.9726160844,45386.6894161655,44585.7386050985,59114.9785305276,69376.0580997987,56765.2380939588,58493.6472599608,58658.1423533102,63555.2509582460,11389.4752695403
9437142629,19367,2,0,20560.1710234171,45447.1993724660,44653.9872165784,59156.3000289383,69439.4761356398,56791.8245115169,58517.1065794355,58717.7032292585,63589.4056832280,11388.5626922786
9437142629,19367,2,0,20804.3401955631,45478.3000055454,44692.8995110182,59179.8201868970,69460.0030401801,56711.9435818743,58520.5865407268,58733.8862660330,63579.5133457110,11390.6433684353
9437142629,19367,2,0,20701.2189649886,45441.6752381084,44641.3693149730,59165.5231431301,69412.5490225707,56668.4805688227,58502.1038092528,58677.3673142904,63546.6727319858,11396.4351921230
9437142629,19367,2,0,20401.1635613349,45392.8219353642,44572.7313371948,59135.4202611901,69369.7795682380,56675.3188144372,58494.1704709242,58640.8642238216,63541.3554484742,11402.3365250821
9437142629,19367,2,0,20346.1899070888,45399.0274607439,44578.7300117285,59149.5591248984,69386.8995176679,56705.1296716534,58523.1417570597,58677.3794819873,63574.7192731627,11400.6573829206
9437147183,19368,2,0,20559.1124337935,45430.5661309090,44628.9582642136,59156.7624014175,69417.7324614172,56714.8273260213,58523.5554587516,58705.8640602498,63577.3839987669,11386.4576807282
9437147183,19368,2,0,20755.5598989999,45452.8330160950,44666.1670810982,59161.1671076674,69430.3016922353,56715.4357108625,58513.2007487553,58702.7247944695,63561.5051544130,11382.5275146544
9437147183,19368,2,0,20718.5457652645,45431.6247205326,44646.2850644895,59145.7506357928,69404.1168086724,56698.4617737944,58494.7423526749,58671.9648569011,63543.6064723865,11379.9357952311
9437147183,19368,2,0,20460.7366049800,45380.0336860033,44579.3748996601,59109.7707562873,69358.6217902514,56695.4320172855,58475.2740377582,58634.9142200752,63530.4410244240,11376.7478586635
9437147183,19368,2,0,20307.3141157395,45364.2765186176,44541.3873501789,59116.0249524543,69353.6208668571,56710.9458307348,58489.7049261902,58639.1242431759,63536.0381649626,11375.2512319543
9437147183,19368,2,0,20507.9594363498,45411.4506792002,44588.3424922186,59154.4627067180,69402.9365420805,56677.7523538018,58519.4184418318,58693.2461586444,63549.2157806218,11374.7280209909
9437147183,19368,2,0,20782.4870120691,45442.5878153701,44638.6559185815,59167.9323471010,69423.1349188066,56653.2222770068,58520.1971744285,58705.4138554673,63528.5428637197,11370.4328240124
9437147183,19368,2,0,20728.3407612070,45414.4561003154,44613.4687861580,59146.6510453577,69382.7990038386,56673.3233121583,58496.7256872571,58655.4532923123,63506.6288417415,11374.7888594750
9437180566,19369,2,0,20446.2570457607,45370.2873608482,44563.1188567047,59127.8276183726,69341.8425363326,56698.3887676135,58479.6422409176,58617.7699352517,63511.9217898595,11381.7122789672
9437180566,19369,2,0,20321.4773148414,45363.8993200161,44557.4243745915,59117.7162623127,69348.2792479519,56724.3302972400,58474.9455099440,58641.1075777581,63542.0611748900,11383.5130980970
9437180566,19369,2,0,20482.5654530804,45405.9143771457,44603.8563056679,59135.3715904028,69390.4768205338,56723.8192539735,58493.6229245672,58686.3470745458,63565.6300036360,11389.7551265672
9437180566,19369,2,0,20726.4182651089,45447.9902727595,44640.3837315303,59164.0143487240,69424.6315455158,56685.2841581352,58512.0691529508,58708.9424875460,63568.5989216608,11394.9142300201
9437180566,19369,2,0,20786.5023520206,45446.9316831359,44637.6703351388,59166.7155774187,69415.2624189622,56691.9763913878,58516.7050454403,58695.2903317106,63549.0697682600,11401.9593264806
9437180566,19369,2,0,20531.3457496435,45402.9332914241,44589.6566034755,59133.2057403683,69375.7904104686,56724.0139371226,58497.5652583378,58651.6934739940,63530.8060553287,11400.6938860110
9437180566,19369,2,0,20303.9071606291,45377.6853205165,44561.1841929098,59131.8916291114,69360.9458203446,56702.0390766604,58497.5287552474,58642.0566581103,63528.7618822625,11399.2094269986
9437180566,19369,2,0,20413.8179660307,45402.9819622114,44592.7471984685,59147.5149518321,69393.1050430476,56656.8117475695,58508.6865332340,58683.5606719733,63531.8281418619,11392.1764982350
9437243745,19370,2,0,20701.0121141426,45435.6643958778,44639.3738126940,59156.0931780923,69420.1538330850,56662.5183973795,58505.3039135172,58706.6306251496,63524.7830454014,11388.2706675548
9437243745,19370,2,0,20734.1934233788,45425.7233875735,44626.0136815824,59126.9272088077,69398.5561712243,56704.4482806313,58487.1618775542,58672.8896018596,63521.7897919829,11393.8678080934
9437243745,19370,2,0,20501.0481845544,45387.7236703954,44587.1378902331,59101.6427348096,69360.0940815670,56726.1554517635,58473.8504172299,58640.0611558313,63534.4441966788,11396.8488938150
9437243745,19370,2,0,20323.5579909981,45366.7222256790,44565.0778558931,59108.2254587908,69350.0313962944,56708.9381607590,58477.6832417291,58644.3076820225,63547.9381724554,11394.5126960250
9437243745,19370,2,0,20396.9413705373,45389.4758187379,44581.2122218804,59136.4180123296,69379.1121917012,56705.2026778344,58496.4458302301,58677.5863328333,63566.9076118024,11391.6776226652
9437243745,19370,2,0,20656.0281389882,45438.1466060297,44631.2336235195,59169.2342906611,69421.4314412514,56692.3049192020,58514.2350029853,58710.1835926219,63565.3258112154,11393.8069696092
9437243745,19370,2,0,20794.4113549555,45451.8596003492,44650.8114477076,59187.4371651082,69426.0308306505,56708.7191422162,58526.1715135686,58708.9059844555,63547.0986013747,11402.7745621678
9437243745,19370,2,0,20614.2077650078,45420.3939363650,44609.1614214827,59182.9472849805,69394.0906264903,56741.7666067873,58532.4622128260,58671.9283538106,63544.4095403768,11415.5019730445
9437255045,19371,2,0,20336.6869358701,45379.2184503162,44559.8944170466,59139.0949056306,69362.2112608141,56746.5606793355,58514.3323445598,58643.9669865115,63556.8449265298,11409.2112737871
9437255045,19371,2,0,20369.6370588666,45391.9823642835,44586.1888098810,59115.7937662147,69387.3010516631,56707.7943972576,58500.1448100643,58681.0297910342,63577.7368619748,11398.6253775511
9437255045,19371,2,0,20650.3214891783,45432.2696084642,44638.2300491927,59128.8010341184,69426.0429983473,56686.0385553382,58501.0208842355,58716.3404472143,63573.8066959010,11402.4582020504
9437255045,19371,2,0,20766.5229938373,45443.2205356049,44650.6776030425,59141.8569728094,69427.4301157851,56692.1710745370,58500.7775302991,58700.4737705572,63557.4898144614,11411.1824406724
9437255045,19371,2,0,20598.5601068935,45408.9319659578,44614.7707297180,59135.6149443393,69393.3118938936,56702.0634120540,58493.2700613593,58665.7228284309,63550.6394011501,11413.9323401544
9437255045,19371,2,0,20384.2261273573,45371.3702858654,44571.6605798744,59132.8650448573,69366.0319176166,56716.6646482416,58488.3664795397,58651.4744554512,63565.3744820027,11401.3144385490
9437255045,19371,2,0,20351.9330599892,45369.3139451023,44564.3112909933,59130.6991948228,69370.2419407173,56738.2866454959,58485.5070707863,58659.8823339559,63566.3113946581,11390.1809959560
9437255045,19371,2,0,20574.3220548222,45413.2149952395,44613.8703201531,59139.0340671465,69408.6553595873,56718.2221134349,58496.4823333206,58698.8432991829,63567.4064873721,11391.8723058144
9437273559,19372,2,0,20778.8732061126,45439.2416987438,44643.9975374867,59147.6974672844,69423.2687634717,56694.4707692365,58506.7640371360,58707.3850223526,63554.1802009256,11404.0156672437
9437273559,19372,2,0,20637.8739353284,45409.4430092244,44607.4579439275,59133.1083987937,69389.6372494531,56695.4928557697,58508.2241607547,58665.3334621326,63537.7903133051,11417.0837736315
9437273559,19372,2,0,20339.7166923790,45368.7055602612,44547.8849002823,59113.6035807866,69355.2513382314,56697.6708735010,58503.8559575953,58635.3157540704,63540.1143433983,11417.7408292600
9437273559,19372,2,0,20318.5692353007,45375.1666072742,44554.3337795985,59123.9461230861,69371.7385674265,56681.0619673376,58508.1024837865,58665.2969590421,63548.1936940887,11404.6970582658
9437273559,19372,2,0,20570.0268578437,45413.7017031124,44605.3042615898,59137.0872356548,69406.7206957925,56676.4990810290,58510.0736506718,58697.5535233197,63544.5555527387,11393.1742493744
9437273559,19372,2,0,20746.8478280747,45437.3313703426,44625.1254397144,59162.0431818387,69418.6085355885,56729.9517731722,58518.0921628781,58693.2826617349,63546.0643471447,11389.7551265672
9437273559,19372,2,0,20667.6969602414,45425.6868844830,44606.8738944800,59164.7565782302,69399.5539223638,56749.7364482063,58519.5522864969,58671.3808074536,63558.3050501486,11393.5757833696
9437273559,19372,2,0,20418.7702186377,45385.6916650260,44566.1486132136,59117.3755668017,69360.2887647161,56713.9269164564,58490.3984849091,58641.8863103547,63546.9282536191,11393.8069696092
9437351371,19373,2,0,20298.2613493033,45366.0530023538,44536.0092281831,59094.6219737428,69350.1044024753,56678.7744403349,58477.6467386387,58639.1607462664,63533.5681225075,11393.1012431935
9437351371,19373,2,0,20504.0779410633,45408.9928044419,44582.4533269563,59134.0453114491,69400.6368473810,56669.4418168717,58507.9929745151,58691.6035195733,63541.7083116821,11397.6641295021
9437351371,19373,2,0,20763.0065294555,45446.4328075661,44641.0894579461,59156.6893952366,69434.3291998837,56685.1138103797,58522.4481983407,58720.9885074007,63541.1729330219,11400.4505320746
9437351371,19373,2,0,20691.4118013493,45424.3362701357,44624.9064211716,59132.6095232240,69406.0149693767,56727.1532029029,58500.0109653992,58677.2699727159,63537.1697607671,11403.6019655517
9437351371,19373,2,0,20388.5091566390,45379.2671211035,44565.2968744360,59100.1339404036,69366.4942900958,56753.2894156786,58484.0104440771,58639.1729139632,63551.3451275659,11402.9935807106
9437351371,19373,2,0,20303.4447881498,45383.0147717250,44568.6186556686,59113.3115560628,69379.5623964837,56729.5989099644,58496.8230288316,58668.7404172430,63575.4858380626,11400.2680166222
9437351371,19373,2,0,20505.2338722615,45421.5742029569,44619.4552929949,59144.2661767804,69417.8906414759,56704.1319205139,58510.6942032098,58706.5332835750,63568.4529092989,11397.7979741672
9437351371,19373,2,0,20730.5917851192,45455.9601141785,44649.1444732429,59173.3104690967,69442.2990413028,56705.5312056486,58522.2900182821,58716.3769503048,63554.6790764953,11403.4802885835
9437362358,19374,2,0,20728.7179598085,45444.9605162506,44626.8897557537,59158.6727298187,69420.5675347770,56705.0931685630,58513.2615872394,58691.3114948495,63542.4140380978,11405.5853001339
9437362358,19374,2,0,20474.0115622138,45394.6957606750,44562.4009625921,59114.5161580483,69374.2451129720,56734.2956409380,58489.6075846156,58652.0341695051,63540.5402127871,11405.2202692292
9437362358,19374,2,0,20276.3959981124,45370.5307147846,44532.4927638013,59106.2542919055,69357.7943868674,56725.9242655238,58485.8477662973,58641.3022609072,63555.2387905492,11401.0467492189
9437362358,19374,2,0,20437.4354655641,45416.6341180467,44600.5223567384,59163.5763116384,69409.7991230887,56737.6174221707,58522.7767261550,58696.5071013929,63586.2542497509,11399.9759918985
9437362358,19374,2,0,20754.5013093763,45474.5036841367,44681.2671928554,59218.4404566130,69460.1977233293,56726.4109733967,58563.4046658468,58740.0187852318,63585.6458649097,11406.6925605447
9437362358,19374,2,0,20766.5594969278,45458.3328150590,44653.7073595515,59187.7048544383,69432.1755175461,56707.9769127100,58542.2450410717,58692.6134384096,63553.3771329353,11406.0355049163
9437362358,19374,2,0,20464.7641126284,45389.5974957062,44564.0436016632,59098.2236120024,69366.0075822229,56683.8727053037,58484.5214873436,58629.4144211112,63526.4500198661,11397.8344772576
9437362358,19374,2,0,20287.8701362165,45360.8087250231,44531.0691432730,59068.9481334464,69352.4892710526,56665.2682968615,58466.1969359283,58635.3157540704,63526.1336597487,11394.7073791741
9437377631,19375,2,0,20414.4750216592,45388.8187631095,44570.8696795809,59093.7215641779,69387.2280454821,56679.1881420269,58476.5516459246,58675.6395013416,63539.5911324349,11395.9606519469
9437377631,19375,2,0,20666.1516627449,45431.5030435644,44622.5945587752,59133.6802805444,69425.0939179951,56691.5261866054,58499.8771207342,58704.8541414135,63545.3951238194,11396.6298752722
9437377631,19375,2,0,20758.8330094453,45434.7274832225,44633.4481443413,59145.1057478612,69420.6527086547,56720.1811126234,58509.1610734101,58699.0136469385,63541.0390883568,11394.4761929345
9437377631,19375,2,0,20550.0109965699,45394.0630404402,44588.3424922186,59132.1349830479,69381.9716004546,56719.2807030585,58504.7198640697,58665.0536051056,63542.1828518582,11395.3644348026
9437377631,19375,2,0,20287.4686022213,45361.7456376785,44534.4760983834,59121.0745466358,69358.1229146816,56706.9913292673,58500.6193502404,58646.1085011523,63546.5388873208,11397.2139247197
9437377631,19375,2,0,20358.7104671196,45393.0774569975,44565.3820483137,59130.7113625196,69392.9225275953,56703.0489954967,58511.7284574397,58690.3867498910,63561.9066884082,11398.2238435560
9437377631,19375,2,0,20656.4540083770,45441.1763625386,44632.4017224145,59143.6577919392,69435.2904479327,56701.4915303034,58516.9118962863,58729.4572243895,63576.7512785322,11397.8588126513
9437377631,19375,2,0,20738.9266574429,45442.8068339129,44646.9907909052,59132.4756785589,69423.2565957748,56717.6867347747,58505.6324413314,58702.3597635648,63569.7791882526,11399.6596317811
9437405055,19376,2,0,20527.2330681174,45400.5484228468,44591.0193855197,59124.4449986558,69379.5745641805,56715.5330524370,58499.0983881375,58655.8304909138,63548.9480912917,11405.6218032243
9437405055,19376,2,0,20322.0248611985,45369.9223299435,44541.4481886630,59123.0335458243,69358.8164734006,56706.8696522991,58500.8383687832,58649.6614686246,63546.2346949002,11405.2811077133
9437405055,19376,2,0,20346.7374534459,45377.9651775434,44542.1417473819,59117.6919269191,69372.1887722090,56695.9430605521,58497.2610659173,58667.0977781719,63543.2414414818,11395.4009378930
9437405055,19376,2,0,20575.5144891108,45420.6372903015,44605.5354478294,59127.1827304410,69408.0226393525,56718.4046288873,58502.8947095463,58695.6310272217,63548.5708926902,11393.5392802791
9437405055,19376,2,0,20757.2877119487,45449.1218685640,44657.9660534395,59145.7019650055,69427.1015879709,56705.1296716534,58517.5446165211,58708.4071088858,63552.5618972481,11404.1860149992
9437405055,19376,2,0,20601.1761617104,45414.5777772837,44626.9384265410,59137.1724095326,69391.2190500400,56723.3568814942,58509.8789675227,58667.1464489592,63550.7854135120,11416.0616870984
9437405055,19376,2,0,20310.7575739404,45371.1634350194,44559.6997338974,59128.3873324264,69361.1040004033,56728.8810158518,58507.2385773121,58641.2900932104,63561.3956451416,11424.7859257205
9437405055,19376,2,0,20314.1158582635,45386.0445282339,44563.4352168221,59144.6190399882,69387.9824426851,56714.1702703929,58529.8096549186,58685.6656835237,63581.3750033249,11428.3388931928
9437438774,19377,2,0,20588.6434339828,45428.7166409919,44618.7252311855,59160.0720149534,69426.7608924599,56712.3694512631,58540.0061848563,58726.5491448488,63579.6715257697,11425.8688507377
9437438774,19377,2,0,20739.6080484650,45444.1939513507,44641.0651225524,59144.3391829613,69427.7951466898,56745.4534189247,58518.1651690591,58709.5387046903,63579.3795010459,11423.4961498572
9437438774,19377,2,0,20588.2540676844,45415.0279820661,44606.9225652672,59108.4566450305,69391.8030994875,56726.9950228443,58486.8820205273,58664.5425618391,63568.7449340227,11423.5326529477
9437438774,19377,2,0,20349.5360237151,45379.3522949812,44566.7569980547,59094.8288245888,69361.7732237285,56714.9368352927,58476.7949998611,58644.1251665702,63556.2000385982,11427.7791791389
9437438774,19377,2,0,20303.1527634261,45380.9462632651,44558.8723305134,59117.5094114667,69371.3613688250,56703.8763988807,58494.5720049194,58656.9499190216,63547.3662907048,11426.1730431583
9437438774,19377,2,0,20524.2398146989,45428.4002808745,44610.8040605538,59146.7848900227,69414.6540341210,56727.8345939250,58520.2701806094,58699.2448331781,63558.1833731803,11423.3136344049
9437438774,19377,2,0,20742.8568235167,45454.6094998311,44652.0647204804,59149.0237462381,69432.3458653016,56708.5731298543,58512.6897054888,58713.9190755466,63557.7940068820,11420.2352071087
9437438774,19377,2,0,20636.2556316509,45422.1095816171,44616.3403626082,59123.9096199956,69394.9180298742,56719.7187401441,58484.9595244293,58671.8553476297,63546.5388873208,11424.1532054857
9437472166,19378,2,0,20336.4800850241,45375.1301041837,44547.2643477444,59105.9257640913,69355.0931581727,56719.4753862077,58471.1370208384,58637.8588027064,63549.5564761329,11427.3289743564
9437472166,19378,2,0,20285.2540813995,45382.9052624535,44554.4432888699,59124.6153464113,69375.2063610210,56720.1446095329,58490.0821247917,58673.9968622705,63567.4794935531,11426.1608754614
9437472166,19378,2,0,20539.3155910626,45430.6513047868,44616.8635735716,59159.6583132614,69423.4026081367,56703.2071755554,58517.4716103402,58721.9984262370,63573.5390065709,11424.5669071776
9437472166,19378,2,0,20733.6823801122,45452.4923205840,44654.5469306322,59162.1161880196,69435.2782802359,56712.7588175614,58522.2900182821,58718.3602848869,63564.9242772203,11422.5957402923
9437472166,19378,2,0,20667.3197616399,45434.1921045623,44640.2620545621,59157.7601525570,69411.8797992454,56747.5584304750,58522.9592416073,58694.0613943315,63575.8630366641,11421.3302998227
9437472166,19378,2,0,20436.4012113341,45398.5042497806,44594.3289990555,59157.3829539555,69385.5002325333,56759.7017919043,58522.0223289519,58677.9635314348,63599.5413746815,11427.5358252024
9437472166,19378,2,0,20306.6692278079,45384.6209077056,44571.9891076886,59147.1255855338,69379.0878563076,56722.6633227753,58522.3021859789,58673.3154712484,63582.7499530659,11430.2492215940
9437472166,19378,2,0,20473.0259787712,45409.4308415276,44600.2059966210,59129.8231206515,69400.7463566524,56675.3066467404,58506.4476770186,58691.9928858716,63554.6182380112,11420.5637349229
9437523753,19379,2,0,20721.0888139005,45432.2817761610,44628.2525377979,59114.1632948404,69414.5445248496,56677.3629875035,58488.7801812317,58701.3741801221,63530.1368320035,11412.0950179341
9437523753,19379,2,0,20679.6456385215,45411.6453623493,44608.3948565828,59087.7472250378,69384.3199659414,56696.4662715155,58460.5146215120,58660.1621909828,63516.8740424665,11415.4898053477
9437523753,19379,2,0,20378.5438129410,45372.1490184621,44555.6722262490,59076.9423102590,69347.4883476584,56718.1734426476,58463.0820055416,58626.2386522404,63533.9088180186,11425.3456397743
9437523753,19379,2,0,20263.9362765657,45374.4122100711,44554.9299967428,59108.8460113288,69364.1215892154,56720.2784541980,58492.0654593739,58658.0936825229,63566.8711087119,11430.4439047431
9437523753,19379,2,0,20466.0173854012,45417.2425028879,44614.1015063928,59153.4892909722,69412.2326624533,56719.1346906966,58518.7978892939,58704.5621166897,63581.3993387185,11432.5610839903
9437523753,19379,2,0,20706.4510746225,45449.9857750384,44656.2869112779,59171.4366437860,69438.0160120211,56714.2067734833,58522.8375646391,58710.0984187442,63571.4339950205,11433.1086303473
9437523753,19379,2,0,20716.9274615870,45432.1966022833,44637.1349564786,59146.4076914212,69414.0213138862,56714.7178167499,58509.0758995323,58682.7089331957,63560.4830678799,11426.4772355788
9437523753,19379,2,0,20495.1833546857,45390.4127313933,44590.3623298912,59123.0700489148,69373.8800820673,56762.1718343594,58493.8541108068,58649.7709778960,63557.4898144614,11425.2604658965
9437547620,19380,2,0,20272.8551983369,45365.6027975713,44558.2031071882,59102.7134921300,69354.3752640602,56750.9775532823,58482.8058420916,58639.8543049853,63562.3690608874,11428.8256010657
9437547620,19380,2,0,20383.2040408242,45403.1766453606,44599.3177547529,59125.4792528858,69396.5485012485,56711.0066692189,58503.0163865145,58689.7661973530,63577.6273527034,11433.3033134965
9437547620,19380,2,0,20684.4397110698,45446.4936460502,44651.0426339472,59144.9232324088,69433.6113057712,56687.9975545267,58510.1101537623,58724.1521085747,63571.6651812602,11425.4429813489
9437547620,19380,2,0,20728.2920904197,45436.1876068412,44633.4846474317,59132.2809954098,69412.9992273531,56734.1374608793,58499.6581021914,58691.4818426051,63562.0040299828,11419.3713006342
9437547620,19380,2,0,20475.5446920135,45393.2356370562,44573.3153866423,59112.7031712217,69369.6700589666,56746.3173253991,58489.5589138283,58645.5122840080,63559.5461552245,11421.6101568497
9437547620,19380,2,0,20301.4249504772,45379.4253011622,44553.1656807035,59124.8830357414,69368.0395875923,56735.2812243807,58500.7653626023,58657.8746639801,63574.5245900136,11423.5813237350
9437547620,19380,2,0,20402.6966911346,45405.0626383681,44595.9716381266,59145.2152571326,69396.7918551850,56724.7561666288,58512.2029976158,58693.5868541554,63586.5949452619,11418.6169034312
9437547620,19380,2,0,20641.2565550452,45443.8289204460,44639.9821975352,59157.1274323222,69426.8704017313,56692.9498071337,58521.1949255680,58714.4909572972,63575.2424841261,11421.5736537592
9437553161,19381,2,0,20755.0366880365,45454.0254503836,44643.6081711884,59155.9228303368,69426.4567000393,56705.6285472232,58518.4328583892,58708.6626305191,63565.2771404281,11427.4871544151
9437553161,19381,2,0,20601.0666524390,45431.8072359850,44614.5152080848,59155.6308056130,69403.7517777677,56779.2066099115,58513.6266181441,58684.4489138414,63575.3519933975,11436.1870576436
9437553161,19381,2,0,20357.6397097992,45408.9684690483,44584.0837983306,59148.5857091525,69387.5322379027,56785.5824830467,58515.0624063692,58669.9328515316,63584.7697907385,11442.4047507201
9437553161,19381,2,0,20370.2941144951,45424.7986426149,44608.5773720352,59150.3135221014,69409.4705952745,56741.5962590318,58521.4747825949,58702.1894158092,63592.0825765291,11434.2037230614
9437553161,19381,2,0,20640.7820148691,45461.7519378662,44663.4901877971,59169.3437999325,69443.1994508677,56717.2608653859,58527.3882832509,58736.5388239404,63587.4710194332,11424.3113855444
9437553161,19381,2,0,20760.3661392449,45466.6555196859,44666.5686150933,59168.2243718247,69441.8488365203,56723.7097447021,58522.2291797979,58718.4211233711,63582.7742884595,11426.7935956962
9437553161,19381,2,0,20558.8325767666,45421.5376998664,44608.8085582748,59134.8118763490,69397.0473768182,56723.2717076164,58500.7775302991,58667.1951197465,63569.1586357146,11426.1852108551
9437553161,19381,2,0,20334.3872411706,45383.7570012312,44563.4473845189,59113.5427423025,69372.2739460867,56738.2136393150,58489.6562554029,58658.6412288799,63569.0369587464,11425.4064782584
9437583264,19382,2,0,20356.0822446059,45394.1238789243,44577.2577204129,59133.3517527302,69391.7179256098,56737.0090373295,58506.2894969599,58686.0063790347,63573.5755096614,11424.8710995982
9437583264,19382,2,0,20592.2937430296,45440.3246237610,44638.6315831878,59163.2477838242,69432.8325731745,56724.8778435971,58524.9790792799,58723.9330900318,63582.7256176722,11425.7958445568
9437583264,19382,2,0,20772.6920161266,45458.5640012986,44662.6384490195,59169.0152721182,69444.5135621245,56713.8295748818,58523.4702848739,58727.3035420518,63575.9482105418,11421.4763121846
9437583264,19382,2,0,20642.7531817544,45427.2443496764,44619.7229823250,59162.5177220148,69409.7382846046,56737.5809190802,58516.9849024673,58688.0262167073,63564.4862401346,11422.6444110796
9437583264,19382,2,0,20329.2646408081,45380.1553629716,44554.1269287525,59131.6604428718,69369.0495064287,56742.0586315111,58502.1646477369,58649.6493009278,63563.7805137189,11424.7129195395
9437583264,19382,2,0,20294.8908972833,45393.4546555990,44564.8345019567,59145.1300832548,69390.2334665974,56728.2239602234,58518.3963552987,58680.9202817627,63588.6512860250,11419.7484992358
9437583264,19382,2,0,20569.5523176676,45437.2826995553,44622.6553972593,59159.9016671979,69434.0006720695,56706.4681183040,58524.4558683165,58721.3900413959,63584.2100766846,11416.5970657586
9437583264,19382,2,0,20750.0357646423,45457.3715670100,44652.2594036295,59158.1860219458,69439.7438249699,56735.7435968599,58516.7658839244,58713.4201999768,63574.0743852311,11422.9364358034
9437632587,19383,2,0,20630.1352801490,45432.3304469483,44619.4796283885,59156.8597429921,69410.5778556853,56744.1514753646,58512.5193577332,58680.6039216454,63567.7228474895,11428.6065825229
9437632587,19383,2,0,20396.3573210898,45402.4100804607,44577.8417698604,59149.0724170254,69391.3650624019,56740.0752969289,58521.9493227710,58672.4028939867,63573.6850189328,11436.9779579370
9437632587,19383,2,0,20310.2465306738,45397.4943309443,44571.0035242459,59139.3747626576,69394.0419557030,56757.1830786620,58520.3918575777,58681.8815298118,63584.2830828656,11430.9062772224
9437632587,19383,2,0,20506.2437910978,45442.0281013162,44620.3922056502,59161.0332630024,69431.9808343969,56761.3565986722,58524.8939054022,58719.2606944518,63597.0226614392,11421.7561692115
9437632587,19383,2,0,20785.8939671795,45484.4690278346,44670.2310918370,59200.9554762785,69466.0260501075,56742.0586315111,58540.9552652084,58747.9521235603,63601.5490446573,11422.7174172606
9437632587,19383,2,0,20718.6309391423,45452.2976374348,44639.0696202735,59169.1247813896,69428.4400346214,56736.4979940630,58517.0822440418,58703.1628315551,63580.0487243712,11423.7760068841
9437632587,19383,2,0,20384.8466798953,45396.6425921667,44568.0467739179,59127.5112582552,69380.1099428407,56762.8532253815,58502.2863247051,58655.4776277060,63574.4759192263,11428.5700794324
9437632587,19383,2,0,20288.5515272385,45400.3415720008,44568.2657924608,59147.9651566146,69394.7111790282,56738.0311238627,58526.8529045907,58682.2830638069,63584.6237783766,11431.4538235794
9437657632,19384,2,0,20517.9247800478,45437.8667490028,44614.3935311165,59171.6921654193,69429.1335933403,56711.2865262458,58535.0052614620,58722.8379973178,63581.8008727137,11424.3843917253
9437657632,19384,2,0,20714.7981146430,45454.6946737089,44641.0164517651,59146.0913313038,69434.4995476393,56727.4208922331,58507.7739559723,58716.1214286715,63574.9991301897,11420.8922627371
9437657632,19384,2,0,20662.2945028520,45435.4818804255,44618.4575418554,59122.5955087387,69409.2880798221,56734.3564794221,58486.9793621019,58682.7089331957,63568.1852199688,11423.9585223365
9437657632,19384,2,0,20436.6202298769,45395.8881949636,44573.3883928232,59120.0037893154,69376.9706770604,56724.1234463940,58484.7648412801,58660.2838679510,63566.6399224723,11426.6232479407
9437657632,19384,2,0,20289.1599120797,45380.5447292699,44549.9899118327,59136.4301800264,69371.1788533727,56724.8656759002,58496.7378549539,58660.5150541907,63563.0504519095,11422.1820386003
9437657632,19384,2,0,20432.8725792555,45413.7503738997,44589.2672371772,59155.8498241558,69408.4728441350,56723.9652663353,58513.0669040903,58698.6121129433,63569.0734618369,11416.1103578857
9437657632,19384,2,0,20715.7350272984,45456.7145113815,44649.9353735363,59164.2698703573,69441.9705134885,56704.3022682695,58519.3819387414,58733.7889244584,63570.1077160668,11417.9598478028
9437657632,19384,2,0,20728.0244010896,45447.0046893168,44640.5175761954,59144.1201644185,69420.9569010753,56733.7967653683,58509.2340795910,58706.3507681227,63562.4055639779,11423.9341869428
9437725698,19385,2,0,20445.9528533401,45403.3348254193,44580.6403401297,59141.8569728094,69380.3411290803,56770.5553774704,58512.6045316110,58663.4353014282,63570.8742809667,11421.6709953338
9437725698,19385,2,0,20294.8422264960,45397.9323680299,44574.9945288038,59162.5177220148,69383.9549350367,56751.1357333410,58537.3901300393,58680.7499340072,63591.7662164117,11417.5339784140
9437725698,19385,2,0,20448.9582744554,45424.9081518863,44612.2033456884,59180.4285717382,69408.9352166142,56694.8723032317,58547.1972936786,58712.7388089547,63580.7666184837,11412.4843842325
9437725698,19385,2,0,20672.2476788532,45439.9230897659,44629.6396552357,59146.7483869323,69411.3687559788,56663.2971299761,58509.0880672292,58703.8198871835,63548.6925696585,11406.3883681242
9437725698,19385,2,0,20704.0540383484,45424.3849409230,44606.8982298736,59108.4444773336,69390.5741621084,56682.6802710151,58476.6246521056,58679.3506488726,63530.2706766685,11411.2189437629
9437725698,19385,2,0,20504.8566736600,45389.7800111585,44565.3942160105,59099.6715679243,69366.4821223990,56732.4461510209,58471.4898840463,58658.7994089386,63541.4892931393,11422.9607711970
9437725698,19385,2,0,20293.3455997868,45369.9831684276,44531.9330497475,59112.9465251581,69363.2698504377,56755.5647749845,58488.3178087524,58658.3127010657,63562.8436010635,11430.5169109241
9437725698,19385,2,0,20371.7177350234,45401.6556832577,44565.3942160105,59155.3266131924,69399.0793821877,56727.1410352061,58520.8907331474,58699.4881871146,63576.4592538084,11428.2658870118
9437736111,19386,2,0,20679.1345952550,45450.8253461192,44637.5121550801,59174.0405309061,69437.9795089306,56705.4581994676,58531.5861386548,58742.7321816233,63570.7039332112,11423.1067835589
9437736111,19386,2,0,20758.1881215136,45448.0876143341,44645.4698288023,59150.5082052505,69421.1759196181,56709.8507380207,58514.5270277090,58712.9456598007,63555.1901197619,11422.4618956273
9437736111,19386,2,0,20503.6399039777,45402.0693849497,44570.9670211555,59120.5391679756,69372.3956230550,56722.9796828927,58500.2056485484,58659.5173030512,63546.3442041716,11424.8345965077
9437736111,19386,2,0,20281.6524431399,45370.5428824814,44521.8216936876,59105.1105284041,69353.8520530968,56710.6051352237,58488.5246595984,58652.6182189526,63554.2532071065,11423.8125099746
9437736111,19386,2,0,20356.7393002343,45391.3983148360,44549.1503407519,59124.6883525923,69384.5876552715,56722.3834657484,58493.3552352371,58688.4155830057,63564.7295940711,11422.6687464733
9437736111,19386,2,0,20602.8431361751,45433.4742104497,44602.4326851396,59140.0196505892,69421.8086398529,56730.5479903165,58499.1227235312,58712.2277656882,63573.0157956075,11423.1067835589
9437736111,19386,2,0,20745.3390336686,45451.6770848968,44634.0078583951,59141.7231281444,69428.7928978293,56739.1505519704,58501.8239522259,58711.2908530328,63578.1383959700,11425.0049442633
9437736111,19386,2,0,20601.9062235198,45427.5120390065,44609.0519122113,59136.3085030582,69400.0527979335,56788.7095811302,58500.7166918150,58680.8594432786,63579.0388055349,11430.5290786209
9437749866,19387,2,0,20331.9537018060,45392.6150845183,44558.8114920293,59139.9223090146,69374.9021686005,56806.3040707362,58513.5536119632,58661.1599421223,63584.6602814671,11433.8265244599
9437749866,19387,2,0,20324.9329407391,45400.8039444801,44564.3599617806,59148.3910260034,69392.9955337762,56726.1676194603,58524.7235576466,58689.2551540865,63588.4322674822,11429.7625137210
9437749866,19387,2,0,20601.9792297007,45432.9388317895,44610.0983341380,59157.2247738968,69423.7919744351,56663.7473347586,58523.4216140866,58724.4806363889,63567.9053629419,11418.9454312454
9437749866,19387,2,0,20755.6329051808,45437.2583641616,44609.6116262651,59155.8011533685,69416.0168161652,56653.1614385226,58510.9618925399,58701.3376770316,63533.7384702631,11418.2883756170
9437749866,19387,2,0,20587.7308567210,45404.2474026810,44557.2296914423,59139.2409179925,69378.4064652855,56690.0660629866,58497.9667923330,58655.0760937108,63527.2530878564,11422.9607711970
9437749866,19387,2,0,20349.0858189327,45373.7064836554,44522.8194448271,59117.4120698921,69353.3531775271,56717.9787594985,58486.1762941116,58643.5411171227,63544.5433850418,11422.4010571432
9437749866,19387,2,0,20321.9518550175,45379.6564874018,44535.9118866086,59105.9866025754,69367.3095257830,56734.3321440285,58481.2970476856,58667.1464489592,63565.8003513915,11420.6489088007
9437749866,19387,2,0,20542.4061860556,45424.5066178912,44592.6620245908,59133.4247589111,69408.6310241937,56736.4249878820,58496.9082027094,58702.4814405330,63571.8841998030,11419.8336731135
9437781479,19388,2,0,20749.9384230677,45454.3053074106,44635.3584727425,59153.4892909722,69430.7640647146,56727.4573953235,58510.3413400019,58713.2620199181,63559.0716150484,11424.1167023952
9437781479,19388,2,0,20655.9186297168,45426.6481325320,44619.4309576012,59129.7257790770,69401.3547414936,56722.8701736213,58497.2245628268,58676.7345940557,63545.3099499417,11425.4794844394
9437781479,19388,2,0,20366.5221284800,45379.0724379543,44557.1931883519,59105.9379317881,69360.0575784765,56719.4023800267,58489.8509385521,58639.5622802616,63544.7137327974,11430.3465631685
9437781479,19388,2,0,20283.3315853015,45380.3987169080,44539.6960403205,59119.9186154377,69372.7728216565,56710.9093276443,58506.8735464074,58665.1387789834,63561.2496327797,11432.4029039316
9437781479,19388,2,0,20539.1087402166,45431.4787081707,44593.7449496080,59175.3546421630,69425.2277626602,56702.0877474477,58536.6965713204,58721.6698984228,63568.1365491815,11430.7602648605
9437781479,19388,2,0,20729.4845247083,45442.3931322209,44603.2479208267,59160.8385798532,69422.5630370559,56684.6757732941,58514.7217108582,58707.3606869590,63544.2026895308,11422.5714048987
9437781479,19388,2,0,20614.4267835506,45407.3258299772,44570.9913565491,59110.9145197887,69381.3632156135,56711.3108616395,58480.4818119984,58659.7849923813,63538.4108658431,11413.2022783450
9437781479,19388,2,0,20378.9940177235,45371.5041305305,44527.7473620404,59099.0510153863,69353.8277177031,56711.0188369157,58478.9730175924,58644.0764957829,63544.5068819514,11417.9841831964
9437814764,19389,2,0,20287.2009128912,45369.4234543737,44513.7058399067,59120.1741370709,69362.5641240220,56728.1874571329,58494.4259925575,58657.1689375644,63552.6835742164,11427.4263159310
9437814764,19389,2,0,20465.4698390441,45415.2470006089,44562.8998381618,59152.6983906787,69405.8202862276,56726.7029981205,58512.7627116697,58697.2128278087,63570.7769393921,11424.6764164490
9437814764,19389,2,0,20722.4759313383,45452.9668607600,44619.4066222076,59154.5722159894,69436.4220437373,56722.8945090149,58507.3845896739,58720.6721472833,63572.8819509425,11423.5569883413
9437814764,19389,2,0,20711.3181533517,45436.9055009538,44611.1447560648,59143.2562579441,69411.4782652502,56736.8630249677,58493.6350922640,58691.6156872701,63556.4433925347,11425.9175215250
9437814764,19389,2,0,20411.8467991454,45383.2824610551,44552.6911405274,59109.3935576858,69363.2576827409,56733.7359268842,58472.3537905207,58639.2702555378,63543.0710937263,11420.0405239595
9437814764,19389,2,0,20259.8600981300,45367.7808153026,44522.1258861082,59103.7842494505,69359.5465352099,56701.2238409733,58477.2573723403,58647.4226124092,63546.8309120445,11413.1049367704
9437814764,19389,2,0,20460.1282201388,45404.3934150429,44556.4387911489,59135.3472550092,69402.0239648188,56699.2891771784,58505.8271244806,58697.3223370801,63550.1405255804,11406.1085110972
9437814764,19389,2,0,20711.9995443737,45442.4539707050,44600.6075306161,59173.5294876395,69430.8492385924,56706.9061553896,58534.8227460097,58708.2489288271,63546.4415457462,11402.2756865980
9437843736,19390,2,0,20702.3140577027,45425.1758412164,44581.4799112105,59148.1720074605,69405.3822491420,56700.5059468607,58509.4896012243,58670.5777394632,63534.8457306739,11393.8313050029
9437843736,19390,2,0,20471.5901905461,45378.1355252990,44527.6135173753,59104.4413050789,69360.4956155621,56693.9962290604,58478.4254712353,58634.6100276546,63530.0638258225,11396.8610615118
9437843736,19390,2,0,20292.3721840409,45354.4450195847,44495.5759716405,59091.3488632974,69344.3004110908,56715.0828476546,58472.6823183349,58629.2562410525,63535.3324385469,11402.8719037423
9437843736,19390,2,0,20397.4159107134,45385.8620127815,44526.6522693263,59116.4751572368,69381.1198616770,56705.9449073406,58488.6585042634,58670.6750810378,63555.2144551556,11406.2666911559
9437843736,19390,2,0,20672.3693558214,45435.8590790270,44604.4281874185,59146.9674054751,69424.5585393349,56702.5622876238,58504.9997210967,58716.0727578842,63563.9508614744,11412.2410302960
9437843736,19390,2,0,20730.1537480336,45436.5648054427,44615.7441454639,59153.7934833927,69417.5499459649,56718.8913367602,58509.6964520703,58701.6783725427,63555.8106722999,11422.8877650161
9437843736,19390,2,0,20459.7510215373,45392.4934075500,44556.2684433933,59123.2890674576,69373.2473618326,56750.2109883824,58500.6558533309,58656.5362173296,63550.8219166025,11430.8576064351
9437843736,19390,2,0,20265.6762572114,45374.0836822569,44525.0339656488,59120.8555280930,69368.0152521987,56746.9865487243,58508.5770239626,58666.8787596291,63563.2329673619,11433.5466674330
9437886235,19391,2,0,20400.0319655303,45408.1532333612,44558.3491195501,59150.8854038521,69406.1001432545,56720.7651620709,58524.2855205610,58713.0795044658,63575.7170243022,11432.3785685380
9437886235,19391,2,0,20649.1047194960,45442.2592875559,44603.0532376776,59158.3685373982,69431.9078282160,56715.6547294053,58514.9650647946,58725.5148906188,63564.3767308632,11425.6741675885
9437886235,19391,2,0,20725.7855448741,45438.3899599662,44606.1073295801,59143.1589163695,69417.7932999013,56704.6186283869,58494.0731293497,58699.6950379605,63544.6893974037,11418.5925680376
9437886235,19391,2,0,20541.5057764907,45396.3262320493,44566.5988179960,59124.5423402304,69376.9463416667,56725.5348992255,58480.8590105999,58659.9066693495,63529.8083041892,11415.4046314700
9437886235,19391,2,0,20293.9661523248,45362.3175194291,44522.6369293747,59120.5878387629,69351.7105384560,56729.4528976025,58486.3344741703,58636.7758776891,63529.8691426734,11416.3050410349
9437886235,19391,2,0,20329.1186284462,45388.4172291143,44537.5910287701,59138.5595269704,69385.4880648364,56763.1817531957,58511.9596436794,58674.7755948672,63560.4952355767,11419.0306051232
9437886235,19391,2,0,20642.5463309084,45450.4724829113,44600.4250151638,59175.5614930090,69441.5811471902,56737.6052544739,58536.7695775013,58734.4459800869,63581.9347173787,11420.3082132896
9437886235,19391,2,0,20764.9168578567,45453.8916057186,44605.6084540104,59155.2901101020,69430.1191767830,56705.8353980692,58520.8663977538,58717.0096705396,63559.7165029800,11424.6155779649
9437906666,19392,2,0,20532.0271406656,45402.6899374877,44550.2332657692,59102.9446783697,69374.8413301164,56707.1981801133,58483.9374378961,58660.8314143081,63536.1720096276,11427.0369496327
9437906666,19392,2,0,20305.1360980082,45371.5041305305,44529.4995103829,59094.5611352587,69356.8939773025,56717.1391884177,58478.0361049370,58656.9255836279,63551.8561708324,11422.4132248400
9437906666,19392,2,0,20358.4062746991,45391.7146749534,44560.5028018877,59129.7379467738,69388.7125044945,56727.4330599299,58497.4192459760,58696.4827659993,63569.4019896511,11420.1378655341
9437906666,19392,2,0,20586.2342300118,45435.7860728461,44600.9968969145,59153.4284524880,69427.4909542692,56737.5322482929,58517.7636350639,58726.9020080566,63573.8918697788,11422.5835725955
9437906666,19392,2,0,20735.9577394181,45455.2300523691,44612.5075381090,59159.4757978091,69438.3323721385,56730.9373566149,58525.1129239450,58728.4473055532,63572.0058767712,11429.8720229924
9437906666,19392,2,0,20604.8629738477,45425.3948597593,44576.7223417527,59144.4973630200,69406.9640497289,56730.3168040769,58519.0655786240,58693.8302080919,63562.4785701588,11435.0919649295
9437906666,19392,2,0,20323.8013449346,45380.1553629716,44517.2831427726,59125.2237312525,69367.9909168051,56748.7265293700,58504.1358146222,58654.4677088697,63560.3492232148,11431.1374634620
9437906666,19392,2,0,20283.1003990619,45389.0621170460,44519.8383591055,59137.6226143150,69387.7269210519,56744.7720279026,58515.1840833375,58677.2699727159,63572.9549571234,11424.4452302094
9437954920,19393,2,0,20565.9385117112,45437.9032520932,44581.2487249708,59163.2721192178,69434.9619201185,56710.5077936492,58521.1340870839,58725.1376920173,63567.3821519785,11422.3523863559
9437954920,19393,2,0,20768.0317882434,45459.1480507461,44607.0685776291,59164.6470689588,69442.6762399043,56715.6790647989,58504.5738517078,58718.4332910679,63545.8818316924,11429.6651721465
9437954920,19393,2,0,20614.0739203427,45425.9059030258,44568.1197800989,59135.6392797329,69404.0924732787,56771.2246007956,58483.5237362042,58673.6074959722,63543.3387830564,11428.8621041561
9437954920,19393,2,0,20357.8708960388,45390.5100729679,44524.4377485045,59122.9240365529,69379.8179181170,56752.7053662311,58489.0843736522,58662.2550348364,63563.0139488191,11431.5024943667
9437954920,19393,2,0,20306.4015384778,45388.3685583270,44527.5040081039,59125.1993958588,69389.5764109689,56726.6786627269,58502.3349954924,58683.5363365797,63578.8684577793,11426.0270307964
9437954920,19393,2,0,20500.0017626276,45422.2677616758,44570.3951394048,59137.2210803199,69422.7577202051,56715.6547294053,58516.2183375674,58710.7676420694,63571.2636472650,11422.9121004097
9437954920,19393,2,0,20732.4777781268,45452.7721776109,44601.7269587238,59163.2842869146,69445.1462823593,56713.3063639184,58534.3117027431,58724.6631518412,63554.2897101970,11427.5844959897
9437954920,19393,2,0,20683.1621029034,45426.6237971384,44568.2657924608,59140.0926567701,69409.5192660617,56719.8647525060,58512.4098484618,58687.0771363552,63528.5550314165,11430.9671157065
9437973546,19394,2,0,20399.9346239558,45373.3779558412,44494.6512266820,59112.5571588598,69360.2400939288,56721.4465530930,58485.6652508450,58637.5302748921,63517.8961289996,11429.9815322638
9437973546,19394,2,0,20281.1779029638,45372.8912479683,44495.1987730390,59121.2448943914,69370.7408162870,56729.3312206343,58497.8329476679,58656.9499190216,63540.9052436918,11425.5768260139
9437973546,19394,2,0,20496.8138260600,45420.4182717587,44561.4518822399,59143.9984874503,69418.0853246251,56714.6083074785,58515.4882757580,58712.1912625977,63556.2852124760,11422.7904234415
9437973546,19394,2,0,20715.8688719634,45450.6915014542,44609.0154091208,59143.7551335138,69436.0326774389,56732.6651695637,58513.3224257235,58717.8857447108,63551.0652705389,11423.9098515492
9437973546,19394,2,0,20661.6982857077,45433.9122475353,44575.1527088625,59145.0692447707,69413.3155874705,56744.7841955994,58503.9532991699,58683.3294857337,63552.2698725244,11421.7926723020
9437973546,19394,2,0,20431.2542755780,45389.3784771634,44507.9870223999,59129.1417296295,69375.8025781654,56717.3825423541,58492.2844779167,58657.2906145326,63544.4947142545,11420.9531012212
9437973546,19394,2,0,20302.9094094896,45378.3910469322,44495.1987730390,59136.9777263834,69375.3280379893,56722.2131179928,58508.0051422119,58669.2149574191,63545.2126083671,11428.6187502197
9437973546,19394,2,0,20445.5026485577,45416.2690871421,44547.8240617982,59171.3027991210,69414.3620093973,56736.6683418185,58536.2950373253,58708.4922827635,63559.2662981976,11427.4506513247
9438000529,19395,2,0,20715.5646795429,45456.6901759879,44605.9856526119,59185.6728490688,69449.0521130395,56737.1063789041,58541.3933022941,58735.3463896518,63562.3082224033,11423.2284605271
9438000529,19395,2,0,20730.9811514175,45440.9695116926,44597.9671404056,59155.4726255543,69429.0119163721,56776.0186733439,58518.7857215970,58708.9059844555,63559.9720246133,11424.4939009967
9438000529,19395,2,0,20439.8081664445,45387.3586394907,44530.1200629208,59107.0086891085,69377.5668942047,56760.4926921978,58492.6373411245,58656.8647451438,63560.3857263053,11426.9396080581
9438000529,19395,2,0,20255.6622427261,45366.1625116252,44490.0396695861,59094.0622596889,69362.1625900269,56712.2842773853,58485.4340646054,58656.3537018772,63564.4740724378,11422.3158832654
9438000529,19395,2,0,20422.1163352640,45401.4244970181,44539.0633200857,59119.3223982933,69399.2984007305,56709.2180177859,58500.4733378785,58701.1429938825,63571.4461627174,11421.0382750990
9438000529,19395,2,0,20671.6757971025,45438.2804506948,44605.3651000739,59139.8006320464,69424.5585393349,56716.8958344812,58508.0659806960,58716.2431056397,63557.7818391852,11425.1996274124
9438000529,19395,2,0,20699.5519905239,45436.3579545967,44600.2303320146,59149.1210878127,69414.7878787861,56759.7504626916,58515.3787664866,58694.9253008060,63553.1702820893,11432.9991210759
9438000529,19395,2,0,20495.3171993508,45402.8237821527,44554.8569905619,59139.7397935622,69389.4060632134,56752.3768384169,58523.4337817834,58676.0045322463,63558.1955408772,11434.6782632375
9438033684,19396,2,0,20312.3880453147,45378.7925809274,44518.6094217263,59137.0750679580,69375.9972613146,56737.2280558723,58526.3175259304,58666.9882689005,63562.1500423446,11432.8652764109
9438033684,19396,2,0,20399.6791023225,45408.0315563929,44539.0876554793,59175.3303067693,69412.4516809961,56754.0681482753,58548.5235726323,58699.9627272907,63581.8008727137,11429.0689550021
9438033684,19396,2,0,20661.3089194094,45448.4404775419,44595.5214333441,59177.6178337721,69446.6307413717,56708.5609621575,58541.2472899322,58729.6519075386,63576.6661046544,11419.9431823849
9438033684,19396,2,0,20729.5818662829,45434.9221663716,44599.8409657163,59121.8046084452,69423.8284775255,56695.9430605521,58502.4445047638,58697.2614985960,63547.7191539126,11420.5880703165
9438033684,19396,2,0,20471.9795568444,45379.7659966732,44524.4499162013,59070.5907725175,69367.5285443258,56718.1856103444,58465.1626816983,58636.0823189702,63530.8425584192,11429.8841906893
9438033684,19396,2,0,20268.5600013584,45360.8695635072,44481.5466172037,59083.9509036291,69359.5221998163,56733.5899145223,58471.2465301098,58637.3599271366,63547.4636322793,11434.6174247534
9438033684,19396,2,0,20364.0277506313,45387.7723411827,44520.6657624894,59116.9131943224,69390.5254913211,56724.5736511765,58486.4561511385,58676.6372524811,63559.0716150484,11426.2703847329
9438033684,19396,2,0,20614.7918144553,45426.3804432019,44579.2167196014,59138.6568685450,69421.6017890069,56731.1077043704,58496.6770164698,58698.3930944005,63563.9995322617,11412.0463471468
9438075017,19397,2,0,20724.5566074950,45442.2106167686,44600.2303320146,59148.7438892112,69427.0529171836,56734.3443117253,58505.1944042458,58694.0613943315,63570.7891070889,11416.3658795190
9438075017,19397,2,0,20575.6848368663,45417.6075337926,44564.8953404408,59142.1855006237,69401.2817353126,56735.8409384345,58504.3183300746,58672.7192541041,63573.3199880281,11423.9706900333
9438075017,19397,2,0,20315.3204602490,45375.9940106581,44516.1515469681,59115.1732136767,69367.7353951718,56741.0730480684,58496.4579979269,58649.6736363214,63566.5790839882,11422.9851065907
9438075017,19397,2,0,20299.7823114061,45386.9692731924,44523.9875437221,59130.8208717910,69386.9360207584,56727.9197678028,58512.9938979093,58678.0852084030,63567.7715182768,11420.3082132896
9438075017,19397,2,0,20601.1274909231,45442.6364861574,44588.5736784582,59171.5218176638,69444.1485312198,56728.4551464630,58544.5569034680,58734.8231786884,63574.4637515294,11422.8755973193
9438075017,19397,2,0,20777.7902810954,45455.2665554596,44612.5683765931,59159.5974747773,69446.8497599145,56718.2099457381,58533.2044423322,58725.0525181396,63558.7065841437,11425.0657827474
9438075017,19397,2,0,20572.5090679955,45405.5858493315,44551.4743708451,59111.9001032314,69390.4403174434,56722.4443042325,58500.3638286071,58662.8512519807,63539.1774307429,11423.9341869428
9438075017,19397,2,0,20312.4610514956,45368.9732495913,44506.6485757494,59117.3147283176,69366.1292591911,56739.9049491734,58502.7730325781,58650.7565613387,63548.6560665680,11422.4253925368
9438091393,19398,2,0,20332.3430681043,45386.2513790799,44526.6766047199,59150.7150560965,69390.2212989006,56729.5867422675,58521.8884842869,58689.0848063309,63563.0991226968,11417.5948168981
9438091393,19398,2,0,20568.0800263520,45431.3691988993,44578.5353285793,59161.1914430611,69430.6302200496,56748.2519891939,58530.0286734614,58723.7140714890,63576.5444276862,11415.2221160176
9438091393,19398,2,0,20740.5692965140,45451.9934450142,44599.9991457750,59150.5325406442,69441.3621286474,56723.4785584624,58524.2733528642,58728.0457715580,63570.6552624239,11417.4974753235
9438091393,19398,2,0,20632.9460181151,45420.8076380570,44566.1607809104,59125.7591099127,69405.9054601053,56709.2301854828,58502.5540140352,58692.2484075049,63554.1558655320,11419.1887851819
9438091393,19398,2,0,20344.4985972304,45371.9543353129,44506.1131970892,59104.8915098613,69364.9976633866,56740.4889986209,58487.1253744638,58652.7277282240,63554.7642503731,11423.0216096811
9438091393,19398,2,0,20272.9282045179,45381.7736666490,44510.3718909772,59132.8163740700,69383.4438917702,56762.6707099291,58509.3192534688,58676.1748800018,63580.7666184837,11426.8300987867
9438091393,19398,2,0,20535.6044435316,45435.1898557017,44572.5244863488,59163.4911377606,69435.4121249010,56760.6873753470,58534.9200875843,58733.1927073141,63591.9365641672,11425.1266212315
9438091393,19398,2,0,20764.6735039203,45456.8361883497,44608.1271672527,59163.2356161273,69442.6762399043,56714.3527858452,58526.5730475637,58728.5933179150,63566.6885932596,11420.4542256515
9438143306,19399,2,0,20640.8063502627,45417.7170430640,44564.8345019567,59131.2832442703,69393.3240615904,56723.0891921641,58490.5931680583,58668.1685354923,63546.0156763574,11414.8692528098
9438143306,19399,2,0,20358.9903241466,45366.2963562902,44503.2294529421,59099.0145122959,69352.8543019573,56702.0147412668,58467.0486747059,58638.0899889460,63549.9945132185,11411.7786578167
9438143306,19399,2,0,20280.4235057608,45366.0043315665,44504.4218872308,59122.7536887974,69365.8128990737,56713.5375501581,58491.6030868946,58663.5448106996,63564.3523954696,11421.0261074022
9438143306,19399,2,0,20459.5076676009,45406.2672403536,44553.2386868844,59137.6956204960,69403.7761131613,56707.7943972576,58502.9677157272,58698.9649761512,63568.0513753038,11423.5813237350
9438143306,19399,2,0,20696.7655879514,45442.3931322209,44594.7427007475,59145.1422509516,69428.6225500738,56720.4122988630,58501.5440951989,58715.8294039478,63564.6322524965,11424.1653731825
9438143306,19399,2,0,20689.9273423369,45429.3371935299,44585.7386050985,59139.1435764179,69410.0789801156,56719.8404171124,58499.0618850471,58694.3777544489,63557.7818391852,11427.0491173295
9438143306,19399,2,0,20393.7047631824,45375.9940106581,44518.3660677899,59095.4615448236,69361.2621804620,56754.1533221531,58473.6435663839,58643.8818126337,63555.7985046031,11424.7494226300
9438143306,19399,2,0,20230.8036381169,45370.2873608482,44507.4638114365,59095.7900726378,69368.5019600716,56764.7392183890,58480.5304827857,58656.7552358724,63581.8982142883,11429.5678305719
9438155626,19400,2,0,20444.7725867483,45422.7301341550,44574.6781686864,59137.8051297674,69421.6017890069,56717.2852007795,58510.8037124812,58716.9366643587,63592.2042534973,11429.1297934862
9438155626,19400,2,0,20704.8206032482,45453.1858793029,44607.8594779226,59150.1188389522,69437.2616148181,56679.1638066333,58518.4450260860,58726.7924987852,63565.1797988535,11424.8954349919
9438155626,19400,2,0,20679.3901168883,45426.2344308400,44566.1364455167,59126.1728116047,69397.2055568769,56692.0737329624,58493.4525768117,58679.6791766868,63541.7934855598,11417.9476801060
9438155626,19400,2,0,20469.7528683258,45392.0188673739,44518.7676017850,59141.5284449952,69370.8016547711,56751.4399257615,58500.0839715802,58661.4276314524,63560.0937015816,11423.1676220430
9438155626,19400,2,0,20315.8071681219,45378.1720283894,44504.7382473482,59152.9539123120,69366.7376440323,56744.7355248121,58509.8302967354,58667.0856104751,63570.6065916366,11419.3956360279
9438155626,19400,2,0,20385.1022015286,45389.3784771634,44516.2488885427,59122.5103348610,69377.2018633000,56691.8547144196,58491.2380559899,58678.9247794838,63554.9711012191,11411.1581052788
9438155626,19400,2,0,20629.4173860364,45419.3353467414,44546.4126089668,59103.5287278172,69400.1379718113,56667.6166623483,58478.6444897782,58696.2394120628,63533.6776317789,11407.0697591462
9438155626,19400,2,0,20700.3915616047,45414.2857525599,44538.2967551859,59095.0843462220,69387.2888839662,56699.5812019022,58468.9103323198,58674.6782532926,63517.3364149457,11406.9480821780
9438190327,19401,2,0,20460.0187108674,45364.7145557032,44469.8412928600,59079.6070358633,69338.9101213982,56700.9196485527,58453.7737174721,58619.6802636529,63510.9118710232,11404.2225180897
9438190327,19401,2,0,20254.3359637724,45347.0227245227,44438.9110075361,59094.0500919921,69333.5319994025,56702.9029831348,58468.2654443882,58623.3427403966,63531.0859123557,11405.8773248576
9438190327,19401,2,0,20394.0819617839,45383.4528088106,44491.5119609016,59134.2156592046,69375.3767087766,56673.6640076693,58497.9546246362,58675.8463521876,63547.9381724554,11397.0679123578
9438190327,19401,2,0,20655.0547232424,45421.4646936855,44542.9934861595,59141.7961343253,69403.4840884376,56663.0294406460,58504.1601500159,58691.6400226638,63531.7308002873,11386.0074759457
9438190327,19401,2,0,20710.4785822709,45419.9437315826,44530.3755845541,59133.8871313904,69390.1117896292,56706.6993045436,58495.4115760002,58665.6011514627,63514.1363106813,11385.4842649823
9438190327,19401,2,0,20530.7860355897,45390.5709114520,44487.2897701041,59128.9105433898,69361.3716897334,56701.6740457557,58493.8784462005,58643.0544092498,63517.4459242171,11394.1476651203
9438190327,19401,2,0,20314.3105414127,45355.3940999369,44443.3035460891,59110.9510228792,69336.8172775447,56671.8996916300,58487.4904053684,58632.5658545884,63519.7699543103,11393.4419387046
9438190327,19401,2,0,20338.3417426380,45365.9313253855,44451.9182754398,59117.0835420779,69353.4261837080,56661.8491740542,58488.6950073539,58657.6434777405,63527.2409201596,11386.2751652758
9438249393,19402,2,0,20615.7773978979,45414.0423986235,44524.1943945681,59144.9354001056,69397.8869478990,56695.8943897648,58502.4201693702,58707.0808299321,63545.8331609051,11378.9867148789
9438249393,19402,2,0,20773.6532641756,45433.5228812370,44565.1873651646,59160.5708905231,69414.4106801846,56729.4407299057,58512.7018731856,58712.2399333850,63555.2022874587,11383.2210733733
9438249393,19402,2,0,20562.0691841215,45383.1851194805,44488.3361920309,59133.5099327889,69361.5785405794,56674.9051127452,58488.5854980825,58648.9192391184,63525.7199580567,11380.7875340087
9438249393,19402,2,0,20291.2162528428,45330.2069675134,44404.2330715907,59090.8986585150,69319.4296387847,56620.2721540102,58459.5412057661,58616.8330225963,63501.1898812617,11368.2304708874
9438249393,19402,2,0,20335.2389799482,45338.3228212943,44410.9496402369,59084.6809654384,69334.7244336911,56606.2549672702,58450.8169671441,58644.2468435384,63498.4156463861,11356.3913018787
9438249393,19402,2,0,20573.3121359859,45374.5217193425,44460.8493649078,59092.6751422511,69365.2410173231,56624.4213386269,58449.4785204936,58660.9165881858,63487.2457007026,11353.8360855459
9438249393,19402,2,0,20698.3108854479,45390.5344083615,44487.1559254390,59095.9239173028,69372.1279337248,56671.3156421825,58451.9728983423,58652.5087096812,63485.1528568491,11359.7130831114
9438249393,19402,2,0,20579.7245122115,45374.7285701885,44476.9107247141,59095.3155324617,69355.9327292535,56693.0349810114,58455.1851703035,58635.8267973369,63498.3426402051,11374.7645240813
9438252312,19403,2,0,20338.7311089364,45342.3503289427,44426.1835966593,59089.5723795613,69328.9934484875,56694.1544091191,58458.5069515362,58616.4436562980,63508.8433625633,11381.2255710943
9438252312,19403,2,0,20304.4790423798,45345.4652593294,44412.5801116112,59107.4345584973,69337.8758671683,56674.7591003834,58476.2231181104,58636.5203560558,63531.7916387714,11373.8154437291
9438252312,19403,2,0,20549.1349223987,45377.9895129371,44453.3540636649,59124.7978618637,69369.9620836904,56617.8264469488,58487.5269084589,58674.2280485101,63522.8240462129,11363.9717769994
9438252312,19403,2,0,20729.4845247083,45385.4969818768,44480.5245306705,59102.6283182523,69368.5749662525,56635.7616320658,58470.2244435767,58663.8611708170,63496.7851750118,11360.0416109256
9438252312,19403,2,0,20571.8641800639,45352.9483928755,44449.1440405642,59074.5452739849,69332.9844530454,56689.2994980868,58453.9318975308,58617.0033703518,63496.6269949531,11364.1907955422
9438252312,19403,2,0,20312.0230144100,45323.2470449307,44413.9915644427,59091.6652234148,69315.0492679284,56685.7708660081,58467.2433578551,58605.0060212844,63511.2769019279,11368.9970357873
9438252312,19403,2,0,20292.5425317965,45328.1384590535,44416.8996439834,59113.0073636422,69328.6770883701,56655.6801517650,58477.5128939736,58630.4851784316,63511.0335479915,11363.2538828868
9438252312,19403,2,0,20497.0450122997,45360.5653710866,44447.6474138549,59107.5805708592,69356.5046110042,56660.0970257117,58468.3141151755,58650.3671950403,63501.6279183473,11354.9920167441
9438302531,19404,2,0,20691.6308198921,45387.1152855543,44472.4938507674,59104.5143112598,69373.5028834658,56645.3132740718,58465.4060356348,58657.0594282930,63495.2155421216,11358.9708536052
9438302531,19404,2,0,20648.7031855008,45376.9674264040,44471.8124597453,59105.9744348786,69358.0985792880,56645.3619448591,58470.2852820608,58639.0877400855,63490.3606310893,11367.5977506526
9438302531,19404,2,0,20381.1842031516,45333.6504257143,44422.6184614901,59096.4836313567,69321.9726874207,56670.6585865540,58469.9202511561,58607.3057159839,63497.4909014275,11373.1462204039
9438302531,19404,2,0,20254.5671500121,45329.3308933421,44409.3556719531,59110.9266874855,69327.5089894751,56683.3008235531,58486.2614679893,58621.6757659318,63515.6816081778,11372.7325187119
9438302531,19404,2,0,20501.1333584322,45383.2459579646,44469.6101066203,59155.4117870702,69383.6020718289,56685.9898845509,58519.1385848049,58685.1789756508,63538.1310088161,11369.5202467506
9438302531,19404,2,0,20749.8775845836,45414.5777772837,44517.6116705869,59140.3846814939,69402.9487097774,56666.8744328421,58503.1258957859,58695.0713131678,63527.4356033088,11369.3255636015
9438302531,19404,2,0,20663.8763034390,45386.1053667180,44478.5046929979,59100.9978468780,69364.3406077582,56675.0754605008,58465.3086940602,58645.2080915874,63504.3169793452,11372.8298602865
9438302531,19404,2,0,20393.0842106444,45340.5981806002,44412.7261239731,59075.2023296134,69322.3255506285,56645.7513111575,58443.5771875344,58611.8807699894,63499.8514346112,11370.3841532251
9438310281,19405,2,0,20268.4018212998,45322.3831384562,44394.3042309832,59069.7998722240,69314.2218645445,56639.4484442032,58442.3847532458,58618.1958046405,63505.0957119419,11366.4783225449
9438310281,19405,2,0,20421.7391366625,45356.9637328270,44429.0551731095,59105.6215716707,69350.6154457419,56643.7801442722,58473.4610509316,58649.9534933484,63507.5535867001,11372.8663633770
9438310281,19405,2,0,20679.5117938565,45397.5916725188,44478.0666559123,59135.8217951853,69384.7458353302,56643.1717594310,58491.0798759312,58671.4416459377,63504.4751594039,11375.9812937636
9438310281,19405,2,0,20711.7196873468,45384.4627276469,44479.8188042548,59111.3647245711,69365.8128990737,56641.2857664234,58473.7530756553,58647.1427553823,63489.9956001846,11372.0997984771
9438310281,19405,2,0,20425.4016134062,45328.7711792883,44417.2646748881,59066.5632648691,69313.1511072241,56666.4607311501,58448.2252477208,58592.8139890678,63484.3741242524,11369.7149298998
9438310281,19405,2,0,20215.3384954549,45307.2100205180,44382.8909313632,59063.6430176316,69303.8184837609,56668.4805688227,58449.6853713396,58590.5873005492,63500.1312916381,11365.1642112880
9438310281,19405,2,0,20386.2459650299,45346.2074888356,44431.4157062931,59105.6580747612,69347.6708631107,56646.4935406637,58474.2154481346,58641.0345715771,63503.7207622009,11364.6410003247
9438310281,19405,2,0,20662.7325399377,45387.0057762829,44488.2753535467,59127.4139166806,69376.8855031826,56669.1254567543,58481.4308923506,58665.1996174675,63496.0307778088,11365.8577700069
9438337753,19406,2,0,20674.5473735527,45385.0954478817,44498.8004112986,59116.7671819605,69364.9246572057,56700.1287482592,58472.9135045745,58637.2139147747,63497.5030691243,11369.7757683839
9438337753,19406,2,0,20460.7974434641,45354.1529948609,44457.2112235578,59114.1389594468,69335.8438617988,56673.0191197377,58477.1965338562,58615.2633897062,63509.0015426220,11369.6662591125
9438337753,19406,2,0,20286.4343479914,45324.0987837083,44408.0172253026,59105.5485654898,69315.1831125935,56633.9851483297,58478.9121791083,58609.2403797788,63501.3967321077,11369.2282220269
9438337753,19406,2,0,20360.8763171541,45337.0452131279,44421.8397288935,59104.8793421645,69330.0033673238,56617.0112112617,58478.1212788148,58624.6568516535,63489.3993830403,11366.0281177625
9438337753,19406,2,0,20634.0654462228,45381.2139525952,44481.0599093307,59111.4012276616,69367.4190350544,56631.7584598111,58482.7328359107,58657.1324344739,63491.0541898082,11363.6919199725
9438337753,19406,2,0,20736.6147950466,45388.0035274224,44494.3470342614,59103.2610384871,69365.4965389563,56629.9211375908,58474.5196405552,58643.5776202131,63482.4881312448,11364.8356834738
9438337753,19406,2,0,20483.0399932564,45331.6062526480,44417.5201965213,59061.5501737780,69310.0726799278,56655.9478410951,58438.6979411084,58582.2402605287,63473.1190046912,11364.1177893613
9438337753,19406,2,0,20235.0379966112,45301.0531659256,44365.0652555176,59061.9517077732,69291.1275759745,56657.5053062884,58440.8394557493,58575.5601949729,63486.6008127710,11368.3521478556
9438372614,19407,2,0,20342.9654674307,45329.7202596405,44408.8567963834,59103.7842494505,69330.2467212603,56646.9194100525,58468.2411089945,58626.7861985975,63497.2353797942,11367.6707568336
9438372614,19407,2,0,20623.1996929599,45374.5460547362,44483.1405854875,59128.3143262455,69371.7263997297,56645.8243173384,58480.0072718223,58661.3302898778,63496.5904918626,11367.0380365988
9438372614,19407,2,0,20710.4907499677,45378.7195747465,44492.5218797379,59122.1939747436,69366.3726131276,56643.9748274213,58476.5638136214,58644.2225081448,63484.3619565556,11368.3643155525
9438372614,19407,2,0,20545.1804209312,45349.5292700682,44454.6316718313,59110.5373211872,69337.3769915985,56643.6219642135,58474.9333422472,58618.2079723373,63480.6386413277,11370.2259731664
9438372614,19407,2,0,20317.8513411882,45317.8324198445,44415.7315450884,59089.1221747788,69316.3025407012,56676.1948886085,58467.5110471852,58605.7847538811,63486.2236141695,11371.6617613915
9438372614,19407,2,0,20306.3041969032,45339.3814109179,44436.2706173255,59108.0672787321,69344.5315973304,56693.7285397303,58486.3101387766,58635.8998035179,63521.0110593863,11370.3841532251
9438372614,19407,2,0,20571.2801306164,45393.4059848117,44487.1680931358,59159.1716053885,69396.9135321532,56655.4489655253,58515.2327541247,58684.5219200223,63539.8466540682,11365.6874222514
