steady_timestamp,sequence,battery,flags,EEG-ch1,EEG-ch2,EEG-ch3,EEG-ch4,EEG-ch5,EEG-ch6,EEG-ch7,EEG-ch8,EEG-ch9,EEG-ch10
4202985612,28312,-2,0,-9307.4850015603,42435.8525888465,11849.3898740538,30108.1383849860,50583.7925862709,13888.3673337647,45906.1405612337,57438.6227715340,60361.4738961602,16112.4641329398
4202985612,28312,-2,0,-9310.2105656487,42434.5871483769,11849.0005077555,30104.9504484184,50582.6974935569,13886.8707070555,45918.2109164821,57436.7489462233,60358.8700090401,16111.3082017416
4202985612,28312,-2,0,-9307.6675170127,42433.0053477900,11853.7580772133,30103.4781571028,50579.9354263781,13893.5629403081,45909.4623424664,57435.1306425458,60359.5027292749,16110.4564629640
4202985612,28312,-2,0,-9302.7517674962,42434.6844899515,11860.5841551309,30106.4835782181,50578.5848120307,13899.3060932085,45905.4713379084,57436.6029338614,60364.2237956422,16109.8480781229
4202985612,28312,-2,0,-9299.3569800826,42437.0085200447,11860.1461180453,30108.3574035288,50580.5681466129,13880.9572063995,45927.0933351628,57442.0175589476,60362.9218520821,16109.5803887928
4202985612,28312,-2,0,-9301.4133208457,42431.4113795062,11855.0600207733,30104.8531068438,50577.2341976834,13885.7877820382,45925.8035592996,57436.4569214995,60356.2296188295,16104.7741485477
4202985612,28312,-2,0,-9300.1478803761,42432.3482921615,11859.5742362946,30105.2546408390,50573.6690625143,13888.8662093344,45909.1094792585,57435.5686796315,60356.5581466437,16108.3027806263
4202985612,28312,-2,0,-9305.5625054623,42428.2721137258,11852.9428415261,30100.4362328971,50568.2909405185,13869.7507576256,45909.6326902219,57429.6065081882,60349.5252178801,16105.1026763619
4203030462,28313,-2,0,-9317.6328607106,42417.3941927661,11843.5007087915,30091.3834664608,50559.1773355981,13868.4609817624,45907.5398463683,57418.9476057713,60340.6914699866,16104.2996083716
4203030462,28313,-2,0,-9317.3286682901,42414.4739455286,11849.3290355697,30089.1932810327,50554.7847970450,13875.0193703499,45891.0404494764,57414.5794026119,60342.3097736641,16114.0337658300
4203030462,28313,-2,0,-9313.3376637322,42420.4604523655,11854.7923314432,30093.4398072239,50561.3553533294,13884.7900308988,45900.2392282746,57422.3180577913,60350.9001676211,16124.4249789167
4203030462,28313,-2,0,-9307.3389891984,42428.9900078384,11858.6738267297,30099.0734508529,50571.2233554528,13885.9581297938,45921.5813685020,57430.9692902324,60357.1300283944,16128.7931820762
4203030462,28313,-2,0,-9308.6531004553,42427.8340766402,11858.8198390916,30098.3920598308,50570.8218214577,13895.3272563474,45909.8395410679,57428.9616202566,60358.0061025657,16123.5245693519
4203030462,28313,-2,0,-9303.4696616087,42433.5893972375,11869.0893752102,30102.9914492299,50577.1976945929,13889.5597680533,45910.1437334884,57436.3230768345,60365.1120375103,16126.1162887751
4203030462,28313,-2,0,-9313.1429805830,42427.5663873101,11862.1659557179,30093.7805027349,50570.8218214577,13866.5263179675,45920.9973190545,57429.8741975183,60354.6843213330,16118.8643414687
4203030462,28313,-2,0,-9321.3075051512,42418.0147453041,11854.7801637464,30081.8074890612,50558.9096462680,13858.2036133406,45908.5010944173,57417.7673391795,60344.7798161191,16109.7872396387
4203050810,28314,-2,0,-9331.3701904238,42407.3436751904,11851.5678917851,30069.5546183605,50543.6148513616,13855.5632231300,45887.0007741312,57409.8948393351,60339.0366632187,16102.6326339069
4203050810,28314,-2,0,-9329.5693712940,42410.0205684914,11855.4250516780,30070.8565619205,50548.3237500321,13869.2640497527,45900.7137684507,57413.6424899565,60342.2854382704,16106.1856013792
4203050810,28314,-2,0,-9322.5729456208,42419.0855026245,11864.5629919920,30078.6803909777,50556.0015667273,13873.2185512201,45909.7056964028,57420.5172386615,60349.7807395134,16113.9972627395
4203050810,28314,-2,0,-9323.9113922713,42418.0147453041,11867.6049161978,30078.1085092270,50552.2904191963,13869.3857267209,45892.3058899460,57416.2098739862,60349.1236838849,16117.7814164514
4203050810,28314,-2,0,-9326.6977948437,42414.7416348587,11862.4214773512,30075.9669945862,50548.4940977876,13861.0143513067,45897.0026209197,57414.1778686167,60344.9379961778,16120.4339743588
4203050810,28314,-2,0,-9323.2908397333,42414.8268087365,11859.2092053900,30077.3054412367,50551.3170034505,13860.8805066417,45911.0928138406,57416.0760293211,60341.5188733706,16122.4538120314
4203050810,28314,-2,0,-9320.3097540117,42412.5149463401,11863.4070607939,30073.9349892167,50546.0362230294,13868.0594477672,45894.5690815551,57413.5816514724,60341.3971964024,16122.0279426426
4203050810,28314,-2,0,-9319.3850090532,42416.9439879837,11871.3282314256,30075.3221066545,50549.2849980811,13876.5525001496,45894.0215351981,57418.5825748666,60346.4224551902,16125.2158792102
4203097255,28315,-2,0,-9316.9514696886,42424.1837675933,11877.6797691672,30077.9868322588,50557.3765164683,13874.2284700564,45914.4632658606,57425.6641744176,60352.7253221445,16128.2821388096
4203097255,28315,-2,0,-9319.2024936008,42421.6042158669,11879.1033896955,30070.7348849523,50554.9551448006,13866.7818396008,45902.9891277566,57417.3536374875,60348.8924976453,16131.5674169518
4203097255,28315,-2,0,-9325.4080189805,42416.7979756218,11878.7505264876,30065.8434708295,50550.7572893966,13868.9963604226,45888.5095685373,57412.4865587583,60346.0695919824,16128.3551449906
4203097255,28315,-2,0,-9323.5706967602,42419.1463411086,11882.5833509868,30071.5866237299,50554.8213001355,13862.9125120111,45906.7732814685,57415.6866630228,60347.9799203836,16128.3064742033
4203097255,28315,-2,0,-9329.9465698955,42413.5978713574,11881.0745565808,30067.0845759054,50549.6621966826,13856.9260051742,45904.1937297420,57410.8804227777,60343.4657048622,16119.8377572145
4203097255,28315,-2,0,-9330.0195760764,42410.2274193374,11882.2669908694,30063.6654530982,50544.3570808678,13860.1504448323,45887.3171342486,57407.3761260927,60341.5432087642,16113.4862194729
4203097255,28315,-2,0,-9323.2543366428,42416.4694478076,11884.2259900579,30066.9385635435,50550.3922584920,13865.0905297424,45901.3708240791,57414.5672349151,60346.2521074347,16111.2716986511
4203097255,28315,-2,0,-9319.1659905103,42420.3509430941,11885.4062566497,30068.1188301354,50553.1786610644,13861.4645560892,45910.3870874249,57415.9300169592,60344.7798161191,16116.9783484611
4203119380,28316,-2,0,-9326.8681425993,42411.6997106530,11883.1552327375,30057.4355923248,50542.2885724079,13853.5920562447,45884.5672347666,57405.4049592074,60336.7004654287,16116.1144419867
4203119380,28316,-2,0,-9332.6599662870,42409.9718977041,11890.4071800440,30054.6370220555,50538.1393877913,13853.1540191591,45879.3229574359,57404.4072080679,60337.1750056048,16117.3555470626
4203119380,28316,-2,0,-9330.9929918222,42415.2891812158,11896.4788607586,30058.2508280120,50545.6955275183,13852.1197649292,45897.2824779466,57409.9800132128,60339.7910604217,16122.2347934886
4203119380,28316,-2,0,-9330.8834825508,42413.9263991716,11900.4698653165,30059.0660636991,50545.9145460611,13857.5952284995,45890.1887106988,57405.4292946010,60339.2556817615,16120.3731358747
4203119380,28316,-2,0,-9326.6734594501,42419.1585088054,11908.1963527991,30065.4419368343,50550.8667986681,13861.8052516002,45891.8921882540,57411.8903416140,60345.5098779285,16121.5899055570
4203119380,28316,-2,0,-9326.8924779929,42422.8209855492,11909.6808118115,30071.4892821553,50560.1020805567,13867.1955412928,45912.4555958848,57417.4753144557,60349.2940316404,16129.6935916411
4203119380,28316,-2,0,-9327.1479996262,42421.7137251383,11909.5469671465,30071.3554374903,50560.2237575249,13861.9512639621,45908.3672497523,57415.7475015069,60348.5518021342,16130.6183365996
4203119380,28316,-2,0,-9329.3503527511,42416.6519632599,11905.9453288869,30067.4617745069,50552.3755930741,13860.2599541037,45888.5947424150,57410.2720379366,60345.4733748380,16121.8089240998
4203146149,28317,-2,0,-9325.6757083106,42421.7745636224,11906.1035089456,30071.1850897347,50557.4495226493,13857.8020793455,45907.9048772730,57415.9543523529,60344.2079343684,16117.5623979086
4203146149,28317,-2,0,-9321.8672192050,42422.9913333047,11907.2837755374,30070.2725124730,50558.1187459745,13852.8741621322,45917.5781962473,57415.3337998149,60341.0443331945,16113.9120888617
4203146149,28317,-2,0,-9322.6094487112,42416.9926587710,11906.4563721534,30064.9673966582,50548.5914393622,13850.5501320390,45896.3455652912,57406.9624244007,60337.3940241476,16111.1621893797
4203146149,28317,-2,0,-9323.9235599681,42413.7438837192,11904.7285592046,30062.3026710540,50545.3548320073,13847.2040154127,45894.8732739757,57405.0034252122,60337.5157011158,16113.6322318348
4203146149,28317,-2,0,-9328.6567940322,42410.5316117580,11901.1512563386,30055.5252639236,50543.8703729949,13838.7474661207,45900.2148928809,57401.6329731923,60334.6684600593,16117.7084102705
4203146149,28317,-2,0,-9329.0948311179,42409.8380530391,11906.1156766424,30054.2354880604,50544.4909255328,13851.8155725086,45887.2806311581,57400.6230543560,60335.8852297416,16120.6651605985
4203146149,28317,-2,0,-9318.2412455518,42422.4802900381,11919.3297953921,30064.8943904773,50557.1696656223,13859.0066813309,45892.8777716967,57411.5861491934,60345.8384057427,16125.7512578704
4203146149,28317,-2,0,-9310.0888886804,42432.2144474965,11927.4213137794,30073.0224119550,50568.6559714232,13857.6682346804,45914.5362720415,57420.8214310820,60351.6180617336,16133.5750869276
4203181006,28318,-2,0,-9309.7116900789,42431.4722179903,11928.6137480680,30072.1585054806,50566.0277489094,13848.5181266696,45908.2577404809,57416.8547619178,60348.9046653421,16130.1802995140
4203181006,28318,-2,0,-9316.8906312044,42423.2225195443,11924.1238679403,30065.0647382328,50552.7162885851,13840.6212914315,45890.2617168798,57406.8650828261,60342.0664197276,16118.9008445591
4203181006,28318,-2,0,-9319.2633320849,42420.8984894511,11918.7944167319,30063.7384592791,50551.1831587855,13838.3580998224,45902.8431153947,57406.8894182198,60341.7013888229,16114.4109644315
4203181006,28318,-2,0,-9321.8915545987,42416.7979756218,11914.3532073915,30058.6766974008,50548.8347932986,13838.2242551574,45905.0576362165,57403.5433015935,60336.7734716096,16108.1324328708
4203181006,28318,-2,0,-9319.9568908038,42417.2725157979,11917.1396099640,30058.7862066722,50547.4476758608,13842.5559552263,45891.0769525669,57402.1075133684,60339.2800171552,16104.8714901223
4203181006,28318,-2,0,-9318.1195685836,42419.6817197688,11920.1206956856,30064.0304840029,50549.8082090445,13837.2751748052,45902.3077367345,57405.8186608994,60342.1394259086,16109.2761963722
4203181006,28318,-2,0,-9313.6175207591,42426.0332575104,11927.7863446841,30071.3919405807,50558.7271308157,13850.1242626502,45922.9928213335,57415.5528183577,60348.8559945548,16126.4569842862
4203181006,28318,-2,0,-9312.1573971403,42425.5830527280,11933.1522989830,30072.3288532361,50555.6973743068,13842.0084088693,45910.7156152391,57412.0728570664,60348.2841128041,16131.4700753772
4203213386,28319,-2,0,-9322.0497346574,42418.7083040230,11921.4591423361,30063.6776207950,50546.6202724769,13829.7920412591,45904.0842204706,57404.6140589139,60338.7324707981,16117.4893917277
4203213386,28319,-2,0,-9324.8239695330,42416.5911247758,11913.5258040076,30061.1345721590,50544.5274286233,13824.3409130824,45915.2906692446,57401.3531161653,60330.7747970759,16109.2640286754
4203213386,28319,-2,0,-9322.6581194985,42416.3599385362,11920.1206956856,30060.8060443448,50543.6026836648,13836.8858085068,45901.0301285681,57398.2990242628,60329.6918720587,16107.9620851153
4203213386,28319,-2,0,-9319.4580152341,42418.9029871722,11931.4001506405,30062.1323232985,50543.5661805743,13833.2476671568,45892.4153992174,57400.9029113829,60331.9915667582,16107.2198556091
4203213386,28319,-2,0,-9321.0519835179,42420.4482846687,11929.9156916281,30058.9078836404,50546.1092292103,13828.9646378751,45907.4546724906,57402.0953456715,60330.2637538094,16105.4068687825
4203213386,28319,-2,0,-9314.9559674096,42425.6560589089,11934.0040377606,30061.4144291859,50554.9186417101,13842.5559552263,45910.6547767550,57405.1981083614,60335.3863541718,16110.7484876878
4203213386,28319,-2,0,-9308.3367403379,42430.7543238777,11941.1464757956,30063.4342668585,50556.9871501700,13842.6046260136,45898.8034400495,57405.5753069629,60337.4183595412,16114.5448090965
4203213386,28319,-2,0,-9306.9009521128,42430.8638331491,11940.3920785926,30064.6145334504,50558.5081122729,13833.8073812106,45909.5110132537,57408.0818525084,60333.6585412230,16114.5448090965
4203242189,28320,-2,0,-9309.4074976583,42430.0242620683,11939.5525075118,30063.9939809124,50557.3643487715,13835.5716972500,45918.1379103011,57407.4856353641,60332.3079268756,16117.7449133610
4203242189,28320,-2,0,-9311.4029999373,42429.1238525034,11945.6120205297,30065.5514461057,50558.0822428841,13837.5793672257,45903.9260404119,57405.9403378676,60334.5346153942,16118.2559566275
4203242189,28320,-2,0,-9311.0136336390,42434.7939992229,11949.9802236891,30070.9539034951,50567.9380773106,13835.7785480959,45911.0319753565,57414.9322658197,60337.8928997173,16112.3546236684
4203242189,28320,-2,0,-9305.2948161322,42439.4298917125,11952.8761355330,30073.5334552216,50576.7109867200,13832.8461331616,45926.6552980772,57420.1035369695,60340.6427991993,16107.9864205090
4203242189,28320,-2,0,-9306.4264119367,42437.2153708907,11956.3074260370,30067.9119792894,50572.2089388955,13827.9060482515,45908.9999699871,57416.4288925290,60338.9271539473,16111.6002264654
4203242189,28320,-2,0,-9317.0488112631,42427.5420519165,11950.5277700461,30056.1701518552,50558.2890937301,13825.6063535520,45891.3081388065,57409.1891129193,60334.8996462989,16109.5682210959
4203242189,28320,-2,0,-9319.6161952928,42429.7322373446,11950.9658071318,30056.7542013027,50561.7690550214,13830.2422460415,45909.3406654981,57414.9809366070,60337.3210179667,16117.0756900357
4203242189,28320,-2,0,-9318.2534132486,42431.8737519854,11956.4534383989,30056.9610521487,50564.7501407430,13836.6789576608,45909.2311562267,57416.4288925290,60338.9514893409,16123.8774325597
4203276022,28321,-2,0,-9312.7657819815,42438.0549419715,11967.4408686300,30061.5482738510,50573.7420686952,13841.8502288106,45904.7291084022,57424.3500631607,60347.1281816060,16128.2334680223
4203276022,28321,-2,0,-9307.1564737461,42444.6011628622,11973.5003816478,30067.4009360228,50584.7294989263,13826.9326325057,45925.2925160330,57432.5024200321,60349.7077333324,16123.6949171074
4203276022,28321,-2,0,-9311.1596460008,42436.9476815606,11965.5305402288,30062.8258820174,50576.8326636882,13806.8315973542,45924.5989573141,57422.8656041483,60340.1804267201,16111.6367295558
4203276022,28321,-2,0,-9315.2966629206,42427.1283502245,11957.3660156606,30054.6126866619,50561.5987072659,13802.8892635835,45897.3798195212,57408.7510758337,60327.1366557259,16096.4027731335
4203276022,28321,-2,0,-9307.3998276826,42432.9201739122,11958.1934190446,30058.7010327944,50566.7091399315,13811.6743406897,45904.9846300355,57414.3238809786,60329.9352259951,16093.2878427468
4203276022,28321,-2,0,-9301.9973702932,42438.6389914190,11960.6877968933,30060.8668828289,50572.6348082843,13807.6346653445,45919.0991583501,57418.9962765586,60331.7968836091,16095.5266989623
4203276022,28321,-2,0,-9306.1708903034,42432.2509505869,11957.7918850494,30056.1336487648,50564.5676252907,13798.6305696955,45897.2216394625,57411.6348199807,60325.8712152563,16092.5212778470
4203276022,28321,-2,0,-9306.3655734526,42430.4379637603,11959.3006794555,30059.1147344864,50563.7523896036,13800.9424320919,45895.6520065723,57414.6402410960,60327.6842020829,16098.0089091141
4203328156,28322,-2,0,-9302.8856121612,42434.5141421960,11960.5052814409,30064.3468441202,50569.3251947485,13796.1240241500,45915.6678678461,57418.9354380745,60328.1344068653,16103.6547204400
4203328156,28322,-2,0,-9301.5106624203,42432.7741615503,11959.1181640031,30063.6776207950,50565.6992210952,13789.2006046577,45909.0851438649,57410.2963733302,60321.8923783952,16099.0553310409
4203328156,28322,-2,0,-9299.0041168747,42432.5673107043,11957.2078356019,30063.6654530982,50561.8298935055,13785.9761649996,45900.6285945729,57409.0187651638,60319.2033173973,16093.1661657786
4203328156,28322,-2,0,-9292.6404114363,42432.6524845821,11950.1262360510,30065.8069677390,50562.5356199213,13774.1248282941,45914.7066197970,57408.1791940830,60315.4556667758,16084.5027656407
4203328156,28322,-2,0,-9288.1626990055,42426.1305990850,11943.4705058888,30064.0913224870,50556.6342869621,13766.7147009289,45912.4069250975,57402.3508673048,60307.7413469901,16076.1922287106
4203328156,28322,-2,0,-9289.5984872306,42418.8421486881,11939.6255136928,30059.8082932053,50546.8392910197,13769.5011035014,45891.5514927430,57395.3301062380,60304.7724289653,16069.0619583724
4203328156,28322,-2,0,-9282.7237385256,42423.1981841507,11942.8864564413,30065.6001168930,50554.7847970450,13772.2875060738,45906.7611137717,57403.0079229333,60306.7679312443,16069.4756600643
4203328156,28322,-2,0,-9278.5380508185,42424.7921524345,11940.7814448910,30065.3080921693,50558.8001369966,13766.0333099068,45919.7440462817,57401.1097622289,60304.1518764273,16069.0132875851
4203348217,28323,-2,0,-9282.2126952591,42416.0192430251,11937.5813406265,30059.6379454498,50550.7451216998,13765.8021236672,45900.0567128222,57393.4927840177,60297.6786617175,16066.0687049539
4203348217,28323,-2,0,-9282.1153536845,42414.8268087365,11936.2793970665,30061.5847769414,50549.6865320762,13762.1518146203,45896.4915776531,57393.9673241938,60298.2140403777,16066.2025496190
4203348217,28323,-2,0,-9279.9130005595,42412.6852940956,11930.0008655058,30063.3004221935,50550.2340784333,13750.9088627559,45908.2699081777,57394.0038272843,60294.0283526706,16062.6252467530
4203348217,28323,-2,0,-9278.5380508185,42407.9520600315,11925.1946252608,30061.7186216065,50544.1989008091,13754.8511965266,45896.6984284991,57386.5085260414,60287.7498211100,16055.1299455101
4203348217,28323,-2,0,-9270.3126877662,42420.9593279352,11936.8269434235,30075.8209822243,50554.7361262578,13773.1392448514,45903.4028294485,57398.7005582579,60299.5768224219,16060.0091919361
4203348217,28323,-2,0,-9267.1977573796,42430.3406221857,11945.0766418695,30082.4402092960,50564.2756005669,13759.0490519305,45925.1586713680,57405.3562884201,60301.4384800358,16062.6374144498
4203348217,28323,-2,0,-9277.4064550140,42420.7403093924,11941.2316496734,30071.8299776664,50553.2151641549,13744.7520081635,45913.1856576942,57394.0646657684,60292.0571857853,16055.0082685419
4203348217,28323,-2,0,-9286.8364200518,42409.0106496551,11942.3632454779,30059.9786409608,50541.2421504811,13748.4874910882,45889.5924935545,57385.9731473811,60285.9611696770,16049.8856681794
4203359795,28324,-2,0,-9283.5146388191,42412.5879525211,11950.0897329605,30060.9277213130,50546.8271233228,13751.8092723208,45904.5465929499,57389.9276488486,60289.9278388413,16053.7671634659
4203359795,28324,-2,0,-9280.8620809117,42412.7826356702,11951.6106950634,30059.6136100561,50548.5184331812,13745.0927036746,45911.9932234055,57387.6157864522,60286.9345854229,16055.9330135004
4203359795,28324,-2,0,-9281.7989935671,42408.3900971171,11953.5210234646,30058.4941819484,50544.6612732884,13754.1819732013,45896.1143790516,57384.3791790973,60287.9810073496,16055.9208458036
4203359795,28324,-2,0,-9282.2005275622,42415.3378520030,11964.5571244830,30071.3311020966,50554.3832630499,13761.6286036569,45909.8517087647,57394.5635413381,60298.6642451602,16065.2778046604
4203359795,28324,-2,0,-9287.8341711913,42418.1607576660,11965.5183725320,30074.0688338818,50561.2823471485,13750.8601919686,45924.9639882188,57398.5302105024,60299.5159839378,16066.4824066459
4203359795,28324,-2,0,-9289.0752762672,42415.7515536950,11965.3601924733,30068.0458239544,50557.9970690063,13750.7385150004,45910.9468014788,57392.4341943941,60297.1554507541,16062.2602158483
4203359795,28324,-2,0,-9283.0035955526,42418.3676085120,11968.3291104981,30064.5293595726,50560.5157822487,13756.1774754803,45907.2964924319,57395.0137461206,60299.4064746664,16059.1696208553
4203359795,28324,-2,0,-9274.5713816543,42424.9868355836,11971.4318731879,30067.0845759054,50567.9867480979,13756.2018108739,45925.7792239059,57401.1827684098,60304.6994227844,16061.7856756722
4203393607,28325,-2,0,-9273.6831397862,42424.1594321997,11975.5567224109,30066.5491972452,50565.7600595793,13760.2779893096,45917.5781962473,57399.4671231578,60305.3321430191,16058.4760621364
4203393607,28325,-2,0,-9270.9210726074,42426.5321330802,11985.4490599280,30070.9782388888,50565.4802025524,13765.3884219752,45904.9237915514,57401.9980040970,60308.4835764963,16059.7171672123
4203393607,28325,-2,0,-9270.0815015266,42430.4866345476,11991.1557097379,30077.3784474176,50571.6978956289,13761.5069266887,45924.6111250109,57410.6005657508,60312.2190594209,16063.1727931101
4203393607,28325,-2,0,-9271.9188237469,42428.9413370511,11991.6180822172,30073.8011445517,50571.2476908465,13761.0445542094,45928.1397570896,57407.9845109338,60309.7246815722,16067.0299530029
4203393607,28325,-2,0,-9271.1887619375,42425.1328479455,11990.9975296792,30071.9759900282,50562.7911415545,13763.0157210947,45912.6381113372,57403.3851215348,60306.9139436061,16066.2633881031
4203393607,28325,-2,0,-9267.7209683429,42423.1251779697,11988.8560150384,30073.1440889232,50562.6572968895,13755.8367799692,45919.9874002182,57405.1251021805,60305.5633292588,16059.4251424886
4203393607,28325,-2,0,-9264.6303733499,42422.3099422826,11991.8979392441,30074.6893864198,50567.0255000489,13757.1630589229,45932.4592894617,57407.7168216037,60305.3686461096,16057.0159385176
4203393607,28325,-2,0,-9265.6646275799,42421.5190419891,12001.4617489470,30075.1274235054,50563.6550480290,13764.3176646548,45919.1964999247,57404.0543448600,60306.2203848872,16057.8311742048
4203459558,28326,-2,0,-9266.0174907877,42428.3816229972,12009.9913044198,30078.6560555840,50568.6073006359,13769.4037619268,45923.3943553286,57409.5541438240,60314.0928847317,16062.4670666943
4203459558,28326,-2,0,-9264.9223980737,42431.0585162983,12010.5266830801,30079.8971606600,50572.6469759811,13756.9927111674,45938.5188024795,57411.4523045284,60312.6084257193,16060.6784152614
4203459558,28326,-2,0,-9269.3149366267,42423.6848920236,12004.3454930940,30073.0710827423,50564.9569915890,13747.2463860122,45922.1775856463,57399.9416633339,60303.0932868037,16057.2957955446
4203459558,28326,-2,0,-9272.3690285293,42414.9606534015,11998.9795387951,30067.3887683260,50553.8843874801,13745.1535421587,45904.4735867690,57392.2638466386,60296.2672088861,16054.6189022435
4203459558,28326,-2,0,-9270.7993956391,42416.9926587710,11999.3080666093,30072.0003254219,50559.1895032950,13750.6898442131,45920.7783005117,57395.4639509030,60296.3158796733,16059.8875149679
4203459558,28326,-2,0,-9268.9012349348,42418.2459315437,12002.7393571134,30072.0003254219,50560.7348007915,13753.2085574555,45920.3037603356,57393.0669146289,60295.3546316243,16065.1682953890
4203459558,28326,-2,0,-9270.4221970376,42418.3189377247,12009.4680934565,30071.8178099695,50558.1674167618,13754.9242027075,45904.6561022213,57390.3900213279,60296.0968611305,16062.2602158483
4203459558,28326,-2,0,-9271.7728113850,42421.0688372067,12015.0530662982,30072.6452133535,50562.7181353736,13752.6245080080,45916.2762526872,57394.7582244873,60301.9981940897,16058.5247329237
4203468434,28327,-2,0,-9279.2802803247,42415.4838643649,12010.8917139847,30067.0967436022,50559.7613850456,13741.3450530531,45917.7850470933,57391.2174247118,60296.5957367003,16056.1398643464
4203468434,28327,-2,0,-9282.2735337432,42408.0250662125,12010.3441676277,30062.2053294794,50553.4950211818,13743.8394309018,45897.0877947974,57384.7077069116,60290.1955281714,16054.4120513975
4203468434,28327,-2,0,-9276.8467409601,42412.2107539195,12015.1382401760,30066.1598309469,50557.4495226493,13749.9476147069,45903.4880033263,57390.2926797533,60293.6511540691,16057.1011123954
4203468434,28327,-2,0,-9270.4221970376,42418.3797762088,12017.7421272961,30069.4451090891,50565.1516747382,13746.8083489266,45924.2460941062,57395.6586340522,60294.0891911548,16062.1385388801
4203468434,28327,-2,0,-9275.0945926176,42412.4297724624,12016.1481590123,30065.5514461057,50556.6829577494,13740.6149912437,45910.5696028773,57385.5107749019,60288.5528891003,16057.5878202683
4203468434,28327,-2,0,-9277.2969457426,42408.4144325108,12018.8007169197,30065.4176014407,50551.6333635679,13744.3748095620,45902.8431153947,57385.3404271464,60286.5817222150,16054.6189022435
4203468434,28327,-2,0,-9278.1730199138,42410.0205684914,12021.3802686461,30065.6366199835,50558.0579074904,13738.7168305393,45919.2938414993,57390.6698783548,60289.3072863033,16054.2903744293
4203468434,28327,-2,0,-9280.3632053420,42409.2053328043,12022.8403922649,30061.4996030637,50560.0047389821,13739.4225569551,45913.2708315719,57389.0880777678,60288.6867337654,16052.3800460281
4203489558,28328,-2,0,-9281.6043104179,42410.8479718754,12025.9066518643,30061.1345721590,50559.8343912266,13746.0174486331,45899.5213341620,57388.3093451711,60290.2807020492,16052.5382260868
4203489558,28328,-2,0,-9276.2383561190,42421.4338681113,12034.4240396403,30069.1165812748,50569.8119026214,13750.5316641544,45916.3857619586,57397.9948318422,60297.6543263239,16063.1849608069
4203489558,28328,-2,0,-9276.0193375762,42421.1540110844,12036.6263927653,30069.4572767859,50569.7267287436,13741.6005746864,45921.4840269274,57398.5545458961,60297.9098479572,16065.9713633793
4203489558,28328,-2,0,-9280.8864163054,42411.4320213229,12036.5533865843,30062.2296648731,50557.5590319207,13735.6140678495,45899.9107004604,57390.8523938071,60290.5970621666,16060.9947753788
4203489558,28328,-2,0,-9281.9571736258,42411.7483814403,12039.5101369123,30061.8281308779,50556.7559639304,13737.8650917617,45905.1428100942,57392.0204927021,60290.7309068316,16058.5734037110
4203489558,28328,-2,0,-9282.4925522860,42413.2815112400,12039.7169877583,30060.4166780464,50558.8244723903,13735.1395276734,45918.5516119931,57393.1642562035,60289.3437893938,16059.6563287282
4203489558,28328,-2,0,-9283.9405082079,42410.8844749659,12042.7467442672,30056.8393751805,50553.7627105119,13738.4978119965,45902.9647923629,57388.5161960171,60288.0783489242,16059.9848565424
4203489558,28328,-2,0,-9278.7692370582,42414.8268087365,12050.9721073195,30062.5216895968,50558.9218139648,13740.3594696104,45903.3419909644,57394.9772430301,60293.8093341278,16063.5986624989
4203517665,28329,-2,0,-9277.5281319822,42419.3410242578,12053.1136219604,30064.9673966582,50564.8231469240,13734.8109998592,45920.3524311229,57400.0633403021,60295.0747745974,16067.2003007585
4203517665,28329,-2,0,-9282.1518567749,42414.9484857047,12051.8116784003,30059.5892746625,50559.3841864441,13731.4283801424,45910.2654104567,57392.0083250053,60287.3604548117,16060.9947753788
4203517665,28329,-2,0,-9282.9062539780,42415.7758890887,12057.9076945086,30060.4896842274,50558.7149631189,13735.8209186955,45899.8011911889,57390.7672199294,60291.3149562791,16058.9384346157
4203517665,28329,-2,0,-9284.6827377141,42413.1720019686,12054.9144410901,30059.5771069657,50558.2160875491,13726.1475997212,45912.1392357674,57388.6865437727,60288.1026843179,16059.4251424886
4203517665,28329,-2,0,-9286.7269107804,42408.8646372932,12051.6048275543,30056.7298659091,50552.2417484091,13726.4882952323,45911.4578447453,57383.3084217769,60284.3915367869,16062.1872096674
4203517665,28329,-2,0,-9291.9955235047,42398.4855919033,12048.6724126200,30049.8064464168,50537.7500214929,13727.1818539512,45887.4144758232,57373.7081089836,60279.8651535687,16060.8852661073
4203517665,28329,-2,0,-9289.2577917195,42401.2111559916,12053.7706775888,30053.0552214686,50542.9456280363,13732.0124295899,45898.8764462304,57378.3196660795,60283.7831519457,16065.9470279857
4203517665,28329,-2,0,-9283.2347817922,42406.6014456842,12060.5115816287,30056.2796611266,50551.7672082330,13737.4270546761,45914.3780919828,57382.0673167010,60288.7354045527,16070.4612435070
4203563384,28330,-2,0,-9278.0148398552,42410.2274193374,12070.3552483585,30059.7231193275,50554.0182321452,13742.1481210434,45905.4713379084,57382.9920616595,60293.5538124945,16069.2444738247
4203563384,28330,-2,0,-9276.2261884222,42413.1476665749,12071.1461486520,30062.2540002667,50553.8843874801,13743.1945429702,45904.2424005293,57385.6446195669,60292.8115829883,16064.7789290907
4203563384,28330,-2,0,-9276.1410145444,42416.9196525900,12071.0244716837,30067.2062528736,50559.6640434710,13740.2134572486,45921.3866853528,57392.5315359687,60295.9386810718,16064.4382335796
4203563384,28330,-2,0,-9285.5709795822,42411.0183196309,12068.8829570429,30062.2661679635,50554.4197661404,13734.0444349593,45907.7710326080,57385.8758058066,60290.8282484062,16062.5522405721
4203563384,28330,-2,0,-9294.5507398375,42411.2130027801,12071.8518750677,30060.0638148386,50551.4265127219,13735.2490369448,45898.7060984749,57382.7487077231,60286.2896974912,16061.2016262247
4203563384,28330,-2,0,-9285.9481781837,42412.5149463401,12072.9956385690,30059.7961255085,50552.5216054360,13733.4603855118,45912.2609127356,57382.8217139040,60282.2986929333,16059.0601115839
4203563384,28330,-2,0,-9277.4794611949,42406.4189302318,12072.2655767597,30056.4500088822,50547.2408250148,13727.9970896383,45904.9237915514,57374.2191522502,60274.0854975778,16059.2547947331
4203563384,28330,-2,0,-9277.6863120409,42398.0718902113,12067.5810134828,30050.6460174976,50539.7941945592,13725.5392148801,45883.4478066589,57368.5976763180,60268.6222017043,16053.9861820087
4203587561,28331,-2,0,-9276.9440825347,42400.6636096346,12062.8477794187,30053.6271032192,50542.9212926427,13723.3733648456,45896.5280807436,57372.3574946363,60268.7925494599,16049.0947678859
4203587561,28331,-2,0,-9273.0382518546,42403.6325276594,12062.2515622744,30057.4112569312,50546.8636264133,13724.6753084057,45906.3839151702,57373.4039165630,60268.9628972154,16044.3737015186
4203587561,28331,-2,0,-9269.4974520791,42403.8758815958,12065.4760019325,30059.5284361784,50547.4841789513,13729.1895239270,45892.7074239412,57372.0167991252,60270.7880517388,16038.6548840118
4203587561,28331,-2,0,-9268.4510301523,42404.9223035226,12069.9902174538,30062.8745528047,50549.1998242033,13726.3179474768,45897.7935212132,57375.6792758689,60274.3775223016,16037.3164373613
4203587561,28331,-2,0,-9272.3933639230,42401.0043051456,12066.6684362211,30058.6280266135,50548.2142407607,13717.7518889134,45906.7124429844,57373.3795811694,60272.2116722671,16037.9978283834
4203587561,28331,-2,0,-9281.6408135084,42391.9758741030,12059.0027872227,30051.0110484023,50536.2533947837,13714.4544430744,45888.2053761167,57363.0613742635,60264.3148370290,16030.1009931453
4203587561,28331,-2,0,-9286.6782399931,42390.2115580637,12054.4520686109,30049.5752601772,50532.9681166415,13714.1989214411,45882.2553723703,57361.6255860384,60262.5505209897,16025.6476161081
4203587561,28331,-2,0,-9285.7048242473,42394.1052210470,12056.7517633104,30051.8749548767,50539.1858097180,13711.8748913479,45902.2590659472,57366.6995156136,60260.8957142218,16025.4772683526
4203624839,28332,-2,0,-9290.8517600034,42389.0556268655,12055.3768135694,30045.8762803430,50532.4692410718,13711.1935003258,45893.1819641173,57359.3380590357,60256.7586973020,16020.6953635012
4203624839,28332,-2,0,-9293.3826409425,42387.6928448213,12057.7373467531,30043.2237224356,50527.7603424013,13724.1642651391,45876.2688655334,57360.4453194466,60257.8294546224,16022.1311517263
4203624839,28332,-2,0,-9286.7999169613,42395.4436676975,12065.7193558689,30049.7334402359,50538.4922509991,13732.6451498247,45896.9417824356,57371.4570850714,60268.0746553473,16029.2614220645
4203624839,28332,-2,0,-9278.5988893027,42401.6735284709,12074.3827560069,30052.4346689306,50546.7054463546,13732.9615099421,45906.2987412924,57376.4093376783,60272.0291568148,16035.4426120506
4203624839,28332,-2,0,-9275.4352881287,42401.7100315613,12082.1335788831,30052.1791472973,50545.6346890342,13730.6861506362,45890.2860522734,57374.6693570326,60273.3554357685,16036.3673570091
4203624839,28332,-2,0,-9274.1211768718,42400.7122804219,12082.0119019148,30053.6879417034,50544.1258946282,13727.9362511542,45896.4550745626,57375.4237542356,60272.7713863210,16036.9635741534
4203624839,28332,-2,0,-9274.3280277178,42398.6924427493,12080.6977906580,30053.2864077082,50544.5760994106,13724.6996437993,45904.7169407054,57373.4647550472,60272.1630014798,16039.9811629655
4203624839,28332,-2,0,-9274.5835493511,42393.8862025042,12082.5107774846,30053.2864077082,50541.6680198699,13725.5635502737,45889.7628413100,57368.5368378339,60269.0237356995,16041.8306528826
4203651693,28333,-2,0,-9275.0824249208,42395.2854876388,12080.4909398120,30056.0119717965,50542.5075909507,13723.9574142931,45891.4906542589,57368.2569808069,60267.9773137727,16037.0000772439
4203651693,28333,-2,0,-9272.0283330183,42399.0818090476,12081.1844985309,30060.2828333814,50552.2660838027,13729.0556792619,45911.5065155326,57373.1605626266,60268.9750649122,16036.9635741534
4203651693,28333,-2,0,-9268.8282287538,42403.0119751214,12088.2295949914,30061.4144291859,50551.4995189028,13735.6140678495,45902.0643827980,57371.9194575506,60272.6983801400,16041.9158267604
4203651693,28333,-2,0,-9268.0616638540,42402.7321180945,12094.3742818870,30063.0814036507,50548.5062654844,13741.8682640165,45891.3568095938,57372.1019730030,60277.2734341454,16049.7153204239
4203651693,28333,-2,0,-9265.1900874038,42405.9930608430,12098.2557771735,30066.7438803944,50552.7649593724,13739.3252153805,45912.7354529117,57377.1150640940,60281.9945005127,16055.4463056275
4203651693,28333,-2,0,-9269.3392720204,42401.4301745344,12092.2936057302,30060.7208704670,50548.3115823352,13726.9750031052,45913.5263532052,57371.6030974332,60275.4847827125,16049.0460970986
4203651693,28333,-2,0,-9281.1054348482,42390.9051167826,12083.2286715971,30051.0110484023,50537.2268105295,13714.2110891379,45894.0823736822,57360.7008410799,60264.1688246671,16034.4326932143
4203651693,28333,-2,0,-9288.3817175483,42387.7658510023,12076.0132273811,30048.8451983678,50534.5742526221,13709.5021904674,45901.3951594728,57359.2042143707,60258.5230133413,16027.6917891744
4203681969,28334,-2,0,-9282.7967447066,42388.1673849974,12080.7099583548,30052.3616627497,50540.1835608575,13718.2385967863,45912.1392357674,57360.5669964148,60258.3891686762,16033.5687867398
4203681969,28334,-2,0,-9273.1720965196,42393.2169791789,12093.0114998428,30055.9876364029,50543.7973668139,13727.8754126701,45897.1973040688,57362.3069770605,60262.1124839041,16039.5552935767
4203681969,28334,-2,0,-9267.4532790128,42400.5175972727,12101.2003598046,30059.8204609021,50549.9785568000,13724.7483145866,45903.7921957469,57368.8653656481,60265.6167805891,16042.7432301443
4203681969,28334,-2,0,-9265.1535843133,42402.8416273659,12101.6748999807,30059.6257777529,50553.1786610644,13721.1953471143,45919.6467047072,57371.7126067047,60264.8745510829,16045.1646018121
4203681969,28334,-2,0,-9263.4866098486,42401.9898885883,12106.3229601671,30058.5671881294,50547.2164896212,13726.0502581466,45908.6471067792,57367.1010496088,60263.2075766181,16043.8991613425
4203681969,28334,-2,0,-9263.1702497312,42399.2521568031,12109.1823689205,30057.3869215375,50540.5850948527,13724.1155943518,45898.2072229051,57364.1442992808,60263.5361044323,16040.2123492052
4203681969,28334,-2,0,-9268.8525641475,42395.3219907293,12102.2711171250,30054.1381464858,50537.0564627740,13711.9722329225,45907.9778834540,57359.1068727961,60256.7221942115,16033.0212403828
4203681969,28334,-2,0,-9277.6619766473,42389.0556268655,12095.6032192661,30044.8055230226,50527.4926530712,13708.1515761201,45897.8300243036,57348.1072748681,60250.3341533795,16029.1397450963
4203710727,28335,-2,0,-9279.3897895961,42386.6099198041,12097.0146720975,30041.6905926359,50521.9563510167,13712.5197792795,45882.7299125464,57344.6394812736,60248.3994895846,16028.9207265535
4203710727,28335,-2,0,-9277.7471505250,42390.1142164891,12099.6672300049,30043.3819024943,50523.2947976673,13709.0276502914,45897.3919872180,57347.5962316016,60248.5941727338,16032.3763524512
4203710727,28335,-2,0,-9277.4551258013,42387.6685094277,12103.8529177120,30042.8951946214,50523.4043069387,13711.9965683162,45902.9891277566,57347.6692377825,60247.6815954721,16037.3529404518
4203710727,28335,-2,0,-9277.2604426521,42386.0380380534,12110.7033310233,30043.0412069833,50520.7517490313,13718.0439136372,45884.5428993730,57346.1726110733,60249.4945822987,16038.3141885008
4203710727,28335,-2,0,-9273.0747549450,42392.6816005187,12115.9111052636,30049.1128876979,50525.8378463033,13721.5968811095,45895.6641742691,57353.2663783211,60255.8461200402,16036.0023261044
4203710727,28335,-2,0,-9265.6889629735,42401.6005222899,12121.8854444036,30055.5982701046,50537.8108599770,13725.2593578532,45916.4952712300,57361.0293688941,60260.3116647743,16036.8784002757
4203710727,28335,-2,0,-9260.1039901318,42403.1579874833,12130.8530369621,30056.7663689996,50540.9257903637,13729.2868655016,45905.9580457814,57361.8932753685,60262.7330364420,16037.2677665740
4203710727,28335,-2,0,-9257.5609414958,42404.2165771069,12137.8007918480,30058.6888650976,50543.3471620315,13733.2291992722,45902.2347305535,57366.1519692566,60266.5415255476,16037.1704249994
4203741879,28336,-2,0,-9257.8651339164,42405.9200546621,12139.4677663128,30060.4166780464,50548.8712963891,13727.1331831639,45916.2640849904,57370.7878617461,60269.2062511518,16039.4092812149
4203741879,28336,-2,0,-9261.5032752664,42403.7298692340,12139.8084618238,30055.8781271315,50544.9411303153,13724.2007682296,45905.2766547593,57364.0591254030,60265.2517496844,16037.5476236009
4203741879,28336,-2,0,-9262.1603308949,42406.6014456842,12142.8382183327,30057.2044060852,50542.7266094935,13732.9371745484,45895.8953605088,57363.8887776475,60266.8578856650,16038.6427163150
4203741879,28336,-2,0,-9258.5100218480,42413.9750699589,12146.0626579908,30062.4730188095,50549.6256935921,13733.1561930912,45916.3249234745,57372.0046314284,60267.8678045013,16040.7112247749
4203741879,28336,-2,0,-9261.2842567236,42409.5581960121,12145.3325961814,30062.0228140271,50545.8902106675,13732.7424913993,45917.4808546727,57368.2448131101,60263.8037937624,16038.0221637770
4203741879,28336,-2,0,-9264.9223980737,42402.9389689405,12145.4664408465,30057.1679029947,50536.2290593901,13736.5753158985,45898.0125397560,57362.8788588112,60262.0881485104,16035.9658230140
4203741879,28336,-2,0,-9263.4987775454,42403.6325276594,12146.9995706462,30058.6888650976,50539.0763004466,13737.3783838888,45906.8827907399,57365.7017644741,60265.0692342320,16035.2965996887
4203741879,28336,-2,0,-9255.8209608501,42409.1688297138,12149.6156254631,30061.9011370588,50545.7928690929,13739.4590600455,45921.1676668100,57369.0478811004,60268.3423446774,16037.5232882073
4203773582,28337,-2,0,-9254.5311849869,42406.2729178700,12149.1289175902,30060.7452058607,50542.3615785888,13738.3761350283,45906.1283935369,57364.4728270950,60265.8601345255,16033.8121406763
4203773582,28337,-2,0,-9252.8277074317,42405.9808931462,12149.1167498934,30065.3932660470,50542.0573861682,13744.8493497381,45906.2257351115,57367.2592296675,60266.7727117872,16036.6350463392
4203773582,28337,-2,0,-9256.5145195690,42405.5428560606,12145.9288133258,30067.9728177735,50545.4521735818,13741.6614131705,45922.0924117686,57372.4305008172,60267.4054320220,16043.1569318363
4203773582,28337,-2,0,-9260.1648286159,42400.1403986712,12140.6236975110,30064.7605458122,50540.1105546766,13744.1071202319,45908.6471067792,57368.9870426163,60264.6798679337,16041.5751312493
4203773582,28337,-2,0,-9259.7146238334,42397.8893747589,12133.4934271727,30063.8114654600,50537.9203692485,13744.7763435572,45899.4118248906,57367.2470619706,60265.3977620463,16035.3817735665
4203773582,28337,-2,0,-9259.8971392858,42400.4445910918,12122.2504753083,30063.6167823109,50542.2277339238,13741.8925994101,45914.2929181051,57369.6927690320,60264.9962280511,16031.4394397958
4203773582,28337,-2,0,-9259.7754623176,42399.3981691650,12111.6037405882,30061.3049199145,50541.7531937477,13750.0692916751,45908.9756345934,57366.5048324644,60263.2927504959,16031.1960858594
4203773582,28337,-2,0,-9259.2887544446,42398.4247534192,12100.7014842349,30059.6501131466,50537.2876490137,13757.4794190403,45888.7407547769,57364.8256903029,60265.4099297431,16032.2546754830
4203812892,28338,-2,0,-9261.6127845378,42397.0254682845,12076.5486060413,30057.8127909263,50533.7955200255,13755.3622397931,45891.6244989239,57365.5557521122,60264.1444892735,16030.5755333214
4203812892,28338,-2,0,-9262.4523556186,42394.8474505532,12047.2244566981,30053.4810908574,50530.4494033992,13758.9152072654,45891.7340081953,57364.7770195156,60260.5550187107,16028.4583540742
4203812892,28338,-2,0,-9262.7687157360,42393.1439729980,12021.8061380349,30053.4567554637,50526.4949019317,13775.5971196097,45874.9304188829,57364.2416408554,60263.5117690387,16028.0324846854
4203812892,28338,-2,0,-9255.3707560677,42400.6514419378,11999.2107250347,30065.2350859883,50536.9226181090,13786.3533636012,45889.3369719212,57377.0055548226,60273.0390756511,16036.2943508282
4203812892,28338,-2,0,-9255.8939670310,42400.7244481187,11966.4309497937,30070.3820217444,50539.3683251704,13777.8481435219,45905.8485365099,57381.2520810138,60271.9561506338,16036.5498724615
4203812892,28338,-2,0,-9260.4446856428,42391.9637064062,11931.1932997945,30066.3423463992,50526.7139204745,13777.5682864950,45889.7993444005,57371.3962465873,60266.1156561588,16032.1816693020
4203812892,28338,-2,0,-9261.1260766649,42390.4914150906,11900.7983931308,30066.2085017342,50522.0293571977,13785.5016248235,45883.5451482335,57370.9217064112,60265.4951036208,16029.3344282455
4203812892,28338,-2,0,-9256.3928426008,42396.5387604116,11876.2439809421,30074.3365232119,50528.9162735995,13795.7468255485,45903.3906617517,57377.2367410623,60272.0048214211,16034.6638794539
4203832032,28339,-2,0,-9256.8430473832,42399.4711753459,11856.0091011255,30081.7709859707,50531.8486885338,13804.2763810213,45902.1373889790,57381.1547394393,60277.9791605612,16041.8063174890
4203832032,28339,-2,0,-9257.6947861608,42397.8285362748,11839.6800519891,30086.6502323967,50527.0789513792,13807.5008206794,45888.1810407230,57379.5972742459,60280.7412277400,16042.6215531761
4203832032,28339,-2,0,-9254.9327189820,42400.1160632775,11821.5745191166,30095.1554524759,50530.0235340104,13801.4899784489,45902.3685752186,57385.2065824813,60281.0697555542,16041.8428205794
4203832032,28339,-2,0,-9256.1738240580,42394.3242395898,11799.6848325321,30097.2847994200,50526.6287465968,13799.6769916223,45906.3595797765,57379.4634295809,60274.8763978713,16038.6548840118
4203832032,28339,-2,0,-9256.8673827769,42391.7081847729,11783.9885036305,30100.4970713812,50520.9951029677,13806.0528647575,45890.8335986304,57373.7324443773,60274.7912239936,16036.0996676790
4203832032,28339,-2,0,-9250.7470312749,42397.4391699765,11771.6991298394,30111.3993277346,50528.0645348219,13813.0006196434,45901.1883086268,57380.7897085346,60279.9746628401,16035.8806491362
4203832032,28339,-2,0,-9248.4230011818,42403.1579874833,11760.8942150606,30122.4475964498,50534.5012464412,13814.2903955066,45914.9864768240,57386.5815322223,60285.0485924153,16041.5142927652
4203832032,28339,-2,0,-9251.6717762335,42400.7487835123,11750.6368466388,30126.2682532522,50530.4615710960,13819.7293559865,45898.2072229051,57382.1524905787,60285.0729278089,16042.2930253619
4203864770,28340,-2,0,-9253.7037816029,42400.3837526077,11737.5200694637,30130.4296055656,50527.9185224600,13815.0812958001,45898.5600861130,57382.7122046326,60284.8052384788,16039.1050887943
4203864770,28340,-2,0,-9254.5311849869,42400.2499079426,11722.3834546160,30132.8996480207,50528.7459258439,13804.3128841118,45912.9423037577,57380.4368453267,60280.2423521702,16032.8143895368
4203864770,28340,-2,0,-9256.0399793929,42395.5653446658,11713.1725081210,30132.0844123336,50522.0658602882,13800.7599166395,45901.8696996489,57372.8928732965,60275.8011428299,16027.1442428173
4203864770,28340,-2,0,-9255.1760729185,42391.3674892619,11708.1594170299,30135.4305289599,50518.2938742730,13802.5850711630,45889.2152949530,57369.0843841909,60273.9881560033,16023.0315612912
4203864770,28340,-2,0,-9249.5789323799,42395.2246491547,11705.4946914257,30141.0763402857,50522.4673942833,13800.1150287079,45902.4294137027,57372.4791716045,60275.2170933824,16026.7427088222
4203864770,28340,-2,0,-9246.5005050837,42397.0741390718,11702.4892703105,30143.7775689804,50521.7008293835,13802.9379343708,45901.0301285681,57370.6661847779,60272.3698523258,16028.5191925583
4203864770,28340,-2,0,-9242.2904819830,42401.6735284709,11703.5356922372,30148.2066106240,50520.7639167281,13809.3746459902,45890.4198969385,57371.7856128856,60274.9494040523,16029.1884158836
4203864770,28340,-2,0,-9238.4089866965,42409.4243513471,11704.7159588291,30156.2616259208,50527.3831437998,13810.3115586455,45905.8607042068,57380.1691559966,60279.4757872704,16030.0036515707
4203916598,28341,-2,0,-9237.6180864030,42412.1864185259,11703.8520523546,30157.3080478475,50528.8797705090,13804.8604304688,45913.6115270830,57381.4102610725,60279.4636195736,16031.4151044022
4203916598,28341,-2,0,-9241.1102153912,42408.1954139680,11703.3653444817,30152.5504783898,50520.6422397599,13804.3737225959,45892.8534363030,57374.1583137661,60274.6087085412,16031.9018122751
4203916598,28341,-2,0,-9239.5405825010,42411.9673999831,11704.9106419782,30155.2638747813,50523.3799715450,13807.0871189874,45895.2504725772,57377.1150640940,60275.0710810205,16032.9847372923
4203916598,28341,-2,0,-9234.6856714687,42418.1242545755,11706.3829332938,30158.1232835347,50530.3520618246,13807.6955038286,45913.4776824179,57382.5053537866,60277.8331481993,16033.6904637081
4203916598,28341,-2,0,-9228.6261584508,42421.1661787812,11712.2477631625,30160.0336119359,50530.0113663135,13813.6333398782,45903.0012954534,57380.8505470187,60280.6317184686,16037.5476236009
4203916598,28341,-2,0,-9227.4458918590,42419.1341734118,11713.2698496956,30157.2228739698,50526.2515479952,13811.0416204549,45891.3203065034,57379.0010571016,60281.0210847669,16033.2524266224
4203916598,28341,-2,0,-9228.4193076048,42420.1927630354,11708.1472493331,30156.8456753683,50528.0523671250,13807.6711684349,45904.4370836785,57378.5630200160,60281.1062586447,16029.4317698200
4203916598,28341,-2,0,-9232.1547905295,42420.4361169719,11705.3486790638,30155.5072287177,50530.1208755849,13815.4584944016,45901.6141780156,57377.2854118496,60280.2301844734,16026.9373919713
4203936460,28342,-2,0,-9229.0641955365,42426.1427667818,11711.3960243849,30161.2260462245,50534.0875447492,13823.6960251508,45894.2283860440,57381.7509565836,60285.2797786549,16029.2979251550
4203936460,28342,-2,0,-9220.6684847286,42435.1225270372,11720.3392815497,30168.1129626263,50541.9965476841,13821.6153489940,45911.5065155326,57390.8888968976,60291.0107638585,16036.3795247059
4203936460,28342,-2,0,-9214.7063132854,42439.3812209252,11728.2969552719,30171.5199177367,50547.0948126529,13822.7956155859,45918.3082580566,57394.2228458271,60294.9530976292,16045.9433344088
4203936460,28342,-2,0,-9219.6950689828,42434.6723222547,11730.1464451890,30168.1738011104,50539.3074866863,13820.8487840942,45897.5501672767,57389.3679347947,60292.4830551741,16044.6535585455
4203936460,28342,-2,0,-9223.0290179123,42432.7133230662,11726.5934777167,30166.1296280442,50538.5530894832,13815.5436682794,45899.3631541033,57389.0150715869,60291.8381672425,16039.7621444227
4203936460,28342,-2,0,-9222.8221670663,42431.1315224792,11719.7795674959,30162.2481327576,50539.8672007401,13811.7838499611,45910.8494599042,57387.2142524571,60287.0440946943,16034.2136746715
4203936460,28342,-2,0,-9222.1042729537,42428.5763061464,11719.2685242293,30158.1476189283,50538.5652571801,13815.5680036730,45895.4938265136,57384.8415515766,60285.0485924153,16032.6562094781
4203936460,28342,-2,0,-9220.3156215208,42430.4501314571,11721.7994051685,30161.5180709483,50542.0938892587,13820.0457161039,45895.0071186407,57389.6234564280,60290.1468573841,16037.9369898993
4203957441,28343,2,0,-9218.6243116624,42434.3072913500,11721.7385666844,30167.4559069979,50549.6865320762,13820.1065545880,45914.2320796210,57396.1331742283,60295.5249793799,16041.7211436112
4203957441,28343,2,0,-9217.5048835547,42435.2807070959,11724.0382613839,30170.6803466559,50551.5603573870,13826.2634091804,45911.2753292930,57398.1651795977,60297.4474754779,16046.7829054896
4203957441,28343,2,0,-9213.6598913586,42438.3591343921,11728.5038061179,30173.9169540108,50554.6022815927,13830.7046185208,45904.4249159817,57401.2922776812,60302.6795851117,16046.4787130690
4203957441,28343,2,0,-9211.1168427226,42440.6953321821,11729.4893895606,30175.6447669597,50559.6883788647,13831.4103449365,45922.6156227320,57408.1548586894,60304.7115904812,16049.1556063700
4203957441,28343,2,0,-9216.2151076914,42434.8183346166,11725.9364220883,30167.6992609343,50553.6897043310,13819.8388652579,45918.2595872693,57402.1318487620,60298.0558603190,16044.7874032106
4203957441,28343,2,0,-9224.3066260787,42425.8629097549,11721.5195481415,30160.3013012660,50541.7045229604,13819.3399896881,45892.8656039999,57392.8235606925,60293.7119925532,16037.9126545056
4203957441,28343,2,0,-9225.5233957610,42428.9900078384,11721.2883619019,30163.1607100194,50546.5594339927,13819.3521573850,45900.2392282746,57397.5446270598,60296.5348982162,16039.2754365498
4203957441,28343,2,0,-9230.5364868520,42430.4501314571,11717.0783388012,30161.6032448260,50548.6522778463,13815.7140160349,45909.0364730776,57397.9339933581,60294.2717066071,16042.7310624475
4203989636,28344,2,0,-9231.7897596248,42428.9048339606,11718.1977669089,30162.6253313592,50549.9663891032,13821.8221998400,45893.5591627188,57396.2061804092,60294.3325450912,16044.1546829758
4203989636,28344,2,0,-9230.1957913410,42430.9368393301,11721.1180141464,30166.1661311346,50553.6045304532,13822.3210754098,45892.7195916380,57400.4770419941,60296.0481903432,16042.6945593570
4203989636,28344,2,0,-9228.4436429985,42432.8593354281,11721.6655605034,30167.7357640248,50555.8433866686,13821.6396843877,45906.9557969208,57405.1859406646,60298.3235496491,16042.5607146920
4203989636,28344,2,0,-9231.0231947249,42428.1504367576,11722.1887714668,30164.1462934620,50548.7982902082,13825.5941858551,45895.6276711787,57399.4062846737,60295.0747745974,16044.3128630345
4203989636,28344,2,0,-9230.0497789791,42429.6227280732,11726.9828440150,30166.4946589488,50547.2164896212,13829.4513457480,45889.4221457990,57400.9880852607,60299.0657791553,16048.5958923162
4203989636,28344,2,0,-9230.9258531504,42429.8782497065,11722.4807961906,30168.5996704992,50551.2926680569,13815.8721960936,45908.1969019968,57402.7037305127,60297.4718108715,16047.8171597195
4203989636,28344,2,0,-9235.3548947939,42422.1882653144,11715.9102399062,30163.3675608654,50546.6689432641,13803.6679961802,45904.3640774976,57397.0214160964,60291.4609686410,16044.4710430932
4203989636,28344,2,0,-9244.1156365064,42413.2815112400,11712.2842662529,30158.5491529235,50541.6315167794,13804.3980579896,45885.1269488205,57391.3634370737,60286.5695545182,16040.6868893813
4204069819,28345,2,0,-9243.1787238511,42414.7538025555,11710.5807886977,30159.2913824297,50546.8636264133,13807.8901869778,45896.0048697802,57398.1043411136,60289.9643419318,16039.8351506037
4204069819,28345,2,0,-9237.8857757331,42418.9881610499,11713.0143280623,30161.3477231927,50553.6653689373,13811.9420300198,45905.5930148767,57401.5112962240,60291.9963473012,16042.3781992397
4204069819,28345,2,0,-9238.5793344520,42420.0589183703,11718.2221023025,30158.5491529235,50551.7185374457,13812.5139117705,45889.2031272562,57399.6861417006,60291.8746703330,16041.2831065256
4204069819,28345,2,0,-9241.1832215721,42420.6916386051,11717.6137174614,30156.0304396811,50551.4751835092,13811.4796575405,45892.6830885475,57401.1949361066,60290.4753851983,16042.3295284524
4204069819,28345,2,0,-9241.6090909609,42421.1418433876,11718.1977669089,30154.6676576370,50554.0790706293,13809.5328260489,45906.5542629257,57404.3342018870,60292.5438936582,16049.4354633970
4204069819,28345,2,0,-9242.2174758021,42416.0922492061,11718.9399964151,30150.9686778028,50546.9366325942,13811.6621729929,45890.0913691242,57399.6253032165,60291.8381672425,16053.4994741358
4204069819,28345,2,0,-9243.2760654257,42415.4108581840,11718.3316115739,30148.5351384382,50543.3106589410,13803.4976484247,45883.2166204193,57398.3233596564,60289.5993110271,16050.8347485316
4204069819,28345,2,0,-9245.3202384919,42413.3788528146,11713.3550235733,30146.1259344672,50542.9212926427,13789.6143063497,45901.3951594728,57397.5324593629,60285.5109648946,16046.4787130690
4204075606,28346,2,0,-9253.6794462093,42403.6203599626,11706.9913181349,30136.5742924612,50532.9437812479,13783.0072469748,45892.8169332126,57385.0849055131,60277.4437819010,16041.6359697335
4204075606,28346,2,0,-9256.8430473832,42398.2057348763,11707.1008274064,30132.3521016637,50525.2659645526,13784.5890475618,45875.2589466971,57379.4269264904,60274.1463360619,16039.5552935767
4204075606,28346,2,0,-9252.0003040477,42403.6203599626,11710.4834471231,30138.2899377133,50534.6107557126,13788.9937538117,45890.8944371146,57389.5991210344,60279.4514518768,16044.5440492741
4204075606,28346,2,0,-9249.0800568102,42405.6158622415,11709.8263914947,30140.5652970192,50539.8550330433,13786.3168605107,45897.4528257021,57392.4706974846,60282.5907176571,16048.0483459591
4204075606,28346,2,0,-9253.0832290649,42400.4567587886,11705.7258776654,30134.6274609696,50534.5134141380,13781.1942601482,45879.2134481645,57382.7730431167,60275.9228197981,16042.5485469952
4204075606,28346,2,0,-9255.4924330359,42398.7046104461,11705.6893745749,30133.9704053411,50533.3209798494,13781.5471233561,45885.7353336616,57383.0529001436,60273.5136158272,16039.8594859973
4204075606,28346,2,0,-9254.6163588646,42398.8141197175,11707.7943861253,30133.2403435317,50534.4282402603,13785.8544880314,45897.3068133402,57382.8582169945,60274.2436776365,16043.0474225649
4204075606,28346,2,0,-9250.6253543067,42398.4977596001,11714.3284393192,30134.2380946712,50533.2479736684,13797.8396694020,45885.4554766347,57384.7928807893,60279.2689364244,16046.2596945262
4204086541,28347,2,0,-9247.9362933088,42402.5982734294,11717.9787483661,30136.4526154930,50535.4381590966,13798.2777064876,45887.3171342486,57389.9154811518,60284.2941952123,16046.0893467706
4204086541,28347,2,0,-9248.1066410644,42403.2066582706,11717.5407112804,30135.2723489012,50539.0154619625,13791.1474361494,45904.2302328325,57391.3999401642,60282.4690406888,16046.1623529516
4204086541,28347,2,0,-9250.3820003702,42399.7388646760,11717.0296680139,30132.5346171160,50535.8031900013,13794.4205465948,45896.5159130468,57386.4963583445,60278.3198560722,16044.6413908487
4204086541,28347,2,0,-9249.0922245070,42398.7897843238,11719.8769090704,30134.2380946712,50536.3994071456,13797.5476446783,45886.3802215932,57386.1313274398,60280.4248676226,16042.5607146920
4204086541,28347,2,0,-9250.6740250940,42400.8217896933,11717.9665806692,30135.8442306519,50539.5751760164,13793.7878263600,45901.7236872870,57389.3557670979,60281.0454201606,16040.8085663495
4204086541,28347,2,0,-9254.6528619551,42398.9966351698,11715.4478674269,30131.2691766464,50536.6305933852,13794.5178881693,45901.7115195901,57384.9875639385,60280.0963398084,16043.4854596505
4204086541,28347,2,0,-9255.2977498867,42397.1714806464,11718.7939840532,30128.9329788564,50531.0821236340,13799.5309792604,45884.1900361651,57381.2764164075,60279.9868305370,16047.5251349958
4204086541,28347,2,0,-9254.5433526837,42397.5973500352,11721.9819206208,30129.3466805484,50530.4494033992,13793.1672738220,45894.2527214377,57383.7221234689,60282.6150530507,16050.2750344777
4204123475,28348,2,0,-9258.7777111781,42392.3409050077,11717.8935744883,30126.4751040982,50525.6553308509,13784.4795382904,45898.7182661717,57381.5562734344,60278.3928622532,16048.9122524336
4204123475,28348,2,0,-9264.5208640785,42383.4949894174,11713.8538991431,30119.3448337599,50512.4533797980,13781.4132786910,45874.2368601639,57369.9604583622,60269.9606483549,16044.5927200614
4204123475,28348,2,0,-9262.1481631980,42385.0159515203,11715.5087059110,30122.3989256625,50513.8039941454,13786.4385374789,45875.8551638414,57374.2556553407,60271.4816104577,16045.4687942327
4204123475,28348,2,0,-9255.2612467962,42391.0146260540,11716.5186247473,30128.3124263185,50523.7571701465,13788.9085799340,45896.8201054673,57381.1425717424,60274.7425532063,16047.4886319053
4204123475,28348,2,0,-9254.1904894758,42392.1583895553,11717.9909160629,30129.1763327929,50525.1442875844,13790.4538774305,45888.8015932610,57381.8969689455,60276.3486891869,16043.9356644330
4204123475,28348,2,0,-9257.6217799799,42393.1439729980,11720.8989956036,30128.1785816534,50524.8522628606,13785.1609293125,45881.4888074704,57383.1259063246,60276.2513476123,16040.5530447162
4204123475,28348,2,0,-9265.0440750419,42390.0047072177,11717.4677050995,30123.9198877654,50525.4241446113,13780.0991674342,45895.9196959024,57384.2696698259,60274.4748638762,16040.0906722369
4204123475,28348,2,0,-9267.4046082255,42386.9749507088,11722.4929638874,30120.5494357454,50523.7693378434,13781.7539742021,45893.0967902395,57382.7730431167,60275.5212858029,16045.7243158660
4204153505,28349,2,0,-9269.6191290473,42385.8798579947,11726.0824344501,30115.4146676861,50519.9243456473,13785.7814818505,45878.9214234408,57381.8239627645,60277.4194465073,16049.4597987906
4204153505,28349,2,0,-9267.3194343478,42390.0290426113,11727.1653594674,30118.1402317745,50523.8180086307,13782.8977377034,45893.3036410855,57385.7419611415,60279.0985886689,16049.4841341842
4204153505,28349,2,0,-9268.1711731254,42388.7757698386,11725.8147451200,30118.9311320680,50523.4286423323,13782.7395576447,45897.5866703672,57385.5716133860,60277.9426574707,16049.5814757588
4204153505,28349,2,0,-9271.6511344168,42385.4539886059,11725.8634159073,30115.4146676861,50518.8170852364,13781.9364896544,45876.2080270493,57379.0132247984,60274.7790562967,16045.7364835628
4204153505,28349,2,0,-9274.7660648034,42385.9406964788,11725.9972605724,30116.7652820335,50520.2893765520,13780.6345460944,45878.0210138759,57381.4102610725,60274.8763978713,16045.2132725994
4204153505,28349,2,0,-9273.3911150624,42389.5301670416,11724.5006338632,30118.4930949823,50525.2416291589,13782.9950792780,45891.8191820731,57382.2863352438,60275.0224102332,16049.2529479446
4204153505,28349,2,0,-9268.0129930667,42392.9127867584,11728.7593277512,30120.0505601757,50528.2348825774,13795.2236145851,45882.6204032750,57382.7365400262,60276.0079936759,16053.2439525025
4204153505,28349,2,0,-9265.6037890957,42395.7965309054,11733.1275309106,30121.9365531832,50529.4029814724,13791.2691131176,45878.6415664139,57386.4111844668,60281.3374448843,16049.6788173334
4204171864,28350,2,0,-9268.6700486951,42391.8663648316,11730.3411283382,30119.9897216916,50527.9428578536,13781.3524402069,45891.4784865621,57386.4841906477,60277.0300802090,16045.2619433867
4204171864,28350,2,0,-9271.9918299278,42384.8577714616,11727.9684274577,30114.3560780625,50520.2407057647,13777.0815786221,45880.6249009960,57378.8672124365,60270.2283376850,16041.9523298508
4204171864,28350,2,0,-9272.7948979181,42384.7725975838,11730.9738485730,30113.9423763706,50517.3447939209,13783.7251410874,45870.5013772393,57377.1272317909,60270.5933685897,16042.8284040221
4204171864,28350,2,0,-9270.0449984361,42390.1872226700,11733.2735432725,30117.7873685666,50523.8058409338,13784.8932399824,45888.1932084199,57381.6292796154,60274.5478700571,16042.5607146920
4204171864,28350,2,0,-9270.3005200694,42389.3111484988,11734.1861205342,30116.5705988843,50522.6255743420,13782.0946697131,45889.7263382196,57380.6193607790,60275.1562548983,16046.1501852548
4204171864,28350,2,0,-9274.3036923242,42382.7892630017,11733.1031955170,30113.4313331040,50515.2154469768,13783.7129733906,45869.0899244078,57374.1461460692,60271.4816104577,16047.5129672989
4204171864,28350,2,0,-9272.8557364022,42385.8068518138,11733.6385741772,30115.5850154417,50521.6278232025,13785.1487616157,45878.3738770837,57381.3980933757,60276.2635153091,16050.3480406587
4204171864,28350,2,0,-9271.9796622310,42389.1773038337,11733.8697604168,30118.0672255935,50528.9892797804,13784.3213582317,45894.5934169487,57386.0583212589,60277.9548251675,16053.3169586835
4204203942,28351,2,0,-9274.3645308083,42387.5590001563,11735.5975733657,30114.7211089672,50525.8378463033,13779.9409873755,45880.4667209373,57381.0573978647,60275.5577888934,16052.3800460281
4204203942,28351,2,0,-9273.8656552385,42390.2480611541,11739.8684349505,30114.5020904244,50527.9428578536,13784.0901719921,45880.0651869421,57381.8361304613,60276.2513476123,16048.7540723749
4204203942,28351,2,0,-9271.8823206564,42392.6450974283,11741.9491111073,30114.0032148547,50532.4327379813,13775.1347471304,45894.3987337996,57382.4323476057,60275.0345779300,16044.9334155725
4204203942,28351,2,0,-9276.3478653904,42385.1011253980,11737.7512557033,30107.5786709322,50525.5336538827,13766.5321854766,45878.3860447806,57374.9613817564,60267.8434691077,16042.5120439047
4204203942,28351,2,0,-9279.3897895961,42379.2849663167,11734.3929713802,30104.1108773376,50518.5980666936,13769.2577495649,45866.0723355958,57370.3498246605,60262.4653471119,16040.5652124130
4204203942,28351,2,0,-9272.8800717959,42387.0236214961,11737.8120941875,30109.7566886635,50526.5435727190,13776.4001876000,45886.8790971630,57378.7820385588,60264.9353895670,16044.3980369123
4204203942,28351,2,0,-9267.1612542891,42391.8785325284,11743.8107687212,30112.9202898374,50530.9482789689,13778.4808637567,45891.1864618383,57379.7432866078,60266.6632025158,16047.6954827513
4204203942,28351,2,0,-9267.7696391302,42391.5013339269,11748.3128165457,30110.8031105902,50528.1497086996,13778.2253421234,45874.0908478021,57378.3196660795,60267.2715873570,16048.9730909177
4204242185,28352,2,0,-9270.8237310328,42392.4869173696,11746.0982957239,30109.9027010253,50528.4295657266,13771.8616366850,45883.1436142383,57378.8063739524,60267.5271089903,16047.8779982036
4204242185,28352,2,0,-9275.1797664954,42386.6707582882,11740.8053476059,30102.4804059633,50524.2560457163,13763.2712427280,45885.6988305712,57374.7666986072,60262.6965333516,16045.0672602375
4204242185,28352,2,0,-9274.6687232288,42383.6166663856,11742.7400114008,30099.0734508529,50520.6665751535,13772.9323940054,45870.0998432441,57371.0433833794,60262.2584962659,16041.4047834938
4204242185,28352,2,0,-9270.3613585535,42391.0632968413,11749.9067848295,30106.9946214847,50529.9505278294,13780.6345460944,45878.3252062965,57380.4733484172,60269.8268036898,16040.5895478067
4204242185,28352,2,0,-9266.4068570861,42396.3075741720,11753.6057646636,30113.0297991088,50537.4214936787,13775.9621505144,45896.7227638927,57388.7960530441,60272.6010385654,16045.3349495676
4204242185,28352,2,0,-9267.1125835018,42391.3431538682,11755.7229439108,30108.6129251621,50530.1573786754,13772.7620462499,45880.6127332992,57382.2498321533,60268.5735309170,16046.6855639150
4204242185,28352,2,0,-9265.8106399417,42391.6108431983,11760.5291841559,30107.7003479004,50527.3953114966,13773.4191018784,45874.5410525845,57382.6635338453,60268.9872326090,16047.5129672989
4204242185,28352,2,0,-9264.3870194135,42396.0520525387,11761.3687552367,30109.3916577588,50535.0609604951,13767.1892411050,45893.1089579363,57385.5837810828,60268.2936738901,16050.2020282968
4204277274,28353,2,0,-9267.7574714334,42392.7181036092,11758.4606756960,30103.9161941885,50533.2358059716,13768.0044767922,45886.6965817106,57379.9501374538,60266.3225070048,16049.7396558175
4204277274,28353,2,0,-9270.2275138885,42389.6518440098,11758.7770358134,30098.7084199482,50525.4606477018,13767.1527380145,45868.8344027746,57372.9415440838,60263.2440797086,16044.9455832693
4204277274,28353,2,0,-9271.8944883532,42389.7613532812,11756.9640489868,30100.9837792541,50523.4773131196,13760.5213432460,45880.6005656023,57374.2313199470,60262.3193347500,16042.0010006381
4204277274,28353,2,0,-9275.4717912192,42387.4373231880,11755.5039253680,30098.6110783737,50522.9541021562,13762.7236963710,45884.1535330746,57371.7856128856,60259.2165720602,16044.3006953377
4204277274,28353,2,0,-9278.9760879042,42384.9551130362,11758.1199801849,30098.2703828626,50521.4209723565,13763.5024289677,45871.1949359582,57368.4273285625,60257.5739329891,16045.2741110835
4204277274,28353,2,0,-9276.7980701729,42386.7072613787,11759.0568928403,30099.9495250242,50525.1929583716,13761.2757404491,45881.0264349912,57374.3164938248,60258.4256717667,16045.6026388977
4204277274,28353,2,0,-9276.5303808428,42383.5558279015,11755.2605714316,30095.9463527694,50524.2317103226,13755.9949600279,45889.0084441070,57372.2479853649,60254.6536857516,16041.0154171955
4204277274,28353,2,0,-9277.7958213123,42378.3358859645,11756.3921672361,30089.1324425486,50514.6313975293,13755.8611153629,45870.0268370632,57364.3146470363,60253.6559346121,16034.8828979967
4204304191,28354,2,0,-9275.8246544270,42382.1200396764,11759.9207993147,30093.4398072239,50514.6070621357,13764.4636770167,45871.3287806233,57369.5345889734,60259.4599259967,16037.9126545056
4204304191,28354,2,0,-9270.4221970376,42388.4350743275,11761.7702892318,30097.7350042024,50521.8225063517,13757.2360651039,45891.7096728017,57373.9027921328,60260.0561431410,16040.5530447162
4204304191,28354,2,0,-9268.2928500936,42387.3156462198,11765.2015797359,30097.0171100898,50523.0879468213,13762.3099946790,45886.8304263757,57371.7856128856,60260.5793541044,16043.4976273474
4204304191,28354,2,0,-9265.4821121275,42388.4594097212,11774.0474953262,30096.8710977280,50523.4408100291,13769.9269728902,45876.1958593524,57374.2069845534,60265.4707682272,16050.0681836317
4204304191,28354,2,0,-9265.9079815163,42391.8176940443,11779.4377850187,30097.3456379041,50528.6850873598,13769.0022279316,45889.1179533784,57376.5188469497,60269.8876421739,16056.5900691288
4204304191,28354,2,0,-9268.6943840888,42389.4693285575,11778.5738785443,30092.0161866956,50523.7693378434,13765.1085649483,45886.1490353536,57372.4426685140,60265.8236314351,16054.5093929721
4204304191,28354,2,0,-9268.8403964507,42388.6784282640,11779.9853313758,30087.7574928076,50517.9410110652,13760.6430202143,45866.9362420702,57366.5535032517,60261.3580867010,16046.2231914357
4204304191,28354,2,0,-9265.3239320688,42389.5788378289,11774.8262279228,30087.6358158394,50517.8923402779,13754.8755319202,45874.5167171909,57366.6508448263,60255.7122753752,16037.4381143295
4204336727,28355,2,0,-9261.8926415648,42390.7591044207,11770.8352233649,30089.3879641819,50520.9951029677,13756.1531400866,45885.1877873046,57365.8842799265,60255.1160582309,16037.0244126376
4204336727,28355,2,0,-9264.5086963817,42387.3278139166,11771.4922789934,30088.5362254043,50516.7242413829,13765.7412851831,45867.2160990971,57361.9054430654,60255.9921324021,16034.6517117571
4204336727,28355,2,0,-9263.7664668755,42392.9492898488,11780.5085423392,30094.8390923585,50525.3024676431,13771.8494689882,45875.5753068145,57369.7171044257,60265.3125881685,16038.5332070436
4204336727,28355,2,0,-9265.4821121275,42399.7145292824,11786.3733722078,30098.2217120753,50534.9271158300,13763.8796275692,45896.2725591103,57376.3606668910,60266.3225070048,16042.5607146920
4204336727,28355,2,0,-9268.0738315508,42394.7014381913,11788.3810421836,30091.7484973655,50531.0456205435,13757.9417915196,45883.6789928986,57369.3642412178,60260.6036894980,16044.5683846678
4204336727,28355,2,0,-9267.8183099175,42392.8276128806,11790.1575259198,30090.0085167198,50525.9473555747,13758.7935302972,45874.3950402226,57366.1276338629,60260.3968386520,16046.1988560421
4204336727,28355,2,0,-9261.6736230219,42394.7622766755,11791.2282832402,30094.7539184808,50529.5246584406,13761.9206283807,45890.1157045179,57370.8365325334,60264.1444892735,16050.4818853237
4204336727,28355,2,0,-9257.6339476767,42395.5896800594,11791.8001649909,30097.1266193613,50526.3975603571,13757.2847358911,45887.3779727327,57369.3764089146,60260.9687204027,16049.5449726684
4204391732,28356,2,0,-9259.6902884398,42391.7203524697,11789.3422902326,30092.1256959670,50521.2992953883,13750.9453658464,45874.7722388242,57366.6873479168,60257.7199453510,16041.8428205794
4204391732,28356,2,0,-9261.4181013887,42391.4526631396,11788.1498559440,30091.5051434291,50522.4673942833,13746.4919888092,45889.1057856816,57368.8045271640,60254.6415180548,16038.6548840118
4204391732,28356,2,0,-9264.5330317753,42388.1795526942,11783.1367648529,30085.7254874382,50520.4597243075,13744.1557910192,45892.6952562443,57365.9329507138,60253.0597174678,16039.4822873958
4204391732,28356,2,0,-9268.4753655460,42382.8987722731,11781.5914673564,30080.8462410122,50513.0861000328,13749.2175528975,45871.8033207994,57361.3943997988,60253.5829284312,16038.9104056451
4204391732,28356,2,0,-9270.6898863677,42383.6531694761,11785.8136581540,30082.3793708119,50514.4367143802,13750.4221548830,45876.0863500810,57365.9329507138,60257.2940759622,16040.3461938702
4204391732,28356,2,0,-9267.8548130080,42388.2403911784,11792.5910652843,30084.5817239368,50521.2019538137,13755.0093765853,45895.0801248216,57371.4327496777,60260.2264908965,16045.3349495676
4204391732,28356,2,0,-9268.8768995411,42386.1718827185,11797.5433178913,30080.1161792028,50517.7949987033,13752.2351417096,45882.7785833337,57365.4584105377,60258.7055287936,16045.1646018121
4204391732,28356,2,0,-9268.9864088125,42386.0380380534,11800.9746083954,30078.0355030461,50514.5097205611,13749.9719501006,45878.0818523600,57362.8180203271,60257.2575728717,16044.8117386042
4204419086,28357,2,0,-9269.3392720204,42387.9118633641,11800.4879005224,30077.8773229874,50516.0063472703,13744.5086542271,45892.9386101808,57364.2294731585,60255.8947908275,16044.6657262424
4204419086,28357,2,0,-9272.2230161674,42382.7649276080,11799.2102923560,30073.1319212264,50509.7399834065,13743.9976109605,45881.8416706783,57358.6688357105,60250.7356873746,16041.1492618605
4204419086,28357,2,0,-9270.3248554630,42385.0281192171,11804.9047744692,30077.6096336573,50510.6768960619,13755.2040597344,45870.6473896012,57361.2362197401,60252.8528666218,16041.2466034351
4204419086,28357,2,0,-9265.2144227974,42394.4580842549,11811.6578462059,30083.7664882497,50521.9076802295,13757.4307482530,45889.6654997354,57372.2966561522,60260.9200496154,16046.7220670054
4204419086,28357,2,0,-9266.8083910812,42392.9736252425,11812.8867835850,30081.7344828802,50522.8932636721,13753.1842220618,45890.9309402050,57369.8631167876,60262.3558378405,16050.0803513286
4204419086,28357,2,0,-9270.6533832773,42385.8676902979,11813.9453732086,30073.8254799453,50513.4389632407,13748.8525219928,45866.8997389797,57361.7594307035,60259.4355906030,16046.6490608245
4204419086,28357,2,0,-9270.2518492821,42383.8843557157,11811.5848400250,30071.2702636125,50512.0396781060,13745.5794115475,45868.4450364762,57361.4795736766,60256.0286354926,16043.5341304378
4204419086,28357,2,0,-9268.8768995411,42386.2327212026,11808.1535495209,30071.9881577251,50517.2839554367,13744.7033373762,45882.3770493385,57362.4651571192,60254.1183070914,16044.0451737044
4204431943,28358,2,0,-9272.4663701039,42386.3665658676,11808.7497666652,30071.2702636125,50514.4610497738,13749.5095776213,45868.4085333858,57359.5814129722,60251.6482646363,16042.9379132935
4204431943,28358,2,0,-9270.3005200694,42390.1628872764,11816.5249249351,30077.9016583810,50517.7949987033,13752.2838124969,45871.5843022565,57362.9762003858,60255.0552197468,16042.2686899682
4204431943,28358,2,0,-9263.2310882153,42397.4391699765,11824.9328034397,30083.4257927386,50522.7594190071,13750.6655088195,45893.4374857505,57369.8752844844,60257.6591068669,16044.8239063011
4204431943,28358,2,0,-9263.0729081566,42395.7113570276,11829.7877144721,30082.0995137849,50519.3037931093,13755.1067181598,45885.5284828156,57368.1839746260,60257.4644237177,16046.6247254309
4204431943,28358,2,0,-9263.5717837263,42394.9812952183,11832.5984524382,30082.8295755943,50518.2330357889,13749.9354470101,45877.9601753918,57367.4174097262,60257.0263866321,16049.5571403652
4204431943,28358,2,0,-9266.3581862988,42394.6405997072,11827.1838273520,30080.5055455011,50520.3623827329,13740.9800221484,45892.2693868556,57367.8676145086,60254.5320087834,16050.8955870157
4204431943,28358,2,0,-9271.3834450866,42387.8510248800,11822.3045809260,30073.2049274074,50514.1690250501,13735.7844156050,45885.5528182093,57360.2263009038,60249.4094084209,16047.8779982036
4204431943,28358,2,0,-9276.9684179284,42381.5724933194,11823.8985492098,30068.5325318273,50504.6295507409,13738.8506752044,45866.1818448672,57355.3348867810,60247.8154401371,16040.7112247749
4204462399,28359,2,0,-9280.3145345547,42382.8622691826,11826.6362809949,30070.0169908397,50507.5132948879,13742.2211272243,45876.0011762033,57361.0537042878,60252.8163635313,16037.8153129310
4204462399,28359,2,0,-9279.5966404421,42384.2250512268,11830.9071425798,30072.6208779598,50511.4556286586,13745.6767531221,45883.9710176223,57363.3412312905,60255.2012321086,16040.3340261734
4204462399,28359,2,0,-9275.8368221238,42386.4882428359,11839.0960025416,30072.9494057741,50512.1613550743,13752.8435265508,45870.1120109410,57363.1830512318,60257.4765914145,16043.1812672300
4204462399,28359,2,0,-9268.6943840888,42395.4193323039,11847.9784212224,30080.5542162884,50520.0581903124,13757.1508912261,45880.1381931231,57372.7346932378,60264.0836507894,16052.3922137249
4204462399,28359,2,0,-9261.6006168410,42400.8582927837,11852.3709597755,30082.9877556530,50526.2880510857,13753.3910729078,45899.0832970764,57376.4701761624,60267.7826306236,16059.9118503615
4204462399,28359,2,0,-9263.7908022691,42393.6671839614,11853.3443755213,30076.0034976766,50517.9410110652,13746.1999640854,45879.1647773772,57368.5125024402,60263.3779243736,16057.3566340287
4204462399,28359,2,0,-9270.7993956391,42388.9461175941,11850.8499976726,30071.2094251284,50513.6944848740,13739.2522091995,45866.8510681924,57363.0005357794,60259.2044043634,16049.5206372747
4204462399,28359,2,0,-9271.5172897517,42389.2868131051,11846.9806700829,30068.5325318273,50515.9576764830,13733.9714287784,45881.0751057784,57364.6188394569,60256.5396787592,16044.2763599440
4204509406,28360,2,0,-9269.5217874727,42385.4053178186,11844.8634908357,30067.4739422037,50514.9964284340,13735.9912664510,45875.4536298462,57360.9076919259,60253.2909037074,16038.9347410388
4204509406,28360,2,0,-9266.3703539956,42384.3102251045,11849.1343524206,30068.8488919447,50510.8594115142,13741.3937238404,45862.2273433997,57358.9851958279,60254.8240335071,16036.6958848233
4204509406,28360,2,0,-9263.6812929977,42387.8145217896,11854.2934558735,30075.6628021656,50515.9211733926,13742.4766488576,45878.6537341107,57365.1907212076,60257.4157529304,16041.8428205794
4204509406,28360,2,0,-9263.1215789439,42389.7978563717,11856.0821073065,30076.5510440337,50516.5417259305,13745.3482253078,45886.0760291727,57364.3876532172,60258.1823178303,16048.7662400717
4204509406,28360,2,0,-9268.4023593650,42387.9727018483,11860.7910059769,30073.8011445517,50511.5894733236,13746.5893303838,45869.6496384617,57359.2407174611,60257.1967343876,16050.0925190254
4204509406,28360,2,0,-9271.6511344168,42388.8974468068,11862.7013343781,30071.3554374903,50513.5484725121,13743.6204123590,45872.4360410342,57361.5282444639,60257.5130945050,16049.1312709764
4204509406,28360,2,0,-9272.6002147689,42386.7194290755,11859.7080809597,30066.0868247659,50513.3659570598,13741.9899409847,45878.8849203503,57360.9685304100,60256.9777158448,16050.5183884142
4204509406,28360,2,0,-9273.3181088815,42379.0172769866,11858.2114542505,30059.1269021832,50504.7268923155,13741.5154008086,45857.9199787244,57352.8161735386,60254.9457104753,16046.7220670054
4204525416,28361,2,0,-9274.7417294098,42377.7153334265,11860.4503104659,30058.9808898213,50500.1518383100,13736.1129434192,45852.1159873398,57351.7332485214,60253.6559346121,16042.5485469952
4204525416,28361,2,0,-9274.2306861432,42378.1046997248,11861.2898815467,30059.5284361784,50502.0013282271,13732.9128391548,45866.6685527401,57353.0716951719,60250.8086935555,16043.0839256554
4204525416,28361,2,0,-9273.7196428767,42379.6256618277,11865.5850785252,30060.4531811369,50502.3055206477,13740.1891218549,45859.5869531891,57350.8936774406,60249.4215761177,16045.1159310248
4204525416,28361,2,0,-9269.9476568615,42381.1709593242,11869.4909092053,30063.2760867998,50500.8940678162,13742.6104935227,45850.3516713005,57350.9666836215,60250.2489795017,16048.8635816463
4204525416,28361,2,0,-9271.7971467786,42381.3048039893,11867.9212763152,30063.4707699490,50501.1252540559,13730.1021011887,45863.2737653265,57352.2321240911,60249.2390606654,16048.3647060765
4204525416,28361,2,0,-9283.7093219683,42372.2277021594,11864.4656504175,30053.9677987303,50491.0504010865,13723.1908493933,45857.0925753404,57342.2424449995,60241.6220824542,16040.8450694400
4204525416,28361,2,0,-9289.9756858321,42368.2610329951,11867.9091086184,30048.7843598837,50482.8372057310,13729.7249025872,45840.7026877199,57337.2901923926,60240.0159464736,16036.0509968917
4204525416,28361,2,0,-9286.2767059979,42374.7464154017,11875.0515466534,30053.4445877669,50490.8557179373,13733.8619195070,45855.5594455407,57347.0121821541,60245.4914100439,16033.6174575271
4204556673,28362,2,0,-9284.5610607459,42377.1191162822,11875.4530806486,30053.1403953463,50496.2095045394,13728.9461699905,45867.7393100605,57347.8274178412,60246.2944780342,16034.0311592191
4204556673,28362,2,0,-9287.7368296167,42374.1501982574,11879.0912219986,30049.1250553948,50490.2716684898,13737.3662161920,45848.5021813834,57344.1892764912,60245.2602238043,16039.6039643640
4204556673,28362,2,0,-9282.4925522860,42380.4652329085,11888.7888763665,30055.9024625251,50495.7106289697,13747.9764478216,45852.4566828509,57351.5263976754,60253.5099222502,16050.5427238078
4204556673,28362,2,0,-9275.2649403732,42387.4251554912,11891.6726205136,30062.1809940858,50506.6493884135,13746.1877963886,45874.2368601639,57360.8955242291,60257.8902931065,16054.1686974611
4204556673,28362,2,0,-9272.0891715024,42388.5932543862,11896.9534009347,30064.0669870933,50509.1559339590,13744.3991449556,45870.4648741488,57360.7251764735,60257.4035852336,16051.0659347712
4204556673,28362,2,0,-9269.4244458982,42391.1849738095,11902.6357153510,30065.4662722280,50511.1636039348,13745.4820699729,45864.1741748914,57361.8202691876,60258.5473487349,16052.0880213044
4204556673,28362,2,0,-9270.2640169789,42391.2093092032,11902.3801937177,30063.8844716410,50512.2830320425,13737.6704086126,45877.8019953331,57362.0027846399,60256.3814987005,16053.7914988596
4204556673,28362,2,0,-9275.1432634049,42383.9330265030,11901.3946102751,30056.3891703980,50505.6151341835,13734.5798136195,45869.8199862172,57356.0284454999,60251.9037862696,16053.8036665564
4204580859,28363,2,0,-9278.8057401486,42378.4575629327,11903.8889881238,30053.6149355224,50500.7602231512,13737.3175454047,45855.6202840248,57350.6868265946,60250.8573643428,16050.9564254998
4204580859,28363,2,0,-9275.4231204319,42381.1222885369,11905.1179255029,30057.3260830534,50504.9094077678,13734.5068074386,45871.9249977676,57352.9256828100,60249.3850730273,16046.4543776753
4204580859,28363,2,0,-9272.7462271308,42381.5724933194,11902.9277400748,30059.5041007847,50506.1626805406,13736.1007757224,45880.2355346977,57353.4488937734,60247.8884463180,16044.0451737044
4204580859,28363,2,0,-9273.2329350037,42377.4233087028,11903.0859201335,30058.3116664961,50499.6529627403,13741.6979162610,45862.6653804853,57350.2001187217,60247.0610429341,16040.9667464082
4204580859,28363,2,0,-9272.5393762848,42380.1123697006,11910.0215073226,30060.1733241100,50501.4051110828,13743.7055862367,45866.2305156545,57355.2010421159,60250.8573643428,16043.7896520711
4204580859,28363,2,0,-9271.7119729009,42383.6288340825,11917.3829639004,30063.5802792204,50507.4767917974,13741.8682640165,45880.8560872356,57359.1920466738,60254.4468349056,16047.4886319053
4204580859,28363,2,0,-9270.7385571550,42383.7748464443,11921.9215148154,30061.3414230050,50505.1770970979,13738.9115136885,45866.2791864417,57352.2199563943,60250.5775073159,16044.9820863598
4204580859,28363,2,0,-9267.4289436192,42386.6099198041,11925.8151777987,30064.1034901838,50509.4114555923,13737.0620237714,45861.2782630475,57353.3150491084,60250.6140104064,16043.4124534696
4204630291,28364,2,0,-9269.1810919617,42388.3255650561,11920.2910434411,30064.2129994552,50514.4245466833,13729.5667225285,45876.0863500810,57356.0892839840,60249.5067499955,16042.0375037286
4204630291,28364,2,0,-9274.0481706909,42380.2462143657,11915.2171138660,30055.8781271315,50507.3794502229,13726.0502581466,45862.6288773949,57348.8130012839,60241.9627779653,16039.3971135180
4204630291,28364,2,0,-9277.5037965886,42376.9609362235,11917.0179329957,30052.3616627497,50502.0865021049,13726.1110966308,45846.6526914663,57344.7246551514,60241.5490762733,16035.8684814394
4204630291,28364,2,0,-9276.1045114539,42380.2218789720,11919.2081184239,30054.7100282365,50504.6782215282,13724.5414637406,45863.8456470772,57350.3461310836,60241.3057223368,16036.5863755519
4204630291,28364,2,0,-9273.7561459671,42381.1831270211,11921.7024962726,30056.4865119726,50506.2113513279,13729.0435115651,45871.0002528090,57350.4069695677,60242.9970321952,16044.7752355138
4204630291,28364,2,0,-9277.5646350727,42377.7153334265,11925.7543393146,30056.0363071902,50500.1153352196,13735.1638630670,45854.1966634966,57346.9756790636,60244.8465221123,16052.1488597885
4204630291,28364,2,0,-9281.2271118164,42377.8491780916,11929.5506607234,30056.7298659091,50498.5943731167,13733.0466838198,45859.5017793114,57349.5552307901,60247.7546016530,16052.6842384487
4204630291,28364,2,0,-9284.7922469855,42376.9000977394,11931.6800076674,30054.7343636301,50498.6917146913,13727.7659033987,45869.7469800363,57348.2532872300,60245.1385468361,16048.8514139495
4204656193,28365,2,0,-9285.2911225553,42374.7099123112,11937.9950423185,30052.2643211751,50496.6110385346,13728.5203006017,45854.3426758584,57345.3452076893,60244.5179942981,16041.5021250684
4204656193,28365,2,0,-9284.6827377141,42376.6689114997,11941.1951465829,30052.2278180846,50496.5015292632,13722.9596631536,45849.7432864594,57345.3330399925,60242.0357841462,16039.9203244814
4204656193,28365,2,0,-9288.5520653038,42378.6887491723,11939.8201968419,30051.0110484023,50501.4781172637,13722.5337937648,45863.2129268424,57347.8639209317,60240.6973374957,16043.7774843743
4204656193,28365,2,0,-9289.4646425655,42376.0361912649,11942.0468853605,30050.8163652531,50499.5312857721,13726.2449412958,45853.8316325919,57344.7733259387,60239.4440647229,16049.5571403652
4204656193,28365,2,0,-9281.3487887846,42378.7860907469,11948.7026155227,30056.1701518552,50500.3830245497,13730.4792997902,45849.2444108896,57347.9369271126,60243.6540878237,16052.5382260868
4204656193,28365,2,0,-9272.3203577420,42387.4373231880,11952.5719431124,30062.3513418413,50509.3992878955,13724.9186623421,45872.2413578850,57355.1402036318,60245.4670746503,16051.5404749473
4204656193,28365,2,0,-9269.9233214679,42387.5590001563,11952.9248063203,30058.2629957088,50509.1315985654,13720.9154900874,45872.6793949706,57351.8427577928,60242.5589951096,16047.9753397782
4204656193,28365,2,0,-9268.5605394237,42387.8510248800,11956.9036431814,30057.9101325009,50504.3618614108,13728.9340022937,45856.3625135310,57349.9324293916,60242.9483614079,16051.0294316808
4204683574,28366,2,0,-9267.3559374383,42394.6040966168,11963.0726654706,30062.6920373523,50510.5795544873,13726.3909536577,45867.9583286033,57357.5494076028,60246.4039873056,16055.4828087180
4204683574,28366,2,0,-9273.6953074830,42391.8176940443,11964.7761430258,30059.3337530292,50508.6692260861,13718.2750998768,45874.0300093180,57352.0374409420,60241.7680948161,16050.7130715634
4204683574,28366,2,0,-9282.0423475035,42385.9285287820,11965.0316646591,30051.9844641481,50500.6385461830,13715.5008650012,45855.3282593011,57343.6417301341,60238.2516304343,16047.0140917292
4204683574,28366,2,0,-9281.8598320512,42387.9727018483,11967.7693964442,30051.2909054292,50501.2712664177,13713.9677352015,45857.1899169150,57343.2766992294,60238.0812826788,16047.4277934212
4204683574,28366,2,0,-9280.8012424276,42388.9096145036,11963.2795163166,30052.7145259575,50504.1915136553,13711.3151772941,45870.0268370632,57344.5664750927,60237.2052085075,16049.2164448541
4204683574,28366,2,0,-9278.1608522170,42385.0889577012,11963.7175534022,30052.8362029257,50499.7259689212,13713.2376733921,45854.3305081616,57340.3321165983,60234.6621598715,16048.7054015876
4204683574,28366,2,0,-9277.6133058600,42384.6022498283,11968.8644891583,30054.7100282365,50498.1076652438,13719.2485156226,45847.5409333344,57342.7899913565,60237.7892579550,16049.3137864287
4204683574,28366,2,0,-9275.3987850382,42391.9028679221,11973.1475184400,30061.5239384573,50505.2379355820,13722.7041415203,45869.4914584030,57349.8959263011,60241.3300577305,16047.6954827513
4204711906,28367,2,0,-9269.9233214679,42393.6063454773,11976.6518151250,30063.3855960712,50506.5520468389,13724.8213207675,45870.8664081440,57349.9689324821,60243.3255600094,16046.7220670054
4204711906,28367,2,0,-9268.7552225729,42387.6441740340,11980.1074410227,30060.3193364719,50501.7823096843,13722.3391106157,45854.9023899123,57345.0653506624,60241.5612439701,16043.1690995331
4204711906,28367,2,0,-9268.0008253699,42384.6387529188,11979.4868884847,30059.9056347799,50500.1153352196,13721.1710117207,45864.9407397912,57345.2843692052,60244.1164603029,16045.8338251374
4204711906,28367,2,0,-9269.7286383187,42381.4386486543,11981.2025337368,30056.5108473663,50497.6452927645,13721.4508687476,45867.5446269113,57343.3010346231,60244.8586898091,16049.2164448541
4204711906,28367,2,0,-9272.1621776833,42378.1898736026,11983.9402655219,30054.9533821729,50492.8633879131,13728.1065989097,45852.5053536382,57338.3852851066,60245.4549069534,16046.9410855483
4204711906,28367,2,0,-9270.7993956391,42383.1177908159,11983.8307562505,30057.3017476598,50497.6574604613,13726.0259227530,45862.5193681235,57342.6318112978,60245.8077701613,16041.5994666430
4204711906,28367,2,0,-9272.7340594340,42384.6630883124,11978.0632679564,30057.6424431708,50501.3929433860,13713.4445242381,45874.7357357337,57343.8364132833,60242.3521442636,16038.6427163150
4204711906,28367,2,0,-9277.6133058600,42376.9974393140,11974.1939403668,30052.8970414099,50493.4717727542,13708.8816379295,45854.2575019807,57335.6353856246,60235.8789295538,16030.1496639326
4204742765,28368,2,0,-9277.8566597965,42374.6247384335,11975.3863746554,30053.1403953463,50493.4231019670,13710.0862399150,45849.8284603371,57336.8156522165,60236.9618545710,16026.2803363429
4204742765,28368,2,0,-9274.0360029940,42379.1632893484,11977.2723676630,30056.1823195521,50502.3176883445,13714.2962630157,45869.9781662759,57345.4547169607,60240.0037787768,16029.4074344264
4204742765,28368,2,0,-9271.8944883532,42379.8325126737,11980.3021241719,30056.1093133711,50506.2235190247,13714.8924801600,45867.2039314003,57344.7976613323,60239.8090956276,16032.1451662116
4204742765,28368,2,0,-9271.3956127835,42382.0348657987,11987.4323945101,30055.9267979188,50506.4668729611,13720.3801114272,45858.5892020496,57347.8882563253,60243.3742307967,16035.7954752584
4204742765,28368,2,0,-9272.1256745928,42386.1475473248,11994.1489631564,30059.2972499387,50511.2974485998,13720.4409499113,45873.0079227848,57352.4754780276,60246.4769934866,16042.8162363253
4204742765,28368,2,0,-9274.6078847447,42385.8920256915,11998.3468185603,30057.3747538407,50506.0531712692,13720.8789869969,45869.4549553125,57348.3749641983,60245.3575653789,16048.3768737734
4204742765,28368,2,0,-9278.5988893027,42382.8135983953,11999.8312775727,30051.5220916689,50498.2658453025,13721.8402350459,45849.6459448848,57341.3420354346,60241.9992810557,16046.8802470641
4204742765,28368,2,0,-9275.5934681874,42387.7171802150,11998.9065326141,30053.7122770970,50500.5533723052,13716.0484113582,45859.0272391353,57345.7832447750,60240.7581759798,16043.1082610490
4204775779,28369,2,0,-9275.5813004906,42386.0988765375,11995.1223789022,30051.8506194831,50501.1739248432,13708.7964640517,45867.4351176399,57342.2911157868,60235.9276003411,16039.9933306624
4204775779,28369,2,0,-9276.3965361777,42380.9397730846,11996.3999870686,30048.9060368519,50495.5524489110,13712.0939098907,45847.4435917598,57336.3289443435,60231.9974342673,16039.6648028481
4204775779,28369,2,0,-9274.4132015956,42385.5026593932,12000.2936500520,30054.9898852634,50499.1662548674,13717.2895164341,45851.0452300194,57341.6462278552,60237.4972332312,16045.3106141740
4204775779,28369,2,0,-9267.7209683429,42394.2025626216,12005.7569459255,30061.6334477287,50509.5696356510,13722.2539367379,45872.4117056405,57351.1735344675,60243.1673799507,16050.3237052650
4204775779,28369,2,0,-9264.6668764404,42398.7776166270,12014.2378306111,30064.7240427218,50513.1469385169,13728.3256174525,45867.0822544321,57351.5020622817,60246.2823103374,16049.5206372747
4204775779,28369,2,0,-9270.3978616440,42398.0110517272,12015.5154387775,30062.4000126286,50509.6426418319,13718.7131369624,45858.4188542941,57349.3727153377,60242.5954982001,16044.6413908487
4204775779,28369,2,0,-9275.8733252143,42390.7347690271,12008.1783175932,30056.5716858504,50505.8949912105,13705.0123103398,45865.8776524466,57346.2577849511,60234.6743275683,16039.2511011562
4204775779,28369,2,0,-9281.0810994545,42381.3169716861,12002.7393571134,30046.5820067588,50495.8931444220,13702.6761125498,45857.1899169150,57337.1685154243,60229.1745286044,16035.0532457522
4204806308,28370,2,0,-9283.5389742128,42376.9974393140,12005.8177844096,30041.2768909440,50489.6024451645,13707.0199803156,45838.7436885314,57331.9850765778,60227.0330139635,16031.8044707005
4204806308,28370,2,0,-9279.8278266818,42381.0249469624,12008.7623670407,30042.9073623182,50495.2239210967,13708.2854207852,45852.0673165525,57335.7813979865,60229.6003979932,16032.7535510527
4204806308,28370,2,0,-9275.7759836397,42386.5369136231,12014.0066443714,30047.2755654777,50501.7336388970,13714.2232568347,45864.1255041041,57338.3852851066,60230.7198261009,16040.1636784179
4204806308,28370,2,0,-9273.2816057910,42387.6198386404,12022.9133984458,30049.2223969693,50503.2180979094,13719.3945279845,45848.4900136866,57338.7138129208,60233.9199303653,16045.6148065946
4204806308,28370,2,0,-9271.5294574485,42390.9537875699,12028.7903960113,30052.5685135956,50507.8296550053,13716.7054669866,45850.9600561417,57343.7025686182,60237.1322023266,16047.8049920227
4204806308,28370,2,0,-9272.1013391992,42392.5842589441,12028.5713774685,30053.3350784955,50511.7841564728,13711.4855250496,45864.8555659135,57344.5786427895,60236.9131837837,16047.3791226339
4204806308,28370,2,0,-9273.8656552385,42387.2426400389,12027.1477569402,30048.5775090377,50504.4470352885,13708.4679362375,45849.8649634276,57335.6475533215,60231.7662480276,16041.2222680415
4204806308,28370,2,0,-9274.4740400797,42386.0988765375,12026.4055274340,30048.0299626807,50499.8111427990,13709.8063828880,45846.6770268600,57334.1144235218,60231.8149188149,16036.0996676790
4204835620,28371,2,0,-9275.7394805493,42386.1718827185,12023.5217832870,30048.8695337615,50502.0986698017,13708.0907376360,45865.3787768768,57336.6453044609,60232.0096019641,16034.2988485492
4204835620,28371,2,0,-9279.1951064470,42380.9154376909,12023.3757709251,30046.3873236096,50494.9805671603,13709.0763210786,45860.0371579716,57331.0116608319,60228.2984544331,16036.2091769504
4204835620,28371,2,0,-9279.6453112294,42381.7063379844,12033.7669840119,30049.2832354534,50493.2405865146,13716.0970821455,45850.0961496672,57331.8633996095,60234.5891536906,16041.1005910732
4204835620,28371,2,0,-9278.5623862122,42388.2647265720,12040.6052296264,30055.1602330189,50500.9184032099,13717.1800071627,45869.2237690729,57340.1861042364,60238.4219781898,16047.2939487561
4204835620,28371,2,0,-9277.4429581045,42387.7050125181,12042.8075827513,30053.6757740065,50504.5443768631,13710.4999416069,45874.4072079195,57339.0666761287,60238.8721829722,16048.1700229274
4204835620,28371,2,0,-9277.8688274933,42380.1853758816,12044.0730232209,30049.1372230916,50494.1044929890,13707.0808187997,45849.4999325229,57330.5249529590,60234.4674767223,16044.3737015186
4204835620,28371,2,0,-9276.3600330872,42377.6788303360,12047.1879536076,30049.2954031503,50491.9021398641,13704.6472794351,45853.7464587141,57330.6466299272,60233.9564334558,16044.7509001201
4204835620,28371,2,0,-9280.0468452246,42373.8338381400,12043.2091167465,30046.9105345730,50490.3933454580,13697.9185430920,45861.8744801918,57326.9476500931,60230.1236089565,16042.9500809903
4204867788,28372,2,0,-9286.2523706043,42369.0275978949,12044.4988926097,30042.6153375945,50483.9201307482,13697.2371520699,45846.9568838869,57321.4478511291,60223.9302512737,16040.1515107211
4204867788,28372,2,0,-9285.8751720028,42368.3097037824,12046.3727179204,30040.5103260441,50484.0661431101,13692.3335702503,45847.2610763075,57321.2653356767,60219.8905759285,16039.1294241879
4204867788,28372,2,0,-9283.1496079144,42370.3903799391,12048.4168909867,30041.6662572423,50489.2982527440,13692.5404210963,45868.7735642904,57327.3735194819,60220.5841346474,16042.9744163840
4204867788,28372,2,0,-9282.4560491955,42368.3340391760,12050.8625980481,30041.5202448804,50489.2252465630,13700.2547408820,45861.3147661380,57324.6236199999,60221.1316810044,16040.3218584766
4204867788,28372,2,0,-9275.9706667889,42374.3205460129,12055.9730307137,30049.6239309645,50494.1409960795,13710.4269354260,45857.8713079371,57328.6024568610,60228.0064297094,16042.8649071126
4204867788,28372,2,0,-9268.0129930667,42384.0060326840,12059.1487995845,30058.6036912198,50504.9824139487,13708.4192654502,45877.8993369077,57337.1076769402,60233.9199303653,16050.2993698714
4204867788,28372,2,0,-9270.3978616440,42381.4751517448,12056.6787571295,30053.7366124906,50502.7557254301,13696.8964565589,45874.7479034305,57330.8778161669,60228.1402743744,16050.1533575095
4204867788,28372,2,0,-9279.4506280803,42370.2443675772,12053.2109635349,30042.9195300150,50490.7218732723,13692.1632224948,45848.4535105961,57321.7277081560,60221.5210473027,16043.0352548681
4204899547,28373,2,0,-9286.8485877486,42366.8739155573,12051.8603491876,30038.5269914620,50486.9985580444,13691.7130177123,45853.2475831444,57319.7930443612,60219.4525388428,16036.9757418503
4204899547,28373,2,0,-9286.1306936361,42367.7378220317,12053.9531930411,30038.3323083128,50488.2639985140,13697.8090338206,45860.2075057271,57320.2432491436,60219.1240110286,16039.2145980657
4204899547,28373,2,0,-9284.7314085014,42371.4489695627,12062.9572886901,30042.7248468659,50489.5416066804,13713.8095551428,45848.2588274470,57320.7907955006,60224.0032574546,16045.3471172644
4204899547,28373,2,0,-9275.8733252143,42383.0326169381,12072.3629183342,30052.4590043242,50499.2757641388,13723.6775572662,45858.6622082306,57331.6687164603,60233.8347564875,16052.0271828202
4204899547,28373,2,0,-9272.2838546515,42386.6950936818,12072.3385829406,30055.8172886474,50504.8485692837,13712.4954438859,45875.2467790002,57334.9296592089,60234.5161475096,16051.9785120330
4204899547,28373,2,0,-9276.7007285983,42379.5039848595,12066.9969640353,30051.9966318450,50498.2536776057,13710.1105753086,45859.6599593701,57326.3879360392,60229.1745286044,16049.6544819398
4204899547,28373,2,0,-9279.5723050485,42374.9167631572,12062.0447114284,30050.0619680501,50492.5835308862,13710.7432955434,45848.4656782930,57323.4555211049,60226.3151198510,16044.4953784868
4204899547,28373,2,0,-9280.2415283737,42377.3503025218,12058.0415391736,30051.8506194831,50499.5677888625,13714.6247908299,45866.6685527401,57330.8169776827,60228.4809698854,16044.2155214599
4204929783,28374,2,0,-9280.2415283737,42376.4012221696,12053.0527834762,30049.5752601772,50498.4240253612,13715.8293928154,45864.5513734929,57329.0526616434,60227.7995788634,16045.3349495676
4204929783,28374,2,0,-9279.2802803247,42371.8626712547,12044.4137187320,30043.4914117657,50488.8358802647,13719.3580248940,45847.2245732170,57325.1468309633,60227.0816847508,16043.1325964427
4204929783,28374,2,0,-9275.1554311018,42371.8383358610,12031.1874322854,30045.5720879225,50490.6853701818,13725.1620162786,45861.4729461967,57333.8832372821,60231.0483539151,16043.9721675235
4204929783,28374,2,0,-9273.8656552385,42369.5873119488,12012.4735145717,30046.7888576047,50490.7340409691,13733.9714287784,45868.1286763588,57335.8300687738,60232.0339373577,16043.9113290393
4204929783,28374,2,0,-9275.4717912192,42368.0541821491,11994.5870002420,30048.2124781330,50486.6821979270,13745.8471008776,45851.9821426748,57334.4307836392,60234.4309736319,16042.8649071126
4204929783,28374,2,0,-9275.1797664954,42372.1181928880,11973.4638785574,30052.0696380259,50491.7682951990,13749.1567144134,45859.9519840938,57341.4637124028,60239.6509155689,16043.1447641395
4204929783,28374,2,0,-9273.1842642164,42376.1091974459,11947.0599764516,30055.6591085887,50496.2703430235,13757.5037544340,45875.4049590589,57348.2046164427,60244.6031681758,16044.8725770884
4204929783,28374,2,0,-9268.9255703284,42375.1722847905,11921.4469746393,30057.6667785645,50492.8025494290,13769.3307557459,45861.0349091111,57347.8882563253,60247.9127817117,16047.6346442672
4204984843,28375,2,0,-9263.7177960882,42379.1146185612,11895.4932773160,30066.6830419103,50493.9828160208,13774.7088777416,45860.2440088176,57355.3713898714,60255.8826231307,16050.9564254998
4204984843,28375,2,0,-9263.0972435502,42380.6112452704,11863.7234209113,30072.9980765614,50496.3433492045,13769.4159296236,45877.3517905506,57359.2893882484,60253.6559346121,16050.6278976856
4204984843,28375,2,0,-9265.8471430322,42377.9951904534,11833.3771850348,30074.5433740579,50490.2838361866,13770.1338237362,45868.6762227159,57351.6845777341,60248.3143157068,16045.5174650200
4204984843,28375,2,0,-9265.0684104355,42378.7617553533,11809.0539590858,30079.8849929631,50488.5073524505,13780.8048938499,45853.8194648951,57351.9522670642,60248.5455019465,16039.8838213909
4204984843,28375,2,0,-9262.9999019756,42383.3003062682,11785.6311427016,30090.4100507150,50494.4086854096,13781.8756511703,45867.8244839383,57357.5007368155,60250.1881410176,16040.3340261734
4204984843,28375,2,0,-9262.5496971932,42383.6531694761,11766.2480016627,30096.7737561534,50492.0481522260,13785.3191093712,45869.6253030681,57358.7175064978,60250.3584887731,16041.4412865843
4204984843,28375,2,0,-9263.4501067581,42380.9397730846,11749.5417539248,30101.8720211222,50487.0593965286,13789.7846541052,45851.8726334034,57354.9698558763,60250.2976502890,16041.4656219779
4204984843,28375,2,0,-9263.2675913057,42385.4053178186,11736.0477781481,30113.9910471579,50495.5524489110,13793.4349631521,45866.6198819528,57362.8180203271,60255.1403936245,16048.2065260178
4204988107,28376,2,0,-9264.5573671690,42389.3111484988,11721.5073804447,30124.3457571542,50502.8895700952,13798.3142095781,45881.8660060719,57366.2858139216,60259.7276153268,16051.2971210109
4204988107,28376,2,0,-9264.8372241959,42385.7216779360,11711.2378443262,30127.4606875408,50497.6696281582,13795.9293410008,45864.3201872533,57359.3867298230,60259.4599259967,16051.3336241013
4204988107,28376,2,0,-9265.8836461227,42381.8401826495,11699.8975508872,30131.4516920988,50492.6443693703,13789.0910953863,45861.0105737174,57355.9554393189,60256.9047096638,16046.1015144675
4204988107,28376,2,0,-9264.5938702594,42380.3678913339,11686.6104259565,30133.2281758349,50490.2229977025,13781.2794340260,45871.4382898947,57354.5804895780,60253.0597174678,16045.5418004136
4204988107,28376,2,0,-9265.2387581911,42374.8924277636,11675.0876170652,30131.5612013702,50484.6866956481,13781.0117446959,45858.6135374433,57348.8495043743,60249.3364022400,16045.1280987216
4204988107,28376,2,0,-9265.6889629735,42372.4223853085,11667.4098003699,30133.9460699475,50481.8394545915,13781.7539742021,45849.0132246500,57348.3871318951,60248.5576696433,16045.5296327168
4204988107,28376,2,0,-9262.4888587091,42378.1412028153,11664.4530500419,30144.4832953961,50489.6146128614,13789.2006046577,45870.5257126330,57356.0406131967,60255.3594121673,16050.9685931966
4204988107,28376,2,0,-9262.2941755599,42379.6256618277,11666.1321922035,30150.4576345362,50491.0017302992,13790.2105234940,45873.2756121149,57358.7905126787,60259.8857953855,16053.8645050405
4205016890,28377,2,0,-9268.1225023381,42375.9996881745,11664.5260562229,30148.6689831032,50484.9057141909,13790.2226911908,45855.6811225090,57355.4443960524,60260.9322173122,16049.4841341842
4205016890,28377,2,0,-9271.5294574485,42375.0871109128,11658.1988538750,30146.8924993671,50485.7331175748,13783.5791287255,45866.5712111655,57355.2132098127,60259.8371245982,16046.8680793673
4205016890,28377,2,0,-9271.8093144754,42371.9478451324,11649.1339197419,30141.7942343983,50485.8426268463,13776.4366906905,45872.5942210928,57350.3217956899,60257.7077776542,16047.9023335973
4205016890,28377,2,0,-9275.6543066715,42363.8806621388,11644.9603997316,30137.4381989357,50477.7267730654,13777.3127648617,45848.8063738040,57341.4880477965,60250.9547059174,16045.6756450787
4205016890,28377,2,0,-9275.9706667889,42366.6914001049,11646.6760449836,30141.7333959142,50480.8538711489,13781.8878188671,45851.8848011002,57345.3695430830,60253.0962205583,16045.6026388977
4205016890,28377,2,0,-9277.0779271998,42371.7774973769,11648.1848393897,30145.8339097435,50488.6046940251,13782.2893528623,45868.8587381682,57350.4434726582,60255.3594121673,16048.3160352892
4205016890,28377,2,0,-9276.2018530285,42371.6314850150,11649.5719568275,30143.0961779583,50488.1301538490,13786.4385374789,45858.4188542941,57349.2997091568,60256.4423371846,16049.7274881207
4205016890,28377,2,0,-9267.4776144065,42377.5206502773,11654.2443524075,30146.2597791323,50493.8854744462,13791.7923240810,45859.0515745289,57353.5462353480,60260.2386585933,16053.4386356517
4205056449,28378,2,0,-9260.3716794619,42384.5292436474,11657.3471150973,30150.9930131964,50503.7048057823,13790.8675791225,45879.9435099739,57361.8324368844,60264.9718926574,16056.4683921606
4205056449,28378,2,0,-9257.6582830704,42384.4684051632,11661.0582626283,30150.3237898712,50503.7778119633,13791.7436532937,45871.7668177089,57361.0050335005,60266.0913207652,16055.2637901751
4205056449,28378,2,0,-9260.8583873348,42382.8866045763,11660.8027409951,30149.6545665459,50501.7579742907,13792.6805659491,45854.4035143425,57359.7760961213,60265.8723022223,16051.0415993776
4205056449,28378,2,0,-9261.1260766649,42386.7072613787,11659.1114311367,30153.2805401991,50506.7710653817,13793.8364971473,45870.0390047600,57365.6774290805,60267.7704629267,16051.3822948886
4205056449,28378,2,0,-9258.7898788749,42390.6860982398,11659.3426173763,30154.0957758863,50511.9058334410,13795.7468255485,45876.5608902571,57368.7436886799,60267.6122828680,16053.4143002581
4205056449,28378,2,0,-9257.6461153735,42390.3332350319,11662.9320879391,30153.0128508690,50508.7787353575,13794.8585836804,45861.2539276539,57364.9473672711,60268.7560463694,16050.8834193189
4205056449,28378,2,0,-9258.9358912368,42389.3963223765,11661.2651134743,30150.9078393187,50508.2311890005,13787.5336301930,45863.8213116835,57364.4363240045,60266.8335502714,16049.6301465461
4205056449,28378,2,0,-9263.6691253009,42384.3710635887,11656.3128608674,30144.9091647849,50506.2478544183,13781.6566326275,45871.8154884962,57360.7616795640,60262.1368192977,16046.9289178514
4205104665,28379,2,0,-9266.7962233844,42380.6599160577,11653.1127566030,30141.3196942222,50502.1473405890,13785.1974324030,45854.9388930028,57356.5151533728,60259.8249569013,16043.8626582520
4205104665,28379,2,0,-9266.6015402352,42384.5049082537,11656.3493639579,30144.7023139390,50504.8242338900,13791.5002993573,45857.7496309689,57361.0780396814,60262.1246516009,16043.9965029171
4205104665,28379,2,0,-9262.1724985917,42392.1097187680,11664.0150129563,30151.6987396122,50515.0207638277,13796.0510179690,45879.7366591279,57369.4615827924,60267.6001151712,16052.5990645709
4205104665,28379,2,0,-9261.9291446552,42393.2413145726,11672.3012144927,30151.4797210693,50514.0108449914,13796.8540859594,45871.2679421392,57368.0136268705,60269.1332449709,16056.3467151924
4205104665,28379,2,0,-9262.6592064646,42389.4084900734,11675.0389462779,30151.6135657344,50508.8030707511,13796.1361918468,45859.8668102161,57367.3930743325,60269.4131019978,16053.5846480136
4205104665,28379,2,0,-9261.7831322933,42391.2214769000,11672.4715622483,30153.8159188593,50510.2753620667,13786.4142020853,45877.3761259443,57370.4349985382,60269.2549219391,16054.1321943706
4205104665,28379,2,0,-9268.2198439127,42385.2958085472,11663.2362803596,30148.1579398367,50504.1793459584,13785.4286186426,45873.8231584720,57362.9153619017,60261.9908069358,16047.2452779688
4205104665,28379,2,0,-9268.5240363333,42386.2448888994,11662.5305539439,30149.8614173919,50501.9283220462,13792.9117521887,45856.8492214040,57361.2240520433,60263.7794583688,16045.7121481691
4205109292,28380,2,0,-9263.9489823278,42389.0799622591,11662.4697154598,30151.9299258518,50503.5222903300,13789.6264740465,45867.8366516351,57365.3245658726,60264.5825263591,16049.2164448541
4205109292,28380,2,0,-9259.8849715890,42388.0213726355,11663.0050941200,30150.7739946536,50500.7480554544,13782.3988621337,45876.0011762033,57364.4241563077,60262.3680055373,16053.4994741358
4205109292,28380,2,0,-9263.6082868168,42382.4729028843,11663.7473236262,30145.0673448436,50491.2815873261,13781.9729927449,45857.9199787244,57355.4200606587,60257.5252622018,16052.4043814218
4205109292,28380,2,0,-9262.6592064646,42386.8289383469,11670.0380228837,30148.6324800128,50496.2825107203,13789.8333248925,45862.9695729059,57359.5449098817,60260.6888633758,16050.2263636904
4205109292,28380,2,0,-9264.6303733499,42389.6640117066,11668.7847501109,30150.7861623504,50499.5921242562,13784.1023396889,45879.6879883406,57362.8301880239,60262.1733223882,16049.5328049715
4205109292,28380,2,0,-9274.8512386812,42384.0303680776,11665.7306582084,30144.8726616945,50492.5713631893,13787.3997855279,45863.1642560551,57358.1334570503,60256.5275110623,16049.9100035731
4205109292,28380,2,0,-9276.6033870237,42381.1222885369,11665.0249317926,30145.3350341738,50488.9088864456,13790.3930389464,45852.3836766699,57360.0194500578,60257.8781254097,16048.2186937147
4205109292,28380,2,0,-9272.1865130770,42383.3003062682,11663.7351559294,30148.1336044430,50495.7227966665,13782.4353652242,45873.4216244768,57365.1542181171,60259.2652428475,16048.9244201304
4205146631,28381,2,0,-9273.3302765783,42381.4994871384,11660.4863808777,30145.3228664769,50494.1044929890,13779.5881241676,45872.3508671564,57360.5426610212,60255.5297599229,16046.1988560421
4205146631,28381,2,0,-9274.5227108670,42379.4918171627,11660.0605114889,30144.1304321883,50493.7637974780,13782.2771851655,45857.7252955752,57357.1235382139,60254.6050149643,16045.5904712009
4205146631,28381,2,0,-9272.4298670134,42383.2638031778,11663.3701250247,30147.8294120225,50500.4560307306,13776.1081628762,45871.0245882027,57361.3213936179,60257.2819082654,16049.8856681794
4205146631,28381,2,0,-9269.1202534776,42384.1885481363,11670.5490661502,30149.8127466046,50503.9116566283,13777.7629696442,45878.1913616314,57364.0591254030,60258.0241377716,16054.6310699404
4205146631,28381,2,0,-9266.8570618685,42386.6829259850,11680.1858820340,30152.5261429961,50503.6317996014,13786.1100096647,45866.2426833513,57365.9572861074,60258.9732181237,16056.7482491875
4205146631,28381,2,0,-9265.5307829148,42393.5211715995,11685.5518363329,30157.3323832412,50508.1216797291,13786.2803574202,45876.8772503745,57372.6860224505,60263.9741415180,16055.5923179894
4205146631,28381,2,0,-9265.5429506116,42393.2534822694,11682.8506076382,30155.2517070844,50509.5818033478,13780.5128691261,45888.8624317451,57374.4503384898,60262.3558378405,16054.7892499991
4205146631,28381,2,0,-9269.7286383187,42384.2615543173,11678.9569446549,30147.0506794258,50500.2005090973,13779.3082671407,45869.1020921047,57364.3511501268,60258.5595164318,16052.2583690599
4205178170,28382,2,0,-9271.0792526661,42379.6499972214,11678.4824044788,30144.1304321883,50496.1973368426,13779.6611303485,45860.8402259619,57364.4241563077,60259.3625844221,16050.1655252063
4205178170,28382,2,0,-9270.1058369202,42378.8712646247,11672.7149161847,30142.8163209314,50497.8034728232,13776.3271814190,45877.2301135824,57365.3245658726,60259.0218889110,16050.2141959936
4205178170,28382,2,0,-9271.1765942407,42378.0438612407,11670.6099046343,30140.1150922367,50498.4240253612,13779.8193104072,45872.3386994596,57362.2218031828,60258.0484731652,16054.9230946641
4205178170,28382,2,0,-9272.6002147689,42380.1853758816,11676.0245297206,30140.8086509556,50498.2171745152,13780.3303536738,45863.4806161725,57361.2970582242,60260.6158571948,16059.9240180583
4205178170,28382,2,0,-9273.0625872482,42382.1443750701,11679.3341432564,30140.7113093810,50502.3298560413,13775.4754426414,45876.9867596459,57364.8013549092,60262.7938749261,16061.2989677993
4205178170,28382,2,0,-9276.5060454491,42377.2529609472,11678.6405845375,30134.8708149060,50494.5425300747,13769.2334141713,45873.2756121149,57358.3524755931,60258.5838518254,16060.0091919361
4205178170,28382,2,0,-9280.0468452246,42371.2907895040,11679.2124662882,30129.9307299959,50484.6380248608,13770.3406745822,45851.7266210415,57352.3416333625,60255.5175922260,16057.7703357207
4205178170,28382,2,0,-9278.8544109359,42375.0627755191,11677.9470258186,30130.1497485387,50486.7187010175,13767.4325950415,45858.8812267734,57353.8869308590,60254.2399840596,16054.0226850992
4205223503,28383,2,0,-9280.5943915816,42374.4908937684,11673.5423195687,30128.9573142501,50488.4830170568,13764.6948632563,45869.8929923982,57353.4610614702,60250.3949918636,16052.3313752408
4205223503,28383,2,0,-9281.2149441196,42369.9766782471,11671.1331155977,30127.5945322059,50487.6921167633,13773.6381204212,45853.3327570221,57348.3262934110,60248.0952971640,16054.8257530895
4205223503,28383,2,0,-9278.3677030630,42372.9699316656,11673.1529532703,30131.1596673750,50490.3811777612,13773.9179774481,45853.3935955062,57353.6314092258,60251.4779168808,16057.3444663319
4205223503,28383,2,0,-9274.1698476591,42377.0461101012,11677.4968210361,30133.7027160110,50497.6817958550,13772.3483445579,45869.1629305888,57357.7805938424,60254.5563441770,16057.0402739113
4205223503,28383,2,0,-9276.0071698794,42378.9442708056,11684.8826130077,30133.8122252824,50497.2559264662,13778.2375098202,45858.8203882893,57354.4223095193,60255.6757722847,16059.4981486695
4205223503,28383,2,0,-9277.3212811362,42380.4043944244,11691.1854799619,30133.8608960697,50494.5546977715,13778.7607207836,45849.6824479752,57352.0374409420,60255.5054245292,16056.4197213733
4205223503,28383,2,0,-9274.3645308083,42384.2493866204,11693.0593052727,30134.6639640600,50498.2050068184,13775.6092873065,45867.3012729749,57355.2618806000,60257.8659577128,16058.2448758968
4205223503,28383,2,0,-9276.5182131459,42380.3435559403,11690.1025549447,30129.0911589151,50493.8368036589,13774.6602069543,45860.8767290524,57351.5263976754,60253.4004129788,16059.3643040045
4205235948,28384,2,0,-9284.8895885601,42373.0672732402,11688.6789344164,30121.7540377309,50484.7840372227,13778.8823977519,45838.9383716806,57345.2722015084,60250.1029671398,16054.5215606689
4205235948,28384,2,0,-9282.0058444131,42378.6887491723,11689.4698347099,30126.8279673061,50492.7660463385,13782.8125638257,45853.8559679855,57354.6899988494,60253.1448913456,16053.6333188009
4205235948,28384,2,0,-9278.8665786328,42383.0326169381,11688.3990773895,30130.7216302894,50497.6209573709,13779.6489626517,45867.9704963001,57356.9410227616,60256.3328279132,16054.3268775198
4205235948,28384,2,0,-9280.8377455181,42382.5580767620,11687.6325124896,30130.5634502307,50495.1509149158,13783.1532593367,45854.7563775504,57354.0572786146,60256.8803742702,16052.6233999646
4205235948,28384,2,0,-9276.1653499381,42389.5545024352,11693.5460131456,30138.8496517671,50503.2059302126,13792.3885412253,45862.9939082995,57363.3899020778,60264.1566569703,16059.2547947331
4205235948,28384,2,0,-9269.2054273553,42395.5045061816,11697.9507193955,30143.1691841393,50513.1104354265,13793.0820999442,45882.3162108544,57369.1817257655,60269.4131019978,16064.7180906066
4205235948,28384,2,0,-9269.0715826903,42395.5896800594,11701.9295562566,30141.5630481586,50513.7309879644,13793.7756586631,45869.9903339727,57366.0911307725,60269.4861081788,16064.3652273987
4205235948,28384,2,0,-9270.3370231599,42396.8916236195,11702.9151396993,30139.3606950337,50512.1735227711,13789.2614431418,45862.1056664315,57364.1077961903,60266.9917303301,16063.7811779512
4205265634,28385,2,0,-9270.7020540646,42400.2985787299,11701.8322146820,30138.1804284419,50515.3857947324,13781.4254463879,45878.1670262378,57367.9284529927,60264.6433648432,16064.6937552129
4205265634,28385,2,0,-9273.0625872482,42394.1173887438,11697.9507193955,30132.8509772334,50507.4281210102,13777.1545848030,45867.7879808478,57361.0172011973,60257.5374298986,16061.1651231343
4205265634,28385,2,0,-9277.7228151314,42387.2913108262,11695.4563415468,30128.1664139566,50499.3244349261,13779.2839317470,45849.2444108896,57357.8779354170,60254.2886548469,16056.3832182829
4205265634,28385,2,0,-9278.1243491266,42388.7270990513,11692.1710634046,30129.2371712770,50501.5267880510,13779.6732980454,45861.8623124950,57361.3457290115,60255.9191262212,16055.7870011385
4205265634,28385,2,0,-9277.5159642854,42390.3332350319,11692.6212681871,30130.6121210180,50504.1793459584,13782.2285143782,45869.0534213174,57361.0293688941,60255.3959152578,16056.1155289528
4205265634,28385,2,0,-9276.7250639919,42391.0024583572,11700.6884511807,30131.9627353653,50500.7967262416,13783.5669610287,45853.1502415698,57357.9022708106,60256.1746478545,16059.2061239458
4205265634,28385,2,0,-9278.8544109359,42392.3044019172,11707.3076782523,30135.0776657520,50501.0279124813,13778.2861806075,45859.1245807099,57362.6476725716,60258.8637088523,16060.5080675058
4205265634,28385,2,0,-9276.7980701729,42391.1849738095,11707.2955105555,30131.9140645780,50500.5777076988,13773.4434372720,45868.6518873222,57360.2871393879,60258.2674917080,16058.3057143809
4205304737,28386,2,0,-9276.1288468476,42385.3201439409,11704.2900894403,30123.9198877654,50491.6466182308,13775.0130701622,45850.6680314179,57351.5020622817,60253.7289407931,16055.4219702338
4205304737,28386,2,0,-9274.0725060845,42385.0646223076,11704.5699464672,30122.9464720195,50489.5537743773,13775.0130701622,45849.0132246500,57352.6093226926,60253.7167730962,16055.2759578720
4205304737,28386,2,0,-9273.3789473656,42386.3543981708,11704.4361018021,30123.6278630416,50495.8201382411,13773.9788159322,45867.4351176399,57357.2817182726,60254.7023565389,16057.5878202683
4205304737,28386,2,0,-9276.1775176349,42381.9496919209,11703.3166736944,30119.9045478138,50492.4496862211,13777.2640940744,45859.3314315558,57353.1203659592,60254.7631950230,16060.8000922296
4205304737,28386,2,0,-9281.0445963641,42379.1267862580,11701.3576745059,30117.7386977793,50488.0814830617,13779.1987578693,45845.3264125126,57351.7940870055,60254.0331332136,16059.4251424886
4205304737,28386,2,0,-9280.5943915816,42382.7892630017,11701.9052208630,30120.6467773200,50494.8223871016,13776.0838274826,45863.2129268424,57357.4764014218,60257.3670821431,16060.9947753788
4205304737,28386,2,0,-9281.4704657529,42384.0303680776,11703.0003135770,30118.8459581902,50495.1265795222,13772.4335184357,45863.9186532581,57355.3105513873,60254.6658534484,16062.7469237213
4205304737,28386,2,0,-9280.7890747308,42381.9740273145,11705.6407037876,30117.0451390604,50489.7971283137,13772.0198167437,45847.3462501852,57354.0207755241,60251.8916185728,16061.4693155548
4205363738,28387,2,0,-9277.7228151314,42385.1862992758,11706.9548150445,30117.8360393539,50489.2374142599,13769.5741096823,45858.7473821083,57357.5129045123,60252.8285312282,16064.0610349781
4205363738,28387,2,0,-9275.9098283048,42385.5513301805,11705.4703560321,30117.9212132317,50488.3005016045,13765.5466020339,45868.9682474396,57357.5250722091,60251.4414137903,16063.4404824402
4205363738,28387,2,0,-9276.5668839332,42379.9541896419,11704.7037911322,30115.1713137497,50482.3748332517,13764.7191986500,45850.9235530512,57352.9256828100,60248.8131912766,16060.3863905376
4205363738,28387,2,0,-9274.3523631114,42380.1002020038,11702.6109472787,30114.4169165467,50484.0661431101,13761.7016098379,45850.4976836624,57352.1104471229,60247.3408999610,16060.0091919361
4205363738,28387,2,0,-9274.4375369892,42381.5238225321,11699.8367124031,30113.6381839500,50489.4686004995,13759.7791137398,45865.9628263243,57355.4687314460,60246.6838443326,16060.2403781757
4205363738,28387,2,0,-9280.0711806182,42377.9830227566,11697.4031730385,30108.5277512844,50485.4167574575,13762.9913857011,45850.9357207480,57350.0784417535,60244.7735159314,16056.1520320432
4205363738,28387,2,0,-9281.9936767163,42379.1146185612,11702.3675933422,30108.9657883700,50486.2319931446,13767.5786074034,45841.6639357689,57352.6579934799,60249.6527623574,16056.7725845812
4205363738,28387,2,0,-9279.1707710533,42386.5004105327,11709.5587021646,30113.9910471579,50494.1044929890,13768.3573400000,45861.6676293459,57361.1510458623,60253.7532761867,16061.9073526405
4205366704,28388,2,0,-9277.5037965886,42389.6761794035,11714.4136131969,30112.7742774756,50495.2604241872,13769.1360725967,45863.3102684169,57361.6620891289,60255.5905984070,16065.2656369636
4205366704,28388,2,0,-9273.6831397862,42392.2922342204,11718.4776239358,30114.1005564293,50495.3090949745,13772.9567293991,45852.9433907238,57360.6521702926,60255.6149338006,16064.0732026750
4205366704,28388,2,0,-9269.4609489886,42397.6095177320,11720.8624925131,30119.4786784250,50501.4537818701,13772.7863816436,45867.6176330923,57367.1618880929,60261.0295588868,16065.3873139318
4205366704,28388,2,0,-9272.5637116785,42395.2489845484,11720.3636169434,30116.5462634907,50499.8111427990,13769.9391405870,45869.9903339727,57364.4119886109,60260.7862049504,16065.3386431445
4205366704,28388,2,0,-9277.3091134394,42389.3111484988,11722.9796717603,30110.0487133872,50492.9972325781,13773.2487541228,45850.1691558482,57359.6179160626,60259.7884538109,16060.7879245328
4205366704,28388,2,0,-9278.0148398552,42391.8663648316,11724.0990998680,30110.1825580523,50496.6840447155,13775.5849519128,45857.7739663625,57363.9982869189,60264.3756755131,16060.0213596329
4205366704,28388,2,0,-9278.1365168234,42395.2124814579,11725.4497142154,30108.2600619542,50501.0765832686,13772.0806552278,45873.7501522910,57366.4804970708,60264.7407064178,16063.4891532275
4205366704,28388,2,0,-9279.8399943786,42393.8010286264,11728.2361167878,30106.7756029418,50498.2171745152,13773.9544805386,45860.1831703334,57360.5548287180,60263.7186198847,16065.1439599954
4205397110,28389,2,0,-9277.3456165299,42396.8794559226,11734.2834621088,30111.5453400964,50497.0004048329,13777.5196157077,45859.7938040351,57365.6287582932,60266.3346747016,16066.8352698538
4205397110,28389,2,0,-9270.7263894582,42402.5496026421,11737.6539141288,30117.9698840190,50506.5520468389,13775.5606165192,45881.4644720768,57372.9537117806,60269.6929590248,16070.6680943530
4205397110,28389,2,0,-9270.2761846758,42400.9799697520,11737.0211938940,30114.0518856420,50504.4835383790,13771.7399597168,45874.2611955576,57368.6098440148,60264.8015449019,16066.4580712523
4205397110,28389,2,0,-9268.7308871792,42400.1890694585,11739.5885779236,30110.9734583458,50501.1860925400,13772.8837232182,45859.4166054336,57366.0789630756,60262.3558378405,16063.7811779512
4205397110,28389,2,0,-9264.5573671690,42404.3869248624,11740.2821366425,30114.0640533388,50507.8904934894,13770.8638855455,45874.6627295528,57371.0190479857,60264.5581909655,16066.6649220982
4205397110,28389,2,0,-9266.8692295653,42401.5640191995,11735.4150579133,30110.8274459839,50503.7899796601,13768.9535571443,45873.4459598705,57367.7094344499,60260.4211740457,16064.1097057654
4205397110,28389,2,0,-9269.9111537711,42399.0331382603,11736.9360200162,30110.3772412014,50496.9273986520,13778.8337269646,45859.3922700400,57365.4462428408,60261.6257760311,16062.2602158483
