steady_timestamp,sequence,battery,flags,EEG-ch1,EEG-ch2,EEG-ch3,EEG-ch4,EEG-ch5,EEG-ch6,EEG-ch7,EEG-ch8,EEG-ch9,EEG-ch10
4183743373,27856,-2,0,-9041.0002734411,42777.4241740602,12735.6970783338,30574.0881671238,51124.1600021778,14158.2468492975,46398.5550839613,57919.4171437957,60873.0768767776,16112.7074868763
4183743373,27856,-2,0,-9040.8055902919,42780.3200859040,12743.5087396941,30574.5505396030,51127.9563235865,14160.2545192733,46406.0382175074,57924.6492534296,60877.7857754481,16116.0414358057
4183743373,27856,-2,0,-9042.5334032408,42779.9307196057,12741.7930944420,30571.4599446100,51129.4894533862,14153.1242489351,46413.2293263298,57924.5154087646,60877.3234029688,16115.8954234439
4183743373,27856,-2,0,-9047.2909726985,42772.6301015119,12736.1959539035,30564.9015560224,51119.9621467739,14147.1742451887,46393.2012973593,57916.5212319519,60872.2738087873,16110.0062581816
4183743373,27856,-2,0,-9048.2522207475,42770.4520837806,12736.4514755368,30564.9745622034,51119.2929234486,14148.6343688074,46396.8637741030,57916.1318656536,60870.8380205622,16107.4388741519
4183743373,27856,-2,0,-9044.1030361309,42772.9342939325,12739.7245859821,30570.5351996515,51123.1987541288,14154.5722048570,46415.5168533325,57918.6870819864,60871.5924177652,16111.8435804018
4183743373,27856,-2,0,-9044.2855515833,42767.6778489050,12749.0815448390,30569.5861192993,51117.2852534728,14159.1837619529,46402.3149022796,57914.1972018587,60871.9452809731,16113.3402071110
4183743373,27856,-2,0,-9038.8344234066,42770.3669099028,12761.3344155397,30573.3094345271,51112.1626531104,14166.0463429611,46393.3108066307,57916.6429089201,60877.1652229101,16113.1333562651
4183775546,27857,-2,0,-9038.1895354750,42777.6796956934,12771.1537468758,30573.9664901555,51121.2640903339,14164.6105547359,46416.3199213228,57926.3162278943,60882.7988665392,16113.9972627395
4183775546,27857,-2,0,-9044.6627501848,42775.4043363875,12772.0298210471,30565.3882638954,51120.6557054928,14156.0444961726,46411.5136810778,57918.4680634436,60875.8267762596,16110.7484876878
4183775546,27857,-2,0,-9050.2842261170,42770.3912452965,12771.7864671106,30558.4161736158,51116.0198130032,14156.6285456201,46391.7533414373,57912.2382026702,60870.9231944400,16107.6092219074
4183775546,27857,-2,0,-9051.7200143421,42773.6886911355,12772.1514980153,30560.8375452836,51120.7895501578,14158.9647434101,46399.8448598246,57915.1341145141,60872.6266719952,16107.4023710615
4183775546,27857,-2,0,-9050.1990522392,42776.4750937080,12774.3538511402,30563.1007368926,51123.4542757621,14158.7578925641,46404.2252306808,57915.7546670520,60870.9962006209,16109.8115750324
4183775546,27857,-2,0,-9048.8849409823,42774.6256037909,12778.8437312679,30563.2102461640,51119.5119419914,14161.4956243493,46384.4040525563,57911.7271594036,60869.3778969434,16108.8624946802
4183775546,27857,-2,0,-9040.5865717491,42780.9163030483,12784.6720580461,30570.0484917785,51124.3060145397,14163.9169960170,46396.2797246554,57917.0444429153,60874.6708450614,16112.0260958542
4183775546,27857,-2,0,-9036.2305362865,42783.0456499924,12787.2637774694,30571.1679198863,51125.6931319775,14157.0544150089,46412.6331091855,57916.8740951598,60876.3621549198,16115.0558523631
4183808375,27858,-2,0,-9039.3576343700,42776.3899198302,12789.1497704769,30563.7456248243,51114.7543725337,14156.4581978646,46395.8781906603,57909.3301231295,60872.8578582348,16111.0891831988
4183808375,27858,-2,0,-9039.9538515143,42775.0028023924,12796.0001837883,30565.5951147413,51110.6660264012,14158.3563585690,46391.3396397453,57911.3621284990,60874.5370003964,16108.3149483232
4183808375,27858,-2,0,-9039.7713360619,42779.8820488184,12800.7334178524,30570.7298828006,51118.2951723091,14156.9935765248,46414.4947667994,57918.3950572626,60876.8123597023,16106.9886693695
4183808375,27858,-2,0,-9038.4450571082,42782.9604761146,12804.8095962881,30571.0097398276,51121.8968105687,14158.6605509895,46411.3920041095,57918.2490449007,60875.7050992914,16104.1292606161
4183808375,27858,-2,0,-9030.3170356305,42790.9668206241,12815.5901756732,30577.9088239262,51126.5692061487,14166.8129078609,46404.3469076491,57919.7700070036,60880.0733024508,16105.5772165380
4183808375,27858,-2,0,-9024.0506717667,42799.8735746985,12824.8862960459,30585.9760069198,51132.7990669221,14166.7642370736,46421.0653230838,57925.6348368723,60881.4847552823,16107.9864205090
4183808375,27858,-2,0,-9021.9456602163,42802.7208157551,12831.5906969954,30586.4505470959,51135.2204385899,14165.5231319977,46424.2532596514,57926.3162278943,60882.7258603582,16108.8016561961
4183808375,27858,-2,0,-9020.4490335071,42800.4697918428,12835.4600245851,30584.0291754281,51129.6354657481,14166.1801876261,46406.0138821138,57923.7853469552,60881.0710535903,16103.9345774669
4183845688,27859,-2,0,-9015.9956564699,42805.0205104546,12836.8958128102,30588.3730431939,51134.6607245360,14168.3947084479,46417.2811693718,57928.9079473176,60884.2103193706,16100.9534917453
4183845688,27859,-2,0,-9009.8509695743,42812.7956687245,12839.8768985318,30593.8606744610,51142.9834291629,14173.1887809961,46435.3745345476,57934.5172555530,60888.3351685936,16104.3726145525
4183845688,27859,-2,0,-9006.0546481656,42814.3166308273,12846.8246534177,30591.7434952138,51140.5255544047,14176.4497237447,46419.3983486190,57932.0472130980,60887.0453927304,16107.2563586996
4183845688,27859,-2,0,-9002.4895129965,42815.3995558446,12854.4659670225,30596.1725368574,51138.3962074606,14170.0008444285,46416.8309645894,57931.5848406187,60886.0354738941,16106.0517567141
4183845688,27859,-2,0,-8999.0582224924,42820.1327899087,12860.6714924022,30601.8670189705,51142.8982552851,14168.7719070494,46437.1753536774,57935.3324912402,60885.1350643292,16107.1833525186
4183845688,27859,-2,0,-9003.7184503756,42819.0620325883,12864.8450124125,30599.9566905693,51140.4038774364,14168.9179194113,46428.7553074759,57931.6091760123,60882.2999909694,16103.8007328019
4183845688,27859,-2,0,-9008.1718274128,42816.6284932237,12868.4953214593,30594.4812269990,51137.8364934068,14173.3591287516,46418.1329081495,57929.5771706429,60881.3022398299,16099.6880512757
4183845688,27859,-2,0,-9001.1632340428,42822.4203169114,12873.3867355822,30599.4213119091,51147.9600171635,14177.0094377985,46438.4772972374,57938.0337199348,60887.8849638111,16104.5186269144
4183863555,27860,-2,0,-8999.6422719399,42820.5829946911,12873.2163878266,30597.9855236840,51146.8040859653,14174.6002338276,46436.0194224792,57935.3203235433,60886.2058216496,16104.6281361858
4183863555,27860,-2,0,-8998.4620053481,42818.3928092630,12876.6963491180,30597.1337849064,51143.4092985517,14177.3744687032,46418.8021314747,57930.7574372347,60884.2346547643,16105.2000179365
4183863555,27860,-2,0,-8994.7265224234,42825.8272720218,12881.8311171773,30603.8503535527,51149.8338424742,14179.2117909235,46435.3501991539,57936.9872980081,60887.7146160556,16108.1324328708
4183863555,27860,-2,0,-8994.6778516361,42826.3991537725,12882.3299927470,30605.7850173475,51153.2286298878,14176.5227299256,46443.2592020888,57936.4154162574,60885.2932443879,16106.7331477362
4183863555,27860,-2,0,-8999.2772410352,42823.9534467111,12887.0510591143,30603.5218257385,51146.2565396083,14175.5006433925,46426.4069419891,57930.1368846968,60882.5555126027,16104.8349870318
4183863555,27860,-2,0,-9009.5467771538,42818.1129522361,12888.1583195252,30596.5862385494,51142.9955968597,14169.5384719492,46420.8098014505,57926.5595818308,60879.9394577858,16101.7200566451
4183863555,27860,-2,0,-9010.4106836282,42816.4581454682,12891.6017777261,30593.6659913119,51145.4169685275,14163.3329465695,46434.0847586843,57926.9854512196,60878.4184956829,16103.9467451637
4183863555,27860,-2,0,-9009.8266341807,42811.0313526851,12892.7455412275,30591.3784643092,51139.8076602921,14163.5154620219,46420.7489629664,57920.3783918448,60874.7073481519,16101.8539013102
4183894517,27861,-2,0,-9005.0934001166,42812.8200041181,12896.0673224601,30594.7367486323,51139.6251448398,14164.4523746773,46416.7092876212,57921.1571244414,60876.8975335800,16102.5231246355
4183894517,27861,-2,0,-9007.0889023955,42813.5378982307,12893.0132305576,30596.0873629796,51142.1560257789,14151.8344730719,46430.4587850311,57921.2301306224,60874.6951804551,16099.4446973392
4183894517,27861,-2,0,-9016.7135505825,42805.3368705720,12887.6837793491,30586.5357209736,51131.0104154891,14145.6046122985,46417.9747280908,57912.3477119416,60866.0561157108,16095.3563512067
4183894517,27861,-2,0,-9027.7983223882,42796.7221412213,12881.6729371186,30577.9574947135,51119.2199172677,14147.5027730029,46396.1458799904,57903.6356410164,60860.0939442675,16090.8178002918
4183894517,27861,-2,0,-9026.1070125298,42801.6500584346,12882.3299927470,30582.7515672617,51125.3402687696,14143.9619732274,46412.8886308188,57910.4373835404,60861.4323909181,16093.7623829229
4183894517,27861,-2,0,-9022.8095666908,42800.9443320189,12883.5589301261,30583.1774366505,51127.2019263835,14135.8461194465,46417.9138896066,57909.7803279120,60857.9280942331,16093.5555320769
4183894517,27861,-2,0,-9024.1480133413,42793.3881922919,12884.3985012069,30576.8624019994,51118.4776877615,14131.5387547712,46395.3914827874,57901.8956603707,60852.3674567850,16088.6519502573
4183894517,27861,-2,0,-9019.2931023089,42792.0984164286,12885.0555568354,30582.6542256871,51121.3614319085,14132.6338474853,46400.7696047831,57905.1809385129,60856.2976228588,16090.3797632062
4183954509,27862,-2,0,-9021.2155984070,42790.8086405654,12884.7513644148,30581.3036113398,51121.7386305100,14130.3828235730,46413.0833139679,57905.9840065032,60854.9470085114,16094.1274138276
4183954509,27862,-2,0,-9025.1579321776,42788.7888028928,12890.7257035549,30576.5095387915,51116.8837194777,14135.3959146641,46399.1756364993,57904.9254168796,60856.5653121889,16099.4690327329
4183954509,27862,-2,0,-9024.1845164318,42793.9600740425,12897.8559738931,30578.5537118578,51118.1126568568,14134.6415174610,46400.3072323038,57909.9628433643,60860.3129628104,16103.6060496527
4183954509,27862,-2,0,-9022.5053742702,42794.8604836074,12898.6468741866,30579.8191523274,51119.1834141772,14127.2557254895,46418.3397589954,57913.9051771349,60861.1038631038,16103.7398943177
4183954509,27862,-2,0,-9023.6369700747,42789.2998461593,12896.3836825775,30580.2571894130,51116.7012040253,14124.7978507313,46410.5889361192,57911.5446439513,60859.2908762772,16100.7831439898
4183954509,27862,-2,0,-9022.1281756687,42788.4846104722,12900.0339916244,30585.9760069198,51115.3384219812,14132.1106365219,46404.4077461332,57913.8078355604,60862.0164403656,16100.0895852709
4183954509,27862,-2,0,-9013.9149803132,42795.7243900819,12905.8988214931,30600.1757091121,51126.3258522123,14135.2864053927,46432.5394611878,57924.7952657915,60868.3923135008,16104.0440867383
4183954509,27862,-2,0,-9012.3696828167,42796.1745948643,12909.7559813859,30598.8859332489,51129.0392486038,14128.2778120226,46435.3501991539,57924.8804396692,60868.7086736182,16105.3825333888
4183966795,27863,-2,0,-9025.0240875125,42786.6107851615,12907.2251004468,30583.9683369440,51121.5804504513,14125.9416142326,46407.6686888817,57916.1805364408,60863.9267687668,16102.0242490657
4183966795,27863,-2,0,-9030.3292033273,42785.8320525648,12904.7915610822,30576.2175140678,51122.0914937179,14125.1142108487,46411.8300411952,57915.3653007537,60863.1480361701,16100.1625914518
4183966795,27863,-2,0,-9025.5959692632,42786.0510711076,12905.1565919869,30579.0890905180,51121.7386305100,14124.2381366774,46424.6061228593,57915.7181639616,60861.9556018815,16100.6127962343
4183966795,27863,-2,0,-9026.8857451265,42782.4129297576,12910.0115030192,30575.3901106838,51116.2144961524,14132.0984688250,46408.0215520896,57910.7050728705,60859.5463979105,16100.6614670215
4183966795,27863,-2,0,-9025.0727582998,42785.2480031173,12913.1142657091,30579.3324444544,51121.5196119672,14135.3715792704,46412.3654198554,57914.0390218000,60862.9411853241,16101.4158642246
4183966795,27863,-2,0,-9026.6910619773,42787.1218284280,12912.7857378949,30584.7957403279,51126.2406783345,14125.7225956898,46430.9454929040,57918.5167342308,60862.2111235147,16103.8980743764
4183966795,27863,-2,0,-9037.0579396704,42775.9518827446,12906.4828709406,30576.8015635153,51114.5353539908,14115.8059227791,46416.2347474451,57908.3932104742,60852.8054938706,16098.6659647426
4183966795,27863,-2,0,-9041.6086582822,42770.8536177758,12907.0182496008,30570.0241563849,51106.2491524544,14115.6355750236,46396.9854510712,57902.3336974563,60849.5080480316,16095.4050219940
4183995851,27864,-2,0,-9037.0822750641,42775.3921686907,12909.2936089067,30572.3116833876,51113.1847396435,14117.4120587598,46414.2392451661,57907.7848256330,60853.0488478071,16096.8651456128
4183995851,27864,-2,0,-9033.3224567458,42776.0735597128,12913.0412595281,30574.0029932460,51114.2554969639,14117.5945742121,46417.2081631909,57905.4607955398,60850.4692960806,16098.3252692315
4183995851,27864,-2,0,-9029.2462783101,42778.5679375615,12921.9115105121,30579.3324444544,51114.3528385385,14126.7203468293,46408.5204276593,57906.5193851634,60852.3552890882,16101.3185226500
4183995851,27864,-2,0,-9025.1335967839,42783.9095564668,12927.5086510506,30589.6871544508,51119.2929234486,14126.3188128341,46420.3839320617,57914.9637667585,60857.9645973235,16104.1414283129
4183995851,27864,-2,0,-9019.8528163628,42783.6783702271,12926.2797136715,30594.9801025688,51121.1059102752,14125.2237201201,46428.0252456665,57916.6429089201,60856.5531444921,16101.0995041072
4183995851,27864,-2,0,-9011.6031179168,42782.3399235766,12927.3748063856,30600.7354231660,51118.8305509693,14118.9451885594,46420.9558138124,57916.7402504947,60855.6527349272,16099.6028773979
4183995851,27864,-2,0,-9020.7167228372,42782.6927867845,12926.3527198524,30588.4825524653,51117.4069304411,14110.9996825341,46420.3960997585,57913.1386122351,60853.8640834942,16096.9624871874
4183995851,27864,-2,0,-9031.4486314351,42779.2006577963,12923.4568080086,30574.2463471825,51114.1824907830,14103.3340335356,46426.1270849621,57909.5856447628,60848.9361662809,16094.7114632751
4184029261,27865,-2,0,-9042.7402540867,42769.0771340396,12923.3229633435,30558.9758876697,51102.8178619504,14103.4192074134,46400.3680707880,57896.2498490449,60842.8766532631,16092.2535885169
4184029261,27865,-2,0,-9048.9579471633,42764.5872539120,12926.7299184539,30556.1529820067,51100.4694964635,14108.6026462599,46389.2102928013,57893.1105832645,60843.5945473756,16092.0832407614
4184029261,27865,-2,0,-9042.3995585757,42768.4687491985,12928.1778743759,30566.5441950935,51107.5145929240,14110.9023409595,46409.7493650384,57898.7442268936,60846.4052853417,16096.4149408303
4184029261,27865,-2,0,-9035.5491452644,42767.5805073304,12929.3459732709,30572.0683294512,51108.2689901270,14109.9289252136,46406.4762545931,57895.6171288101,60845.4683726864,16097.4248596666
4184029261,27865,-2,0,-9037.5324798465,42766.4732469195,12934.6510890857,30573.7839747032,51103.8764515740,14116.3413014393,46399.3094811644,57893.1227509614,60847.8167381732,16098.9336540727
4184029261,27865,-2,0,-9037.8975107512,42767.7995258732,12937.1698023280,30571.5451184878,51105.0688858626,14112.3137937909,46413.3875063885,57896.0795012893,60850.0069236013,16101.0508333199
4184029261,27865,-2,0,-9037.9461815385,42764.6724277897,12937.1941377217,30568.2841757392,51102.1364709283,14110.9510117468,46417.7800449416,57893.8284773771,60848.6198061635,16103.1315094766
4184029261,27865,-2,0,-9035.5856483549,42759.9878645129,12938.2648950421,30574.2463471825,51096.1256286977,14116.4873138012,46406.8656208914,57891.1637517729,60849.0821786428,16101.0995041072
4184078375,27866,-2,0,-9033.8213323155,42762.4092361806,12939.7006832672,30583.6641445234,51099.3987391431,14110.9996825341,46418.7656283842,57891.4557764966,60850.7978238948,16097.6560459063
4184078375,27866,-2,0,-9040.0025223016,42756.7147540675,12935.1864677459,30572.2265095098,51093.9841140569,14100.9978357456,46423.0973284532,57885.4449342661,60846.2957760703,16089.0656519493
4184078375,27866,-2,0,-9046.1350415003,42747.4916398757,12930.8060968896,30553.8532873072,51080.4779705834,14098.5642963810,46393.0674526942,57872.0483000640,60837.9122329593,16084.9164673327
4184078375,27866,-2,0,-9046.5852462828,42744.7174050001,12932.2662205084,30549.3269040891,51075.8055750034,14101.5453821026,46384.6839095832,57871.1357228023,60836.0262399518,16088.4207640177
4184078375,27866,-2,0,-9046.0376999258,42749.3654651864,12936.8412745138,30553.2327347692,51081.3905478452,14104.3561200687,46407.6930242754,57879.2272411896,60837.9122329593,16097.2423442143
4184078375,27866,-2,0,-9042.8132602677,42751.1541166194,12943.4726692823,30554.4981752388,51079.9547596200,14112.0704398545,46405.0039632775,57878.7161979230,60840.4309462017,16102.6448016037
4184078375,27866,-2,0,-9033.9186738901,42755.0842826932,12950.9801382221,30563.9768110639,51085.6614094300,14118.0569466914,46404.5659261919,57883.7049536204,60846.2106021926,16102.9854971147
4184078375,27866,-2,0,-9030.4265449019,42759.0022810702,12952.8174604423,30572.5063665368,51093.6190831522,14107.1181872475,46425.2388430941,57888.9857340416,60846.1254283148,16100.6858024152
4184089208,27867,-2,0,-9040.0025223016,42750.8864272893,12948.2545741337,30563.3075877386,51087.5474024376,14102.4092885771,46416.1982443546,57879.8356260307,60839.4331950622,16092.6186194216
4184089208,27867,-2,0,-9036.9362627022,42749.4384713674,12953.3771744962,30570.6447089229,51086.1967880902,14121.5977464668,46408.8246200799,57880.9307187448,60843.8135659184,16095.7578852019
4184089208,27867,-2,0,-9020.0718349056,42765.4146572959,12966.1045853730,30592.1328615122,51104.0711347231,14138.5473481412,46440.8621658147,57897.4909541208,60857.6482372061,16108.5461345628
4184089208,27867,-2,0,-9006.2858344052,42771.9122073994,12969.6332174516,30596.9391017572,51109.1815673888,14132.9502076027,46451.5210682316,57901.5914679501,60861.0673600134,16113.3888778983
4184089208,27867,-2,0,-9012.4913597849,42764.1005460390,12970.6918070752,30583.7736537948,51097.4275722578,14126.6716760420,46422.5254467025,57892.2710121838,60856.8208338222,16108.3757868073
4184089208,27867,-2,0,-9018.7455559519,42759.8540198478,12970.1685961118,30575.6578000139,51091.8425994161,14120.2106290290,46415.5898595135,57889.5819511859,60855.6770703208,16105.6380550221
4184089208,27867,-2,0,-9027.5549684517,42754.8895995441,12965.1433373240,30567.6149524140,51085.7709187014,14109.0285156487,46421.9657326487,57886.4305177088,60849.1795202174,16101.1725102881
4184089208,27867,-2,0,-9038.7492495288,42745.9585100760,12962.0527423309,30558.4891797967,51075.7690719130,14110.3791299961,46404.5537584951,57877.6332729058,60842.3047715124,16095.7943882924
4184116816,27868,-2,0,-9038.0678585067,42748.7327449517,12968.0027460774,30559.6816140854,51079.5045548376,14119.0060270436,46399.5406674040,57879.9938060894,60843.3268580455,16094.1395815244
4184116816,27868,-2,0,-9032.4707179682,42754.5854071235,12974.7923209046,30567.1647476315,51087.3648869852,14120.5878276305,46423.7543840817,57886.8563870975,60847.5003780558,16097.1328349429
4184116816,27868,-2,0,-9028.9664212832,42751.1906197099,12977.3353695406,30567.2134184188,51082.6073175275,14118.0934497818,46418.7412929906,57881.4660974050,60844.5192923342,16099.4933681265
4184116816,27868,-2,0,-9021.2034307101,42751.1784520131,12984.1492797614,30577.2396006009,51081.0133492436,14128.6428429273,46411.0513085985,57883.1939103538,60848.9361662809,16100.7466408993
4184116816,27868,-2,0,-9020.1205056929,42756.7877602484,12986.3394651895,30586.2801993403,51086.1359496061,14121.9749450684,46431.8945732562,57889.6306219732,60851.2480286773,16101.1846779849
4184116816,27868,-2,0,-9023.4422869256,42756.6417478866,12982.7134915363,30582.7393995649,51085.8439248823,14111.3160426515,46434.9486651588,57884.9582263932,60846.4782915227,16099.7123866694
4184116816,27868,-2,0,-9026.6423911900,42751.5556506146,12979.0753501862,30572.8227266542,51078.5554744854,14112.2772907005,46408.1918998451,57875.5890998395,60840.8324801968,16096.2324253780
4184116816,27868,-2,0,-9024.4035349746,42754.8044256663,12982.2267836634,30573.0052421065,51084.9070122270,14114.7595008524,46411.8178734983,57880.8090417765,60843.2660195614,16096.2810961653
4184148415,27869,-2,0,-9024.9632490284,42754.4515624584,12981.0586847684,30570.5473673483,51089.3117184769,14109.0528510424,46422.1482481010,57881.2957496495,60843.1321748964,16094.2734261895
4184148415,27869,-2,0,-9026.4842111313,42750.1807008736,12980.2434490812,30570.2796780182,51082.6681560116,14107.9699260252,46403.3613242064,57873.7396099224,60835.4421905043,16092.3509300915
4184148415,27869,-2,0,-9019.0619160693,42755.3641397202,12984.9888508422,30586.5600563673,51087.1823715329,14117.0713632487,46410.8444577525,57876.3921678298,60836.7684694580,16094.0909107372
4184148415,27869,-2,0,-9016.9204014285,42760.8152678968,12986.6801607006,30589.9305083872,51091.5019039050,14109.1258572233,46430.0329156423,57880.7482032924,60836.9023141230,16096.1715868939
4184148415,27869,-2,0,-9026.8979128233,42754.5124009426,12985.4755587151,30573.3946084049,51083.3495470336,14106.9843425825,46411.5988549555,57872.3768278783,60830.2830870513,16096.0012391384
4184148415,27869,-2,0,-9031.9840100953,42747.9661800518,12984.7454969057,30563.7091217338,51075.1120162845,14112.6909923925,46391.6316644691,57869.8824500295,60829.4070128801,16095.0156556957
4184148415,27869,-2,0,-9029.7938246671,42748.8787573135,12982.6648207490,30567.4932754457,51079.6262318058,14114.2241221921,46409.9562158844,57874.0316346462,60832.3029247239,16097.5343689380
4184148415,27869,-2,0,-9026.3868695567,42750.9837688639,12980.0487659321,30574.8790674172,51081.6460694784,14119.5779087942,46422.1969188883,57874.2871562795,60833.3493466507,16098.2157599601
4184194513,27870,-2,0,-9018.9280714042,42755.4249782043,12986.1691174340,30589.1396080937,51084.9191799238,14125.9294465358,46413.6186926281,57875.6986091109,60839.4696981527,16099.7002189725
4184194513,27870,-2,0,-9019.1105868566,42759.6593366987,12990.3548051411,30588.2148631352,51090.4433142814,14121.0745355035,46419.6903733428,57879.3854212483,60841.5017035221,16099.3351880678
4184194513,27870,-2,0,-9019.9014871501,42758.5520762878,12990.2209604761,30586.2315285531,51093.0472014015,14122.8145161491,46428.6092951140,57881.4174266177,60840.1997599620,16102.2310999117
4184194513,27870,-2,0,-9022.7608959035,42756.2888846787,12989.3570540016,30580.1111770511,51091.5627423891,14127.9127811180,46411.6110226524,57877.7062790867,60838.9829902797,16103.3383603226
4184194513,27870,-2,0,-9021.3372753752,42757.2136296372,12984.1006089741,30577.9088239262,51093.9841140569,14132.0011272505,46406.1598944757,57881.5512712827,60840.2119276589,16103.3626957162
4184194513,27870,-2,0,-9023.9898332826,42755.6683321407,12972.0424214226,30573.3581053144,51094.0327848442,14129.0443769225,46416.0157289023,57882.1231530334,60839.3845242749,16098.4712815934
4184194513,27870,-2,0,-9032.2273640317,42746.1653609220,12958.0252346826,30559.9128003250,51085.0043538016,14135.2255669085,46394.9169426113,57874.2141500985,60838.2164253799,16093.5311966833
4184194513,27870,-2,0,-9037.4716413624,42737.6358054491,12938.8854475801,30554.2669889992,51075.4770471892,14137.4400877303,46377.8456639687,57871.5494244943,60838.5206178005,16088.2504162621
4184238376,27871,-2,0,-9041.3044658616,42738.5848858013,12916.7280716655,30559.0610615474,51078.4824683045,14142.2098248849,46394.3572285574,57878.1199807787,60839.2263442162,16090.3554278125
4184238376,27871,-2,0,-9036.6685733721,42741.8944993372,12894.2908387240,30567.3715984775,51081.3175416642,14157.2247627644,46396.1215445968,57882.0623145493,60841.9275729109,16094.0787430403
4184238376,27871,-2,0,-9025.8028201092,42748.1365278073,12877.2073923846,30577.3612775691,51084.7488321683,14174.9409293386,46391.1936273835,57890.0686590588,60848.9118308873,16096.7434686446
4184238376,27871,-2,0,-9015.8496441080,42757.4934866642,12854.5876439907,30587.3509566608,51094.5194927171,14178.6034060823,46409.4086695274,57902.0173373389,60856.5531444921,16098.8728155886
4184238376,27871,-2,0,-9013.4039370466,42753.5268174999,12816.6365976000,30581.4861267921,51093.5217415776,14173.6876565659,46415.1761578215,57899.3769471284,60852.3187859977,16095.9647360479
4184238376,27871,-2,0,-9018.8185621328,42742.8070765989,12776.8117258985,30571.4842800036,51081.5730632975,14173.6633211722,46391.9480245865,57890.6770439000,60845.9915836498,16087.0579819735
4184238376,27871,-2,0,-9018.2588480790,42744.0360139780,12744.0684537479,30575.5969615298,51084.0796088430,14181.0856162342,46395.1724642446,57896.0186628052,60848.4616261048,16084.4784302470
4184238376,27871,-2,0,-9016.0443272572,42745.9220069856,12711.2643431133,30580.4275371685,51089.0926999341,14179.2726294076,46411.8178734983,57901.0195861995,60851.5035503105,16087.3013359100
4184248390,27872,-2,0,-9020.7410582309,42741.9431701245,12682.1348769192,30578.2616871340,51084.3229627795,14187.2546385234,46395.8903583571,57894.9114023943,60850.6031407456,16089.6010306095
4184248390,27872,-2,0,-9020.4490335071,42741.6268100071,12660.8657428727,30583.0070888950,51081.8772557181,14196.1613925978,46388.9669388649,57895.0209116657,60853.2922017435,16092.0345699741
4184248390,27872,-2,0,-9018.6725497710,42746.2870378902,12641.2027448068,30590.2955392919,51086.4888128140,14198.0352179086,46406.9386270723,57900.7275614757,60856.3097905556,16094.3829354609
4184248390,27872,-2,0,-9017.1759230617,42746.7129072790,12624.7885217926,30593.9458483388,51084.7123290778,14202.3669179775,46405.8800374488,57901.7374803120,60858.9015099789,16094.5046124291
4184248390,27872,-2,0,-9015.9956564699,42748.5989002866,12613.2292098108,30595.9535183146,51082.9845161290,14204.2164078946,46395.8538552667,57900.9709154122,60861.1768692848,16094.0422399499
4184248390,27872,-2,0,-9019.1227545534,42750.3023778418,12599.2850292518,30595.5154812290,51083.9944349653,14197.9987148181,46408.4474214784,57903.5748025323,60862.8316760527,16094.5654509132
4184248390,27872,-2,0,-9028.7595704372,42742.0648470927,12581.2281671665,30588.9935957319,51076.4382952382,14191.7931894384,46404.5902615855,57895.6414642037,60855.0565177828,16090.4892724776
4184248390,27872,-2,0,-9036.1453624087,42733.9854964023,12568.5859301675,30588.9935957319,51066.8501501417,14195.0784675806,46384.3918848594,57889.5941188827,60853.3652079245,16088.5181055922
4184277457,27873,-2,0,-9040.1850377539,42734.7885643926,12560.1780516628,30590.8674210426,51068.2859383668,14196.6359327739,46392.1792108261,57891.4922795871,60854.5089714258,16089.0656519493
4184277457,27873,-2,0,-9041.4504782235,42735.1535952973,12549.1054475539,30590.0400176586,51069.9164097411,14194.3970765585,46403.1666410572,57889.7766343351,60853.7667419196,16091.8642222186
4184277457,27873,-2,0,-9039.8321745461,42731.0530814679,12541.1842769222,30589.8331668126,51065.5482065817,14196.8671190136,46388.9182680776,57885.1529095423,60852.6716492055,16088.8588011033
4184277457,27873,-2,0,-9038.4450571082,42731.1260876489,12537.4244586039,30596.2455430383,51066.7406408703,14196.1978956883,46387.9205169381,57888.3651815036,60853.3043694403,16088.4207640177
4184277457,27873,-2,0,-9037.4351382719,42733.2554345929,12531.8516534590,30603.5704965257,51071.0236701520,14189.3596500738,46405.8435343583,57893.4877818661,60852.6229784183,16090.3919309030
4184277457,27873,-2,0,-9039.3211312795,42731.8683171551,12528.8462323437,30606.0405389808,51069.0646709635,14188.8851098977,46397.8980283329,57888.9857340416,60848.3034460461,16090.4406016903
4184277457,27873,-2,0,-9035.5126421739,42735.4821231115,12530.8782377132,30610.1775559006,51071.3156948758,14194.2875672871,46393.3108066307,57892.1371675187,60851.4792149169,16091.4991913139
4184277457,27873,-2,0,-9028.5892226817,42737.9886686570,12528.8218969501,30614.0468834903,51078.4703006076,14193.2654807540,46408.2040675419,57897.8073142382,60855.0930208733,16091.1584958028
4184318349,27874,-2,0,-9027.0560928820,42734.6182166370,12526.3761898887,30610.4939160180,51077.0345123825,14190.3574012133,46402.8259455462,57895.3494394800,60853.5233879832,16092.3265946978
4184318349,27874,-2,0,-9026.3138633758,42733.1580930183,12526.4978668569,30610.1167174165,51071.7172288709,14192.8761144556,46383.9173446833,57893.2565956264,60854.2777851862,16092.9471472358
4184318349,27874,-2,0,-9019.4634500645,42740.3978726279,12528.8218969501,30620.8121229239,51079.8330826518,14196.1492249010,46402.2783991892,57902.6013867864,60859.7654164533,16093.7137121356
4184318349,27874,-2,0,-9019.0740837661,42747.1874474551,12529.4302817912,30624.6692828167,51088.0219426137,14196.7332743485,46416.6606168339,57905.3634539652,60862.1381173338,16093.5190289865
4184318349,27874,-2,0,-9021.4954554339,42748.6962418612,12531.1459270433,30624.9613075405,51088.6424951516,14200.3835833954,46402.1202191305,57906.4463789825,60866.0804511044,16093.5555320769
4184318349,27874,-2,0,-9023.2232683827,42748.2338693819,12528.5542076200,30624.9248044500,51088.6546628485,14191.9392018003,46401.6943497417,57908.2106950218,60864.9610229967,16090.7326264140
4184318349,27874,-2,0,-9025.3282799331,42746.4087148585,12524.2955137320,30621.7733709729,51088.2409611565,14181.4384794421,46412.0733951316,57907.8699995108,60861.6027386736,16091.9128930058
4184318349,27874,-2,0,-9029.9520047258,42739.2297737329,12520.1098260249,30614.3754113045,51079.7479087741,14179.8445111583,46394.0043653496,57898.0750035683,60852.3187859977,16089.8808876364
4184349587,27875,-2,0,-9030.9132527748,42738.9012459187,12518.4915223474,30615.7868641360,51077.5942264364,14180.0756973979,46385.2801267275,57897.3327740621,60849.9582528140,16088.7249564382
4184349587,27875,-2,0,-9028.8204089213,42741.1401021341,12511.7627860043,30619.4736762733,51081.3905478452,14176.8147546494,46402.6190947002,57899.6933072458,60847.7072289018,16087.4838513623
4184349587,27875,-2,0,-9029.4287937624,42735.6889739575,12509.1223957938,30614.8864545711,51076.2801151795,14174.3082091038,46394.5519117066,57894.6558807611,60844.3611122755,16085.1354858755
4184349587,27875,-2,0,-9029.9155016354,42732.6348820549,12511.7019475202,30611.7228533971,51070.5369622791,14179.1387847425,46378.0525148147,57894.3030175532,60845.7847328038,16085.4153429024
4184349587,27875,-2,0,-9023.6734731652,42737.6358054491,12513.1985742294,30615.6165163805,51080.2467843438,14182.1077027673,46392.8119310609,57901.1169277740,60850.9073331662,16089.1873289175
4184349587,27875,-2,0,-9019.9988287247,42741.1644375278,12510.6920286839,30619.2546577305,51086.2332911807,14177.4718102778,46405.4054972727,57899.7784811235,60850.2624452346,16089.9903969078
4184349587,27875,-2,0,-9022.7608959035,42737.8669916888,12508.6965264049,30616.3344104930,51081.1958646960,14172.7629116073,46391.0111119311,57893.1470863550,60845.3831988086,16084.9286350295
4184349587,27875,-2,0,-9026.6910619773,42739.6799785154,12508.3923339844,30618.4272543466,51078.9448407837,14170.7430739347,46394.6370855844,57893.6094588343,60841.2218464952,16081.9962200951
4184374591,27876,-2,0,-9031.5216376160,42739.7286493027,12506.7131918228,30617.9527141705,51080.7091568231,14168.1026837241,46405.1256402457,57895.6779672942,60839.6522136050,16081.9962200951
4184374591,27876,-2,0,-9043.3608066247,42734.0585025832,12504.9245403898,30613.0126292603,51074.7348176830,14172.6290669423,46387.8840138476,57891.4557764966,60835.8802275899,16080.9011273811
4184374591,27876,-2,0,-9042.1075338520,42736.2973587986,12507.9542968987,30615.8842057106,51079.5897287154,14176.4983945320,46388.3707217205,57894.8870670007,60843.0591687154,16083.8213746186
4184374591,27876,-2,0,-9040.0998638762,42738.6092211950,12503.4644167711,30614.7404422092,51084.8096706524,14167.5064665798,46407.1333102215,57897.7708111477,60842.6576347203,16084.0890639487
4184374591,27876,-2,0,-9041.2314596807,42734.4600365783,12501.1647220715,30610.4695806244,51078.8353315123,14163.1869342077,46399.7353505532,57893.3539372010,60840.0537476002,16083.0061389315
4184374591,27876,-2,0,-9044.0300299500,42732.6713851454,12503.8051122821,30609.6665126340,51076.0610966367,14165.2797780612,46387.0322750700,57894.4368622182,60842.0249144855,16082.0935616697
4184374591,27876,-2,0,-9043.4459805025,42738.4388734395,12505.8249499547,30614.8377837838,51083.3008762464,14167.5429696703,46405.2108141235,57904.3170320385,60847.0380055765,16085.2084920564
4184374591,27876,-2,0,-9043.6406636516,42741.4686299484,12508.9642157351,30615.4340009281,51087.6204086185,14167.9445036654,46409.7858681289,57905.4486278430,60847.4395395717,16088.3234224431
4184427806,27877,-2,0,-9046.8407679161,42739.0107551901,12509.2197373683,30610.7372699545,51081.3175416642,14169.7453227952,46389.7578391584,57900.3625305710,60846.4539561290,16085.9872246531
4184427806,27877,-2,0,-9048.8849409823,42736.4920419478,12504.9488757835,30607.9873704725,51078.9813438742,14169.3316211033,46389.7943422488,57899.1214254951,60845.1276771753,16082.6654434204
4184427806,27877,-2,0,-9049.5298289139,42733.8273163436,12500.7510203796,30605.9675327999,51076.9371708080,14166.5573862276,46394.2720546797,57897.2841032748,60844.6044662119,16084.9894735136
4184427806,27877,-2,0,-9049.7488474568,42729.3252685191,12501.8096100032,30603.2176333179,51071.2183533012,14169.8669997635,46374.5968889170,57893.2079248391,60845.2858572340,16085.0138089072
4184427806,27877,-2,0,-9046.9502771875,42730.2743488713,12503.5860937393,30605.5781665015,51070.6708069441,14165.7908213278,46376.2516956849,57894.7653900325,60845.4683726864,16083.2373251711
4184427806,27877,-2,0,-9049.0066179506,42732.9755775660,12500.9943743160,30606.2595575236,51072.8853277659,14156.6163779233,46393.9678622591,57894.4490299151,60843.8987397962,16083.3103313520
4184427806,27877,-2,0,-9053.1436348704,42727.8529772035,12498.7068473133,30601.6358327309,51067.8600689780,14151.4329390767,46380.4738864824,57885.8951390485,60837.4376927832,16083.2616605647
4184427806,27877,-2,0,-9052.1702191245,42726.2955120102,12499.6315922719,30601.7940127896,51065.7915605181,14152.9782365732,46370.1313441829,57885.2867542074,60837.2795127245,16084.9042996358
4184432764,27878,-2,0,-9054.0562121321,42729.1549207635,12497.1737175136,30603.9841982177,51070.2327698585,14152.5523671844,46385.1706174561,57890.0443236652,60839.5792074241,16089.4671859444
4184432764,27878,-2,0,-9053.2896472322,42728.6073744065,12495.9934509218,30602.4754038117,51067.5072057702,14151.3721005926,46385.3896359989,57886.9902317626,60837.7053821133,16089.2238320080
4184432764,27878,-2,0,-9050.1503814519,42727.7678033257,12502.4910010252,30600.7232554692,51063.0781641266,14151.9439823433,46372.1998526429,57883.0600656888,60837.8027236879,16087.9948946289
4184432764,27878,-2,0,-9048.1548791730,42729.3982747000,12506.4455024927,30599.3118026377,51064.1002506598,14144.8623827923,46382.1043578567,57886.1628283786,60837.2186742404,16084.2472440074
4184432764,27878,-2,0,-9052.0485421563,42725.0422392374,12501.9556223650,30592.7290786565,51060.3160969478,14138.4378388698,46384.5744003118,57883.8631336791,60834.2375885188,16081.1201459239
4184432764,27878,-2,0,-9056.3924099221,42718.8367138577,12500.0087908734,30588.4703847685,51051.4945167512,14143.0737313593,46364.6802160063,57877.6332729058,60832.3637632081,16079.5018422464
4184432764,27878,-2,0,-9054.0075413448,42723.0710723521,12505.2774035977,30593.0454387739,51055.7167075487,14143.2562468117,46373.9276655917,57884.1551584029,60835.8558921962,16083.2494928679
4184432764,27878,-2,0,-9050.9169463518,42727.0255738195,12506.3481609181,30596.7322509113,51059.9875691336,14133.4125800819,46393.7123406258,57886.8807224912,60834.6877933012,16085.1841566628
4184467354,27879,-2,0,-9056.8912854918,42720.2116635987,12501.0552128001,30590.9039241331,51051.9082184432,14128.1561350544,46377.4562976704,57878.5093470770,60827.4115106011,16081.9232139142
4184467354,27879,-2,0,-9061.0283024116,42715.9894728011,12500.3129832939,30585.3919574723,51049.4381759881,14131.8186117981,46365.6292963585,57875.8202860791,60826.0973993442,16081.2296551953
4184467354,27879,-2,0,-9057.8768689345,42721.5987810365,12505.2287328104,30588.0566830765,51057.7973837055,14132.1471396123,46383.5036429914,57882.8532148428,60830.1005715990,16086.4374294355
4184467354,27879,-2,0,-9060.0183835753,42721.1485762540,12507.7352783559,30583.7979891885,51058.5517809085,14128.1804704481,46377.4076268831,57880.6265263242,60829.0176465817,16087.0823173671
4184467354,27879,-2,0,-9059.0328001327,42722.8763892029,12513.3202511977,30582.5933872030,51059.3061781115,14130.7843575682,46366.2985196837,57879.2759119769,60830.3560932323,16083.7848715281
4184467354,27879,-2,0,-9057.1103040346,42726.5388659466,12510.6433578966,30586.1585223721,51064.3801076867,14128.2899797195,46383.3089598422,57883.4859350776,60832.1690800589,16085.3545044183
4184467354,27879,-2,0,-9055.5893419318,42725.5532825040,12508.7086941018,30586.1098515848,51062.6279593442,14125.4792417534,46387.7136660921,57882.1231530334,60829.1149881563,16086.4009263451
4184467354,27879,-2,0,-9056.9764593696,42719.9561419654,12509.0858927033,30583.7736537948,51050.9713057878,14124.3598136457,46369.3891146767,57874.9077088174,60825.9878900728,16083.3224990489
4184496138,27880,-2,0,-9056.9156208855,42722.5113582982,12512.3346677550,30587.6064782940,51053.0884850350,14126.1362973818,46380.9727620522,57880.7238678988,60828.6282802834,16085.5370198706
4184496138,27880,-2,0,-9057.6821857853,42722.5235259950,12509.1588988842,30587.0224288465,51056.4346016613,14126.2579743500,46397.7885190615,57884.6905370631,60828.4579325279,16084.6852810930
4184496138,27880,-2,0,-9060.4077498737,42718.0093104737,12506.5063409768,30581.6078037603,51054.7189564093,14128.9348676511,46382.6640719106,57879.2394088864,60826.8396288504,16081.4000029508
4184496138,27880,-2,0,-9065.7372010821,42719.5302725766,12505.7154406833,30580.9020773446,51057.3593466198,14128.6793460178,46377.3711237926,57881.7337867351,60827.8617153836,16079.1246436449
4184496138,27880,-2,0,-9065.9318842313,42723.2049170171,12508.4410047717,30582.6663933839,51064.5869585327,14131.5265870744,46393.6880052322,57887.7689643593,60831.4511859463,16082.9696358410
4184496138,27880,-2,0,-9059.9332096976,42725.2490900834,12515.4982689290,30584.9174172962,51066.3391068752,14138.7907020777,46387.8596784540,57889.4724419145,60834.1889177315,16089.0534842525
4184496138,27880,-2,0,-9051.9877036722,42729.1427530667,12523.5654519226,30588.6163971304,51068.3346091541,14142.6600296674,46380.0115140032,57890.3971868730,60838.6179593750,16091.9737314900
4184496138,27880,-2,0,-9048.1305437793,42732.3793604216,12521.5091111595,30588.5555586462,51073.3111971547,14134.7875298229,46394.5519117066,57895.2277625117,60838.1555868958,16091.6938744630
4184548103,27881,-2,0,-9052.9124486307,42729.0575791890,12517.5424419952,30585.6718144992,51067.7383920098,14130.3584881794,46391.3274720485,57889.5454480954,60832.8261356873,16088.4329317145
4184548103,27881,-2,0,-9059.1058063136,42720.5766945034,12515.2184119020,30581.4982944889,51056.8239679596,14129.6527617636,46371.0439214447,57882.1718238207,60826.4380948553,16082.4707602712
4184548103,27881,-2,0,-9058.4852537756,42722.6938737506,12513.9043006452,30584.0048400345,51058.5274455148,14128.7401845019,46384.1850340134,57886.3818469215,60829.5286898483,16080.8889596843
4184548103,27881,-2,0,-9057.9498751154,42722.7668799315,12513.6609467087,30583.4451259806,51062.1655868649,14125.5765833280,46396.4987431983,57887.2579210927,60828.2389139851,16080.9497981684
4184548103,27881,-2,0,-9060.7119422942,42718.8853846450,12512.5293509042,30577.7141407770,51057.0916572897,14126.4404898024,46377.8456639687,57884.1186553124,60824.9049650556,16079.6235192147
4184548103,27881,-2,0,-9063.3888355953,42716.3180006153,12511.5437674615,30576.7772281216,51056.7996325660,14127.0488746435,46373.8668271076,57884.7513755472,60825.3795052317,16077.8470354785
4184548103,27881,-2,0,-9065.9318842313,42715.0160570553,12508.4531724685,30577.1665944200,51056.8118002628,14122.3034728826,46383.4063014168,57886.3696792246,60826.1217347379,16078.4432526229
4184548103,27881,-2,0,-9070.1297396352,42709.5284257881,12509.4752590016,30573.8083100968,51051.5188521448,14120.2592998163,46368.7320590483,57879.0447257372,60824.0775616716,16078.8934574053
4184554215,27882,-2,0,-9073.0013160854,42710.1368106293,12512.4928478137,30571.5816215782,51049.6085237436,14118.1421205691,46361.3584347736,57879.8599614244,60823.9923877939,16079.5018422464
4184554215,27882,-2,0,-9071.5898632539,42714.7605354220,12512.1643199995,30572.1291679353,51053.1371558223,14116.1101151997,46377.8943347560,57883.9969783442,60822.6539411433,16083.0426420219
4184554215,27882,-2,0,-9067.2459954881,42717.2305778771,12518.8687209489,30574.0394963365,51057.6513713436,14124.1042920124,46377.1399375530,57885.2989219042,60828.4092617406,16088.7857949224
4184554215,27882,-2,0,-9063.7173634095,42721.2337501318,12528.3960275613,30577.4829545374,51061.1313326350,14131.4049101061,46366.3593581678,57888.4503553814,60834.1767500347,16091.6330359789
4184554215,27882,-2,0,-9058.5339245629,42728.3883558637,12534.0418388871,30582.9219150172,51069.1985156286,14130.9790407173,46382.6275688201,57896.0429981989,60840.0780829938,16093.6285382579
4184554215,27882,-2,0,-9061.7218611305,42729.8728148761,12530.1725112974,30580.9020773446,51071.0358378488,14126.3674836214,46388.2612124491,57895.8604827465,60837.0483264849,16093.1053272945
4184554215,27882,-2,0,-9067.7327033611,42724.7867176041,12524.5023645780,30575.3171045029,51062.7374686156,14121.0867032003,46370.9100767796,57889.2777587653,60832.8139679905,16090.2094154506
4184554215,27882,-2,0,-9068.8277960751,42724.5920344549,12526.1936744363,30577.4464514469,51064.8303124691,14116.9010154932,46377.1277698561,57891.2245902570,60833.7995514332,16088.6032794700
4184587285,27883,-2,0,-9073.8773902567,42723.1927493203,12526.3883575855,30576.8380666057,51068.8821555112,14109.8072482454,46389.7213360679,57890.3485160857,60830.2222485672,16087.0458142767
4184587285,27883,-2,0,-9074.2302534645,42721.0268992858,12528.2135121089,30575.3536075933,51066.5216223275,14117.1687048233,46378.3323718416,57888.4381876845,60826.9978089091,16089.5036890349
4184587285,27883,-2,0,-9062.1233951257,42729.0940822794,12532.8372369017,30582.8489088363,51072.1187628661,14121.6585849510,46380.9970974458,57896.9555754606,60832.3394278144,16093.2878427468
4184587285,27883,-2,0,-9055.2851495112,42732.9269067787,12531.8029826717,30585.2459451104,51079.3098716884,14117.5337357280,46402.4000761574,57901.6523064342,60831.8283845479,16092.2657562137
4184587285,27883,-2,0,-9053.8250258924,42732.2211803629,12532.7277276303,30583.2747782251,51077.4847171650,14119.5535734006,46395.5374951492,57898.7807299840,60830.6724533497,16088.8588011033
4184587285,27883,-2,0,-9055.4920003572,42728.0841634431,12535.8791611074,30581.9850023618,51074.0412589641,14120.4661506623,46380.1331909714,57894.8870670007,60830.8671364988,16085.8412122912
4184587285,27883,-2,0,-9056.8547824014,42732.1725095756,12537.5826386626,30583.9805046408,51078.2147789744,14123.6419195331,46393.4446512957,57898.8050653777,60835.9288983772,16089.3698443699
4184587285,27883,-2,0,-9058.3879122010,42735.2022660845,12538.9332530100,30585.3189512913,51079.9790950137,14125.6374218121,46400.1125491547,57898.4887052603,60836.6467924897,16094.2977615831
4184619563,27884,-2,0,-9061.5880164655,42733.8881548277,12541.4884693428,30582.2040209047,51075.1728547686,14124.9073600027,46384.3310463753,57895.6049611132,60835.5760351693,16092.9714826294
4184619563,27884,-2,0,-9059.8602035166,42736.6380543097,12542.4497173918,30582.4352071443,51075.8299103971,14122.1087897334,46392.1670431293,57898.2210159302,60836.0262399518,16090.1364092697
4184619563,27884,-2,0,-9056.3802422253,42737.2586068476,12540.6367305652,30582.8245734426,51078.4581329108,14114.9298486079,46401.0251264164,57898.6590530158,60834.9311472377,16092.5091101502
4184619563,27884,-2,0,-9059.4951726119,42734.0463348864,12542.9242575679,30579.2959413640,51074.2481098101,14113.3115449304,46381.6176499838,57894.0718313136,60833.9212284014,16091.7060421599
4184619563,27884,-2,0,-9060.3712467832,42737.0639236985,12548.2902118668,30580.6343880145,51077.3265371063,14111.4742227102,46383.0534382089,57896.7730600083,60836.1479169200,16089.0291488588
4184619563,27884,-2,0,-9059.1179740104,42739.5583015472,12548.2050379890,30582.3987040538,51082.5464790433,14105.8284113843,46403.5681750524,57897.6369664827,60833.3493466507,16087.3378390004
4184619563,27884,-2,0,-9059.0693032231,42735.3239430528,12547.2316222432,30578.9552458529,51078.2634497617,14107.8604167537,46392.8362664546,57893.1592540518,60829.3218390023,16087.2648328195
4184619563,27884,-2,0,-9058.7894461962,42735.2509368718,12547.7913362971,30577.4221160532,51074.3089482942,14113.7739174097,46381.5081407124,57893.9744897390,60831.7432106701,16089.2968381889
4184675806,27885,-2,0,-9059.4708372183,42739.6313077281,12549.6773293046,30579.4541214227,51078.8353315123,14109.9167575168,46397.2896434918,57900.2043505123,60837.3281835118,16093.9570660721
4184675806,27885,-2,0,-9062.8899600255,42736.0175017717,12551.0766144393,30574.9885766887,51076.5356368128,14104.3682877656,46396.0972092031,57895.9213212306,60835.9775691645,16093.8232214070
4184675806,27885,-2,0,-9062.2207367003,42732.0873356979,12557.3186429094,30572.5428696272,51071.8145704455,14103.6260582594,46385.4018036957,57892.8063908440,60833.2155019857,16091.2071665901
4184675806,27885,-2,0,-9061.5515133750,42732.1481741820,12556.8927735206,30573.8204777937,51074.5644699275,14095.7535584149,46396.3405631396,57896.9799108542,60832.9599803524,16089.0169811620
4184675806,27885,-2,0,-9065.4208409647,42730.2256780840,12553.5101538038,30570.0728271722,51075.1241839813,14094.4881179453,46401.5483373798,57895.9456566243,60829.5408575451,16089.5036890349
4184675806,27885,-2,0,-9069.9107210924,42724.6772083327,12552.5854088453,30562.6261967165,51065.9375728800,14098.0410854176,46378.7825766241,57889.3385972494,60827.6670322344,16089.3941797635
4184675806,27885,-2,0,-9067.3068339723,42728.0233249590,12556.3938979509,30564.5000220273,51068.7239754525,14097.3596943955,46381.9583454949,57891.1515840760,60829.3461743960,16089.3698443699
4184675806,27885,-2,0,-9067.6110263928,42730.2135103871,12557.9270277506,30564.8528852351,51072.8123215850,14089.7792192749,46395.0872903668,57888.9735663447,60826.0608962538,16087.1188204576
4184683810,27886,-2,0,-9074.7169613374,42724.9205622692,12557.0752889730,30557.2237393272,51066.4729515402,14087.1388290643,46378.5392226876,57879.6044397911,60821.8630408499,16079.8668731511
4184683810,27886,-2,0,-9082.3461072454,42718.3378382880,12557.4646552713,30552.1011389647,51060.7419663366,14086.1289102280,46365.3737747252,57876.4895094044,60818.2614025903,16075.9367070773
4184683810,27886,-2,0,-9085.2176836956,42717.4374287231,12556.7589288556,30552.2228159329,51063.2850149726,14083.4763523206,46382.0191839790,57879.9938060894,60818.8089489473,16081.7285307650
4184683810,27886,-2,0,-9089.5372160678,42712.2418221797,12554.9459420290,30548.7428546416,51058.9289795100,14079.5340185499,46377.2616145212,57877.2317389106,60817.4583346000,16084.4419271566
4184683810,27886,-2,0,-9090.4619610263,42709.6257673627,12556.4060656477,30546.7595200594,51054.9258072553,14077.3194977282,46366.4688674392,57874.6765225778,60817.1054713921,16085.5735229611
4184683810,27886,-2,0,-9087.4687076079,42711.2075679497,12555.3109729336,30548.4021591305,51053.7455406634,14070.7246060501,46381.4838053188,57875.5769321427,60815.5236708051,16085.5491875674
4184683810,27886,-2,0,-9085.8747393241,42707.6789358711,12548.6065719842,30547.3800725974,51048.7324495724,14064.1905528562,46382.8709227566,57868.5440033790,60808.5637482224,16084.4054240661
4184683810,27886,-2,0,-9089.8535761852,42701.0110380121,12547.4871438765,30540.0672868068,51037.2461437715,14062.3775660296,46357.6959580299,57858.3839765319,60801.3361363096,16079.2949914005
4184715567,27887,2,0,-9092.9806742687,42702.2521430880,12551.5268192217,30538.0596168310,51038.1343856396,14063.4239879564,46359.7644664898,57861.2068821948,60803.7575079773,16077.9322093563
4184715567,27887,2,0,-9099.4660566753,42700.8041871661,12552.4028933930,30533.7644198525,51039.7770247107,14062.1463797900,46369.0970899530,57858.1041195049,60801.8593472729,16078.1390602023
4184715567,27887,2,0,-9100.7071617512,42697.4459028430,12559.4966606407,30529.6152352359,51032.8292698248,14066.6727630081,46353.7657919561,57855.8287601991,60803.3803093758,16079.0394697672
4184715567,27887,2,0,-9100.4029693307,42696.1439592829,12563.8283607097,30528.5079748250,51031.1866307537,14065.8696950178,46345.4187519356,57855.7314186245,60806.4952397625,16081.7528661587
4184715567,27887,2,0,-9101.8022544653,42695.6937545005,12565.2033104507,30530.6008186786,51034.0947102944,14059.8345173936,46360.4336898151,57858.7003366493,60804.4997374835,16088.1530746876
4184715567,27887,2,0,-9102.5688193651,42691.7149176394,12565.5561736586,30528.5323102187,51030.2618857952,14061.3068087092,46352.1596559755,57853.0788607171,60799.8273419035,16088.6032794700
4184715567,27887,2,0,-9097.4340513059,42692.2016255123,12568.6711040452,30530.3331293485,51029.0451161129,14063.7403480738,46343.1920634170,57852.1541157585,60798.7200814926,16085.3545044183
4184715567,27887,2,0,-9095.2438658777,42697.4215674493,12570.2894077227,30532.7301656226,51032.7319282502,14062.4992429978,46360.3971867246,57857.3983930892,60801.9810242412,16083.5658529853
4184747563,27888,2,0,-9100.1596153942,42696.1561269797,12570.8369540797,30530.0654400184,51030.0550349492,14058.0093628702,46359.7157957025,57854.4173073676,60799.6326587543,16080.9376304716
4184747563,27888,2,0,-9106.7180039818,42691.1917066760,12575.0469771805,30524.3709579052,51021.7201626254,14061.3554794965,46337.7531029371,57847.4452170880,60798.9634354291,16078.6014326815
4184747563,27888,2,0,-9104.3574707981,42694.7325064514,12583.7468804089,30527.2060312650,51026.7697568070,14065.3343163576,46349.3975887967,57854.6484936072,60803.5141540409,16080.6942765351
4184747563,27888,2,0,-9099.6850752181,42698.8816910681,12588.1150835683,30529.7369122041,51033.0969591549,14065.6993472623,46363.0497446320,57857.0820329718,60805.4853209262,16081.6433568873
4184747563,27888,2,0,-9096.7161571933,42699.3440635473,12595.1845154224,30532.0852776910,51035.7860201528,14070.6394321724,46351.9528051295,57856.1937911037,60806.1423765546,16084.6244426089
4184747563,27888,2,0,-9093.0171773591,42701.9722860611,12601.4265438926,30538.0474491342,51039.7405216202,14066.6970984017,46356.6130330127,57861.2312175884,60807.7971833225,16086.7902926434
4184747563,27888,2,0,-9092.9928419655,42699.8794422075,12600.2584449976,30537.8405982882,51039.6431800456,14054.9917740581,46370.5693812686,57860.6593358378,60803.6236633123,16086.6564479783
4184747563,27888,2,0,-9089.1965205567,42696.1439592829,12601.2805315307,30537.5364058676,51036.2848957225,14057.8146797210,46359.5332802502,57856.6926666735,60798.6105722212,16087.6541991178
4184785750,27889,2,0,-9087.4200368206,42697.2512196938,12599.1633522835,30535.2123757745,51035.9198648178,14059.0071140096,46351.7216188898,57855.9626048641,60797.5154795072,16082.7749526918
4184785750,27889,2,0,-9084.9864974560,42702.9943725942,12599.6743955501,30536.7090024837,51042.1862286816,14058.6542508018,46369.9731641242,57859.8806032411,60797.3694671453,16081.4973445254
4184785750,27889,2,0,-9085.7165592654,42703.1403849561,12602.8988352082,30533.9712706985,51042.3930795276,14059.9196912714,46366.7243890725,57854.9283506342,60794.8750892966,16079.9885501194
4184785750,27889,2,0,-9089.7318992169,42700.5364978360,12610.1264471210,30532.9978549527,51037.9153670968,14063.3144786850,46349.0203901951,57853.4317239249,60795.6416541964,16077.2021475469
4184785750,27889,2,0,-9089.4763775837,42703.1282172593,12615.5775752977,30537.9987783469,51043.5246753322,14062.5479137851,46364.2543466175,57861.5475777058,60799.5839879671,16076.4842534344
4184785750,27889,2,0,-9088.4542910505,42705.9389552254,12621.3572312886,30539.9577775354,51048.9271327215,14060.0413682396,46375.1200998804,57864.3583156719,60803.4898186472,16079.6965253956
4184785750,27889,2,0,-9089.6710607328,42705.8172782571,12624.2774785261,30537.3782258089,51047.8320400075,14062.8156031152,46357.7202934235,57860.7080066250,60802.2365458745,16079.0881405545
4184785750,27889,2,0,-9086.9454966445,42709.5405934850,12625.4455774211,30539.0938710610,51049.1461512644,14062.2315536677,46358.7302122598,57863.9567816768,60802.9666076838,16078.0538863245
4184812895,27890,2,0,-9085.7773977495,42711.7429466099,12625.2873973624,30540.4444854083,51050.3750886435,14059.3843126111,46369.8514871560,57862.6426704199,60801.3726394000,16078.3215756546
4184812895,27890,2,0,-9085.9599132018,42708.7253577978,12627.0395457049,30538.6558339754,51046.1650655427,14063.4604910468,46352.4638483960,57857.2037099400,60799.6326587543,16079.5505130337
4184812895,27890,2,0,-9080.1559218173,42712.6920269621,12635.1675671826,30543.4864096141,51050.0830639197,14066.3564028907,46352.5003514865,57860.7688451092,60803.2586324076,16079.7208607893
4184812895,27890,2,0,-9075.0089860612,42720.2603343860,12638.3920068407,30545.6035888613,51058.8681410259,14060.3455606602,46375.2782799391,57867.2907306063,60804.1955450629,16079.3436621877
4184812895,27890,2,0,-9079.0486614064,42716.7195346105,12640.0103105181,30538.8140140341,51054.9866457394,14054.3955569137,46366.4810351361,57860.4524849918,60800.3870559574,16077.9078739626
4184812895,27890,2,0,-9085.9599132018,42711.7551143067,12641.6042788019,30533.9712706985,51046.8829596553,14057.0967856084,46347.2195710653,57855.9747725609,60796.4082190963,16075.1944775711
4184812895,27890,2,0,-9087.7729000285,42715.7096157742,12645.6196187535,30537.7189213200,51049.8275422864,14059.2748033397,46361.5896210132,57859.8927709379,60798.5619014339,16078.3702464419
4184812895,27890,2,0,-9087.1523474905,42716.2571621312,12646.9337300104,30537.6459151390,51049.2678282326,14055.9651898039,46364.3273527984,57856.5344866148,60795.7146603774,16078.5892649847
4184841550,27891,2,0,-9087.6877261507,42710.6843569863,12644.1351597411,30530.8806757055,51040.1055525249,14050.9034279256,46346.6841924051,57847.9319249610,60790.4338799562,16072.6027581478
4184841550,27891,2,0,-9087.4930430015,42712.3878345415,12641.4339310464,30529.8220860819,51042.6972719482,14051.3414650112,46356.6860391936,57848.6984898608,60790.6407308022,16071.2521438005
4184841550,27891,2,0,-9088.0892601458,42711.9619651527,12641.8841358289,30527.9847638616,51046.1042270586,14050.4775585368,46369.1457607403,57849.9395949367,60791.7844943035,16074.5982604268
4184841550,27891,2,0,-9094.2582824351,42702.6415093864,12643.6971226555,30521.9130831470,51036.6255912335,14047.6546528738,46347.8522913001,57840.1445989943,60786.4428753983,16074.9754590283
4184841550,27891,2,0,-9093.5768914130,42701.2908950390,12646.7147114676,30525.6850691621,51036.0172063924,14046.3527093138,46347.5237634859,57842.4199583002,60785.5789689238,16074.4522480649
4184841550,27891,2,0,-9089.9995885471,42705.5374212302,12649.8783126415,30528.8243349424,51040.9694589993,14042.3008662717,46366.9190722217,57847.0801861834,60787.4892973250,16076.3869118598
4184841550,27891,2,0,-9092.3357863371,42703.0917141688,12655.0617514881,30525.6729014653,51036.7107651113,14042.9214188097,46354.3863444941,57844.5736406378,60787.2094402981,16074.6590989109
4184841550,27891,2,0,-9091.8247430705,42704.4423285161,12663.4817976896,30526.5976464238,51034.8126044069,14046.5473924629,46344.1411437691,57847.2140308484,60789.0467625184,16072.0308763972
4184904792,27892,2,0,-9090.6079733882,42707.7884451425,12666.7427404381,30529.4935582677,51038.8522797522,14043.0795988684,46363.1592539034,57851.7525817634,60793.5609780397,16073.0894660208
4184904792,27892,2,0,-9096.6674864060,42702.8240248387,12664.5282196164,30524.2371132402,51033.8391886611,14040.8650780466,46360.8717269007,57843.6367279825,60788.5478869486,16073.6491800746
4184904792,27892,2,0,-9095.2682012714,42700.0132868726,12665.6963185114,30523.1420205261,51029.5561593794,14042.4225432400,46345.9541305958,57840.5948037767,60787.2216079949,16072.6757643288
4184904792,27892,2,0,-9087.9310800871,42702.5076647213,12667.8865039395,30525.5025537097,51033.9852010230,14038.4315386820,46360.7257145388,57844.3059513077,60787.9638375011,16071.9457025194
4184904792,27892,2,0,-9086.5439626493,42699.8064360266,12668.3975472061,30524.6873180226,51034.9829521624,14034.8785712097,46365.5927932680,57842.3956229065,60784.2283545765,16071.6780131893
4184904792,27892,2,0,-9088.7463157743,42695.1340404466,12671.7314961355,30520.4286241346,51027.5971601909,14039.2346066724,46343.3745788693,57834.5352907589,60782.3180261753,16071.7753547639
4184904792,27892,2,0,-9091.2041905325,42696.1561269797,12674.4813956175,30520.5381334060,51029.0937869002,14040.5730533229,46346.6963601020,57836.7741469743,60783.7294790068,16074.0750494634
4184904792,27892,2,0,-9088.6611418965,42700.6946778947,12677.1339535249,30524.7359888099,51036.1753864511,14040.2931962960,46366.1038365346,57840.6434745640,60784.7393978431,16079.1489790386
4184913452,27893,2,0,-9090.1090978185,42698.0664553809,12678.1560400581,30521.6818969073,51035.3479830671,14037.5554645108,46354.3863444941,57837.4920410869,60783.9971683369,16077.5550107548
4184913452,27893,2,0,-9093.6255622003,42694.9150219038,12677.5841583074,30521.3777044868,51030.4322335507,14032.0556655468,46342.6445170599,57835.5087065047,60781.0525857057,16070.7045974435
4184913452,27893,2,0,-9093.3335374765,42695.7180898941,12678.8861018674,30524.3101194211,51032.3303942550,14027.4197730573,46359.9469819421,57838.8913262215,60781.1742626739,16070.7532682308
4184913452,27893,2,0,-9097.3853805186,42691.8000915171,12679.5431574959,30523.9572562132,51026.8670983815,14029.8168093314,46353.9239720148,57833.7322227686,60779.3247727569,16068.7212628613
4184913452,27893,2,0,-9094.4286301906,42693.4914013755,12685.5783351201,30525.5390568002,51027.7796756433,14037.5189614203,46341.6102628300,57835.9710789840,60781.3567781263,16069.2566415215
4184913452,27893,2,0,-9090.2916132708,42698.1637969555,12689.5815073748,30525.9649261890,51033.0117852771,14036.8619057919,46354.8730523670,57839.5970526372,60782.5248770213,16070.8749451990
4184913452,27893,2,0,-9085.7165592654,42700.3174792932,12693.0979717566,30522.9108342865,51037.7693547349,14033.9659939480,46359.2169201328,57840.1932697816,60784.0580068210,16075.9732101678
4184913452,27893,2,0,-9086.6413042239,42698.0907907746,12699.7780373124,30518.9928359095,51033.2551392136,14034.9150743002,46340.0406299398,57834.8516508763,60782.7682309578,16076.9709613073
4184937453,27894,2,0,-9086.7386457985,42700.1958023249,12707.2125000712,30520.6111395869,51036.0537094829,14033.9294908576,46348.3024960826,57838.9521647056,60785.0435902636,16078.7717804371
4184937453,27894,2,0,-9084.6944727322,42704.3449869416,12713.9777395048,30527.3155405364,51042.6120980704,14039.6239729707,46368.0385003294,57844.7318206965,60788.1341852567,16080.4630902955
4184937453,27894,2,0,-9083.3195229913,42706.4134954015,12718.4797873293,30530.5278124976,51042.3565764372,14043.2499466239,46359.1439139518,57841.3978717670,60789.6794827532,16079.8425377575
4184937453,27894,2,0,-9084.2929387371,42707.0948864236,12718.4554519356,30529.5178936613,51041.5413407500,14043.7244868000,46352.9627239658,57843.7584049507,60790.6163954085,16074.0872171602
4184937453,27894,2,0,-9084.4146157053,42710.5870154117,12717.7010547326,30529.9072599597,51045.0213020414,14042.0331769416,46367.9168233612,57847.1896954548,60793.6218165238,16071.2399761037
4184937453,27894,2,0,-9082.8814859056,42711.9619651527,12722.6168042491,30530.9415141896,51044.4007495034,14045.5861444139,46363.4877817176,57847.9319249610,60793.9625120349,16071.2886468910
4184937453,27894,2,0,-9083.6602185023,42713.6532750111,12731.4262167489,30530.8320049182,51044.0357185987,14050.1125276321,46353.1817425086,57848.0779373228,60794.6682384506,16075.2553160552
4184937453,27894,2,0,-9079.5110338857,42719.1895770656,12736.0377738448,30534.6161586301,51054.3295901109,14051.6943282190,46372.6013866380,57855.1473691770,60796.0918589789,16078.6622711657
4184964441,27895,2,0,-9075.1915015135,42720.7348745621,12741.4767343247,30538.3273061611,51060.1700845859,14055.1864572072,46380.3887126047,57857.7634239939,60797.6493241722,16081.9597170047
4184964441,27895,2,0,-9071.5533601635,42718.6420307085,12745.7719313032,30541.3692303669,51056.7144586882,14052.0228560333,46365.5806255712,57856.0721141355,60797.7710011404,16081.5946861000
4184964441,27895,2,0,-9071.7845464031,42719.4450986988,12748.0472906090,30543.8636082156,51058.6977932704,14048.9322610402,46372.7230636062,57860.7810128060,60799.3893048179,16079.9155439384
4184964441,27895,2,0,-9072.3320927601,42719.7371234226,12746.1491299047,30539.2642188165,51058.9289795100,14047.1436096073,46379.3544583747,57861.5962484931,60797.5884856881,16077.9565447499
4184964441,27895,2,0,-9076.0675756848,42715.9651374075,12749.4222403500,30534.2997985127,51053.1614912159,14049.8813413924,46359.6549572184,57855.6705801404,60796.0918589789,16072.2620626368
4184964441,27895,2,0,-9075.1428307262,42719.5181048798,12754.1554744142,30536.5629901218,51054.6094471379,14048.5307270451,46361.7599687688,57857.3253869083,60798.8417584609,16072.0430440940
4184964441,27895,2,0,-9074.1694149804,42718.9462231291,12755.8467842725,30538.1326230120,51056.6901232946,14043.7853252841,46379.6708184921,57859.7832616665,60799.4866463925,16071.2278084068
4184964441,27895,2,0,-9075.7998863547,42713.4464241651,12759.1320624147,30536.1371207330,51051.4945167512,14045.1237719347,46369.0362514689,57854.8066736659,60796.2378713407,16071.1304668323
4185024796,27896,2,0,-9075.3010107849,42716.6830315200,12764.6075259851,30542.3304784159,51055.1083227076,14049.2364534608,46365.4711162998,57859.4060630650,60798.7444168863,16072.0065410035
4185024796,27896,2,0,-9069.8620503051,42723.5212771345,12767.5034378289,30547.8059419862,51063.2120087917,14047.4599697247,46387.6163245175,57863.7255954371,60800.7399191652,16075.2553160552
4185024796,27896,2,0,-9070.6407829017,42724.0201527043,12766.5421897799,30543.8879436092,51062.3846054077,14045.4279643552,46386.2413747765,57861.0365344393,60795.6416541964,16074.5495896395
4185024796,27896,2,0,-9070.3609258748,42723.7402956773,12772.4070196486,30542.6468385333,51058.9776502973,14049.1512795831,46372.4797096698,57860.7201743219,60796.5663991550,16072.9556213557
4185024796,27896,2,0,-9069.5335224909,42728.3640204701,12775.8991486368,30546.7473523626,51063.1511703076,14045.5618090203,46386.3265486543,57867.7652707824,60799.2067893655,16071.3251499814
4185024796,27896,2,0,-9071.8818879777,42726.8673937608,12777.2984337714,30544.1678006361,51060.6446247620,14036.5212102808,46391.9845276770,57864.3461479751,60797.4424733262,16067.5044931790
4185024796,27896,2,0,-9078.9269844382,42719.8588003908,12777.6756323729,30534.2389600286,51051.6040260226,14037.3121105743,46370.1070087893,57855.1595368738,60794.5708968760,16060.2038750853
4185024796,27896,2,0,-9076.0432402911,42722.8885568997,12784.4652072001,30538.5341570071,51054.6702856220,14044.4910516999,46377.8578316655,57860.0144479061,60799.8151742067,16061.2502970120
4185033489,27897,2,0,-9068.7061191069,42729.2157592477,12791.3886266924,30549.1322209399,51062.7739717061,14047.2896219691,46399.7718536436,57866.6580103715,60805.9111903150,16071.9822056099
4185033489,27897,2,0,-9064.8124561236,42726.2711766165,12796.0731899692,30550.3003198349,51058.1015761260,14046.2188646487,46388.6749141411,57863.6160861657,60803.6236633123,16076.8979551263
4185033489,27897,2,0,-9063.4861771699,42724.6650406359,12794.8077494996,30549.1078855463,51055.1813288885,14045.0629334505,46382.3598794900,57861.5110746154,60800.8494284366,16075.4865022949
4185033489,27897,2,0,-9060.3834144800,42725.8088041372,12791.6076452352,30549.9474566270,51058.4909424244,14037.5432968140,46398.1778853598,57861.8152670359,60797.4059702357,16074.2575649158
4185033489,27897,2,0,-9064.8611269109,42719.8222973004,12790.1110185260,30543.0118694380,51051.2998336020,14033.9538262512,46389.2102928013,57852.2514573331,60791.6263142449,16070.0232064214
4185033489,27897,2,0,-9065.8953811408,42716.1719882535,12795.4404697344,30541.0041994622,51044.6197680462,14039.3927867311,46377.4806330640,57850.4384705065,60792.2712021765,16069.6581755167
4185033489,27897,2,0,-9066.0048904122,42717.9119688991,12802.4125600139,30544.4719930567,51049.1096481739,14040.4392086578,46396.4500724110,57857.1063683655,60797.2112870866,16075.3891607203
4185033489,27897,2,0,-9068.1707404467,42716.9142177597,12806.3792291782,30544.2651422107,51051.4458459639,14042.8119095383,46401.4266604116,57857.2645484242,60798.0386904705,16078.4919234101
4185052014,27898,2,0,-9071.8332171904,42714.8213739061,12807.9123589779,30540.2132991687,51048.1240647312,14044.5397224872,46384.0876924389,57853.5412331963,60796.9679331501,16074.6834343046
4185052014,27898,2,0,-9073.7922163789,42715.9529697107,12807.9245266747,30539.2033803324,51049.9127161642,14041.3152828291,46389.1129512267,57854.2712950057,60796.8462561819,16071.4954977370
4185052014,27898,2,0,-9074.7656321247,42714.6266907570,12806.7077569924,30538.3394738580,51051.9690569273,14036.7402288237,46399.2851457707,57852.5434820569,60795.0089339616,16072.4932488764
4185052014,27898,2,0,-9078.6714628049,42708.5550100423,12809.2994764157,30533.2290411923,51042.3565764372,14039.8551592103,46378.8555828050,57846.8855030342,60792.2712021765,16074.8781174537
4185052014,27898,2,0,-9077.2721776703,42711.2684064338,12816.6000945095,30534.5796555397,51042.0523840166,14044.9412564823,46376.6288942864,57847.8710864768,60795.9093435265,16078.8326189212
4185052014,27898,2,0,-9075.9215633229,42715.8069573488,12817.8777026759,30532.6571594416,51045.0578051319,14038.8209049804,46391.6073290754,57847.7250741150,60795.1427786267,16080.6212703542
4185052014,27898,2,0,-9081.5552069519,42712.0106359400,12819.4960063534,30524.4317963893,51036.7837712922,14036.8497380951,46376.5558881055,57837.9300781725,60789.3874580294,16076.0948871360
4185052014,27898,2,0,-9079.6935493380,42712.6311884780,12825.1053145887,30523.1176851325,51033.8026855706,14040.2566932055,46361.3827701673,57836.9079916394,60792.2833698733,16075.2188129648
4185102585,27899,2,0,-9082.4191134264,42714.4320076078,12825.3851716157,30520.6963134647,51035.3601507640,14037.4581229362,46372.6257220317,57840.3149467498,60793.3054564064,16072.1647210622
4185102585,27899,2,0,-9092.6278110608,42707.8736190202,12818.4009136393,30511.3028515174,51028.9721099319,14031.8609823977,46365.6292963585,57831.3838572818,60786.0048383126,16064.8884383621
4185102585,27899,2,0,-9102.5201485779,42702.8726956260,12818.6077644853,30507.7498840451,51023.4723109679,14032.5058703293,46347.3290803368,57826.6506232176,60783.2062680434,16060.3012166598
4185102585,27899,2,0,-9102.9825210571,42706.9123709712,12822.7326137083,30511.1690068523,51028.7165882986,14029.2814306712,46361.7843041624,57830.9214848025,60785.0314225668,16062.5765759657
4185102585,27899,2,0,-9098.3222931739,42707.9222898075,12824.1684019334,30511.3515223047,51031.6246678393,14026.1786679813,46370.8735736891,57831.5298696436,60784.4352054225,16067.7113440250
4185102585,27899,2,0,-9095.1830273936,42703.8582790686,12828.2202449754,30511.0473298841,51025.9788565135,14030.1453371456,46350.8698801122,57826.1030768606,60784.9219132954,16072.2377272431
4185102585,27899,2,0,-9091.2406936230,42706.1458060714,12832.8926405554,30516.5106257576,51027.2686323767,14029.0137413411,46353.9361397116,57829.8507274821,60787.6231419901,16078.1147248086
4185102585,27899,2,0,-9093.7594068653,42705.5860920175,12832.0652371715,30515.5980484959,51028.0838680638,14023.5017746803,46368.2210157817,57830.2157583868,60787.0634279362,16082.4220894840
4185138595,27900,2,0,-9098.1884485089,42702.1669692103,12833.4523546093,30511.2176776396,51022.4258890412,14023.9033086754,46354.8122138829,57824.6672886355,60783.9971683369,16084.1377347360
4185138595,27900,2,0,-9099.1983673452,42701.5464166723,12838.4046072162,30509.3803554194,51019.8098342242,14023.5991162549,46344.4940069770,57823.9493945229,60783.4009511925,16084.1133993423
4185138595,27900,2,0,-9096.3754616823,42702.2764784817,12839.4023583557,30511.9112363585,51023.8251741758,14019.4742670319,46360.5066959960,57827.2225049683,60784.8002363272,16087.1796589417
4185138595,27900,2,0,-9095.9130892030,42696.1561269797,12836.2509248785,30509.8183925050,51017.9360089135,14014.2178220044,46356.0168158683,57823.0854880485,60780.3833623805,16083.4685114107
4185138595,27900,2,0,-9092.8589973004,42693.6617491310,12836.3847695436,30513.3470245836,51015.5024695489,14022.6865389932,46347.9739682684,57822.8664695057,60780.1400084440,16079.5748484274
4185138595,27900,2,0,-9080.9346544140,42701.8749444865,12841.2518482728,30527.2912051427,51026.4898997800,14029.9506539964,46373.4166223251,57832.6614654482,60784.1796837892,16081.2904936794
4185138595,27900,2,0,-9074.0234026185,42705.5252535334,12846.6056348749,30533.0586934368,51033.5836670278,14031.0700821042,46385.1584497593,57836.3239421919,60787.7569866552,16086.0237277435
4185138595,27900,2,0,-9069.8133795178,42704.7465209367,12855.3663765874,30536.0519468552,51033.1212945485,14037.2999428775,46368.2088480849,57834.1337567637,60789.3387872421,16088.3720932304
4185158583,27901,2,0,-9069.4848517036,42705.1723903255,12859.5277289008,30539.9577775354,51035.5061631258,14037.7866507504,46373.1489329950,57838.8548231310,60793.5974811302,16088.0800685066
4185158583,27901,2,0,-9072.1982480951,42706.8637001839,12861.3285480306,30538.2421322834,51042.5147564959,14040.1715193277,46386.7159149526,57842.2861136351,60796.0918589789,16085.9020507753
4185158583,27901,2,0,-9068.0977342658,42708.8348670692,12864.0906152094,30539.1790449387,51044.8387865890,14048.5428947419,46377.5901423354,57840.9720023782,60798.5497337371,16083.1886543838
4185158583,27901,2,0,-9062.9629662065,42712.8015362335,12870.5151591320,30543.5837511886,51050.4602625212,14049.2486211576,46377.3711237926,57846.2406151026,60802.9787753807,16083.0548097187
4185158583,27901,2,0,-9062.5127614240,42716.4153421899,12873.7152633964,30547.6112588370,51053.9158884190,14045.1116042378,46398.1900530566,57849.5502286384,60805.8381841340,16082.3247479094
4185158583,27901,2,0,-9070.6529505986,42710.5748477149,12872.7905184378,30539.6535851148,51047.0168043203,14043.9921761301,46384.2458724976,57843.4055417428,60802.0783658158,16078.3824141387
4185158583,27901,2,0,-9072.2225834887,42710.4653384435,12874.3358159344,30536.6968347869,51045.2403205842,14045.4522997489,46369.3282761926,57841.0815116496,60801.7620056984,16074.7564404855
4185158583,27901,2,0,-9069.3875101290,42715.9651374075,12874.9807038660,30541.2840564891,51051.9933923209,14042.3495370590,46386.9105981018,57848.1266081101,60803.3316385885,16073.1138014144
4185174176,27902,2,0,-9073.9017256503,42717.3400871485,12874.3723190248,30540.7851809194,51054.3295901109,14042.2035246972,46388.5654048697,57846.3501243740,60802.6015767791,16071.3738207687
4185174176,27902,2,0,-9075.1549984231,42714.7727031188,12877.9861249812,30537.7554244105,51048.8297911470,14043.9191699492,46369.9001579433,57842.1279335764,60800.1437020209,16070.2787280547
4185174176,27902,2,0,-9071.8453848872,42717.0480624247,12881.6364340281,30538.7653432468,51050.7157841545,14041.9114999734,46380.5225572697,57847.2505339389,60802.8327630188,16073.7465216492
4185174176,27902,2,0,-9069.9715595765,42717.4130933294,12883.3034084929,30535.8572637061,51053.8550499348,14040.8164072593,46392.0453661611,57847.7129064181,60802.5772413855,16080.1345624812
4185174176,27902,2,0,-9068.5357713514,42718.4351798625,12891.3705914865,30536.1492884298,51051.3485043893,14047.7641621452,46378.1985271766,57845.8755841979,60804.3050543344,16082.5194310585
4185174176,27902,2,0,-9064.7516176394,42724.2513389439,12900.0218239276,30541.4544042446,51052.2732493479,14045.8294983504,46382.2016994313,57849.1000238560,60807.5173262956,16084.9164673327
4185174176,27902,2,0,-9062.2329043971,42725.9791518928,12901.2872643972,30545.9199489786,51050.8252934259,14036.1075085889,46397.3626496727,57847.7372418118,60805.2541346865,16084.4054240661
4185174176,27902,2,0,-9065.8710457472,42719.5302725766,12899.1822528468,30542.9145278634,51042.0645517134,14033.6861369211,46383.5888168691,57838.9765000993,60798.1725351356,16079.9763824225
4185224807,27903,2,0,-9065.6033564171,42719.6641172416,12900.9952396734,30544.8491916582,51039.1443044759,14035.0367512684,46376.0935156262,57836.8593208521,60797.6979949595,16079.5383453369
4185224807,27903,2,0,-9070.3122550875,42719.7006203321,12899.9853208371,30538.6193308849,51039.8621985885,14029.0989152188,46388.9304357744,57836.0562528618,60794.1936982745,16080.8281212001
4185224807,27903,2,0,-9075.3253461786,42715.7947896520,12900.6545441624,30529.9924338374,51037.4286592239,14026.9087297907,46381.3012898664,57830.1305845090,60789.6794827532,16080.6212703542
4185224807,27903,2,0,-9080.6791327807,42709.3459103358,12897.7829677122,30525.4660506193,51030.4565689443,14023.5991162549,46359.6549572184,57823.3166742882,60784.9462486891,16076.8492843390
4185224807,27903,2,0,-9083.3195229913,42704.6735147558,12891.6139454229,30524.3466225116,51028.0960357607,14013.2444062586,46366.2741842901,57823.1828296231,60781.5027904882,16073.6370123778
4185224807,27903,2,0,-9085.8990747177,42695.0123634784,12884.0943087864,30521.2073567313,51023.2046216378,14004.4958322429,46369.4377854640,57817.2328258767,60774.0196569421,16070.0232064214
4185224807,27903,2,0,-9088.7219803806,42687.2372052085,12882.0136326296,30518.2384387065,51015.1861094315,14004.3498198810,46351.9163020390,57810.1633940226,60768.8605534891,16067.8816917805
4185224807,27903,2,0,-9088.0040862681,42688.8555088860,12884.5445135688,30521.2803629122,51013.7138181159,14010.0564696909,46360.3120128468,57813.8380384631,60770.8073849808,16069.4513246707
4185257551,27904,2,0,-9083.7697277737,42691.8244269108,12884.9703829576,30523.4218775530,51018.1793628500,14014.4855113345,46376.2516956849,57818.9971419160,60772.1458316313,16075.8515331996
4185257551,27904,2,0,-9082.4921196073,42690.1939555365,12889.6671139313,30522.0590955089,51012.1563529226,14018.7563729193,46362.2831797321,57816.4662609768,60775.5284513481,16078.4310849260
4185257551,27904,2,0,-9088.4177879601,42688.1862855607,12892.5508580783,30518.6886434889,51010.4042045801,14017.1137338482,46352.9992270562,57818.0237261702,60774.0439923357,16077.2873214247
4185257551,27904,2,0,-9095.1830273936,42685.1808644454,12886.6008543319,30514.1622602708,51014.9184201014,14005.9316204680,46364.7167190967,57818.0480615638,60770.3936832888,16071.5320008274
4185257551,27904,2,0,-9096.3389585918,42680.3137857163,12883.0357191628,30510.4754481334,51012.1076821353,14007.3065702090,46357.0997408856,57813.3634982870,60768.1669947702,16067.1272945775
4185257551,27904,2,0,-9096.0225984744,42682.2971202984,12886.0776433685,30512.9211551948,51012.1198498321,14023.8303024945,46343.7639451676,57818.4374278621,60774.2995139690,16068.2345549884
4185257551,27904,2,0,-9092.5669725767,42690.0966139619,12891.6869516039,30523.8599146387,51022.5719014031,14032.8587335371,46364.6437129158,57829.9967398439,60785.2991118969,16073.7586893460
4185257551,27904,2,0,-9086.9211612508,42693.5400721628,12893.5364415210,30527.1330250840,51029.1667930811,14038.5653833471,46372.7352313031,57836.6403023093,60790.2513645039,16076.3869118598
4185278156,27905,2,0,-9080.0099094554,42695.3287235958,12893.5242738241,30527.5467267760,51030.6147490030,14046.0728522868,46358.3651813552,57839.1711832484,60794.9480954775,16076.1800610138
4185278156,27905,2,0,-9073.1959992346,42700.4878270487,12886.8320405715,30531.8419237545,51038.1343856396,14046.3405416170,46368.6347174737,57846.0337642566,60798.1360320451,16074.2940680062
4185278156,27905,2,0,-9072.4537697284,42702.3129815721,12871.9631150539,30532.2191223560,51040.2759002804,14045.8294983504,46380.4252156952,57846.5691429168,60797.2842932675,16071.9213671258
4185278156,27905,2,0,-9075.8363894451,42696.9835303637,12855.5853951302,30529.1163596662,51032.8657729153,14056.4762330705,46361.2489255022,57841.7750703686,60796.3717160058,16069.5851693357
4185278156,27905,2,0,-9073.7313778948,42699.3805666378,12838.3194333384,30532.7545010162,51031.9896987440,14071.4303324659,46362.7942229987,57848.6863221640,60802.0418627253,16070.0475418150
4185278156,27905,2,0,-9067.7083679674,42708.7131901010,12816.8191130523,30540.6635039511,51041.7603592928,14083.0504829318,46386.6672441653,57860.0022802093,60809.1356299731,16074.9389559378
4185278156,27905,2,0,-9065.8832134440,42709.4797550008,12789.1132673865,30540.0672868068,51038.9252859331,14085.1068236948,46379.4274645557,57858.2866349573,60807.8580218067,16073.0164598398
4185278156,27905,2,0,-9063.2671586270,42708.2508176217,12761.7237818380,30543.4255711299,51036.4065726907,14091.5800384047,46366.7730598598,57858.3961442287,60809.0261207017,16069.0376229787
4185309347,27906,2,0,-9061.3689979227,42708.7010224042,12733.0931912136,30546.5039984261,51041.3588252977,14091.1541690158,46381.0214328395,57864.4678249433,60810.4010704426,16068.1128780202
4185309347,27906,2,0,-9061.5515133750,42705.4400796556,12702.2480797675,30543.9974528806,51038.1587210332,14095.9117384736,46378.8190797145,57862.0464532756,60806.7629290926,16067.8086855996
4185309347,27906,2,0,-9059.9818804849,42705.1237195382,12676.9392703758,30544.8126885678,51033.5228285437,14103.6747290467,46364.6802160063,57861.3893976471,60809.4884931809,16069.3296477025
4185309347,27906,2,0,-9060.1278928467,42709.9421274801,12648.9535676830,30549.2904009986,51038.9252859331,14109.8559190327,46376.4585465309,57865.8427746843,60814.1852241546,16072.3472365146
4185309347,27906,2,0,-9057.8281981472,42711.7794497004,12624.8493602768,30551.9064558155,51042.6972719482,14111.5228934975,46388.9669388649,57868.5075002886,60817.6043469618,16076.8736197327
4185309347,27906,2,0,-9062.8899600255,42704.5396700907,12602.0227610369,30545.1777194724,51032.7075928566,14110.7928316881,46364.6802160063,57860.8296835933,60814.0513794895,16075.4134961139
4185309347,27906,2,0,-9070.7746275668,42697.0808719383,12577.5291873323,30538.8505171245,51024.7255837407,14104.4412939465,46357.1484116729,57856.9968590940,60810.2428903840,16067.6140024504
4185309347,27906,2,0,-9074.4736074010,42695.5112390481,12553.9116877990,30536.9401887233,51020.7102437891,14100.6084694473,46368.0993388135,57856.2424618910,60808.2352204082,16061.2868001025
4185336215,27907,2,0,-9081.1171698663,42689.9992723873,12536.0008380756,30532.6084886544,51016.6827361407,14100.8031525964,46353.7171211688,57850.7913337144,60805.5704948039,16054.0956912801
4185336215,27907,2,0,-9079.9734063649,42692.9438550185,12528.4812014391,30538.7531755499,51021.8905103810,14112.8370047543,46352.4395130024,57853.7967548296,60810.5349151077,16056.3345474956
4185336215,27907,2,0,-9071.7358756158,42704.9898748732,12524.3685199129,30552.0281327838,51035.7130139718,14119.3467225546,46377.3711237926,57866.7553519460,60820.9869666786,16066.7379282792
4185336215,27907,2,0,-9069.0954854052,42707.9222898075,12516.6298647335,30555.2282370482,51037.6476777667,14119.0060270436,46375.1931060613,57867.6922646014,60822.2402394514,16071.8361932480
4185336215,27907,2,0,-9070.9328076255,42707.3139049664,12511.7141152170,30555.4959263783,51034.2163872626,14119.7482565498,46360.5431990865,57866.0374578335,60823.7977046447,16072.8217766907
4185336215,27907,2,0,-9072.0157326427,42713.5194303461,12507.0538873339,30559.7546202663,51039.3754907155,14118.9695239531,46377.0304282816,57870.8802011690,60825.9757223760,16076.0827194392
4185336215,27907,2,0,-9069.9107210924,42715.5636034123,12502.2354793920,30561.7501225453,51041.2006452390,14114.4796438254,46384.6960772800,57868.5683387727,60824.8562942683,16076.9831290041
4185336215,27907,2,0,-9068.2802497181,42712.0106359400,12502.5640072062,30560.4968497725,51037.2948145588,14116.3899722266,46369.2187669212,57863.7864339213,60823.4448414368,16075.0362975124
4185378800,27908,2,0,-9067.6353617865,42711.1102263751,12499.6437599687,30564.3053388781,51039.2416460505,14111.3647134388,46373.9398332885,57867.6070907237,60823.9558847034,16069.0011198882
4185378800,27908,2,0,-9066.8566291898,42712.6798592653,12496.8573573962,30569.5009454215,51043.2813213957,14108.6148139568,46390.4392301804,57871.0870520150,60821.8265377594,16069.9136971500
4185378800,27908,2,0,-9066.9783061580,42712.0471390305,12494.3508118507,30568.5275296757,51043.0257997624,14112.0096013704,46377.6874839100,57867.2177244253,60819.4660045757,16068.5387474090
4185378800,27908,2,0,-9066.0048904122,42715.8677958329,12492.6595019923,30573.7109685222,51044.3764141098,14115.0515255761,46375.9353355675,57871.6589337657,60821.8508731530,16066.7257605824
4185378800,27908,2,0,-9067.9638896007,42718.6541984053,12488.1817895615,30572.2386772067,51049.1218158707,14110.2939561183,46389.5753237060,57874.5305102159,60822.0333886054,16065.3508108414
4185378800,27908,2,0,-9070.9693107160,42715.0038893585,12484.9451822066,30566.7753813332,51045.8122023349,14105.3782066019,46373.8668271076,57869.2862328852,60819.2591537297,16064.0853703718
4185378800,27908,2,0,-9072.4781051220,42712.6311884780,12484.6774928765,30566.2765057634,51042.4174149213,14110.3791299961,46359.2047524359,57867.6679292078,60819.0279674901,16062.9902776577
4185378800,27908,2,0,-9063.0481400842,42721.0147315890,12488.7293359185,30575.4631168648,51055.0596519203,14114.7838362460,46383.3941337200,57877.9252976295,60825.1969897793,16067.0056176093
4185411904,27909,2,0,-9055.2486464207,42725.4316055357,12491.8442663052,30583.1531012569,51060.8636433049,14120.0159458799,46393.1526265720,57879.7017813657,60827.4723490852,16070.0962126023
4185411904,27909,2,0,-9056.5505899808,42726.3441827974,12495.1173767505,30584.4428771201,51058.0894084292,14125.6009187216,46378.2106948734,57878.5823532580,60829.4070128801,16070.1570510864
4185411904,27909,2,0,-9055.5771742349,42731.0409137711,12497.2467236946,30588.8110802795,51062.9078163711,14127.4382409419,46388.8817649871,57885.7126235962,60833.7873837363,16071.0087898640
4185411904,27909,2,0,-9057.2076456092,42730.1770072967,12492.1484587257,30585.0269265676,51065.4752004007,14121.9749450684,46395.0629549732,57886.8807224912,60834.0794084601,16067.4558223917
4185411904,27909,2,0,-9059.8480358198,42723.6672894964,12488.7171682217,30577.2517682977,51057.9068929769,14120.2227967259,46374.6942304916,57878.8378748912,60829.8572176625,16065.8983571984
4185411904,27909,2,0,-9060.1643959372,42721.7447933984,12489.3863915469,30573.4189437985,51054.3417578077,14118.1177851755,46369.7784809751,57876.3313293457,60829.5408575451,16068.4657412280
4185411904,27909,2,0,-9063.9242142555,42719.9926450559,12486.4783120063,30570.4986965610,51053.9645592062,14111.9487628863,46381.0336005363,57871.8779523085,60826.2920824934,16071.9213671258
4185411904,27909,2,0,-9070.8598014446,42710.4044999594,12482.3777981769,30563.6969540370,51040.1663910090,14108.3106215362,46363.2687631748,57861.4745715249,60819.3564953043,16068.5752504994
4185444669,27910,2,0,-9074.5344458851,42707.7397743552,12483.3512139228,30562.2976689023,51035.0437906466,14110.2452853310,46352.8532146944,57859.9049386347,60817.9328747761,16069.4634923675
4185444669,27910,2,0,-9076.0797433816,42710.9763817101,12479.1655262157,30563.6239478560,51038.6819319966,14112.0704398545,46369.7176424910,57864.5529988211,60819.0766382774,16069.2444738247
4185444669,27910,2,0,-9075.2401723008,42712.9475485954,12479.0073461570,30563.4536001005,51040.7017696692,14113.5548988669,46372.4675419730,57866.0982963176,60819.7701969963,16072.6879320256
4185444669,27910,2,0,-9076.1527495625,42710.1124752356,12481.6477363675,30559.8276264473,51034.2285549594,14110.0384344851,46355.5057726018,57863.6525892562,60817.2879868444,16070.5464173848
4185444669,27910,2,0,-9077.5520346972,42710.7451954704,12481.6964071548,30559.9128003250,51031.9653633504,14105.9135852621,46363.9501541969,57866.0131224399,60818.3830795585,16072.0552117908
4185444669,27910,2,0,-9076.6029543450,42710.1246429325,12481.8424195167,30561.5067686088,51033.3524807882,14102.5918040294,46371.7739832540,57866.8283581270,60817.0689683016,16076.7519427645
4185444669,27910,2,0,-9077.6007054845,42705.9754583158,12483.9474310671,30559.7789556600,51025.9301857262,14100.6206371441,46355.4205987240,57859.2722183999,60813.9175348245,16075.7298562313
4185444669,27910,2,0,-9075.1915015135,42708.6523516169,12486.0281072238,30563.5631093719,51028.9356068414,14100.8883264742,46364.4733651603,57862.6548381167,60816.3997449764,16074.8781174537
4185486710,27911,2,0,-9071.2126646524,42710.1246429325,12485.6265732287,30567.1282445410,51030.4200658538,14095.8995707768,46381.7514946489,57864.2609740973,60816.4119126732,16077.3238245151
4185486710,27911,2,0,-9073.9138933471,42702.9578695037,12480.0659357806,30563.1615753768,51021.6349887477,14094.2690994025,46362.2831797321,57856.6196604925,60810.8269398315,16074.7686081823
4185486710,27911,2,0,-9077.7832209368,42697.3120581779,12477.5472225382,30562.7235382911,51015.4051279743,14093.0888328107,46351.0158924741,57853.4195562281,60807.7850156257,16074.1602233412
4185486710,27911,2,0,-9081.2266791377,42697.6162505985,12474.5418014230,30563.7577925211,51019.4691387132,14092.3344356077,46367.4787862755,57856.0356110450,60806.4709043688,16074.7442727887
4185486710,27911,2,0,-9089.5128806741,42693.7955937961,12471.3295294617,30558.9272168824,51019.5421448941,14095.4128629039,46361.3584347736,57851.9229295189,60804.4632343930,16072.8096089938
4185486710,27911,2,0,-9091.6300599213,42689.8045892381,12470.2344367476,30555.1187277768,51014.4317122285,14098.7589795302,46344.9685471531,57850.4993089906,60802.8936015029,16068.2953934725
4185486710,27911,2,0,-9089.5858868551,42690.4616448666,12468.3362760433,30556.4571744273,51014.8697493141,14098.3087747477,46358.8762246217,57854.9283506342,60807.3834816306,16065.0831215113
4185486710,27911,2,0,-9086.1910994415,42690.4738125634,12470.9523308602,30558.6716952491,51013.0324270939,14102.1294315501,46361.6626271942,57857.7999270844,60810.1212134157,16069.2323061279
4185526205,27912,2,0,-9083.3316906881,42692.1772901186,12476.5251360051,30561.3485885501,51011.6939804433,14104.4047908560,46347.2560741558,57856.6561635830,60813.9297025213,16073.5396708032
4185526205,27912,2,0,-9076.1649172594,42697.9569461095,12478.8856691887,30568.6978774312,51018.6052322388,14101.0951773202,46359.2777586169,57863.2267198674,60817.4218315095,16079.5991838210
4185526205,27912,2,0,-9076.3839358022,42700.1836346281,12475.1623539609,30566.6537043649,51025.3096331882,14096.9703280972,46370.6788905400,57865.0640420877,60818.3709118617,16083.5901883790
4185526205,27912,2,0,-9083.9765786197,42695.8154314687,12473.4102056184,30559.4625955426,51021.4646409922,14093.4903668059,46352.5125191833,57859.6129139110,60811.9098648487,16081.4973445254
4185526205,27912,2,0,-9085.6800561749,42697.1417104224,12475.1136831736,30559.3530862712,51024.2510435646,14095.1695089674,46346.8545401607,57860.9756959552,60814.6110935434,16078.3094079578
4185526205,27912,2,0,-9079.9369032745,42701.8627767897,12475.6490618338,30565.2300838367,51031.1501276632,14093.7702238328,46366.4201966520,57867.2542275158,60815.9495401939,16079.3436621877
4185526205,27912,2,0,-9075.7390478706,42704.0529622178,12478.6179798586,30566.7267105459,51031.8071832917,14094.0014100724,46362.4656951845,57864.3096448846,60814.8301120862,16078.7352773466
4185526205,27912,2,0,-9076.8949790687,42700.8285225597,12480.1632773552,30563.0885691958,51026.5629059610,14091.4948645269,46348.8622101364,57859.1383737349,60812.6155912644,16075.4621669012
4185536464,27913,2,0,-9079.1460029810,42701.2300565549,12476.1844404940,30563.0033953181,51027.1591231053,14088.0149032355,46362.4413597908,57863.6039184689,60812.8589452009,16076.0827194392
4185536464,27913,2,0,-9086.2762733192,42694.1484570039,12469.0176670653,30555.4837586815,51017.7169903707,14083.9143894062,46356.6617038000,57856.1572880133,60806.6655875180,16072.5662550574
4185536464,27913,2,0,-9087.7607323316,42692.8951842312,12473.7752365231,30555.6784418306,51016.7435746249,14090.5457841747,46342.0482999156,57854.2834627025,60809.2938100318,16073.7100185587
4185536464,27913,2,0,-9079.1703383746,42702.6901801736,12481.4773886120,30565.7654624969,51027.0617815307,14093.9770746788,46362.7942229987,57865.9036131684,60815.7061862574,16076.2774025884
4185536464,27913,2,0,-9070.1297396352,42709.3945811231,12483.7527479179,30570.8272243752,51035.6643431845,14087.2605060325,46380.0723524873,57868.8238604060,60815.7913601352,16080.8524565938
4185536464,27913,2,0,-9071.1761615620,42705.5009181397,12484.9330145097,30567.4811077489,51031.0284506950,14087.6498723308,46361.8938134338,57863.2997260483,60815.4628323210,16082.0692262761
4185536464,27913,2,0,-9075.0698245453,42704.4423285161,12487.6829139917,30563.9038048830,51028.8991037510,14083.6953708634,46356.8320515555,57864.9667005131,60816.6430989128,16083.2373251711
4185536464,27913,2,0,-9081.2875176218,42703.7244344036,12484.6653251796,30560.5698559535,51027.8770172179,14078.2199072931,46369.7906486719,57864.3218125815,60814.2582303355,16078.5527618943
4185565534,27914,2,0,-9088.0405893586,42696.3021393416,12479.3480416680,30550.1421397762,51019.8463373147,14072.2212327593,46353.6806180783,57855.3663877198,60804.1103711852,16072.1282179717
4185565534,27914,2,0,-9087.3105275492,42694.3431401531,12478.7639922205,30546.6500107880,51016.1473574805,14072.5254251799,46344.3358269183,57851.6309047951,60802.1635396935,16070.5829204752
4185565534,27914,2,0,-9085.2420190893,42696.6063317622,12478.3867936190,30547.8059419862,51019.1041078085,14068.6682652871,46360.8838945975,57853.7602517391,60803.3924770726,16075.3283222362
4185565534,27914,2,0,-9090.0604270312,42691.9339361822,12478.4111290126,30542.9023601666,51015.0157616760,14062.6452553597,46353.3642579609,57847.8954218705,60799.3528017274,16073.4423292286
4185565534,27914,2,0,-9093.4308790511,42688.7581673114,12480.8933391645,30540.1646283814,51010.5380492452,14064.4704098831,46337.7409352403,57845.3888763250,60797.7223303531,16070.0597095118
4185565534,27914,2,0,-9083.4168645658,42697.8231014445,12485.7725855905,30550.3611583190,51021.6958272318,14072.4524189990,46359.4359386756,57857.0090267909,60803.1369554394,16073.1989752922
4185565534,27914,2,0,-9078.9269844382,42699.6482559679,12484.9086791161,30552.4783375662,51025.0784469486,14073.8152010432,46368.4643697182,57859.6615846983,60803.3438062853,16072.8096089938
4185565534,27914,2,0,-9081.2631822282,42697.2025489065,12486.9406844855,30549.4364133605,51018.3983813928,14076.7841190680,46348.3876699603,57853.5047301059,60804.3050543344,16071.8848640353
4185598149,27915,2,0,-9084.3537772212,42696.9713626669,12486.2957965539,30548.2439790718,51017.0477670454,14071.6493510087,46348.1078129334,57854.1496180375,60804.6214144518,16068.8307721327
4185598149,27915,2,0,-9088.3204463855,42694.3553078499,12483.1930338641,30546.7108492721,51014.3952091380,14064.2635590371,46359.8374726707,57851.9107618221,60797.9048458055,16066.6162513110
4185598149,27915,2,0,-9086.7264781017,42690.3156325047,12483.9474310671,30547.0758801768,51010.4772107610,14068.3275697760,46348.7405331682,57844.9873423298,60794.7412446315,16065.9591956825
4185598149,27915,2,0,-9084.4146157053,42690.8631788617,12488.8023420994,30547.1123832673,51012.5822223114,14072.9512945687,46346.4408384687,57845.1941931758,60795.3009586854,16068.0277041424
4185598149,27915,2,0,-9082.0297471280,42695.9371084369,12490.5909935324,30547.5625880497,51022.1703674079,14077.5871870583,46365.0817500014,57851.4240539491,60800.1558697177,16075.5716761726
4185598149,27915,2,0,-9077.7467178463,42698.1151261682,12493.5234084667,30551.4805864267,51025.0906146454,14085.8247178074,46362.7698876051,57854.5146489422,60803.5628248282,16079.1976498259
4185598149,27915,2,0,-9070.8232983541,42704.6978501494,12501.4689144921,30564.5486928146,51030.2618857952,14090.9229827762,46360.2146712723,57860.9148574710,60812.3113988438,16080.0250532098
4185598149,27915,2,0,-9071.3100062270,42709.3094072453,12501.6149268540,30566.1791641888,51034.8856105879,14086.6521211914,46374.7550689757,57867.8382769633,60815.6696831670,16081.7650338555
4185614503,27916,2,0,-9070.4704351462,42710.8790401355,12503.2940690156,30561.1660730978,51036.4187403876,14086.9928167024,46376.8235774356,57867.2785629094,60817.6530177491,16083.2738282616
4185614503,27916,2,0,-9068.8642991656,42708.6888547074,12505.5937637151,30559.5964402076,51033.1943007295,14087.5525307563,46361.4679440450,57863.0807075055,60814.7449382084,16081.4730091318
4185614503,27916,2,0,-9064.9219653950,42712.4000022384,12505.7032729865,30564.2566680908,51038.0370440650,14085.3745130249,46373.3557838410,57868.0451278093,60816.8134466683,16080.5117610828
4185614503,27916,2,0,-9066.1387350773,42710.7938662577,12499.7167661496,30562.1394888436,51036.7229328081,14078.1347334153,46380.9970974458,57866.0861286208,60814.5745904529,16076.4599180407
4185614503,27916,2,0,-9074.3032596455,42706.4986692792,12494.5698303935,30555.1430631704,51031.8071832917,14078.2077395962,46359.1560816487,57857.7512562971,60807.2496369655,16069.7433493944
4185614503,27916,2,0,-9078.0022394796,42707.7032712647,12493.3773961049,30553.0867224074,51033.5349962405,14078.5484351073,46354.7757107924,57858.3596411382,60806.4830720657,16068.4657412280
4185614503,27916,2,0,-9076.1162464721,42710.4166676562,12493.4382345890,30552.7703622900,51038.7062673903,14075.9323802903,46370.3868658162,57862.5453288453,60804.3415574248,16071.5928393115
4185614503,27916,2,0,-9076.0189048975,42706.5595077633,12492.9150236256,30548.7185192479,51032.1113757122,14075.0198030286,46360.1781681818,57856.8630144290,60800.9832731017,16071.5806716147
4185654438,27917,2,0,-9074.8629736993,42704.9898748732,12495.5189107457,30550.5801768618,51030.7364259712,14074.4844243684,46350.9185508995,57857.6660824193,60802.7840922315,16070.8992805926
4185654438,27917,2,0,-9079.5597046730,42706.6081785506,12492.5499927209,30549.5094195414,51032.9996175803,14066.2103905288,46364.6923837031,57858.4691504096,60801.6889995174,16066.1782142253
4185654438,27917,2,0,-9085.8260685368,42705.8416136508,12492.3796449654,30546.0172905532,51033.1456299422,14070.7246060501,46362.0033227052,57856.3641388593,60799.4623109988,16064.7667613939
4185654438,27917,2,0,-9081.8350639789,42707.4234142378,12500.9822066192,30549.2417302113,51036.5282496590,14082.5394396652,46349.9451351537,57860.4889880822,60806.2153827356,16069.1592999469
4185654438,27917,2,0,-9077.2843453671,42712.0228036368,12505.2774035977,30553.8897903977,51044.6806065303,14082.8923028731,46365.7996441140,57866.9256997016,60811.7516847900,16073.8560309206
4185654438,27917,2,0,-9076.4447742863,42711.3170772211,12502.0894670301,30553.4030825248,51044.1817309606,14076.6381067061,46375.5824723596,57868.8603634964,60809.4398223936,16076.1313902265
4185654438,27917,2,0,-9080.2045926046,42706.6933524284,12498.7676857974,30548.6211776733,51035.2993122799,14074.0098841923,46355.5179402986,57862.7400119945,60806.1302088578,16072.8704474779
4185654438,27917,2,0,-9078.0752456606,42706.5716754602,12500.3129832939,30551.6387664854,51035.3601507640,14071.8196987642,46359.4481063724,57864.2488064005,60805.5096563198,16071.9091994289
4185686149,27918,2,0,-9074.8508060025,42706.8515324871,12497.9037793230,30553.0380516201,51038.3899072729,14063.5943357119,46373.1367652982,57864.8328558480,60805.2906377770,16072.2863980304
4185686149,27918,2,0,-9075.3131784818,42698.8208525840,12497.1858852104,30546.8081908467,51028.6192467241,14058.3500583812,46353.8387981370,57854.5876551231,60797.4303056294,16068.8794429200
4185686149,27918,2,0,-9078.4524442621,42695.0366988720,12500.0331262670,30544.3624837853,51022.9734353982,14062.3653983328,46343.3137403852,57851.4848924333,60795.5443126218,16071.4589946465
4185686149,27918,2,0,-9077.5885377876,42698.6991756157,12502.3814917538,30547.0028739959,51028.7895944796,14061.4649887679,46362.9889061479,57857.2767161210,60796.8219207882,16076.9101228232
4185686149,27918,2,0,-9079.2798476460,42698.4314862856,12504.8758696025,30544.4719930567,51028.4367312717,14059.9805297555,46360.0564912136,57853.0545253234,60794.0598536094,16077.7010231167
4185686149,27918,2,0,-9078.0144071765,42698.9425295522,12509.8037868158,30543.8271051251,51025.7233348802,14063.8255219515,46348.8865455301,57852.6773267219,60793.9260089444,16075.9123716837
4185686149,27918,2,0,-9073.4150177774,42703.4202419830,12508.9277126446,30547.2462279323,51032.8049344311,14060.5037407189,46364.9479053364,57857.6052439352,60796.9801008469,16074.4765834586
4185686149,27918,2,0,-9073.1838315377,42702.4711616308,12506.0804715880,30548.0371282258,51031.4178169933,14056.0503636817,46370.2286857575,57853.5534008932,60794.7169092379,16071.4589946465
4185732460,27919,2,0,-9080.4236111474,42695.8519345592,12506.0561361944,30544.1556329393,51027.0496138339,14055.1864572072,46348.0956452366,57847.7250741150,60791.2734510370,16067.5774993600
4185732460,27919,2,0,-9078.8539782572,42696.6063317622,12508.2098185320,30545.1168809883,51030.3227242793,14055.9043513198,46352.7802085134,57849.8179179685,60791.4437987925,16067.1637976680
4185732460,27919,2,0,-9073.5001916551,42700.6946778947,12510.2783269919,30546.3701537611,51035.6035047004,14056.2328791340,46364.7045513999,57849.8787564526,60793.7191580984,16070.2543926610
4185732460,27919,2,0,-9071.6872048285,42700.2444731122,12515.0723995402,30544.6301731154,51032.8657729153,14066.7822722795,46347.4020865177,57846.0337642566,60796.6515730327,16068.5509151058
4185732460,27919,2,0,-9069.7890441241,42702.7266832641,12520.2193352963,30548.2074759814,51031.7585125044,14064.6285899418,46345.1145595150,57847.8345833864,60801.2874655223,16070.4004050229
4185732460,27919,2,0,-9073.0986576600,42702.8240248387,12515.7781259559,30545.8712781914,51029.8603518000,14050.5140616272,46361.4192732577,57845.8390811074,60794.0355182158,16071.2399761037
4185732460,27919,2,0,-9076.1527495625,42698.2854739237,12510.8015379553,30541.8194351493,51023.5696525425,14048.2265346245,46353.4615995355,57836.4334514633,60784.3013607574,16070.3273988419
4185732460,27919,2,0,-9075.8850602324,42696.6915056399,12512.3711708455,30539.3737280879,51021.3429640239,14052.0471914269,46343.2042311138,57833.9512413114,60782.2450199944,16068.0033687488
4185739453,27920,2,0,-9074.8873090930,42699.9037776012,12514.8168779069,30540.4566531051,51025.4799809437,14052.4730608157,46358.4016844456,57837.5285441773,60785.8953290412,16070.2787280547
4185739453,27920,2,0,-9078.7323012890,42696.8618533955,12518.5645285284,30536.1492884298,51024.7864222248,14053.1301164442,46356.4426852571,57835.4600357174,60786.3455338237,16072.7974412970
4185739453,27920,2,0,-9081.2023437441,42694.8663511165,12522.9083962941,30532.6328240480,51021.0874423906,14056.6587485228,46337.6314259689,57832.5884592672,60785.7614843762,16071.2034730132
4185739453,27920,2,0,-9080.1559218173,42697.1782135129,12522.9448993846,30534.6648294174,51026.6602475356,14053.3247995933,46349.3489180094,57836.7011407934,60787.5379681123,16067.8816917805
4185739453,27920,2,0,-9081.1293375631,42696.9470272732,12519.4892734869,30534.3971400873,51031.0527860886,14048.9322610402,46361.1880870181,57834.9976632382,60783.6199697354,16065.8983571984
4185739453,27920,2,0,-9082.2122625804,42693.0533642899,12521.6794589150,30529.6760737200,51027.0009430466,14045.3306227806,46342.0726353092,57828.3541007728,60777.8524814413,16062.4427313007
4185739453,27920,2,0,-9079.6448785507,42694.8541834197,12526.8385623680,30532.1339484783,51026.4290612959,14048.3725469864,46341.4642504681,57829.9115659662,60779.2517665759,16065.1196246017
4185739453,27920,2,0,-9077.8805625114,42700.6703425010,12530.1238405102,30534.2024569382,51031.3569785092,14047.7641621452,46358.3286782647,57835.8980728031,60782.7925663514,16070.7167651403
4185771258,27921,2,0,-9086.2762733192,42695.7059221973,12528.0674997471,30526.9505096317,51025.2731300977,14042.2035246972,46346.6841924051,57828.5731193157,60779.0327480331,16069.1227968565
4185771258,27921,2,0,-9086.8724904636,42692.0677808472,12529.3937787008,30524.0302623942,51023.2411247283,14040.4878794451,46338.8238602575,57826.2855923129,60777.6091275048,16064.8884383621
4185771258,27921,2,0,-9081.1780083504,42693.4183951946,12531.4379517670,30527.4493852014,51027.2564646799,14040.4635440515,46359.4237709788,57831.2621803135,60780.5537101360,16069.1227968565
4185771258,27921,2,0,-9078.4402765653,42692.8100103534,12533.8471557380,30528.2037824044,51026.9766076530,14040.7799041689,46357.0267347046,57832.1504221816,60778.7650587030,16071.9700379130
4185771258,27921,2,0,-9075.4226877532,42694.8176803292,12542.2063634553,30530.5764832849,51028.4367312717,14047.3504604533,46344.1046406787,57835.1193402064,60782.9507464101,16071.5320008274
4185771258,27921,2,0,-9072.1739127014,42702.7753540514,12547.7791686002,30538.0109460437,51037.5260007984,14049.5041427909,46362.9767384511,57845.4740502027,60787.4527942346,16072.9677890525
4185771258,27921,2,0,-9072.2590865792,42705.9267875286,12548.6917458620,30538.5219893103,51040.2150617963,14042.1913570003,46372.5527158507,57845.9485903788,60787.3676203568,16071.4954977370
4185771258,27921,2,0,-9076.4326065895,42702.4224908435,12548.3510503509,30536.5751578186,51034.7395982260,14040.1715193277,46356.4061821667,57839.4510402754,60781.9043244833,16067.1029591839
4185806410,27922,2,0,-9076.5177804672,42704.2111422765,12551.2956329821,30539.0938710610,51035.8955294242,14042.2643631813,46361.2124224117,57842.2617782415,60782.0746722388,16070.3030634483
4185806410,27922,2,0,-9075.2158369072,42705.0385456605,12551.5633223122,30541.0893733399,51037.6233423730,14038.8087372836,46373.6843116552,57844.2329451268,60780.9187410407,16073.3693230477
4185806410,27922,2,0,-9078.3307672938,42699.5144113029,12555.9923639557,30534.7378355984,51031.8071832917,14037.0930920315,46358.1583305092,57836.9201593362,60777.7551398667,16071.7996901575
4185806410,27922,2,0,-9079.3893569174,42700.6216717137,12563.8526961033,30533.8982645176,51031.2718046315,14036.0223347111,46352.0136436136,57838.2342705931,60779.7993129329,16072.2255595463
4185806410,27922,2,0,-9078.7323012890,42704.3571546384,12566.2010615902,30534.8595125666,51035.3114799767,14033.1020874736,46369.4256177672,57843.0405108381,60780.4563685614,16071.9335348226
4185806410,27922,2,0,-9079.0243260128,42699.7212621489,12564.2663977953,30531.3552158816,51029.3371408366,14026.9817359717,46358.3773490520,57834.3527753066,60778.3756924047,16066.4459035554
4185806410,27922,2,0,-9083.0274982675,42695.3287235958,12562.7454356925,30529.2258689376,51022.2677089825,14028.2593441381,46340.2596484826,57830.3861061423,60775.2607620180,16064.5112397606
4185806410,27922,2,0,-9080.4966173283,42699.5995851806,12566.2375646806,30534.4093077841,51027.5849924941,14030.8997343486,46360.0199881231,57837.5772149646,60778.6920525221,16068.0277041424
4185850724,27923,2,0,-9078.7809720763,42699.5144113029,12568.0870545977,30533.2777119796,51030.8946060299,14027.1885868176,46364.1935081334,57838.0274197471,60777.2440966001,16068.7699336486
4185850724,27923,2,0,-9081.4335299837,42691.4593960061,12568.3425762310,30526.5976464238,51020.7832499701,14022.9542283233,46344.1046406787,57827.8065544158,60771.4036021251,16062.9294391736
4185850724,27923,2,0,-9082.3947780327,42689.6220737858,12568.2330669596,30526.5368079397,51018.8485861752,14026.3003449496,46350.7847062345,57830.0332429344,60770.5761987412,16060.2282104789
4185850724,27923,2,0,-9075.1063276358,42698.3341447110,12576.5679392833,30533.8982645176,51028.2785512130,14038.6870603153,46371.6279708922,57838.3194444708,60779.7506421457,16067.0299530029
4185850724,27923,2,0,-9073.2690054155,42701.4977458850,12586.5941214654,30536.6603316964,51031.5029908711,14044.5762255776,46361.0177392626,57841.7507349749,60783.2062680434,16067.3341454235
4185850724,27923,2,0,-9074.4614397042,42709.4554196072,12598.1412657504,30540.2498022592,51039.8378631948,14046.6447340375,46365.3007685442,57849.9395949367,60790.3000352911,16070.7532682308
4185850724,27923,2,0,-9075.4956939341,42712.8867101113,12599.0781784058,30539.8604359608,51046.6517734157,14034.2336832781,46381.8975070107,57853.6385747709,60788.5722223423,16073.4058261382
4185850724,27923,2,0,-9079.4258600079,42706.1214706777,12595.0628384542,30532.5598178671,51037.7206839476,14028.5026980745,46368.0628357230,57843.9287527062,60782.7560632609,16070.7897713212
4185872395,27924,2,0,-9081.8715670693,42703.0917141688,12593.4567024736,30529.2258689376,51030.9189414236,14028.1985056539,46353.1574071149,57838.7696492533,60778.5217047665,16067.1272945775
4185872395,27924,2,0,-9082.4191134264,42703.9191175528,12591.3151878327,30527.9725961648,51032.4277358296,14026.4463573114,46365.8848179917,57840.2054374784,60776.9399041796,16067.1881330616
4185872395,27924,2,0,-9079.6570462476,42703.1890557434,12594.1867642829,30528.3132916759,51034.9586167688,14029.2935983680,46365.3007685442,57837.4920410869,60777.6577982921,16065.9835310762
4185872395,27924,2,0,-9080.8738159298,42701.5464166723,12599.9420848802,30524.9793427464,51033.7296793897,14033.0777520799,46348.3268314762,57836.6646377029,60776.8182272113,16062.4427313007
4185872395,27924,2,0,-9078.0874133574,42709.2120656707,12607.8632555119,30531.8784268450,51043.9505447210,14036.1683470730,46364.0231603778,57846.0946027407,60784.0093360337,16067.3098100299
4185872395,27924,2,0,-9075.9337310197,42713.2882441064,12612.2071232777,30535.7477544347,51048.6959464819,14032.0313301532,46375.2174414549,57850.0004334209,60786.4428753983,16071.9457025194
4185872395,27924,2,0,-9077.2235068830,42710.8790401355,12615.4924014199,30534.2267923318,51044.9969666477,14029.5977907886,46360.4093544214,57843.9530880999,60783.2914419211,16072.7244351161
4185872395,27924,2,0,-9077.1261653084,42712.0593067273,12615.3342213612,30534.1051153636,51045.4593391270,14027.5779531160,46367.1745938550,57845.2063608726,60781.3324427326,16069.0619583724
4185900685,27925,2,0,-9076.7002959196,42713.0813932604,12614.2756317376,30537.0253626011,51047.7955369170,14028.4540272872,46386.7280826494,57847.2140308484,60782.1111753293,16066.7865990665
4185900685,27925,2,0,-9081.2996853186,42708.0439667757,12615.9304385055,30533.2533765860,51042.1497255912,14027.6631269937,46368.3183573563,57839.0860093707,60775.7231344973,16065.6915063524
4185900685,27925,2,0,-9086.8603227667,42703.0308756847,12618.4369840511,30530.6616571627,51036.3457342066,14027.7969716588,46355.7977973255,57834.9246570572,60775.0417434752,16068.0398718392
4185900685,27925,2,0,-9093.6742329876,42704.3084838511,12617.6339160607,30529.9072599597,51040.1663910090,14023.0272345042,46367.6491340311,57836.2144329205,60772.8637257439,16070.0353741182
4185900685,27925,2,0,-9096.1807785331,42703.4932481640,12618.7168410780,30526.7314910889,51039.7161862266,14022.7108743868,46362.6117075464,57834.1459244606,60770.5153602570,16070.4004050229
4185900685,27925,2,0,-9091.8125753737,42702.8361925355,12622.6105040613,30523.6773991863,51037.3313176493,14025.4121030815,46349.6896135204,57832.9291547783,60771.1480804918,16066.3363942840
4185900685,27925,2,0,-9084.5606280672,42706.6325139443,12626.7110178907,30525.6972368589,51041.7116885055,14020.2043288413,46365.1425884855,57838.5141276200,60773.4721105850,16067.3949839076
4185900685,27925,2,0,-9086.0694224732,42701.3030627358,12624.8736956704,30520.6963134647,51037.9640378841,14014.5950206059,46367.5152893660,57834.2189306415,60770.8682234649,16065.0587861176
4185936462,27926,2,0,-9091.7030661023,42694.7933449356,12623.8394414405,30518.6521403984,51031.4664877806,14016.1281504056,46347.7427820287,57827.8065544158,60769.3837644525,16059.4738132759
4185936462,27926,2,0,-9094.4773009779,42694.5499909991,12622.7321810296,30521.4142075772,51030.5295751253,14012.8428722634,46356.6008653158,57828.0620760491,60768.1669947702,16054.1078589770
4185936462,27926,2,0,-9094.3921271001,42697.4580705398,12622.9998703597,30524.5291379639,51034.5205796832,14011.4679225224,46371.4576231367,57829.8263920884,60767.6559515036,16052.3922137249
4185936462,27926,2,0,-9094.9153380635,42693.8564322802,12627.1733903699,30522.4119587167,51029.7265071349,14015.5075978676,46357.3674302157,57825.6285366845,60766.3661756404,16053.9010081310
4185936462,27926,2,0,-9089.5493837646,42697.2512196938,12635.4109211191,30527.3155405364,51031.3691462060,14024.4143519420,46357.8054673013,57830.9336524993,60772.0484900567,16059.8753472710
4185936462,27926,2,0,-9081.1536729568,42703.6149251322,12638.5015161121,30532.4989793829,51042.0645517134,14025.2174199323,46376.8114097387,57841.4100394639,60778.3026862237,16067.7721825091
4185936462,27926,2,0,-9083.3560260817,42701.0110380121,12639.3289194961,30526.7923295730,51036.5160819621,14014.7045298773,46364.4855328571,57833.2698502893,60774.2751785753,16068.7699336486
4185936462,27926,2,0,-9093.0415127528,42694.2944693658,12642.5655268510,30518.5791342175,51028.4002281812,14009.8131157545,46348.3633345667,57826.2734246161,60767.1814113276,16064.6937552129
4185967657,27927,2,0,-9101.1451988369,42693.4670659819,12642.6993715160,30516.4254518798,51028.7409236923,14009.5454264244,46362.2223412480,57825.5190274131,60764.4680149360,16062.0168619119
4185967657,27927,2,0,-9106.0366129597,42692.4449794487,12645.2789232425,30517.9585816795,51027.1834584989,14011.7234441557,46364.1083342556,57823.3410096818,60763.1539036792,16059.6319933346
4185967657,27927,2,0,-9102.8608440889,42691.1795389791,12648.5520336878,30519.2483575428,51023.7400002981,14013.4025863172,46346.7937016765,57820.0678992364,60763.6527792489,16054.6067345467
4185967657,27927,2,0,-9092.3236186402,42697.7865983540,12653.2244292679,30524.1154362719,51031.2474692378,14015.9334672564,46360.9325653848,57827.0886603033,60769.0917397288,16056.6630753098
4185967657,27927,2,0,-9088.8558250457,42699.6360882711,12656.6313843783,30524.1762747560,51036.8811128668,14016.5053490071,46374.2440257091,57830.2644291741,60771.4401052156,16062.3088866356
4185967657,27927,2,0,-9089.7197315201,42697.3242258747,12663.9320024720,30522.0834309025,51035.1898030084,14023.0394022010,46359.3751001915,57829.0233240981,60774.4333586340,16063.5499917116
4185967657,27927,2,0,-9089.5128806741,42699.3805666378,12668.5922303552,30524.4682994798,51035.4574923385,14024.9740659959,46359.6306218247,57832.0287452134,60780.0791699599,16060.8730984105
4185967657,27927,2,0,-9088.2231048109,42701.1205472835,12667.1807775238,30527.3277082332,51039.7283539234,14017.8072925672,46374.6698950979,57833.3063533798,60780.8457348597,16062.8320975990
4185995185,27928,2,0,-9095.2438658777,42695.1583758402,12661.7296493471,30520.9396674011,51032.3060588614,14009.5454264244,46359.0222369836,57823.9737299166,60772.6568748979,16063.0389484450
4185995185,27928,2,0,-9101.0600249591,42689.8167569350,12660.1113456696,30517.5692153812,51028.8260975700,14013.7189464346,46348.3876699603,57819.6907006349,60768.1426593766,16058.6220744983
4185995185,27928,2,0,-9097.4948897900,42694.0754508230,12667.3267898856,30521.1708536408,51037.6111746762,14019.8879687239,46369.0362514689,57826.8696417604,60773.4112721009,16060.8852661073
4185995185,27928,2,0,-9097.7625791201,42691.4350606124,12674.1893708938,30517.3866999289,51035.6278400941,14018.8415467971,46364.3273527984,57824.6551209387,60774.1169985166,16058.7924222538
4185995185,27928,2,0,-9100.3177954529,42688.4783102845,12681.1006226892,30514.2717695422,51031.3083077219,14021.2507507680,46345.5769319942,57820.3234208697,60774.7497187514,16057.1254477891
4185995185,27928,2,0,-9102.0821114922,42691.0821974046,12681.1857965670,30514.6368004469,51033.4133192723,14016.1646534961,46357.5499456680,57822.4527678137,60775.4067743799,16056.0303550750
4185995185,27928,2,0,-9102.1307822795,42692.2867993900,12676.9514380726,30515.3425268626,51036.0172063924,14011.7599472462,46366.6513828916,57823.0124818676,60773.0705765899,16055.2637901751
4185995185,27928,2,0,-9105.4403958154,42689.5125645144,12673.0091043020,30516.0969240656,51033.0969591549,14019.3769254573,46354.5931953401,57822.2215815741,60773.2895951327,16050.9442578030
4186025699,27929,2,0,-9107.6670843340,42692.7613395661,12672.6927441846,30521.0370089757,51036.1632187543,14024.2318364897,46363.0497446320,57830.6172923819,60778.0836676809,16054.2538713388
4186025699,27929,2,0,-9102.6296578493,42699.0155357331,12678.3872262977,30525.4173798320,51039.6796831361,14025.7771339862,46379.7681600667,57835.7520604412,60781.1012564930,16065.5819970810
4186025699,27929,2,0,-9098.3344608708,42701.9966214547,12688.5229177512,30527.8630868934,51037.6841808571,14019.4255962446,46369.7541455814,57835.0463340255,60780.3346915932,16071.5928393115
4186025699,27929,2,0,-9096.8865049488,42702.1061307261,12692.8181147297,30527.9360930743,51034.6665920451,14013.6337725569,46363.3296016589,57831.2621803135,60778.3148539206,16068.2345549884
4186025699,27929,2,0,-9097.3853805186,42701.0597087994,12690.3845753651,30526.6341495143,51037.1244668033,14009.1073893387,46375.9961740516,57830.6659631692,60776.0151592210,16063.8541841321
4186025699,27929,2,0,-9105.0145264266,42693.1263704708,12686.1988876580,30517.5083768971,51029.5561593794,14006.9780423947,46362.0641611893,57820.8222964394,60772.7907195629,16058.1110312317
4186025699,27929,2,0,-9110.5264930874,42687.4927268418,12685.8946952375,30512.1059195077,51024.4213913201,14010.2998236274,46344.2993238278,57816.5392671578,60770.9655650395,16051.6378165219
4186025699,27929,2,0,-9110.5021576937,42688.6486580400,12683.7166775061,30513.5782108233,51027.2929677704,14006.4913345218,46359.8131372771,57821.9052214567,60768.3981810099,16050.6157299888
4186082275,27930,2,0,-9108.7986801385,42691.0943651014,12683.9478637458,30513.4808692487,51032.9509467930,14002.4029883893,46364.8140606713,57823.4626866500,60768.0818208925,16056.8090876717
4186082275,27930,2,0,-9107.6305812435,42691.6540791552,12689.3259857415,30514.3812788136,51032.2208849836,14005.3597387173,46349.2272410411,57822.0634015154,60768.1061562861,16062.4062282102
4186082275,27930,2,0,-9104.6859986123,42697.4945736302,12695.9087097227,30520.6719780710,51039.1321367791,14010.3606621115,46361.6382918005,57829.5587027583,60774.3238493626,16067.0907914870
4186082275,27930,2,0,-9101.6562421034,42702.7510186578,12703.0998185451,30526.3907955778,51048.1727355185,14016.3471689484,46376.9087513133,57836.4699545538,60781.3811135199,16070.3030634483
4186082275,27930,2,0,-9107.2047118547,42701.1448826771,12708.6482882964,30522.3511202326,51045.3498298556,14019.5594409097,46359.3142617074,57834.0729182796,60781.2472688549,16065.0952892081
4186082275,27930,2,0,-9109.1880464368,42706.8637001839,12713.2841807859,30524.4561317830,51049.0488096898,14022.9907314137,46360.3241805437,57837.2486871504,60782.5857155054,16065.1074569049
4186082275,27930,2,0,-9099.7459137022,42715.9164666202,12717.7132224294,30529.5543967518,51058.2840915784,14022.2728373012,46383.1507797835,57845.7174041392,60785.6154720143,16070.0232064214
4186082275,27930,2,0,-9099.0158518929,42711.9497974559,12719.6722216179,30526.4881371524,51054.3295901109,14013.0618908062,46371.9808341000,57840.2054374784,60782.8290694419,16064.3287243082
4186092308,27931,2,0,-9104.3939738886,42704.5396700907,12717.8348993977,30521.9860893279,51047.0168043203,14007.8662842628,46354.7027046115,57835.4113649302,60779.9696606885,16057.2714601509
4186092308,27931,2,0,-9105.4890666027,42702.5685032054,12715.0241614316,30521.4263752741,51047.8320400075,14003.0113732305,46367.3936123978,57835.5573772920,60776.8425626050,16056.2007028305
4186092308,27931,2,0,-9105.4768989058,42699.4657405156,12710.3274304579,30516.8999920559,51046.7369472934,13996.3678107651,46364.4246943730,57830.4469446264,60771.7929684235,16053.9740143119
4186092308,27931,2,0,-9106.3773084707,42694.9880280847,12711.4833616561,30514.1500925739,51039.3633230187,13992.5471539627,46345.6377704784,57823.1706619263,60767.8871377433,16052.5138906932
4186092308,27931,2,0,-9103.3475519618,42698.2368031364,12715.9245709965,30517.4962092003,51042.6729365546,13994.6278301194,46358.6937091694,57825.7015428654,60768.8970565796,16055.5071441116
4186092308,27931,2,0,-9104.5521539473,42699.4049020314,12722.3734503126,30514.5151234786,51043.2083152148,13994.8590163591,46365.2642654538,57825.4825243226,60770.7222111030,16059.3278009140
4186092308,27931,2,0,-9111.9987844029,42693.7104199183,12725.8899146945,30507.3361823531,51034.4475735022,13994.7981778750,46342.5593431822,57817.8290430210,60766.5243556991,16056.9185969431
4186092308,27931,2,0,-9114.0672928628,42693.8442645834,12728.6033110860,30506.7277975120,51033.2794746072,13996.6720031857,46344.2263176469,57819.8367129968,60765.9889770389,16056.5900691288
4186121377,27932,2,0,-9112.3881507013,42698.4801570729,12727.8367461861,30510.7309697667,51040.4462480360,13990.9045148916,46361.3584347736,57823.7303759801,60765.7942938897,16057.5148140874
4186121377,27932,2,0,-9113.8969451073,42695.7059221973,12728.3477894527,30506.7886359961,51035.4696600354,13992.1212845739,46345.9419628989,57818.6077756177,60762.2048233270,16055.9816842877
4186121377,27932,2,0,-9111.4877411364,42697.7744306572,12736.5731525050,30508.8206413655,51036.1388833606,14000.4439892008,46339.5052512796,57822.1242399995,60766.3175048531,16058.8167576474
4186121377,27932,2,0,-9109.4435680701,42702.1669692103,12742.3163054054,30512.5074535029,51042.7946135228,13999.0812071566,46359.2412555264,57830.1184168122,60768.7753796114,16065.1926307827
4186121377,27932,2,0,-9112.1934675521,42701.9479506674,12746.2708068729,30509.8548955954,51041.7968623833,13998.7891824329,46356.4791883476,57825.6042012909,60770.6127018316,16068.8307721327
4186121377,27932,2,0,-9113.1668832979,42699.6969267552,12751.3204010544,30508.2365919180,51039.4728322901,14000.5291630786,46342.4376662139,57820.7127871680,60769.7122922667,16068.9281137073
4186121377,27932,2,0,-9112.2178029457,42700.2809762027,12750.0549605848,30508.4677781576,51040.7991112438,13993.6179112831,46356.2723375016,57820.2504146888,60770.3571801983,16066.9812822156
4186121377,27932,2,0,-9116.4278260465,42696.1682946766,12746.4654900221,30502.9314761032,51035.9076971210,13990.1257822950,46354.4593506750,57814.7019449375,60768.4590194940,16063.4161470465
4186152216,27933,2,0,-9121.7451095581,42690.0479431746,12746.9156948045,30498.2347451295,51027.8770172179,13990.3204654441,46331.2798882273,57808.2652333182,60764.4071764519,16058.1962051095
4186152216,27933,2,0,-9123.5945994752,42690.4008063825,12746.9278625013,30498.9283038484,51026.9036014720,13984.1879462454,46337.8626122085,57808.3504071959,60762.2899972047,16054.7892499991
4186152216,27933,2,0,-9122.6455191230,42690.1696201428,12743.5695781782,30499.7313718388,51031.7828478980,13980.9756742841,46354.1186551640,57810.7352757732,60760.0511409893,16052.5747291773
4186152216,27933,2,0,-9127.5612686395,42684.3412933646,12742.3893115864,30497.1883232028,51022.8760938236,13981.4258790666,46341.6102628300,57804.6514273618,60755.9019563727,16048.7662400717
4186152216,27933,2,0,-9129.1552369233,42680.7396551051,12742.3649761927,30496.1419012760,51018.2280336373,13976.1937694327,46336.0252899882,57804.7000981490,60755.1232237760,16046.2961976166
4186152216,27933,2,0,-9130.7005344198,42680.1434379607,12743.2653857576,30496.2027397601,51019.6516541655,13974.5024595743,46351.9284697358,57808.9222889466,60755.3057392284,16048.4255445607
4186152216,27933,2,0,-9126.9285484047,42683.0028467141,12749.8481097388,30496.4947644839,51019.9923496766,13979.7467369050,46345.1753979991,57807.5716745993,60756.9727136931,16053.6698218913
