steady_timestamp,sequence,battery,flags,EEG-ch1,EEG-ch2,EEG-ch3,EEG-ch4,EEG-ch5,EEG-ch6,EEG-ch7,EEG-ch8,EEG-ch9,EEG-ch10
5445428088,5275,-2,0,-6717.0553541369,-80240.9839593019,-33919.5112347139,-12641.3365894718,-80533.1425277176,-46234.3276799421,-80470.1990320525,-80457.8123166867,-80500.5452679289,-2416.7844460632
5445428088,5275,-2,0,-6717.9557637018,-80240.4850837322,-33939.1620650829,-12640.8863846894,-80529.3705417024,-46142.8874383177,-80470.2355351430,-80457.6054658407,-80499.5475167894,-2415.3973286254
5445428088,5275,-2,0,-6717.7854159463,-80241.0447977860,-33936.0593023931,-12640.7038692370,-80530.1614419960,-46274.4080732769,-80470.3085413239,-80457.8001489899,-80500.3870878702,-2416.3220735839
5445428088,5275,-2,0,-6718.2477884255,-80241.7505242018,-33914.8510068307,-12641.3000863814,-80534.9920176346,-46456.0231160561,-80471.4523048252,-80458.4085338311,-80501.2753297383,-2417.2833216329
5445428088,5275,-2,0,-6718.2112853351,-80242.6144306762,-33905.0803462819,-12641.8354650416,-80537.9122648722,-46444.7558287981,-80471.9998511823,-80459.5279619388,-80502.3825901492,-2418.0985573201
5445428088,5275,-2,0,-6718.2599561224,-80241.7261888081,-33919.5964085917,-12641.4095956528,-80535.5882347790,-46253.8811687366,-80472.1458635442,-80460.1606821736,-80502.0783977286,-2417.3319924202
5445428088,5275,-2,0,-6718.1261114573,-80242.0425489255,-33938.1278108530,-12641.4582664401,-80532.5949813605,-46141.8531840877,-80472.2675405124,-80458.4815400120,-80500.9954727114,-2416.0543842538
5445428088,5275,-2,0,-6716.6659878386,-80240.5702576099,-33935.7064391852,-12641.0080616576,-80531.0861869545,-46251.5449709466,-80470.8925907714,-80458.0191675327,-80500.6061064130,-2415.2513162635
5445482923,5276,-2,0,-6717.4447204352,-80240.4607483385,-33913.9262618722,-12640.2536644546,-80533.5440617127,-46433.8170693542,-80470.8439199841,-80457.7028074153,-80501.1171496796,-2417.0886384838
5445482923,5276,-2,0,-6718.1626145478,-80241.1299716638,-33898.6192992689,-12640.7647077212,-80536.3913027693,-46445.7657476344,-80471.6591556712,-80458.6518877675,-80501.0806465891,-2417.2224831488
5445482923,5276,-2,0,-6717.8705898240,-80241.4098286907,-33910.3367913094,-12641.0080616576,-80535.3205454489,-46267.2291321513,-80471.0264354364,-80458.4085338311,-80500.5452679289,-2418.0012157455
5445482923,5276,-2,0,-6718.1626145478,-80240.8501146369,-33929.3427337468,-12641.2879186845,-80531.8284164607,-46126.3880414258,-80470.5275598667,-80457.7393105058,-80500.5574356257,-2416.5289244299
5445482923,5276,-2,0,-6718.1747822446,-80241.2029778447,-33929.0020382358,-12640.6673661466,-80531.5242240401,-46207.6439208094,-80472.4500559647,-80457.8488197772,-80501.5430190684,-2416.3342412808
5445482923,5276,-2,0,-6717.6637389780,-80241.2394809352,-33907.6598980084,-12641.5191049242,-80535.0528561188,-46398.4577423868,-80471.6591556712,-80459.2116018214,-80502.1757393032,-2416.9791292124
5445482923,5276,-2,0,-6718.5033100588,-80241.4584994780,-33890.7102963340,-12640.7403723275,-80536.7441659772,-46437.0536767091,-80471.9511803950,-80459.6009681197,-80501.6890314303,-2418.0498865328
5445482923,5276,-2,0,-6717.1405280147,-80241.3733256002,-33897.0253309851,-12640.4118445133,-80535.9410979868,-46267.4603183910,-80471.7199941554,-80459.0169186722,-80501.0076404082,-2416.7479429727
5445491610,5277,-2,0,-6717.2378695892,-80241.9817104414,-33916.6639936573,-12640.5091860879,-80532.7896645097,-46116.3253561532,-80470.8560876809,-80458.7979001294,-80501.0319758018,-2416.1517258284
5445491610,5277,-2,0,-6718.2234530319,-80241.6775180208,-33921.5067369929,-12641.1662417163,-80531.8405841575,-46180.4612861069,-80470.7465784095,-80458.2746891660,-80501.8715468826,-2416.0543842538
5445491610,5277,-2,0,-6717.2135341956,-80240.7041022750,-33900.5052922765,-12641.2027448068,-80533.2033662017,-46371.7131447699,-80471.2819570697,-80458.2381860755,-80499.9125476941,-2416.3099058871
5445491610,5277,-2,0,-6717.6394035844,-80241.4098286907,-33883.3245043625,-12641.4217633496,-80537.0118553073,-46441.1906936289,-80471.6104848839,-80459.3576141832,-80500.7642864717,-2417.8795387773
5445491610,5277,-2,0,-6718.4546392715,-80241.6166795367,-33888.8851418106,-12641.9206389193,-80537.4133893024,-46294.2170837046,-80471.8781742141,-80459.4671234547,-80501.1779881637,-2417.6483525376
5445491610,5277,-2,0,-6717.2743726797,-80240.9474562114,-33909.0470154462,-12640.2293290610,-80532.9843476589,-46122.2996952933,-80471.6348202776,-80458.1530121978,-80501.3240005256,-2416.3099058871
5445491610,5277,-2,0,-6717.4812235257,-80241.3246548130,-33915.9704349384,-12641.2149125036,-80532.1326088813,-46155.9677124023,-80472.1701989378,-80458.9560801881,-80501.2266589510,-2415.2513162635
5445491610,5277,-2,0,-6717.5785651003,-80242.2372320747,-33898.8748209022,-12640.9107200830,-80534.1402788570,-46348.9717194079,-80472.1945343314,-80459.3697818801,-80501.6525283398,-2416.6384337013
5445542939,5278,-2,0,-6717.8219190367,-80239.8766988910,-33878.3844194524,-12640.6673661466,-80535.9289302900,-46441.7990784701,-80471.8660065172,-80458.6518877675,-80501.6281929461,-2416.7601106696
5445542939,5278,-2,0,-6718.4303038779,-80241.3733256002,-33882.9594734578,-12641.8354650416,-80537.0970291850,-46312.1644365185,-80471.8416711236,-80459.1629310341,-80502.1027331222,-2417.7456941122
5445542939,5278,-2,0,-6718.5033100588,-80241.3246548130,-33903.7540673282,-12642.0301481907,-80533.2885400794,-46131.4741386978,-80470.9899323460,-80458.8709063103,-80501.3361682224,-2416.9669615156
5445542939,5278,-2,0,-6718.1747822446,-80240.6797668813,-33914.7780006498,-12641.7502911638,-80530.9401745926,-46137.0469438427,-80471.7199941554,-80458.8952417040,-80501.4700128875,-2416.6019306109
5445542939,5278,-2,0,-6717.7854159463,-80240.3512390671,-33899.0573363545,-12641.2392478973,-80532.3272920304,-46319.9152593947,-80471.7930003363,-80458.5788815866,-80501.0928142859,-2416.6627690950
5445542939,5278,-2,0,-6717.9800990954,-80240.6919345781,-33878.4452579365,-12640.6917015402,-80535.6369055663,-46438.9275020199,-80470.3328767175,-80457.7514782026,-80500.3019139924,-2417.4536693885
5445542939,5278,-2,0,-6718.2477884255,-80240.1078851307,-33879.0658104744,-12641.3122540782,-80535.7950856250,-46334.3218124330,-80470.8317522873,-80458.6762231612,-80500.6791125939,-2417.1251415743
5445542939,5278,-2,0,-6717.0431864401,-80238.8059415706,-33898.2907714547,-12640.5821922688,-80532.7531614192,-46141.3178054275,-80469.5541441209,-80457.4837888725,-80500.3140816893,-2415.2999870508
5445559196,5279,-2,0,-6717.7854159463,-80239.6941834387,-33911.6752379599,-12640.9472231735,-80531.1591931354,-46118.8319016987,-80470.3207090207,-80456.2791868870,-80499.7421999386,-2416.1395581316
5445559196,5279,-2,0,-6716.8971740782,-80239.6941834387,-33898.7288085403,-12640.7160369339,-80531.3417085878,-46294.5334438220,-80469.0187654607,-80456.5225408235,-80499.6935291513,-2416.6384337013
5445559196,5279,-2,0,-6718.2842915160,-80240.7284376686,-33878.9441335062,-12641.8841358289,-80534.8216698791,-46434.2794418335,-80470.5640629572,-80458.1651798946,-80500.5574356257,-2417.6970233249
5445559196,5279,-2,0,-6718.5519808461,-80239.4508295022,-33875.5006753053,-12641.4582664401,-80535.9167625932,-46350.3466691488,-80469.8218334510,-80457.9461613518,-80500.6182741098,-2417.9768803519
5445559196,5279,-2,0,-6718.1017760637,-80239.0249601134,-33894.1294191412,-12641.0080616576,-80532.3637951209,-46157.9388792877,-80469.7974980573,-80456.9119071218,-80500.1559016306,-2416.3585766744
5445559196,5279,-2,0,-6718.6493224207,-80239.2926494435,-33910.4828036713,-12642.3100052177,-80529.5652248516,-46108.1486638882,-80470.0651873874,-80457.2404349361,-80499.2433243688,-2417.3198247234
5445559196,5279,-2,0,-6717.9070929145,-80238.6234261183,-33900.7364785161,-12641.3244217750,-80530.8184976244,-46265.1606236914,-80468.8484177051,-80456.8023978504,-80498.8174549800,-2416.7114398823
5445559196,5279,-2,0,-6717.4568881321,-80238.8424446611,-33877.8855438826,-12640.6308630561,-80532.5219751796,-46424.8616444925,-80469.3837963653,-80456.4008638553,-80499.1459827943,-2416.5410921267
5445594644,5280,-2,0,-6717.0918572274,-80238.1367182453,-33871.5096707474,-12640.3266706355,-80533.9090926174,-46375.6189754501,-80468.1670266830,-80455.5612927745,-80498.0630577770,-2416.6749367918
5445594644,5280,-2,0,-6717.8949252177,-80239.3899910181,-33891.1239980260,-12641.4947695305,-80533.1060246271,-46182.4689560827,-80469.4324671526,-80457.3256088138,-80499.0243058260,-2417.5631786599
5445594644,5280,-2,0,-6718.9413471445,-80239.8036927101,-33908.1831089717,-12641.4582664401,-80530.8671684117,-46107.7592975899,-80470.3937152017,-80457.2404349361,-80500.0220569655,-2417.5996817503
5445594644,5280,-2,0,-6718.4668069684,-80240.6189283972,-33903.8270735091,-12641.6164464988,-80531.3660439814,-46251.2407785260,-80470.9169261650,-80458.3233599533,-80500.9224665304,-2417.3319924202
5445594644,5280,-2,0,-6718.5154777557,-80241.0934685733,-33882.3632563135,-12641.4826018337,-80535.3327131457,-46423.5475332357,-80471.3306278570,-80458.8709063103,-80501.3726713129,-2417.3563278139
5445594644,5280,-2,0,-6718.5154777557,-80241.3854932971,-33873.2496513931,-12641.3122540782,-80538.4111404419,-46399.3459842548,-80471.4523048252,-80459.2116018214,-80501.2388266478,-2417.7821972027
5445594644,5280,-2,0,-6717.0431864401,-80239.8280281037,-33889.2501727152,-12640.6308630561,-80533.9820987984,-46212.6448442036,-80470.4910567762,-80458.3111922565,-80500.3749201734,-2417.0643030901
5445594644,5280,-2,0,-6717.9070929145,-80240.4850837322,-33909.7527418619,-12640.8863846894,-80531.2930378005,-46112.9549041332,-80470.1016904779,-80458.0191675327,-80499.7908707259,-2415.7623595301
5445611835,5281,-2,0,-6717.7610805526,-80240.6189283972,-33907.5868918274,-12641.2635832909,-80531.8405841575,-46234.6440400595,-80470.9412615587,-80457.5811304471,-80499.9125476941,-2416.6262660045
5445611835,5281,-2,0,-6718.4424715747,-80241.1299716638,-33887.2059996490,-12640.6673661466,-80534.5783159427,-46420.5664475140,-80471.6226525808,-80458.6032169802,-80501.0319758018,-2417.2833216329
5445611835,5281,-2,0,-6717.5055589194,-80239.9253696783,-33875.8170354227,-12640.4361799069,-80536.5373151312,-46422.6106205803,-80472.8150868694,-80459.2237695182,-80501.2874974351,-2417.6240171440
5445611835,5281,-2,0,-6718.8683409635,-80241.6896857176,-33889.9558991310,-12641.1540740195,-80536.1236134392,-46238.3551875905,-80471.2089508888,-80459.0777571563,-80501.1414850732,-2417.4536693885
5445611835,5281,-2,0,-6718.4668069684,-80241.8478657763,-33911.0181823315,-12641.5191049242,-80533.2520369890,-46113.5632889744,-80472.2675405124,-80459.9051605403,-80502.1392362127,-2417.0643030901
5445611835,5281,-2,0,-6718.1626145478,-80241.6896857176,-33911.8455857154,-12641.3365894718,-80531.6824040988,-46211.9999562720,-80470.8925907714,-80459.5766327261,-80501.1901558605,-2417.2346508457
5445611835,5281,-2,0,-6717.5177266162,-80241.0326300892,-33890.6251224562,-12641.4582664401,-80536.2209550138,-46397.8128544551,-80472.6569068107,-80458.5180431025,-80501.5065159779,-2417.9282095646
5445611835,5281,-2,0,-6717.8340867336,-80241.6045118399,-33876.8026188654,-12641.2514155941,-80537.9609356594,-46427.1491714953,-80472.3648820870,-80460.3066945354,-80502.6867825697,-2417.1373092711
5445663170,5282,-2,0,-6717.7124097653,-80240.5580899131,-33887.5345274632,-12641.2149125036,-80535.9167625932,-46257.9816825659,-80471.8660065172,-80459.2359372150,-80501.3118328288,-2417.0521353933
5445663170,5282,-2,0,-6717.3108757702,-80240.2904005830,-33910.5436421554,-12641.3000863814,-80532.4368013018,-46114.5123693266,-80471.5496463998,-80457.9096582613,-80501.1901558605,-2415.9935457697
5445663170,5282,-2,0,-6717.5177266162,-80239.9618727688,-33914.4616405324,-12640.4361799069,-80531.3660439814,-46189.8790834479,-80470.6005660476,-80457.8974905645,-80500.1802370242,-2415.5068378968
5445663170,5282,-2,0,-6717.8705898240,-80241.3246548130,-33897.6215481294,-12640.7403723275,-80534.4323035808,-46390.6947518137,-80472.1701989378,-80458.8709063103,-80500.9224665304,-2416.7601106696
5445663170,5282,-2,0,-6718.5641485429,-80242.1398905001,-33882.7161195213,-12641.5921111051,-80537.7905879039,-46452.6404963393,-80472.4135528743,-80460.3310299291,-80502.0297269413,-2417.9768803519
5445663170,5282,-2,0,-6716.8606709877,-80240.5824253067,-33889.2258373216,-12640.7768754180,-80536.9631845200,-46294.3265929760,-80472.0728573632,-80460.1850175672,-80501.8837145794,-2416.1638935252
5445663170,5282,-2,0,-6718.1991176383,-80241.7626918986,-33911.9185918964,-12641.1540740195,-80533.8360864365,-46131.4863063946,-80472.4622236616,-80459.2359372150,-80502.1879070000,-2416.8087814569
5445663170,5282,-2,0,-6717.4933912225,-80242.0790520160,-33919.5355701075,-12640.9958939608,-80531.9622611257,-46176.9326540283,-80473.1192792900,-80460.0876759926,-80502.9179688094,-2416.4802536426
5445683168,5283,-2,0,-6717.9557637018,-80240.3512390671,-33902.0627574698,-12640.8133785085,-80533.4953909254,-46368.0506680262,-80471.6713233681,-80458.8952417040,-80501.5065159779,-2417.3441601171
5445683168,5283,-2,0,-6718.6371547239,-80240.2660651894,-33884.1640754433,-12641.1054032322,-80536.8415075517,-46453.7842598407,-80471.8903419109,-80458.8222355230,-80501.9567207604,-2418.0012157455
5445683168,5283,-2,0,-6717.2500372861,-80240.5459222163,-33889.2866758057,-12641.0445647481,-80536.4764766470,-46318.4916388664,-80471.2211185856,-80458.2016829851,-80500.6304418067,-2418.3784143470
5445683168,5283,-2,0,-6718.5154777557,-80239.1101339912,-33911.5657286885,-12641.5434403178,-80533.4953909254,-46138.6409121265,-80470.7952491968,-80458.0069998359,-80501.1536527701,-2416.4680859458
5445683168,5283,-2,0,-6717.4690558289,-80239.5360033800,-33920.6915013057,-12641.4704341369,-80530.7941622307,-46151.5995092429,-80470.0286842970,-80457.8123166867,-80500.7277833812,-2415.6528502587
5445683168,5283,-2,0,-6717.4812235257,-80239.4629971990,-33904.3746198662,-12640.6917015402,-80532.3272920304,-46337.6192582720,-80470.3815475048,-80457.7028074153,-80499.7056968481,-2416.5897629140
5445683168,5283,-2,0,-6717.2013664988,-80238.9884570229,-33884.9428080399,-12640.8985523862,-80536.4886443439,-46444.5489779521,-80470.5397275635,-80458.2016829851,-80499.9003799973,-2417.2103154520
5445683168,5283,-2,0,-6717.9070929145,-80240.2417297957,-33885.5025220938,-12641.0567324449,-80537.4255569992,-46328.6151626231,-80471.0142677396,-80458.8100678262,-80500.3870878702,-2417.5023401758
5445702283,5284,-2,0,-6717.7002420685,-80240.0348789497,-33905.9564204531,-12641.1662417163,-80533.9942664952,-46145.5764993156,-80471.0264354364,-80458.4450369215,-80500.9468019241,-2417.0034646060
5445702283,5284,-2,0,-6717.6029004939,-80240.7162699718,-33919.8640979218,-12640.8133785085,-80531.4147147687,-46138.1298688599,-80471.3549632507,-80458.7979001294,-80501.3240005256,-2415.5798440777
5445702283,5284,-2,0,-6717.7245774622,-80241.1299716638,-33907.2948671037,-12640.9715585672,-80534.2497881285,-46316.6299812525,-80472.2553728156,-80459.3454464864,-80501.7255345207,-2416.4437505522
5445702283,5284,-2,0,-6718.4789746652,-80241.6775180208,-33887.7292106124,-12641.4217633496,-80537.7419171166,-46450.0366092192,-80473.3139624392,-80460.3066945354,-80502.5651056015,-2417.1738123615
5445702283,5284,-2,0,-6718.1382791541,-80242.2615674683,-33887.3155089204,-12641.2392478973,-80539.1898730386,-46361.6017887101,-80473.3261301360,-80461.3044456749,-80503.6723660124,-2417.5388432662
5445702283,5284,-2,0,-6717.2622049829,-80242.2372320747,-33906.2727805705,-12640.7890431148,-80535.4543901139,-46167.3810120223,-80472.5352298425,-80460.4040361100,-80502.6137763888,-2416.9791292124
5445702283,5284,-2,0,-6717.7245774622,-80241.5923441430,-33922.0786187435,-12641.2027448068,-80533.5197263191,-46130.1965305314,-80472.9124284440,-80460.3310299291,-80502.7719564475,-2415.8475334078
5445702283,5284,-2,0,-6717.7002420685,-80241.5193379621,-33913.2570385469,-12641.0810678386,-80534.1037757666,-46298.2080882625,-80472.7785837790,-80459.7591481784,-80502.3217516650,-2416.4802536426
5445745471,5285,-2,0,-6717.7854159463,-80241.1664747543,-33891.6593766862,-12641.4704341369,-80537.0240230041,-46448.7711687496,-80471.9876834855,-80459.6131358165,-80501.8715468826,-2417.2103154520
5445745471,5285,-2,0,-6717.6029004939,-80240.8744500305,-33886.7679625634,-12641.0080616576,-80538.6909974688,-46382.4207179741,-80472.7177452948,-80460.4040361100,-80502.0905654254,-2417.4658370853
5445745471,5285,-2,0,-6717.7854159463,-80241.7870272922,-33907.4773825560,-12642.0544835844,-80536.0749426519,-46190.2562820494,-80473.2166208646,-80460.7812347115,-80502.4190932396,-2417.3928309044
5445745471,5285,-2,0,-6717.5785651003,-80241.5680087494,-33924.3539780494,-12640.7160369339,-80532.6801552383,-46125.9743397338,-80473.0097700186,-80459.8443220562,-80502.3825901492,-2417.0886384838
5445745471,5285,-2,0,-6717.8097513399,-80241.6166795367,-33917.5887386159,-12641.8476327384,-80534.4444712776,-46275.1381350862,-80472.7299129917,-80460.8177378020,-80503.0153103840,-2416.7844460632
5445745471,5285,-2,0,-6716.9823479560,-80241.2759840257,-33896.1370891170,-12641.0932355354,-80536.7441659772,-46442.5899787636,-80472.5595652361,-80459.7226450879,-80502.0297269413,-2417.3563278139
5445745471,5285,-2,0,-6717.9922667923,-80241.2273132384,-33889.4691912581,-12641.4826018337,-80537.6810786325,-46405.5515096345,-80473.6181548597,-80460.2093529609,-80501.7863730048,-2417.9160418677
5445745471,5285,-2,0,-6717.6272358876,-80240.2904005830,-33906.1632712991,-12640.2658321514,-80535.6977440504,-46208.8485227949,-80471.6956587617,-80458.5302107993,-80501.4700128875,-2417.0399676965
5445785471,5286,-2,0,-6717.6759066749,-80239.7185188323,-33924.9745305874,-12640.6673661466,-80532.1447765781,-46116.8120640261,-80471.3062924634,-80457.8001489899,-80500.8494603495,-2416.3099058871
5445785471,5286,-2,0,-6717.3473788607,-80239.5116679863,-33920.5333212470,-12641.3487571687,-80530.8793361085,-46248.5395498313,-80470.4667213826,-80457.6663043249,-80500.0342246623,-2416.3220735839
5445785471,5286,-2,0,-6717.6394035844,-80238.8059415706,-33900.9189939684,-12640.5456891783,-80533.9577634047,-46427.1248361016,-80469.4568025463,-80458.0556706232,-80500.3140816893,-2417.2954893298
5445785471,5286,-2,0,-6718.3086269097,-80240.7649407591,-33890.5642839721,-12642.0058127971,-80536.8415075517,-46417.3420078560,-80471.7443295490,-80458.5788815866,-80501.7620376112,-2417.7335264154
5445785471,5286,-2,0,-6719.0630241127,-80241.8600334732,-33906.0415943309,-12641.3974279560,-80536.7319982803,-46232.2226683917,-80472.8759253535,-80459.5766327261,-80502.6624471761,-2417.8917064741
5445785471,5286,-2,0,-6717.5055589194,-80241.0447977860,-33926.1547971792,-12641.0567324449,-80532.6558198446,-46115.6804682216,-80471.4279694316,-80458.9682478849,-80501.8107083985,-2417.0886384838
5445785471,5286,-2,0,-6717.6150681908,-80240.9717916051,-33924.1836302939,-12640.3388383324,-80531.9744288226,-46221.4420890066,-80471.6348202776,-80459.7226450879,-80502.1270685159,-2416.7479429727
5445785471,5286,-2,0,-6717.9800990954,-80240.8744500305,-33904.4962968344,-12641.9693097066,-80535.3692162362,-46409.9805512781,-80472.9367638376,-80460.6717254401,-80502.2730808778,-2417.4415016916
5445799182,5287,-2,0,-6717.5663974035,-80240.2660651894,-33891.3673519624,-12641.6651172861,-80537.5228985738,-46431.3713622928,-80472.0363542728,-80459.3089433960,-80501.4821805843,-2417.6361848408
5445799182,5287,-2,0,-6717.5298943130,-80239.2318109594,-33903.2795271521,-12641.1054032322,-80535.3083777521,-46253.5283055287,-80471.4523048252,-80458.6518877675,-80500.5574356257,-2417.9038741709
5445799182,5287,-2,0,-6718.3086269097,-80240.4242452481,-33924.4391519272,-12641.9571420098,-80532.5584782701,-46116.1550083977,-80471.8538388204,-80459.6374712102,-80500.9833050145,-2417.3198247234
5445799182,5287,-2,0,-6718.4789746652,-80239.8401958005,-33927.0673744410,-12640.7403723275,-80531.5607271306,-46197.8245894733,-80470.6735722286,-80458.1408445009,-80499.7543676354,-2416.4437505522
5445799182,5287,-2,0,-6718.9291794476,-80240.3877421576,-33906.5891406879,-12641.9571420098,-80534.2376204316,-46389.1616220140,-80471.7443295490,-80458.6397200707,-80501.0928142859,-2417.8430356868
5445799182,5287,-2,0,-6717.6394035844,-80239.0006247198,-33889.6638744072,-12641.2392478973,-80536.5494828280,-46435.4110376380,-80470.5397275635,-80458.4207015279,-80500.7277833812,-2418.1228927137
5445799182,5287,-2,0,-6717.5907327971,-80238.7207676928,-33899.3250256846,-12640.8133785085,-80535.5638993853,-46274.8947811498,-80470.0408519938,-80458.6883908580,-80501.7255345207,-2417.7456941122
5445799182,5287,-2,0,-6718.3572976970,-80239.5968418641,-33920.8496813644,-12640.2536644546,-80532.2542858495,-46117.9193244370,-80470.6614045318,-80458.1408445009,-80500.9224665304,-2416.5167567331
5445833102,5288,-2,0,-6718.1869499414,-80239.3656556245,-33926.4589895998,-12640.8255462053,-80530.8428330180,-46173.6473758861,-80470.9655969523,-80458.4450369215,-80500.9589696209,-2417.2833216329
5445833102,5288,-2,0,-6717.5907327971,-80239.9132019815,-33908.7914938129,-12641.9328066162,-80532.9356768716,-46366.8217306471,-80470.6005660476,-80458.4937077088,-80501.3240005256,-2417.1129738774
5445833102,5288,-2,0,-6717.3717142543,-80239.4751648959,-33891.8905629258,-12641.5556080147,-80536.3547996788,-46439.1586882595,-80470.6979076222,-80458.1408445009,-80500.9711373177,-2416.1152227379
5445833102,5288,-2,0,-6717.7732482495,-80238.6355938151,-33898.4854546039,-12640.9228877799,-80536.1236134392,-46291.7227058559,-80471.3306278570,-80458.3476953469,-80500.7034479876,-2417.3198247234
5445833102,5288,-2,0,-6717.8097513399,-80238.8911154484,-33919.9127687091,-12641.3244217750,-80532.5584782701,-46120.9977517332,-80471.0021000428,-80458.7735647357,-80500.6304418067,-2417.0643030901
5445833102,5288,-2,0,-6716.7146586259,-80237.9907058835,-33927.7731008567,-12640.5335214815,-80529.4557155802,-46151.0154597954,-80469.6879887859,-80456.7415593663,-80499.2433243688,-2415.2269808699
5445833102,5288,-2,0,-6717.2135341956,-80238.0150412771,-33910.7991637887,-12640.1076520927,-80531.1835285291,-46338.6778478956,-80470.3937152017,-80457.3134411170,-80499.2189889752,-2415.9935457697
5445833102,5288,-2,0,-6717.6515712812,-80238.5139168468,-33892.4016061924,-12640.8255462053,-80535.3448808425,-46436.8224904695,-80470.8925907714,-80458.6275523739,-80500.2410755083,-2416.9061230314
5445864184,5289,-2,0,-6716.6294847481,-80238.3435690913,-33894.7986424665,-12640.7282046307,-80535.4908932044,-46312.3712873644,-80470.3572121112,-80457.8244843836,-80500.0585600560,-2416.3585766744
5445864184,5289,-2,0,-6717.0918572274,-80237.6743457661,-33916.3598012368,-12641.1784094131,-80532.5463105732,-46127.3371217780,-80470.6370691381,-80458.1651798946,-80500.2045724179,-2416.6019306109
5445864184,5289,-2,0,-6717.7489128558,-80239.2196432626,-33928.4423241819,-12642.1639928558,-80530.6603175657,-46125.9865074306,-80471.1846154951,-80458.4937077088,-80501.0319758018,-2416.4924213395
5445864184,5289,-2,0,-6718.2234530319,-80239.0006247198,-33914.5589821070,-12641.4339310464,-80532.5706459669,-46309.1468477064,-80470.4667213826,-80458.3720307406,-80499.7787030291,-2416.5897629140
5445864184,5289,-2,0,-6718.5519808461,-80239.0492955071,-33893.5210343001,-12641.2270802004,-80536.5008120407,-46430.1302572169,-80471.9998511823,-80459.4549557578,-80501.1171496796,-2417.9647126550
5445864184,5289,-2,0,-6717.7002420685,-80238.4652460596,-33893.3263511509,-12640.6917015402,-80536.9631845200,-46326.4858156791,-80471.8538388204,-80457.6298012344,-80500.8616280463,-2417.6605202345
5445864184,5289,-2,0,-6717.1405280147,-80238.1732213358,-33912.8798399454,-12640.3510060292,-80533.7387448619,-46136.6210744539,-80470.0286842970,-80458.3841984374,-80499.7665353322,-2416.6871044886
5445864184,5289,-2,0,-6717.4933912225,-80238.7451030865,-33928.8195227835,-12640.5821922688,-80530.4656344165,-46112.2005069302,-80470.7952491968,-80458.1286768041,-80500.8859634399,-2416.0422165570
5445899331,5290,-2,0,-6716.9823479560,-80237.5161657074,-33917.4792293445,-12640.3753414228,-80531.6580687052,-46280.7717787153,-80470.5153921699,-80457.2647703297,-80499.7056968481,-2416.4194151585
5445899331,5290,-2,0,-6717.2500372861,-80238.6477615119,-33896.5507908090,-12641.0080616576,-80535.5030609012,-46424.7764706148,-80470.9290938619,-80458.4572046183,-80500.6182741098,-2417.3563278139
5445899331,5290,-2,0,-6717.7854159463,-80238.6477615119,-33893.1560033954,-12640.8377139021,-80536.2939611947,-46348.6431915936,-80471.4888079157,-80458.2016829851,-80500.2289078115,-2417.4658370853
5445899331,5290,-2,0,-6718.4668069684,-80239.4143264117,-33913.8775910849,-12641.5191049242,-80534.2984589157,-46152.3904095364,-80471.8295034268,-80458.8100678262,-80501.4821805843,-2417.0156323028
5445899331,5290,-2,0,-6717.0066833496,-80238.8789477515,-33928.5153303629,-12640.4848506942,-80531.5120563433,-46095.0075513194,-80471.6348202776,-80458.2016829851,-80501.3118328288,-2416.0543842538
5445899331,5290,-2,0,-6717.7732482495,-80238.6112584214,-33919.6694147726,-12640.8742169926,-80531.9865965194,-46252.3602066337,-80470.3450444144,-80457.6906397185,-80500.4600940511,-2416.4315828553
5445899331,5290,-2,0,-6717.5177266162,-80238.9154508420,-33898.9234916895,-12641.4582664401,-80535.1136946029,-46413.6551957186,-80472.0606896664,-80457.9461613518,-80500.6791125939,-2417.4536693885
5445899331,5290,-2,0,-6717.2987080734,-80238.7572707833,-33893.2046741827,-12640.9350554767,-80535.9897687741,-46364.0961665588,-80470.7952491968,-80458.6275523739,-80499.9612184814,-2417.4780047821
5445928151,5291,-2,0,-6716.9701802591,-80236.7739362012,-33909.4850525318,-12641.2879186845,-80532.1934473654,-46171.9438983309,-80468.8970884924,-80456.0723360410,-80499.1824858847,-2416.3342412808
5445928151,5291,-2,0,-6718.1504468510,-80236.9686193503,-33930.2309756149,-12641.2514155941,-80530.3439574483,-46092.8782043754,-80469.2012809130,-80456.6077147013,-80498.6227718309,-2416.2490674030
5445928151,5291,-2,0,-6717.5420620098,-80237.1754701963,-33925.3760645826,-12641.6042788019,-80529.7234049103,-46228.0978191687,-80469.0431008543,-80456.5347085203,-80497.5520145105,-2416.9061230314
5445928151,5291,-2,0,-6717.5785651003,-80237.4431595264,-33904.4232906535,-12641.1297386259,-80532.7044906319,-46403.7020197174,-80470.2598705366,-80457.3864472979,-80500.0098892687,-2417.1494769679
5445928151,5291,-2,0,-6718.6371547239,-80238.5260845437,-33895.5043688822,-12641.1054032322,-80536.2696258011,-46385.1097789720,-80470.6127337445,-80459.3576141832,-80500.5574356257,-2418.4149174375
5445928151,5291,-2,0,-6717.7975836431,-80238.0880474580,-33910.6653191236,-12640.6917015402,-80533.7022417714,-46194.5636467247,-80470.3693798080,-80457.0457517869,-80499.8638769068,-2417.5388432662
5445928151,5291,-2,0,-6717.2987080734,-80237.7595196438,-33930.9123666370,-12640.8985523862,-80531.6580687052,-46088.3153180668,-80470.0895227811,-80456.7293916695,-80498.8782934642,-2415.8597011047
5445928151,5291,-2,0,-6717.5907327971,-80238.9641216293,-33930.3526525831,-12641.8354650416,-80532.0230996099,-46208.1427963791,-80471.4644725221,-80459.0655894595,-80501.0806465891,-2416.6140983077
5445979173,5292,-2,0,-6717.3108757702,-80238.3070660009,-33908.2317797590,-12640.4726829974,-80533.7995833460,-46393.0917880878,-80470.3085413239,-80457.6906397185,-80500.0585600560,-2416.5410921267
5445979173,5292,-2,0,-6717.0796895305,-80237.9663704898,-33897.2808526184,-12640.7768754180,-80536.2087873170,-46398.4212392963,-80470.4788890794,-80457.5567950534,-80500.2167401147,-2417.0277999997
5445979173,5292,-2,0,-6716.2644538434,-80237.9298673993,-33910.6288160332,-12640.0711490023,-80534.0551049793,-46217.1833951186,-80469.5663118177,-80457.4837888725,-80499.1459827943,-2415.9692103761
5445979173,5292,-2,0,-6718.3938007874,-80239.1588047785,-33932.1291363193,-12640.7403723275,-80531.1713608322,-46090.2864849521,-80471.1237770110,-80457.7393105058,-80500.0463923592,-2416.5289244299
5445979173,5292,-2,0,-6717.7854159463,-80238.8546123579,-33932.4089933462,-12641.2392478973,-80530.8915038053,-46182.7974838969,-80471.3062924634,-80458.2868568628,-80501.6890314303,-2416.6627690950
5445979173,5292,-2,0,-6717.5177266162,-80238.8059415706,-33912.9285107327,-12641.0689001417,-80534.0307695856,-46376.6410619832,-80472.0971927569,-80458.2990245596,-80501.5308513716,-2416.5410921267
5445979173,5292,-2,0,-6718.4424715747,-80240.5337545194,-33899.6170504084,-12641.7381234670,-80538.7761713466,-46413.8133757773,-80473.3626332265,-80460.3431976259,-80502.7111179634,-2418.1350604106
5445979173,5292,-2,0,-6717.3352111638,-80239.4873325927,-33908.6698168447,-12641.0932355354,-80536.4156381629,-46243.9766635227,-80472.4257205711,-80458.6275523739,-80501.6403606430,-2417.0886384838
5445987069,5293,-2,0,-6718.1017760637,-80240.2660651894,-33931.4720806909,-12641.8111296479,-80533.7265771651,-46096.9665505079,-80472.1215281505,-80459.3332787896,-80502.4920994206,-2416.5654275204
5445987069,5293,-2,0,-6717.4933912225,-80240.2782328862,-33936.6798549311,-12641.0202293544,-80532.7288260256,-46167.6365336555,-80472.7664160821,-80459.4792911515,-80502.4920994206,-2415.7988626206
5445987069,5293,-2,0,-6717.5420620098,-80239.1709724753,-33918.3553035157,-12640.7525400243,-80534.3592973999,-46360.1173296977,-80472.0485219696,-80459.6131358165,-80502.0297269413,-2416.8087814569
5445987069,5293,-2,0,-6717.7245774622,-80239.1344693848,-33901.0771740271,-12640.6186953593,-80535.6612409599,-46418.9481438366,-80471.8538388204,-80458.9925832786,-80500.9589696209,-2416.8574522441
5445987069,5293,-2,0,-6718.0652729732,-80238.7937738738,-33908.0127612162,-12640.9472231735,-80534.9676822410,-46267.6671692370,-80471.0021000428,-80458.5423784961,-80500.6912802908,-2418.0985573201
5445987069,5293,-2,0,-6718.7953347826,-80239.1466370816,-33930.9001989402,-12641.6286141956,-80533.4345524413,-46102.3081694132,-80471.6956587617,-80458.7127262516,-80501.4335097970,-2416.6140983077
5445987069,5293,-2,0,-6717.1283603178,-80239.3656556245,-33936.9718796548,-12640.2779998482,-80531.5728948274,-46141.4151470021,-80471.5131433094,-80458.2868568628,-80501.1779881637,-2415.5433409873
5445987069,5293,-2,0,-6716.8363355941,-80240.0957174338,-33921.0808676041,-12640.8742169926,-80533.8482541333,-46337.7896060276,-80472.9124284440,-80459.6374712102,-80502.3460870587,-2416.6871044886
5446024470,5294,-2,0,-6718.8683409635,-80240.9231208178,-33904.9099985264,-12641.6894526797,-80536.7928367644,-46429.8017294027,-80473.1314469868,-80460.8055701052,-80502.9544718999,-2417.9038741709
5446024470,5294,-2,0,-6717.4325527384,-80239.7671896196,-33908.8279969034,-12640.8863846894,-80537.0605260946,-46294.9228101203,-80472.3648820870,-80460.0390052053,-80501.1779881637,-2417.3684955107
5446024470,5294,-2,0,-6717.8462544304,-80239.9983758592,-33929.9876216785,-12641.2757509877,-80534.2254527348,-46115.0599156836,-80472.4987267520,-80459.0777571563,-80501.7863730048,-2416.8696199410
5446024470,5294,-2,0,-6718.7588316921,-80241.0082946956,-33942.0214738363,-12641.6529495892,-80533.3007077763,-46129.1866116950,-80472.9367638376,-80459.9416636307,-80502.3704224523,-2417.0277999997
5446024470,5294,-2,0,-6719.0995272032,-80240.4242452481,-33926.7023435363,-12641.8354650416,-80534.9068437569,-46314.9508390909,-80472.7907514758,-80460.0633405990,-80502.9058011126,-2416.7357752759
5446024470,5294,-2,0,-6718.2721238192,-80239.9497050720,-33907.0150100767,-12641.3609248655,-80537.2673769405,-46428.4389473585,-80472.4013851774,-80461.3774518558,-80502.2609131809,-2417.0399676965
5446024470,5294,-2,0,-6718.2356207287,-80240.0348789497,-33909.3755432604,-12641.5556080147,-80538.5693205006,-46322.0811094291,-80472.8880930504,-80460.1606821736,-80502.7841241443,-2417.8187002932
5446024470,5294,-2,0,-6717.5298943130,-80238.4895814532,-33930.6446773069,-12641.3000863814,-80533.4223847445,-46133.3601317053,-80471.3914663411,-80459.1750987309,-80501.4335097970,-2416.6506013982
5446065576,5295,-2,0,-6718.2721238192,-80239.4995002895,-33943.6276098170,-12642.1031543717,-80531.5485594338,-46118.0775044957,-80471.9146773045,-80459.1385956404,-80502.1027331222,-2417.0277999997
5446065576,5295,-2,0,-6717.7124097653,-80239.1223016880,-33931.4112422067,-12641.5191049242,-80533.7144094682,-46295.6893750202,-80472.1823666346,-80458.4937077088,-80501.6403606430,-2416.2003966157
5446065576,5295,-2,0,-6718.0774406700,-80240.0713820402,-33910.9451761505,-12641.1419063227,-80536.0141041678,-46431.3470268992,-80471.3671309475,-80459.2967756991,-80501.6160252493,-2417.1859800584
5446065576,5295,-2,0,-6718.3694653938,-80239.4386618054,-33909.4728848350,-12641.3730925623,-80536.9145137327,-46344.1289760723,-80471.7808326395,-80459.5401296356,-80501.9202176699,-2417.5388432662
5446065576,5295,-2,0,-6718.4424715747,-80239.5360033800,-33930.4378264609,-12641.9571420098,-80534.2862912189,-46153.9965455170,-80471.8660065172,-80459.9051605403,-80502.0053915477,-2417.4536693885
5446065576,5295,-2,0,-6718.4059684842,-80238.9762893261,-33946.7182048100,-12640.8863846894,-80530.8915038053,-46115.1572572582,-80471.2941247665,-80458.5910492834,-80501.2509943446,-2416.3950797649
5446065576,5295,-2,0,-6718.2112853351,-80239.0979662943,-33938.6388541196,-12640.4970183911,-80532.0596027003,-46276.5374202209,-80471.9025096077,-80459.2724403055,-80501.7255345207,-2415.7988626206
5446065576,5295,-2,0,-6717.8340867336,-80238.7937738738,-33917.0533599557,-12641.0932355354,-80536.4156381629,-46427.6358793682,-80472.0485219696,-80459.4427880610,-80501.8715468826,-2417.0399676965
5446080786,5296,-2,0,-6716.4956400830,-80238.3192336977,-33911.5535609917,-12640.5700245720,-80537.4742277865,-46366.3350227742,-80471.1967831920,-80458.9074094008,-80500.3749201734,-2417.0034646060
5446080786,5296,-2,0,-6718.7101609048,-80238.7451030865,-33931.0218759084,-12641.5677757115,-80535.0893592092,-46168.7681294601,-80472.4378882679,-80459.5401296356,-80501.2753297383,-2417.0277999997
5446080786,5296,-2,0,-6717.3230434670,-80237.7716873406,-33947.2414157734,-12640.6673661466,-80530.3561251451,-46095.5429299796,-80470.3815475048,-80458.2016829851,-80500.9102988336,-2416.1152227379
5446080786,5296,-2,0,-6719.0995272032,-80238.5017491500,-33942.5203494061,-12642.6750361224,-80531.5728948274,-46245.2907747796,-80471.8173357299,-80459.0899248531,-80500.6061064130,-2417.6240171440
5446080786,5296,-2,0,-6718.2964592128,-80239.1101339912,-33920.5089858534,-12641.8719681320,-80535.4057193266,-46415.0058100660,-80471.9755157886,-80458.7248939485,-80501.3118328288,-2418.1593958042
5446080786,5296,-2,0,-6717.0675218337,-80236.6522592329,-33910.2516174316,-12640.7038692370,-80536.2939611947,-46379.6343154017,-80470.3815475048,-80457.8731551708,-80500.4235909607,-2417.3319924202
5446080786,5296,-2,0,-6717.0796895305,-80237.7230165534,-33925.9114432428,-12641.5312726210,-80533.9212603142,-46187.0561777850,-80471.4036340380,-80458.5545461929,-80500.6061064130,-2417.2468185425
5446080786,5296,-2,0,-6717.1283603178,-80237.3944887391,-33944.9660564675,-12641.0080616576,-80530.8915038053,-46091.8196147518,-80471.1846154951,-80458.2868568628,-80500.9711373177,-2416.5532598236
5446120846,5297,-2,0,-6718.6249870271,-80238.3922398786,-33941.0358903937,-12641.8719681320,-80531.8892549448,-46215.7719422871,-80472.2675405124,-80458.3355276501,-80501.4821805843,-2417.0034646060
5446120846,5297,-2,0,-6717.4082173448,-80238.6355938151,-33917.7955894619,-12642.1518251590,-80535.6369055663,-46393.4203159021,-80473.2896270455,-80459.0655894595,-80501.0684788923,-2417.6118494472
5446120846,5297,-2,0,-6717.2743726797,-80237.2849794677,-33905.0803462819,-12640.3875091196,-80536.1722842265,-46386.5577348939,-80471.1967831920,-80458.1286768041,-80501.0563111955,-2417.0764707870
5446120846,5297,-2,0,-6718.8075024794,-80239.0736309007,-33918.9758560537,-12641.7989619511,-80536.2817934979,-46197.7029125050,-80472.0241865759,-80459.4549557578,-80501.3970067065,-2417.6970233249
5446120846,5297,-2,0,-6717.8949252177,-80239.4629971990,-33937.8966246134,-12641.7016203765,-80533.1181923239,-46073.4585602460,-80472.0728573632,-80459.0047509754,-80502.3460870587,-2416.5410921267
5446120846,5297,-2,0,-6717.5177266162,-80238.2462275167,-33935.2927374933,-12641.8841358289,-80531.1348577418,-46177.4923680821,-80470.4788890794,-80458.1043414105,-80500.3992555670,-2415.9448749824
5446120846,5297,-2,0,-6717.8097513399,-80237.5161657074,-33913.5733986643,-12641.0323970513,-80533.7265771651,-46363.9988249842,-80471.0507708301,-80457.8366520804,-80499.9733861782,-2417.0277999997
5446120846,5297,-2,0,-6717.5663974035,-80237.5891718883,-33898.5706284816,-12641.1175709290,-80536.5494828280,-46382.8222519693,-80471.1724477983,-80458.6518877675,-80501.0684788923,-2418.1593958042
5446154536,5298,-2,0,-6717.2378695892,-80238.6234261183,-33908.5724752701,-12641.4582664401,-80535.9410979868,-46210.1991371422,-80471.6226525808,-80459.2481049118,-80501.2144912542,-2416.9182907283
5446154536,5298,-2,0,-6718.0896083669,-80238.4530783627,-33928.3693180010,-12640.7403723275,-80531.8892549448,-46069.1876986611,-80471.7321618522,-80458.4572046183,-80501.0806465891,-2415.4094963222
5446154536,5298,-2,0,-6717.8705898240,-80238.8302769642,-33932.0074593511,-12641.3122540782,-80531.5485594338,-46147.9492001960,-80472.3770497838,-80459.7469804816,-80502.1514039095,-2416.3707443712
5446154536,5298,-2,0,-6718.4059684842,-80239.2318109594,-33911.7725795345,-12641.6772849829,-80533.8482541333,-46342.7540263313,-80472.1215281505,-80459.8321543593,-80501.2266589510,-2416.5410921267
5446154536,5298,-2,0,-6718.1261114573,-80240.0470466465,-33895.6625489409,-12642.1883282494,-80538.2894634737,-46397.3018111886,-80472.9124284440,-80459.4671234547,-80502.8327949316,-2417.5631786599
5446154536,5298,-2,0,-6717.6759066749,-80238.7937738738,-33903.1943532743,-12640.2293290610,-80536.7806690676,-46236.2501760401,-80472.3283789965,-80459.8808251466,-80501.6403606430,-2417.7700295059
5446154536,5298,-2,0,-6718.5884839366,-80239.8158604069,-33925.4003999762,-12642.4803529732,-80533.4710555318,-46080.1994642859,-80471.9146773045,-80459.9903344180,-80501.8715468826,-2417.7578618090
5446154536,5298,-2,0,-6717.7975836431,-80238.3800721818,-33930.9488697275,-12641.5434403178,-80531.7310748861,-46134.2605412702,-80470.6492368349,-80458.4328692247,-80502.1027331222,-2417.7821972027
5446177115,5299,-2,0,-6717.7975836431,-80238.2827306072,-33912.4296351629,-12640.8985523862,-80533.0573538398,-46328.7368395913,-80470.7952491968,-80458.2381860755,-80500.2045724179,-2417.0399676965
5446177115,5299,-2,0,-6717.5298943130,-80238.6234261183,-33894.5917916205,-12640.7403723275,-80536.8536752486,-46405.2473172140,-80471.9390126982,-80459.3576141832,-80501.7255345207,-2416.9912969092
5446177115,5299,-2,0,-6717.6637389780,-80238.6964322992,-33899.5805473179,-12641.3365894718,-80537.1822030628,-46264.5522388503,-80472.2553728156,-80459.3941172737,-80502.2365777873,-2417.2833216329
5446177115,5299,-2,0,-6717.4933912225,-80237.9907058835,-33920.7523397898,-12641.2270802004,-80534.1159434634,-46090.8096959155,-80471.1967831920,-80458.5423784961,-80501.1414850732,-2416.6262660045
5446177115,5299,-2,0,-6718.3694653938,-80238.6112584214,-33929.2818952627,-12642.2248313399,-80531.8405841575,-46114.5002016298,-80471.7930003363,-80458.3720307406,-80501.8593791858,-2416.8817876378
5446177115,5299,-2,0,-6717.6150681908,-80238.2097244263,-33912.5634798280,-12641.8598004352,-80533.6049001968,-46304.7908122438,-80472.0120188791,-80459.3089433960,-80500.6669448971,-2416.8209491537
5446177115,5299,-2,0,-6717.8584221272,-80238.3800721818,-33892.7788047939,-12641.6894526797,-80536.2574581042,-46408.5934338403,-80471.5009756125,-80459.2602726087,-80501.1658204669,-2417.2711539361
5446177115,5299,-2,0,-6717.6150681908,-80238.3679044850,-33895.6017104568,-12641.5191049242,-80537.9122648722,-46285.1643172683,-80472.4378882679,-80460.2580237481,-80502.2609131809,-2417.6605202345
5446223407,5300,-2,0,-6719.9025951935,-80240.1930590084,-33916.9073475938,-12641.6407818924,-80535.9897687741,-46103.1720758876,-80473.6911610407,-80459.8808251466,-80502.0418946381,-2417.6605202345
5446223407,5300,-2,0,-6717.8219190367,-80238.8424446611,-33926.7023435363,-12641.2514155941,-80532.2786212431,-46099.6434438089,-80471.8538388204,-80458.6518877675,-80501.5673544620,-2415.6528502587
5446223407,5300,-2,0,-6717.0188510464,-80239.1101339912,-33913.0015169136,-12640.5456891783,-80533.9090926174,-46277.8880345682,-80471.1967831920,-80458.6032169802,-80501.5186836747,-2416.0908873443
5446223407,5300,-2,0,-6717.9314283082,-80239.5116679863,-33891.4403581434,-12641.4826018337,-80536.7806690676,-46401.6821820448,-80472.3892174806,-80460.5013776846,-80502.2365777873,-2418.1715635010
5446223407,5300,-2,0,-6718.5033100588,-80240.2295620989,-33891.8662275322,-12642.0909866749,-80538.7518359529,-46306.7376437354,-80473.1192792900,-80461.1706010099,-80502.5529379047,-2418.1107250169
5446223407,5300,-2,0,-6716.9336771687,-80238.6842646024,-33911.4318840235,-12641.2757509877,-80534.1159434634,-46113.9769906664,-80471.5983171871,-80458.1530121978,-80500.8981311368,-2417.0399676965
5446223407,5300,-2,0,-6717.1040249242,-80238.2583952136,-33925.0597044652,-12642.0788189780,-80532.3637951209,-46082.5843328632,-80471.3427955538,-80458.4085338311,-80501.8228760953,-2416.2734027966
5446223407,5300,-2,0,-6717.6272358876,-80239.4143264117,-33914.7658329530,-12641.1175709290,-80533.2033662017,-46256.6310682185,-80472.1701989378,-80458.6153846770,-80500.8859634399,-2416.9791292124
5446261280,5301,-2,0,-6717.8705898240,-80239.2926494435,-33894.1294191412,-12640.8863846894,-80536.7563336740,-46407.0968071310,-80471.6348202776,-80459.6739743006,-80502.3947578460,-2416.9426261219
5446261280,5301,-2,0,-6717.6880743717,-80239.6820157419,-33891.9270660163,-12641.2879186845,-80539.0195252830,-46337.3028981547,-80472.6569068107,-80460.7568993179,-80502.3460870587,-2417.4658370853
5446261280,5301,-2,0,-6718.3816330906,-80239.9497050720,-33912.0402688646,-12640.9472231735,-80535.0650238156,-46142.9604444986,-80472.9245961408,-80459.4792911515,-80502.6502794793,-2417.1738123615
5446261280,5301,-2,0,-6718.0774406700,-80239.4873325927,-33929.0872121136,-12640.9715585672,-80532.4246336050,-46087.1228837781,-80471.4279694316,-80458.3598630438,-80500.9102988336,-2417.2224831488
5446261280,5301,-2,0,-6717.8705898240,-80238.4774137564,-33921.4580662056,-12640.8498815989,-80531.3173731941,-46240.5697084123,-80470.9169261650,-80458.0800060168,-80500.5452679289,-2416.0543842538
5446261280,5301,-2,0,-6718.1747822446,-80239.0127924166,-33900.7486462129,-12641.3122540782,-80534.9676822410,-46403.1301379668,-80471.7808326395,-80459.3697818801,-80501.2996651319,-2417.8917064741
5446261280,5301,-2,0,-6718.1869499414,-80239.2074755658,-33894.6891331951,-12642.1639928558,-80537.9122648722,-46362.5265336686,-80471.4036340380,-80458.9925832786,-80501.5430190684,-2418.4392528311
5446261280,5301,-2,0,-6718.2477884255,-80238.8546123579,-33913.0988584882,-12641.3852602591,-80535.9410979868,-46169.0966572743,-80471.6834910649,-80459.2237695182,-80502.1149008191,-2417.5023401758
5446274659,5302,-2,0,-6717.6515712812,-80238.7937738738,-33930.4013233704,-12641.3122540782,-80531.4390501624,-46085.6019216753,-80472.0241865759,-80458.3841984374,-80500.6669448971,-2416.8209491537
5446274659,5302,-2,0,-6719.2212041714,-80239.1588047785,-33927.0673744410,-12641.9571420098,-80532.5341428764,-46226.1509876771,-80472.9124284440,-80459.6374712102,-80502.5164348142,-2417.2103154520
5446274659,5302,-2,0,-6718.1017760637,-80239.0736309007,-33905.6035572453,-12641.3000863814,-80535.8194210186,-46404.6389323728,-80471.1237770110,-80459.0169186722,-80501.2023235573,-2416.7844460632
5446274659,5302,-2,0,-6717.6880743717,-80238.2705629104,-33896.9766601978,-12640.6673661466,-80537.3768862119,-46387.3608028842,-80472.0241865759,-80460.5865515624,-80502.2365777873,-2417.0034646060
5446274659,5302,-2,0,-6717.3717142543,-80239.5846741673,-33912.5878152216,-12641.2757509877,-80536.6224890089,-46199.8809302363,-80473.0706085027,-80459.9781667212,-80502.6867825697,-2417.5266755694
5446274659,5302,-2,0,-6717.7367451590,-80240.2538974925,-33934.3193217474,-12641.5069372274,-80534.7121606077,-46092.1238071724,-80473.2531239550,-80460.2093529609,-80503.0761488681,-2416.7357752759
5446274659,5302,-2,0,-6718.2599561224,-80239.3656556245,-33933.4067444857,-12641.5191049242,-80532.9478445684,-46204.2613010926,-80472.6690745075,-80460.0876759926,-80503.4046766823,-2417.1129738774
5446274659,5302,-2,0,-6717.6394035844,-80238.1245505485,-33911.5292255981,-12640.8133785085,-80534.9676822410,-46385.6938284195,-80472.0728573632,-80458.8830740072,-80501.4943482811,-2417.3684955107
5446314406,5303,-2,0,-6717.1040249242,-80238.4165752723,-33899.8239012544,-12641.0932355354,-80536.9875199136,-46397.9588668170,-80472.3040436029,-80459.6983096943,-80500.6182741098,-2417.4049986012
5446314406,5303,-2,0,-6717.9314283082,-80237.7230165534,-33913.3300447278,-12641.3122540782,-80535.5517316885,-46218.2176493485,-80472.0850250600,-80459.1142602468,-80501.2509943446,-2418.5000913152
5446314406,5303,-2,0,-6717.3352111638,-80237.9785381866,-33934.9642096790,-12641.1054032322,-80532.5584782701,-46088.0476287367,-80471.3549632507,-80458.8465709167,-80500.3505847797,-2417.0643030901
5446314406,5303,-2,0,-6718.9778502349,-80239.4751648959,-33938.0791400657,-12642.1518251590,-80533.6779063778,-46186.1801036137,-80471.9268450013,-80459.1629310341,-80502.5772732983,-2417.6605202345
5446314406,5303,-2,0,-6718.8561732667,-80238.8546123579,-33920.2291288265,-12642.3708437018,-80535.2718746616,-46384.4040525563,-80473.2166208646,-80460.8055701052,-80503.3681735918,-2417.9525449582
5446314406,5303,-2,0,-6717.3960496479,-80239.0006247198,-33905.4210417929,-12640.9107200830,-80538.1069480213,-46423.7543840817,-80472.6325714171,-80460.5500484719,-80501.9932238508,-2417.0643030901
5446314406,5303,-2,0,-6717.5663974035,-80238.6964322992,-33915.8609256670,-12640.5700245720,-80537.6080724516,-46257.4949746930,-80472.3892174806,-80459.6496389070,-80502.4190932396,-2416.9061230314
5446314406,5303,-2,0,-6717.9192606113,-80238.2948983040,-33938.1156431562,-12641.2027448068,-80533.4223847445,-46106.8953911154,-80472.6082360234,-80459.1385956404,-80501.2631620415,-2416.6506013982
5446387014,5304,-2,0,-6717.9679313986,-80237.5648364947,-33943.5059328487,-12640.9593908703,-80530.8915038053,-46168.0015645602,-80469.8461688446,-80457.5567950534,-80499.5231813958,-2416.5897629140
5446387014,5304,-2,0,-6717.3473788607,-80237.3093148614,-33924.7676797414,-12640.2049936673,-80532.5098074828,-46363.1470862066,-80470.4180505953,-80458.2503537724,-80499.9490507846,-2416.1395581316
5446387014,5304,-2,0,-6717.9314283082,-80236.5792530520,-33908.2682828495,-12641.0567324449,-80536.2574581042,-46432.2109333736,-80470.2720382334,-80457.7879812931,-80500.4844294448,-2417.4293339948
5446387014,5304,-2,0,-6718.2964592128,-80237.1876378931,-33916.1164473003,-12641.2149125036,-80535.0893592092,-46280.9421264708,-80471.3184601602,-80458.3841984374,-80501.0563111955,-2418.1228927137
5446387014,5304,-2,0,-6717.9314283082,-80237.4796626169,-33937.8601215229,-12641.1662417163,-80532.7774968129,-46110.2901785290,-80471.0507708301,-80458.0069998359,-80501.4821805843,-2417.2954893298
5446387014,5304,-2,0,-6718.4181361811,-80238.1853890326,-33946.5235216608,-12641.4460987432,-80532.7044906319,-46143.9095248508,-80471.4158017348,-80459.2116018214,-80501.7377022175,-2416.7601106696
5446387014,5304,-2,0,-6718.1382791541,-80238.7207676928,-33930.5230003387,-12641.6894526797,-80534.6269867300,-46332.3506455477,-80471.9146773045,-80459.3576141832,-80501.9202176699,-2416.2734027966
5446387014,5304,-2,0,-6717.8584221272,-80237.4674949201,-33910.4219651872,-12641.2879186845,-80537.7297494198,-46421.9900680423,-80472.2188697251,-80460.3310299291,-80501.7255345207,-2418.2689050756
5446409310,5305,-2,0,-6718.3572976970,-80238.3192336977,-33913.8654233881,-12641.6651172861,-80537.0848614882,-46296.1395798026,-80471.2819570697,-80460.0268375085,-80501.6890314303,-2418.1228927137
5446409310,5305,-2,0,-6718.0044344891,-80237.7108488565,-33935.4752529456,-12641.5921111051,-80533.4345524413,-46119.7201435668,-80471.3427955538,-80459.2967756991,-80501.5430190684,-2417.7335264154
5446409310,5305,-2,0,-6717.1161926210,-80236.9807870472,-33945.4770997341,-12640.0103105181,-80530.5994790816,-46126.3758737290,-80470.1138581747,-80457.5567950534,-80499.7908707259,-2415.5068378968
5446409310,5305,-2,0,-6717.1040249242,-80237.2119732868,-33932.2508132875,-12640.4848506942,-80532.5219751796,-46310.7894867775,-80470.6249014413,-80457.6054658407,-80499.6691937577,-2416.6871044886
5446409310,5305,-2,0,-6718.2721238192,-80238.1975567295,-33912.9406784295,-12642.0788189780,-80536.9145137327,-46429.5218723757,-80471.2941247665,-80458.3963661342,-80501.0319758018,-2418.4757559216
5446409310,5305,-2,0,-6718.0531052764,-80237.1876378931,-33913.5247278770,-12640.8012108116,-80536.0506072583,-46321.8864262800,-80471.4036340380,-80458.8344032199,-80500.5696033226,-2416.9182907283
5446409310,5305,-2,0,-6716.9336771687,-80236.7374331107,-33933.3824090921,-12640.8863846894,-80533.2398692921,-46135.0879446542,-80470.2842059302,-80457.9096582613,-80499.2189889752,-2416.3099058871
5446409310,5305,-2,0,-6717.2013664988,-80236.1777190568,-33947.0589003210,-12640.7038692370,-80529.7355726071,-46120.2311868334,-80469.9313427224,-80456.5103731267,-80499.9490507846,-2415.9205395888
5446416885,5306,1,0,-6718.5398131493,-80238.4530783627,-33938.3711647895,-12642.4681852764,-80532.0474350035,-46297.6848772992,-80471.7930003363,-80458.7248939485,-80501.0563111955,-2418.4635882248
5446416885,5306,1,0,-6716.6051493545,-80236.0560420886,-33916.5666520828,-12640.6795338434,-80535.4543901139,-46432.2352687672,-80470.5640629572,-80457.8609874740,-80499.7056968481,-2417.1251415743
5446416885,5306,1,0,-6717.4690558289,-80236.9929547440,-33915.8730933638,-12640.9837262640,-80537.2430415469,-46350.2371598774,-80471.3062924634,-80458.4693723152,-80501.7255345207,-2417.0034646060
5446416885,5306,1,0,-6718.3451300001,-80238.7207676928,-33937.1543951072,-12641.9814774035,-80535.9776010773,-46157.8172023194,-80471.9025096077,-80459.2967756991,-80501.0563111955,-2417.2224831488
5446416885,5306,1,0,-6717.7854159463,-80237.6986811597,-33952.0719914121,-12641.2879186845,-80532.4368013018,-46108.1851669787,-80472.5352298425,-80458.8344032199,-80502.1757393032,-2417.0764707870
5446416885,5306,1,0,-6717.8219190367,-80238.1853890326,-33943.5059328487,-12641.1662417163,-80534.1037757666,-46272.3152294233,-80472.4865590552,-80459.3454464864,-80501.5186836747,-2416.8817876378
5446416885,5306,1,0,-6718.3816330906,-80239.3656556245,-33921.8961032912,-12641.8354650416,-80537.2917123342,-46428.5727920235,-80472.2918759060,-80459.3211110928,-80502.2974162714,-2417.8430356868
5446416885,5306,1,0,-6717.3473788607,-80237.7838550375,-33916.1286149971,-12640.2658321514,-80537.4498923929,-46368.4278666277,-80471.7321618522,-80458.7005585548,-80501.1658204669,-2417.1251415743
5446433461,5307,1,0,-6716.8971740782,-80237.5283334042,-33934.1368062951,-12640.3266706355,-80534.1159434634,-46173.3431834655,-80469.9921812065,-80457.7636458994,-80499.9003799973,-2417.1859800584
5446433461,5307,1,0,-6717.9679313986,-80236.4697437806,-33952.3640161358,-12640.8255462053,-80530.7698268371,-46102.8313803766,-80469.5663118177,-80457.1552610583,-80499.8273738164,-2415.9935457697
5446433461,5307,1,0,-6718.0896083669,-80237.1998055900,-33947.1927449861,-12641.0689001417,-80532.5098074828,-46245.6801410779,-80470.9899323460,-80458.3598630438,-80500.3870878702,-2416.4072474617
5446433461,5307,1,0,-6717.2743726797,-80237.2363086804,-33925.0232013747,-12640.5456891783,-80534.2862912189,-46413.3996740853,-80470.8682553777,-80458.1165091073,-80500.0463923592,-2417.1251415743
5446433461,5307,1,0,-6717.6880743717,-80236.5305822647,-33915.1308638576,-12641.3122540782,-80536.5129797375,-46385.2436236370,-80471.0021000428,-80457.6054658407,-80500.6426095035,-2416.8209491537
5446433461,5307,1,0,-6717.8340867336,-80236.5549176584,-33931.8249438987,-12641.3730925623,-80535.6247378694,-46192.3247905093,-80470.9047584682,-80459.1872664277,-80500.2289078115,-2417.4780047821
5446433461,5307,1,0,-6717.1161926210,-80236.1047128759,-33949.8939736808,-12640.1319874864,-80531.1835285291,-46089.3130692063,-80469.7244918764,-80456.2426837966,-80499.8152061195,-2415.6650179555
5446433461,5307,1,0,-6717.0675218337,-80236.3358991155,-33946.4140123894,-12639.9616397308,-80531.4633855560,-46212.6448442036,-80470.3085413239,-80457.2647703297,-80499.5961875767,-2416.0787196475
5446504567,5308,1,0,-6717.9070929145,-80237.0294578344,-33925.4003999762,-12640.7160369339,-80533.8725895269,-46397.9953699075,-80471.0994416174,-80457.5811304471,-80499.6691937577,-2416.6749367918
5446504567,5308,1,0,-6718.1747822446,-80237.5405011010,-33915.8122548797,-12641.2027448068,-80536.8901783390,-46395.8173521762,-80471.1481124047,-80458.3963661342,-80501.4700128875,-2417.9403772614
5446504567,5308,1,0,-6718.6858255112,-80237.5161657074,-33928.8195227835,-12641.1540740195,-80537.0848614882,-46211.2698944626,-80472.0363542728,-80458.9925832786,-80501.6646960366,-2417.1373092711
5446504567,5308,1,0,-6718.1626145478,-80237.9420350962,-33950.2103337982,-12641.5069372274,-80534.1889496443,-46090.2743172553,-80472.2797082092,-80459.0777571563,-80501.6890314303,-2416.1030550411
5446504567,5308,1,0,-6717.5420620098,-80236.9442839567,-33949.4802719888,-12640.6673661466,-80530.4656344165,-46187.8714134721,-80470.7830815000,-80458.9074094008,-80500.2410755083,-2415.5068378968
5446504567,5308,1,0,-6717.7124097653,-80238.2462275167,-33930.8393604561,-12641.1540740195,-80536.1357811360,-46377.5171361545,-80472.3527143901,-80459.4427880610,-80501.9932238508,-2416.7601106696
5446504567,5308,1,0,-6717.3595465575,-80237.9663704898,-33916.4328074177,-12640.6430307529,-80538.5084820165,-46406.8899562851,-80473.0462731091,-80460.0755082958,-80501.9080499731,-2417.4049986012
5446504567,5308,1,0,-6716.2522861466,-80237.1389671059,-33927.2377221965,-12640.1198197895,-80536.8780106422,-46232.2835068758,-80471.7564972458,-80460.0390052053,-80501.7863730048,-2416.9304584251
5446535604,5309,1,0,-6717.2378695892,-80237.6621780692,-33948.3000053970,-12640.9593908703,-80532.3151243336,-46087.5365854701,-80471.7078264585,-80458.8587386135,-80501.2266589510,-2416.5045890363
5446535604,5309,1,0,-6717.3960496479,-80237.7716873406,-33951.7556312947,-12641.4460987432,-80532.4854720891,-46163.4995167357,-80471.4158017348,-80458.7005585548,-80501.1293173764,-2416.0665519507
5446535604,5309,1,0,-6717.6394035844,-80237.5161657074,-33932.9565397032,-12641.3609248655,-80534.2132850380,-46357.5256102744,-80471.1724477983,-80458.7005585548,-80502.0297269413,-2417.0277999997
5446535604,5309,1,0,-6718.4668069684,-80236.6279238393,-33916.4449751145,-12641.5069372274,-80536.6103213121,-46409.8953774003,-80472.1215281505,-80459.2481049118,-80501.4578451906,-2417.3441601171
5446535604,5309,1,0,-6717.5663974035,-80238.1975567295,-33925.1813814334,-12641.7381234670,-80536.7441659772,-46255.0005968443,-80471.6104848839,-80459.2724403055,-80501.6768637334,-2418.7191098581
5446535604,5309,1,0,-6717.0066833496,-80236.3480668124,-33945.5379382182,-12640.2658321514,-80532.5219751796,-46095.5307622828,-80470.0530196906,-80457.8244843836,-80499.6205229704,-2415.7015210460
5446535604,5309,1,0,-6717.5542297066,-80236.8347746853,-33953.2644257007,-12640.4848506942,-80531.4512178592,-46142.2668857797,-80470.7465784095,-80458.6397200707,-80500.8129572590,-2416.2368997062
5446535604,5309,1,0,-6718.0409375796,-80236.8712777757,-33935.9132900312,-12641.8354650416,-80534.9555145442,-46336.0131222914,-80471.4401371284,-80459.2116018214,-80502.2122423937,-2416.0908873443
5446543400,5310,1,0,-6717.7854159463,-80236.9686193503,-33918.2092911538,-12640.7768754180,-80537.4377246961,-46420.1284104284,-80471.6713233681,-80459.7348127848,-80501.7863730048,-2417.3684955107
5446543400,5310,1,0,-6717.4933912225,-80238.1123828517,-33924.5729965922,-12641.5799434083,-80537.0483583977,-46279.6401829107,-80472.1945343314,-80459.0534217627,-80502.1757393032,-2418.1107250169
5446543400,5310,1,0,-6718.5154777557,-80238.4409106659,-33946.4626831767,-12641.9693097066,-80534.3471297030,-46102.2594986259,-80472.6569068107,-80459.9781667212,-80502.5772732983,-2417.3563278139
5446543400,5310,1,0,-6718.4059684842,-80237.8811966121,-33956.1725052414,-12641.4460987432,-80532.2907889400,-46123.9545020612,-80471.9755157886,-80458.8222355230,-80500.8494603495,-2417.3563278139
5446543400,5310,1,0,-6718.7588316921,-80239.1466370816,-33941.2792443301,-12641.9936451003,-80535.1015269061,-46312.8701629342,-80472.8150868694,-80460.5013776846,-80503.0883165649,-2417.4293339948
5446543400,5310,1,0,-6717.8827575209,-80236.9199485630,-33920.5819920343,-12641.2270802004,-80537.0118553073,-46417.8408834257,-80471.5739817935,-80458.9074094008,-80501.4091744033,-2417.7821972027
5446543400,5310,1,0,-6718.1504468510,-80237.4066564360,-33924.0984564161,-12641.8232973448,-80536.4764766470,-46301.2621801651,-80470.6249014413,-80459.2967756991,-80500.2775785988,-2418.5974328898
5446543400,5310,1,0,-6717.8705898240,-80235.5693342157,-33945.6231120959,-12640.3996768165,-80533.2033662017,-46117.7976474688,-80470.2720382334,-80458.5788815866,-80500.5087648384,-2416.4072474617
5446553654,5311,1,0,-6718.5519808461,-80235.8370235458,-33958.3383552759,-12641.6286141956,-80530.3682928419,-46110.2415077417,-80470.9412615587,-80457.2160995424,-80499.5110136990,-2416.2247320094
5446553654,5311,1,0,-6717.9800990954,-80236.0925451791,-33946.6086955386,-12641.5799434083,-80532.6679875415,-46290.5546069609,-80469.8096657541,-80457.3012734202,-80500.5209325353,-2417.1008061806
5446553654,5311,1,0,-6718.9048440540,-80237.0294578344,-33926.6050019617,-12641.6164464988,-80536.5738182216,-46421.6372048345,-80471.9146773045,-80459.7713158752,-80501.6281929461,-2418.0742219264
5446553654,5311,1,0,-6717.9679313986,-80236.8956131694,-33925.8384370618,-12640.2779998482,-80536.8901783390,-46324.8553443048,-80471.1846154951,-80458.7735647357,-80500.1680693274,-2417.1008061806
5446553654,5311,1,0,-6717.2013664988,-80237.4431595264,-33945.6231120959,-12640.6795338434,-80533.7995833460,-46130.7805799789,-80471.2819570697,-80458.1530121978,-80500.8007895622,-2416.7236075791
5446553654,5311,1,0,-6716.9093417750,-80236.2385575410,-33959.8593173788,-12640.3996768165,-80530.9645099863,-46097.1368982634,-80470.3207090207,-80457.8731551708,-80500.6547772003,-2415.7380241364
5446553654,5311,1,0,-6718.1382791541,-80236.7496008075,-33950.9525633044,-12641.0932355354,-80532.2177827590,-46267.0709520926,-80470.5032244731,-80458.5667138898,-80500.4722617480,-2416.7114398823
5446553654,5311,1,0,-6717.7975836431,-80235.9465328172,-33929.1480505977,-12641.0932355354,-80534.5904836395,-46413.9593881392,-80471.5496463998,-80458.7127262516,-80500.7886218654,-2417.0399676965
5446604365,5312,1,0,-6717.8949252177,-80235.9708682108,-33926.0209525142,-12641.4826018337,-80535.7464148377,-46348.6431915936,-80470.8804230746,-80457.9704967454,-80500.2654109020,-2417.7456941122
5446604365,5312,1,0,-6718.3816330906,-80236.5427499615,-33946.4505154799,-12641.7502911638,-80533.5683971064,-46155.2619859866,-80470.9412615587,-80457.7636458994,-80499.2919951561,-2417.6970233249
5446604365,5312,1,0,-6718.4303038779,-80236.0682097854,-33962.8647384940,-12641.5191049242,-80530.7211560498,-46089.5442554459,-80470.4667213826,-80457.9704967454,-80500.0828954496,-2416.4194151585
5446604365,5312,1,0,-6718.0166021859,-80236.1898867537,-33956.3063499065,-12641.3365894718,-80531.8770872480,-46241.0199131947,-80471.3671309475,-80457.8731551708,-80500.2897462956,-2416.9426261219
5446604365,5312,1,0,-6716.6173170513,-80237.0051224408,-33934.5505079871,-12640.6065276625,-80534.6026513363,-46407.6565211849,-80470.6370691381,-80458.9439124913,-80501.5795221588,-2416.0178811634
5446604365,5312,1,0,-6717.7854159463,-80237.8568612184,-33930.0849632530,-12641.5921111051,-80538.7153328625,-46367.6613017279,-80472.4743913584,-80459.6739743006,-80501.4578451906,-2418.3054081661
5446604365,5312,1,0,-6717.0188510464,-80237.3823210423,-33946.1341553625,-12640.3145029387,-80534.3106266126,-46171.7127120912,-80470.8682553777,-80458.7492293421,-80500.9102988336,-2416.1517258284
5446604365,5312,1,0,-6717.1526957115,-80236.1290482695,-33965.4199548269,-12641.0445647481,-80531.7675779766,-46084.2513073279,-80470.9655969523,-80457.7271428090,-80500.6182741098,-2416.0422165570
5446615859,5313,1,0,-6716.5929816576,-80235.0217878587,-33961.4532856626,-12640.4240122101,-80530.6481498689,-46216.3316563410,-80469.3959640622,-80457.3621119043,-80499.8882123005,-2415.1053039016
5446615859,5313,1,0,-6718.1626145478,-80236.2628929346,-33940.6100210049,-12640.7647077212,-80534.5418128522,-46393.6636698385,-80470.4423859890,-80458.7857324326,-80500.6182741098,-2416.9304584251
5446615859,5313,1,0,-6717.2500372861,-80236.3967375997,-33930.4743295514,-12640.9350554767,-80536.3547996788,-46383.2967921454,-80471.0021000428,-80458.0313352295,-80500.2410755083,-2417.4415016916
5446615859,5313,1,0,-6717.6637389780,-80237.4918303137,-33945.1607396167,-12641.0567324449,-80534.9676822410,-46197.1066953607,-80473.3991363169,-80459.5522973324,-80500.8372926526,-2417.2954893298
5446615859,5313,1,0,-6718.8805086603,-80239.7185188323,-33966.9409169297,-12642.6141976382,-80534.0307695856,-46083.3022269757,-80473.2652916519,-80459.9294959339,-80502.2244100905,-2417.5753463567
5446615859,5313,1,0,-6718.6858255112,-80237.6743457661,-33965.7484826411,-12641.4947695305,-80532.5098074828,-46193.6023986757,-80471.7321618522,-80459.3697818801,-80502.1757393032,-2416.0057134665
5446615859,5313,1,0,-6717.8705898240,-80237.9298673993,-33946.3288385117,-12641.2757509877,-80534.5053097617,-46382.5667303360,-80472.2797082092,-80459.1020925500,-80501.9445530635,-2417.0521353933
5446615859,5313,1,0,-6717.3960496479,-80236.8834454726,-33933.3580736984,-12641.2635832909,-80537.3282154247,-46395.6835075111,-80472.0728573632,-80459.5279619388,-80502.2122423937,-2417.5996817503
5446659590,5314,1,0,-6716.8241678973,-80235.4598249443,-33945.2215781008,-12640.8985523862,-80535.5152285980,-46216.3438240378,-80471.6713233681,-80458.7127262516,-80501.4578451906,-2416.7966137600
5446659590,5314,1,0,-6717.6394035844,-80236.6887623234,-33968.1698543088,-12641.2514155941,-80533.5075586223,-46083.3630654599,-80471.6591556712,-80458.6153846770,-80500.7034479876,-2416.5532598236
5446659590,5314,1,0,-6717.9314283082,-80237.2728117709,-33970.7250706417,-12641.2270802004,-80531.9379257321,-46168.1475769221,-80471.5618140967,-80458.7248939485,-80502.0418946381,-2416.3585766744
5446659590,5314,1,0,-6718.0287698827,-80236.8469423821,-33950.5023585219,-12641.5921111051,-80534.9190114537,-46358.8640569249,-80471.9633480918,-80459.2967756991,-80502.0053915477,-2417.9890480487
5446659590,5314,1,0,-6718.5154777557,-80237.5648364947,-33935.4752529456,-12641.7624588606,-80537.8879294785,-46403.8115289889,-80472.1823666346,-80460.0998436894,-80500.9468019241,-2418.0255511391
5446659590,5314,1,0,-6717.2865403765,-80235.5936696093,-33943.4815974551,-12640.4361799069,-80534.2741235221,-46237.3452687542,-80470.0773550843,-80457.4107826916,-80500.1072308433,-2416.0787196475
5446659590,5314,1,0,-6717.8827575209,-80236.0438743918,-33965.3712840396,-12640.7160369339,-80532.3272920304,-46080.9173583984,-80470.5518952603,-80457.3377765106,-80500.4600940511,-2416.1760612221
5446659590,5314,1,0,-6716.9823479560,-80236.2142221473,-33970.6033936734,-12640.2901675451,-80530.8063299276,-46140.7824267673,-80470.7830815000,-80457.4351180852,-80500.3019139924,-2415.5555086841
5446680780,5315,1,0,-6717.6029004939,-80236.9321162599,-33953.0940779452,-12640.8985523862,-80533.9577634047,-46336.0252899882,-80471.5983171871,-80457.6054658407,-80500.8251249558,-2416.2977381903
5446680780,5315,1,0,-6717.7367451590,-80236.5914207488,-33936.4365009946,-12640.5943599656,-80536.5251474343,-46405.5880127250,-80470.5275598667,-80459.2724403055,-80501.4943482811,-2417.0399676965
5446680780,5315,1,0,-6718.0409375796,-80236.6035884457,-33943.7006159979,-12641.2879186845,-80536.1479488328,-46256.8257513677,-80472.7420806885,-80458.9682478849,-80500.9468019241,-2417.7821972027
5446680780,5315,1,0,-6718.1017760637,-80236.2872283282,-33965.7241472474,-12641.4582664401,-80533.0451861430,-46087.2202253527,-80471.8538388204,-80459.0047509754,-80501.4943482811,-2416.5045890363
5446680780,5315,1,0,-6718.5276454525,-80236.5549176584,-33973.9981810870,-12641.2757509877,-80531.3295408909,-46116.6295485738,-80470.9412615587,-80458.3720307406,-80500.9346342272,-2416.4315828553
5446680780,5315,1,0,-6717.6515712812,-80237.9420350962,-33957.7178027379,-12642.0301481907,-80533.3615462604,-46306.0562527133,-80470.7222430159,-80459.1750987309,-80501.7498699144,-2417.3928309044
5446680780,5315,1,0,-6717.9435960050,-80236.8591100789,-33938.1156431562,-12640.7038692370,-80536.6346567057,-46404.1035537126,-80472.3040436029,-80459.9294959339,-80502.2730808778,-2417.6970233249
5446680780,5315,1,0,-6717.4203850416,-80237.1389671059,-33941.4860951761,-12641.4217633496,-80536.9388491263,-46276.3792401622,-80472.3892174806,-80460.3431976259,-80502.3704224523,-2418.1228927137
5446728337,5316,1,0,-6717.7975836431,-80237.1267994090,-33961.8304842641,-12640.8377139021,-80533.6170678937,-46092.9147074659,-80472.7177452948,-80459.4184526674,-80501.8350437921,-2417.1981477552
5446728337,5316,1,0,-6718.7344962985,-80239.0736309007,-33974.4605535663,-12642.2126636431,-80533.4832232286,-46101.0062258531,-80473.7033287375,-80461.4747934304,-80504.3415893377,-2417.7456941122
5446728337,5316,1,0,-6717.7489128558,-80237.6256749788,-33960.4798699167,-12641.6772849829,-80534.1402788570,-46284.2395723098,-80473.2896270455,-80460.2215206577,-80502.0905654254,-2416.6506013982
5446728337,5316,1,0,-6718.0287698827,-80237.3458179518,-33940.0138038606,-12640.8863846894,-80537.8149232976,-46400.4897477562,-80471.8538388204,-80459.1020925500,-80501.3970067065,-2417.6240171440
5446728337,5316,1,0,-6717.3595465575,-80236.2142221473,-33939.6122698654,-12640.4605153006,-80536.5981536153,-46295.6528719297,-80471.9755157886,-80458.8709063103,-80500.9954727114,-2417.4901724789
5446728337,5316,1,0,-6717.4933912225,-80237.2363086804,-33961.5871303276,-12640.6551984498,-80534.9433468474,-46108.0999931009,-80472.3892174806,-80459.5157942419,-80502.3217516650,-2416.8331168505
5446728337,5316,1,0,-6717.5663974035,-80237.5526687978,-33975.7990002168,-12641.0932355354,-80531.9257580353,-46081.9881157189,-80471.5253110062,-80459.1872664277,-80501.4456774938,-2415.9813780729
5446728337,5316,1,0,-6717.5177266162,-80237.0781286217,-33964.7628991984,-12641.2879186845,-80532.9113414779,-46255.0614353284,-80472.3648820870,-80459.0169186722,-80502.0297269413,-2416.2612350998
5446757464,5317,1,0,-6718.2964592128,-80237.4553272232,-33944.4671808978,-12641.4582664401,-80537.3282154247,-46401.0372941132,-80472.0485219696,-80460.1241790831,-80502.5651056015,-2417.3928309044
5446757464,5317,1,0,-6716.7146586259,-80236.9929547440,-33943.2139081250,-12639.2559133151,-80537.2187061532,-46323.2613760210,-80472.0363542728,-80459.2359372150,-80500.8616280463,-2416.7236075791
5446757464,5317,1,0,-6718.1747822446,-80237.9785381866,-33965.0549239222,-12641.0932355354,-80534.6999929109,-46129.1744439982,-80472.7785837790,-80459.9781667212,-80502.7962918412,-2417.2224831488
5446757464,5317,1,0,-6717.2013664988,-80237.2363086804,-33981.6394946918,-12641.1784094131,-80531.6702364020,-46078.9461915131,-80471.7078264585,-80459.6618066038,-80502.0418946381,-2415.7988626206
5446757464,5317,1,0,-6717.8462544304,-80237.9176997025,-33974.0346841775,-12641.5191049242,-80533.5805648032,-46238.8053923729,-80472.7177452948,-80459.7834835720,-80501.6160252493,-2416.4437505522
5446757464,5317,1,0,-6718.2112853351,-80238.2948983040,-33952.5586992850,-12641.7624588606,-80537.1335322755,-46395.0142841859,-80472.8150868694,-80460.4527068973,-80503.4776828632,-2417.5631786599
5446757464,5317,1,0,-6718.9291794476,-80239.1588047785,-33947.4726020130,-12642.0423158876,-80538.4233081387,-46342.2551507616,-80473.6546579502,-80461.7911535478,-80504.0252292203,-2418.5730974962
5446757464,5317,1,0,-6717.7610805526,-80237.4188241328,-33964.1666820541,-12641.1662417163,-80535.5760670821,-46145.8320209488,-80471.7564972458,-80459.3697818801,-80501.5186836747,-2416.7236075791
5446772822,5318,1,0,-6716.4469692958,-80236.4332406901,-33982.1018671711,-12640.8377139021,-80531.4390501624,-46066.2187806363,-80471.4523048252,-80457.9583290486,-80501.4456774938,-2416.2977381903
5446772822,5318,1,0,-6717.8462544304,-80237.0172901376,-33977.1982853515,-12640.8985523862,-80532.5341428764,-46207.4735730539,-80471.7443295490,-80459.6131358165,-80501.8350437921,-2416.1273904348
5446772822,5318,1,0,-6718.1017760637,-80236.6765946266,-33954.8583939845,-12641.1297386259,-80536.0871103487,-46383.6131522628,-80472.4135528743,-80460.1241790831,-80502.2365777873,-2417.8308679900
5446772822,5318,1,0,-6718.5519808461,-80236.0438743918,-33945.9394722133,-12641.8598004352,-80537.5837370579,-46358.8518892281,-80471.9755157886,-80459.9051605403,-80502.2730808778,-2417.5145078726
5446772822,5318,1,0,-6718.1747822446,-80237.5283334042,-33961.4411179658,-12641.8598004352,-80536.1844519233,-46166.0790684622,-80472.5473975393,-80459.4792911515,-80502.6746148729,-2418.1350604106
5446772822,5318,1,0,-6717.2013664988,-80236.2750606314,-33980.5322342810,-12641.3122540782,-80531.8770872480,-46064.2962845383,-80471.3549632507,-80457.6054658407,-80500.8737957431,-2416.0057134665
5446772822,5318,1,0,-6716.3252923275,-80235.8370235458,-33977.8675086767,-12640.5578568752,-80531.5485594338,-46181.8727389384,-80470.6370691381,-80457.7028074153,-80500.5939387162,-2414.9349561461
5446772822,5318,1,0,-6717.3108757702,-80236.7252654139,-33957.3527718332,-12640.8985523862,-80535.1501976934,-46362.6603783337,-80472.3527143901,-80460.7325639242,-80501.9445530635,-2416.9304584251
5446799333,5319,1,0,-6717.4690558289,-80236.9807870472,-33944.1994915676,-12640.4726829974,-80537.7054140262,-46368.2940219627,-80472.5230621457,-80459.6983096943,-80502.0053915477,-2417.3198247234
5446799333,5319,1,0,-6717.9435960050,-80237.2241409836,-33958.2896844886,-12641.1662417163,-80536.9023460359,-46185.3648679266,-80471.9390126982,-80460.0755082958,-80502.0053915477,-2417.2224831488
5446799333,5319,1,0,-6718.8805086603,-80236.9564516535,-33978.3907196401,-12641.9206389193,-80534.1037757666,-46055.4016981607,-80473.0706085027,-80460.0755082958,-80502.9544718999,-2416.5167567331
5446799333,5319,1,0,-6718.5276454525,-80238.2705629104,-33977.5024777720,-12641.5556080147,-80533.1668631112,-46149.9690378686,-80472.9489315345,-80460.7934024084,-80502.5042671174,-2417.0643030901
5446799333,5319,1,0,-6718.7466639953,-80238.3679044850,-33957.9003181903,-12641.7381234670,-80536.3913027693,-46342.6566847567,-80473.7763349184,-80460.3918684132,-80503.2464966236,-2417.4658370853
5446799333,5319,1,0,-6717.8219190367,-80237.1998055900,-33942.4473432251,-12640.5700245720,-80538.1799542023,-46371.9930017969,-80472.4257205711,-80460.4283715037,-80502.3947578460,-2417.2103154520
5446799333,5319,1,0,-6718.3086269097,-80237.1633024995,-33951.6096189328,-12641.0080616576,-80537.2430415469,-46200.6596628330,-80472.2310374219,-80460.3066945354,-80502.2122423937,-2417.4901724789
5446799333,5319,1,0,-6717.0918572274,-80237.4553272232,-33972.5258897715,-12640.9350554767,-80532.7166583288,-46057.4458712270,-80472.7785837790,-80458.9925832786,-80502.2609131809,-2416.2368997062
5446849457,5320,1,0,-6716.8850063814,-80237.0659609249,-33976.0301864565,-12640.9472231735,-80532.4854720891,-46129.6733195680,-80471.7199941554,-80458.9439124913,-80501.2509943446,-2415.9692103761
5446849457,5320,1,0,-6717.0066833496,-80237.7960227343,-33958.7763923615,-12641.3122540782,-80535.1136946029,-46323.7845869844,-80471.9633480918,-80460.5500484719,-80502.7597887507,-2416.7601106696
5446849457,5320,1,0,-6717.3352111638,-80236.8591100789,-33941.2427412397,-12641.0689001417,-80537.9609356594,-46383.1872828740,-80473.0219377154,-80459.7226450879,-80502.7232856602,-2417.8430356868
5446849457,5320,1,0,-6717.8097513399,-80237.3579856487,-33947.4239312257,-12640.7403723275,-80537.1091968819,-46226.1509876771,-80473.9223472803,-80459.9903344180,-80502.1757393032,-2417.4171662980
5446849457,5320,1,0,-6719.1116949000,-80237.5891718883,-33970.3843751306,-12642.8332161811,-80535.9532656837,-46060.3052799804,-80474.6767444833,-80460.2823591418,-80502.3825901492,-2418.5365944057
5446849457,5320,1,0,-6717.7489128558,-80236.8104392916,-33973.6939886665,-12641.1784094131,-80531.0131807735,-46101.6389460879,-80472.1215281505,-80458.7248939485,-80500.9833050145,-2415.8475334078
5446849457,5320,1,0,-6716.8241678973,-80236.4332406901,-33955.9656543954,-12641.0567324449,-80534.3714650967,-46294.0224005554,-80471.9633480918,-80458.3233599533,-80500.9224665304,-2416.0178811634
5446849457,5320,1,0,-6717.3960496479,-80235.6058373062,-33936.7406934152,-12639.9859751245,-80537.1578676691,-46376.8357451324,-80471.4279694316,-80458.0800060168,-80500.0342246623,-2417.0764707870
5446869279,5321,1,0,-6717.2378695892,-80235.3016448856,-33939.9894684669,-12641.2514155941,-80534.9555145442,-46239.3407710331,-80471.0386031333,-80458.7735647357,-80500.4600940511,-2417.7456941122
5446869279,5321,1,0,-6717.3595465575,-80234.7297631349,-33960.3703606453,-12641.4095956528,-80532.3272920304,-46061.9722544451,-80470.0773550843,-80457.6906397185,-80500.2532432052,-2416.6627690950
5446869279,5321,1,0,-6717.4690558289,-80235.0339555555,-33968.7417360595,-12640.4848506942,-80530.4656344165,-46075.2350439821,-80469.2742870939,-80456.2305160997,-80499.5231813958,-2416.0908873443
5446869279,5321,1,0,-6718.0896083669,-80235.5084957316,-33952.8507240088,-12641.5677757115,-80532.5706459669,-46260.4152219305,-80471.2576216761,-80458.3598630438,-80500.0098892687,-2417.1859800584
5446869279,5321,1,0,-6717.5177266162,-80235.6058373062,-33932.2021425002,-12641.3244217750,-80536.1114457424,-46371.7374801636,-80470.9655969523,-80458.3841984374,-80500.9102988336,-2417.7943648995
5446869279,5321,1,0,-6718.2112853351,-80236.3237314187,-33933.7231046031,-12642.0666512812,-80536.8901783390,-46257.6896578421,-80471.9268450013,-80460.2580237481,-80501.7255345207,-2417.8187002932
5446869279,5321,1,0,-6718.2356207287,-80237.6013395851,-33954.2621768402,-12641.4947695305,-80534.9311791505,-46067.4720534091,-80472.1945343314,-80459.7591481784,-80502.3095839682,-2417.5023401758
5446869279,5321,1,0,-6717.4447204352,-80236.9442839567,-33963.8016511494,-12641.0323970513,-80532.5828136637,-46054.8906548942,-80471.5861494903,-80458.2503537724,-80501.4456774938,-2416.4680859458
5446893405,5322,1,0,-6718.0531052764,-80236.4697437806,-33951.5974512360,-12642.0544835844,-80534.4809743681,-46233.9504813406,-80472.9124284440,-80459.9051605403,-80501.8228760953,-2417.2954893298
5446893405,5322,1,0,-6717.5907327971,-80237.1633024995,-33928.9046966612,-12641.6286141956,-80536.8171721581,-46363.7068002604,-80472.4257205711,-80459.7104773911,-80502.2365777873,-2416.9669615156
5446893405,5322,1,0,-6719.3428811396,-80237.6986811597,-33927.3350637711,-12642.7845453938,-80538.5084820165,-46274.6392595165,-80473.4356394074,-80460.5135453814,-80503.0639811712,-2418.5365944057
5446893405,5322,1,0,-6717.9922667923,-80236.8591100789,-33944.8687148929,-12641.0810678386,-80535.1015269061,-46082.4869912886,-80472.9245961408,-80459.4306203642,-80502.6016086920,-2416.9669615156
5446893405,5322,1,0,-6717.1283603178,-80236.5914207488,-33959.7254727137,-12641.0080616576,-80532.0352673067,-46041.9928962619,-80472.4743913584,-80459.4792911515,-80501.8837145794,-2416.4924213395
5446893405,5322,1,0,-6716.8850063814,-80236.3724022060,-33949.1274087809,-12640.0954843959,-80532.7531614192,-46204.5046550291,-80471.6348202776,-80458.9439124913,-80500.9102988336,-2416.1638935252
5446893405,5322,1,0,-6717.1526957115,-80236.0560420886,-33927.8217716440,-12640.7525400243,-80536.2209550138,-46359.0587400741,-80472.3405466933,-80459.9051605403,-80501.8228760953,-2417.6848556281
5446893405,5322,1,0,-6717.7489128558,-80236.6157561425,-33922.8330159466,-12641.1175709290,-80537.8635940849,-46293.2436679588,-80472.1701989378,-80460.4405392005,-80501.6646960366,-2418.1472281074
5446924633,5323,1,0,-6717.6150681908,-80236.8712777757,-33939.0768912052,-12641.5312726210,-80535.0528561188,-46096.2243210017,-80472.1336958473,-80459.8564897530,-80501.8472114890,-2416.8209491537
5446924633,5323,1,0,-6717.0188510464,-80236.7252654139,-33955.8926482145,-12640.7038692370,-80532.3272920304,-46031.0298014244,-80473.6059871629,-80460.2093529609,-80501.1536527701,-2415.3973286254
5446924633,5323,1,0,-6717.4812235257,-80237.7230165534,-33949.9913152554,-12641.7016203765,-80534.2011173412,-46181.0575032512,-80473.3869686201,-80460.5257130782,-80502.8084595380,-2416.2977381903
5446924633,5323,1,0,-6717.7367451590,-80237.2971471646,-33927.7000946757,-12640.8255462053,-80537.1335322755,-46349.0812286793,-80473.2531239550,-80459.8808251466,-80502.6016086920,-2416.9669615156
5446924633,5323,1,0,-6718.1869499414,-80238.0150412771,-33920.7401720930,-12641.6772849829,-80539.8712640607,-46315.3645407829,-80473.9953534612,-80461.3166133717,-80503.4776828632,-2418.0133834423
5446924633,5323,1,0,-6718.3572976970,-80238.9762893261,-33938.3955001831,-12642.1153220685,-80537.2673769405,-46125.5363026482,-80473.3869686201,-80460.0633405990,-80501.8472114890,-2418.1228927137
5446924633,5323,1,0,-6717.5907327971,-80237.1876378931,-33956.9147347476,-12641.0932355354,-80533.3493785636,-46033.1591483684,-80472.8759253535,-80460.3675330196,-80502.8206272348,-2415.4946702000
5446924633,5323,1,0,-6717.5055589194,-80237.2971471646,-33954.1770029625,-12640.6795338434,-80533.2763723826,-46163.4630136453,-80472.5352298425,-80460.3431976259,-80501.9932238508,-2415.9935457697
5446969260,5324,1,0,-6717.1283603178,-80236.7982715948,-33933.0538812778,-12640.7525400243,-80535.7220794440,-46346.5868508306,-80472.2918759060,-80459.7469804816,-80502.5286025110,-2416.0665519507
5446969260,5324,1,0,-6717.1526957115,-80237.0172901376,-33924.1106241130,-12640.7160369339,-80537.6080724516,-46339.6025928542,-80473.1314469868,-80459.6983096943,-80501.7133668239,-2417.2224831488
5446969260,5324,1,0,-6718.4424715747,-80236.5914207488,-33938.7483633910,-12641.6894526797,-80536.7806690676,-46148.0343740738,-80471.7443295490,-80459.0290863690,-80501.9445530635,-2417.1008061806
5446969260,5324,1,0,-6717.9679313986,-80236.3115637219,-33959.7376404105,-12641.5677757115,-80532.9721799620,-46030.8229505784,-80472.0606896664,-80459.2724403055,-80501.3483359192,-2417.7943648995
5446969260,5324,1,0,-6718.0774406700,-80235.5328311252,-33959.5551249582,-12641.1540740195,-80532.2421181527,-46137.1321177204,-80471.0872739206,-80458.5180431025,-80501.2023235573,-2416.1517258284
5446969260,5324,1,0,-6716.9215094718,-80235.5936696093,-33940.3666670684,-12640.4605153006,-80534.1281111602,-46327.4592314249,-80471.4401371284,-80458.7857324326,-80500.9589696209,-2417.5510109631
5446969260,5324,1,0,-6717.2865403765,-80235.7761850617,-33928.2963118201,-12639.9616397308,-80537.4863954834,-46357.9271442695,-80472.3405466933,-80458.8830740072,-80500.9346342272,-2416.9304584251
5446969260,5324,1,0,-6716.7754971100,-80236.7617685043,-33943.0435603695,-12640.2658321514,-80536.7563336740,-46189.7330710860,-80472.2797082092,-80460.2701914450,-80502.5286025110,-2416.5045890363
5446995659,5325,1,0,-6717.0188510464,-80238.3679044850,-33966.3446997854,-12640.7403723275,-80534.5539805490,-46055.1826796179,-80473.2531239550,-80460.7690670147,-80503.4776828632,-2416.2612350998
5446995659,5325,1,0,-6717.4690558289,-80238.8789477515,-33970.4695490084,-12641.4339310464,-80533.5440617127,-46137.9838564980,-80473.3261301360,-80460.8055701052,-80503.5020182569,-2416.1030550411
5446995659,5325,1,0,-6718.6128193302,-80238.7451030865,-33952.6073700723,-12641.8476327384,-80536.4278058598,-46329.4303983102,-80473.8006703121,-80461.2557748876,-80503.4898505601,-2417.4536693885
5446995659,5325,1,0,-6718.3694653938,-80237.9542027930,-33936.1566439677,-12641.7259557702,-80539.2872146132,-46371.8226540413,-80473.6546579502,-80461.2922779781,-80502.8936334157,-2417.7335264154
5446995659,5325,1,0,-6717.3838819511,-80236.7009300202,-33945.0268949516,-12641.5677757115,-80536.9996876104,-46205.7700954987,-80471.9876834855,-80460.4892099878,-80501.7255345207,-2417.3441601171
5446995659,5325,1,0,-6717.5420620098,-80237.0294578344,-33967.0260908075,-12640.8742169926,-80533.6657386810,-46051.1186688791,-80473.1314469868,-80459.0290863690,-80502.2609131809,-2416.1638935252
5446995659,5325,1,0,-6717.6515712812,-80237.2363086804,-33972.9152560698,-12640.9107200830,-80533.4102170477,-46107.7106268026,-80473.1557823805,-80460.2093529609,-80502.6989502666,-2415.7015210460
5446995659,5325,1,0,-6717.5298943130,-80237.2363086804,-33955.4424434320,-12641.2270802004,-80535.4422224171,-46299.0598270401,-80473.0584408059,-80459.9903344180,-80503.1369873522,-2416.0300488602
5447025642,5326,1,0,-6718.1382791541,-80236.8104392916,-33939.1377296893,-12641.6164464988,-80538.6666620752,-46374.3535349805,-80472.8394222631,-80460.8055701052,-80502.7719564475,-2417.3806632075
5447025642,5326,1,0,-6717.7489128558,-80237.2728117709,-33944.5401870787,-12641.3000863814,-80538.6058235911,-46227.2339126943,-80473.6303225565,-80461.4261226431,-80503.0274780808,-2417.6361848408
5447025642,5326,1,0,-6717.9557637018,-80237.2971471646,-33967.0382585043,-12641.2270802004,-80534.7364960014,-46049.5612036857,-80473.3991363169,-80461.0489240416,-80502.8936334157,-2417.1251415743
5447025642,5326,1,0,-6717.7610805526,-80237.5770041915,-33975.3609631312,-12641.1054032322,-80533.5927325000,-46076.6343291168,-80473.1801177741,-80460.5865515624,-80503.1126519585,-2416.4315828553
5447025642,5326,1,0,-6717.9435960050,-80238.3314013945,-33960.6015468850,-12640.7890431148,-80536.0992780455,-46272.4855771788,-80473.8615087962,-80461.3774518558,-80503.0883165649,-2417.1616446647
5447025642,5326,1,0,-6716.4469692958,-80237.4553272232,-33941.3644182079,-12639.8642981563,-80537.7540848135,-46374.7794043693,-80472.9732669281,-80461.4139549463,-80502.6137763888,-2416.9791292124
5447025642,5326,1,0,-6716.7633294132,-80238.3922398786,-33945.6961182769,-12640.3388383324,-80539.5792393369,-46253.3701254700,-80474.0926950358,-80461.6451411860,-80503.8183783743,-2417.6970233249
5447025642,5326,1,0,-6717.0310187433,-80237.9907058835,-33967.9143326756,-12640.6673661466,-80536.3547996788,-46072.6798276493,-80474.7497506643,-80461.3166133717,-80503.8062106774,-2415.7745272269
5447050620,5327,1,0,-6717.8340867336,-80238.1975567295,-33979.5101477478,-12641.0932355354,-80533.5927325000,-46072.9110138889,-80473.8493410994,-80461.8884951224,-80503.4411797728,-2416.5167567331
5447050620,5327,1,0,-6717.6394035844,-80238.8546123579,-33967.3789540154,-12640.6065276625,-80535.1867007838,-46255.3047892648,-80474.7862537547,-80462.0588428779,-80503.9400553425,-2416.3950797649
5447050620,5327,1,0,-6718.2112853351,-80238.3557367881,-33946.3531739053,-12640.8742169926,-80539.2142084322,-46378.7704089272,-80474.4090551532,-80461.4261226431,-80504.5362724868,-2416.6262660045
5447050620,5327,1,0,-6716.9945156528,-80237.5526687978,-33946.1949938466,-12640.9837262640,-80539.4697300655,-46277.3891589985,-80474.8105891484,-80461.4504580368,-80502.9058011126,-2417.3684955107
5447050620,5327,1,0,-6717.9314283082,-80238.3679044850,-33967.4519601963,-12641.2635832909,-80536.0627749551,-46083.8376056359,-80473.6424902534,-80460.5500484719,-80503.3803412886,-2416.8817876378
5447050620,5327,1,0,-6717.2987080734,-80236.7252654139,-33980.9824390634,-12640.9228877799,-80532.7044906319,-46055.1096734370,-80473.1801177741,-80459.5888004229,-80501.8350437921,-2415.6893533491
5447050620,5327,1,0,-6717.7124097653,-80237.3944887391,-33971.0901015464,-12641.1905771100,-80534.1037757666,-46228.1099868656,-80472.9367638376,-80460.1241790831,-80502.5286025110,-2417.0521353933
5447050620,5327,1,0,-6718.5276454525,-80236.5062468711,-33950.2833399791,-12641.2270802004,-80537.9244325690,-46371.6523062858,-80472.6934099012,-80460.8299054988,-80502.4190932396,-2417.3076570266
5447086802,5328,1,0,-6717.5420620098,-80236.8834454726,-33946.9007202623,-12640.3023352419,-80538.2894634737,-46299.2910132798,-80472.8150868694,-80460.4405392005,-80503.0031426871,-2417.5388432662
5447086802,5328,1,0,-6717.5177266162,-80237.3214825582,-33967.0625938980,-12641.1419063227,-80535.8437564123,-46107.4672728661,-80473.2896270455,-80460.2701914450,-80503.3316705014,-2417.4293339948
5447086802,5328,1,0,-6717.5785651003,-80236.7982715948,-33984.7300896849,-12641.3365894718,-80532.4489689987,-46047.7847199496,-80472.3162112997,-80459.1629310341,-80501.9080499731,-2415.9327072856
5447086802,5328,1,0,-6717.4690558289,-80235.2894771888,-33975.9571802755,-12640.7525400243,-80533.6292355905,-46198.5668189795,-80471.1481124047,-80458.7005585548,-80501.2388266478,-2416.0787196475
5447086802,5328,1,0,-6719.0751918095,-80237.6500103724,-33955.3572695543,-12642.0301481907,-80537.3525508183,-46362.7090491210,-80474.2022043072,-80461.1097625258,-80502.4312609365,-2418.8894576136
5447086802,5328,1,0,-6717.4690558289,-80235.1434648269,-33947.0345649274,-12640.6673661466,-80537.2795446374,-46314.1234357069,-80471.4279694316,-80458.8465709167,-80502.1514039095,-2417.5145078726
5447086802,5328,1,0,-6717.7610805526,-80235.5571665189,-33964.4222036874,-12640.6186953593,-80536.0384395614,-46117.8463182561,-80472.9245961408,-80459.5036265451,-80502.2609131809,-2416.4315828553
5447086802,5328,1,0,-6717.0796895305,-80235.7153465776,-33982.1383702616,-12640.6917015402,-80533.0086830525,-46035.3980045838,-80471.4401371284,-80459.0534217627,-80501.8593791858,-2415.2756516572
5447119263,5329,1,0,-6717.0431864401,-80236.5914207488,-33977.7579994053,-12640.9715585672,-80532.4733043923,-46173.0268233481,-80471.9268450013,-80458.9682478849,-80501.3361682224,-2415.5433409873
5447119263,5329,1,0,-6717.1770311051,-80235.8735266363,-33956.3915237842,-12640.7890431148,-80536.0871103487,-46347.0492233098,-80472.3405466933,-80459.0777571563,-80501.7498699144,-2416.0422165570
5447119263,5329,1,0,-6717.6515712812,-80236.2385575410,-33946.1949938466,-12640.3631737260,-80537.1213645787,-46326.9116850679,-80472.0241865759,-80459.2481049118,-80501.5186836747,-2416.8574522441
5447119263,5329,1,0,-6717.2013664988,-80236.1655513600,-33962.6943907385,-12641.5434403178,-80536.1114457424,-46139.2371292708,-80472.8272545662,-80459.2602726087,-80502.1392362127,-2416.6262660045
5447119263,5329,1,0,-6718.2356207287,-80236.2993960251,-33982.4668980758,-12641.6286141956,-80533.6657386810,-46031.2488199672,-80472.5473975393,-80459.8808251466,-80502.2974162714,-2417.0156323028
5447119263,5329,1,0,-6717.4933912225,-80235.4354895506,-33979.7048308970,-12640.5700245720,-80531.9379257321,-46144.9316113839,-80470.6492368349,-80458.0069998359,-80500.6912802908,-2415.9083718920
5447119263,5329,1,0,-6718.8683409635,-80236.6279238393,-33960.4190314326,-12641.4826018337,-80535.4787255076,-46333.2388874158,-80472.0363542728,-80460.0511729022,-80502.3095839682,-2417.9403772614
5447119263,5329,1,0,-6717.8827575209,-80235.6058373062,-33947.4239312257,-12641.2270802004,-80537.6445755421,-46342.3403246394,-80473.3382978328,-80459.7469804816,-80501.5673544620,-2417.4171662980
5447145582,5330,1,0,-6717.2865403765,-80235.6545080935,-33961.0639193642,-12641.2514155941,-80536.6103213121,-46161.9542192392,-80472.0120188791,-80460.1485144767,-80502.5894409952,-2417.7700295059
5447145582,5330,1,0,-6716.7754971100,-80236.1047128759,-33982.1627056552,-12640.4361799069,-80532.8505029938,-46035.6170231266,-80471.4158017348,-80458.2868568628,-80501.5186836747,-2416.0908873443
5447145582,5330,1,0,-6718.0531052764,-80234.6567569540,-33985.2654683451,-12640.8985523862,-80532.3881305145,-46129.9410088981,-80471.5861494903,-80459.3454464864,-80501.3726713129,-2416.2247320094
5447145582,5330,1,0,-6718.2234530319,-80235.6180050030,-33965.6389733697,-12641.5556080147,-80535.3327131457,-46320.5479796295,-80472.8759253535,-80459.8686574498,-80502.0297269413,-2417.3806632075
5447145582,5330,1,0,-6717.5298943130,-80236.5062468711,-33950.8673894266,-12641.4095956528,-80537.1822030628,-46359.5211125533,-80472.1945343314,-80460.1120113863,-80501.8472114890,-2418.5000913152
5447145582,5330,1,0,-6717.5420620098,-80236.1168805727,-33961.1247578484,-12640.6186953593,-80536.8658429454,-46192.3977966902,-80471.6226525808,-80458.5180431025,-80501.6646960366,-2417.0277999997
5447145582,5330,1,0,-6717.6515712812,-80235.4111541570,-33983.3064691566,-12640.1684905768,-80532.7774968129,-46041.7982131127,-80472.0120188791,-80458.5058754056,-80501.4213421002,-2416.2734027966
5447145582,5330,1,0,-6718.2112853351,-80235.2408064015,-33989.0009512697,-12640.7282046307,-80532.5584782701,-46108.5380301865,-80470.9777646492,-80459.2602726087,-80501.2631620415,-2416.6871044886
5447196431,5331,1,0,-6717.7367451590,-80235.1556325237,-33971.7228217811,-12640.7038692370,-80533.9820987984,-46307.9665811145,-80471.1116093142,-80459.0412540658,-80501.1049819828,-2416.3829120681
5447196431,5331,1,0,-6717.3473788607,-80235.5449988220,-33956.5983746302,-12640.8377139021,-80537.2795446374,-46373.6599762616,-80471.2576216761,-80459.6618066038,-80502.2000746968,-2416.9061230314
5447196431,5331,1,0,-6716.9093417750,-80235.1921356142,-33963.3271109733,-12640.6430307529,-80536.7685013708,-46219.1058912166,-80472.3283789965,-80459.1750987309,-80501.1536527701,-2417.0034646060
5447196431,5331,1,0,-6718.3816330906,-80235.8370235458,-33986.7255919638,-12641.5312726210,-80533.6170678937,-46053.8442329674,-80471.1359447079,-80459.0047509754,-80501.7498699144,-2416.7236075791
5447196431,5331,1,0,-6717.5055589194,-80234.8636078000,-33993.1988066736,-12641.2757509877,-80531.0740192577,-46091.9047886296,-80470.3693798080,-80457.5446273566,-80500.1559016306,-2416.1882289189
5447196431,5331,1,0,-6717.3230434670,-80234.2673906556,-33975.8963417914,-12640.4970183911,-80533.2033662017,-46283.8137029210,-80470.5275598667,-80457.8731551708,-80500.0463923592,-2416.3585766744
5447196431,5331,1,0,-6717.3960496479,-80234.7906016190,-33957.4014426205,-12640.1319874864,-80535.7342471408,-46374.5847212201,-80469.8218334510,-80457.3986149947,-80499.7300322418,-2416.6262660045
5447196431,5331,1,0,-6717.5420620098,-80234.6567569540,-33962.9985831591,-12641.4095956528,-80535.0406884219,-46243.9158250386,-80471.0142677396,-80458.1408445009,-80500.9589696209,-2418.4392528311
5447205971,5332,1,0,-6716.4591369926,-80233.2818072130,-33983.2456306725,-12640.1563228800,-80531.8284164607,-46063.0916825528,-80469.2499517003,-80455.7681436205,-80498.9634673419,-2415.9448749824
5447205971,5332,1,0,-6717.6880743717,-80233.9753659319,-33994.9752904098,-12641.3244217750,-80530.6724852625,-46074.5536529600,-80470.6735722286,-80457.4229503884,-80499.9003799973,-2415.9448749824
5447205971,5332,1,0,-6718.0044344891,-80234.2308875652,-33979.9725202271,-12641.3365894718,-80533.3007077763,-46262.5932396618,-80471.0629385269,-80459.0655894595,-80500.0220569655,-2417.4293339948
5447205971,5332,1,0,-6717.2378695892,-80234.2795583525,-33959.6037957455,-12640.2536644546,-80536.2939611947,-46374.6820627947,-80471.2819570697,-80459.0412540658,-80501.1293173764,-2417.7091910218
5447205971,5332,1,0,-6718.1017760637,-80235.6058373062,-33960.6380499754,-12642.2369990367,-80536.9023460359,-46265.2214621755,-80471.9268450013,-80459.2481049118,-80501.5795221588,-2418.0012157455
5447205971,5332,1,0,-6717.9800990954,-80235.1312971301,-33980.4227250096,-12641.7259557702,-80533.6049001968,-46079.2017131464,-80471.3062924634,-80459.1994341245,-80501.9323853667,-2417.1738123615
5447205971,5332,1,0,-6718.1261114573,-80234.6202538635,-33994.8292780479,-12640.9593908703,-80531.0010130767,-46062.4467946212,-80470.4788890794,-80458.0556706232,-80500.7521187749,-2416.0787196475
5447205971,5332,1,0,-6717.5785651003,-80234.1092105969,-33982.7710904964,-12641.8598004352,-80532.5219751796,-46237.5277842065,-80471.6104848839,-80458.5058754056,-80500.7521187749,-2416.5897629140
5447237000,5333,1,0,-6717.4082173448,-80233.6711735113,-33963.0229185527,-12641.5434403178,-80534.9068437569,-46376.8479128292,-80470.4423859890,-80458.4815400120,-80500.0463923592,-2417.5145078726
5447237000,5333,1,0,-6718.4424715747,-80233.8050181764,-33961.6966395990,-12641.3609248655,-80535.8924271995,-46294.0710713427,-80470.4910567762,-80458.7979001294,-80500.7034479876,-2417.2711539361
5447237000,5333,1,0,-6717.9800990954,-80234.3403968366,-33983.2456306725,-12641.2757509877,-80533.7509125587,-46099.1080651487,-80471.5739817935,-80458.1895152882,-80500.4600940511,-2416.8939553346
5447237000,5333,1,0,-6718.5884839366,-80236.1047128759,-33999.8910399263,-12641.6407818924,-80532.2664535463,-46055.8884060336,-80472.2797082092,-80458.7857324326,-80501.8472114890,-2417.6240171440
5447237000,5333,1,0,-6717.6150681908,-80235.2651417951,-33991.4953291184,-12640.8863846894,-80532.2299504558,-46219.3735805467,-80471.4523048252,-80458.7857324326,-80501.4700128875,-2416.8939553346
5447237000,5333,1,0,-6717.8340867336,-80235.0947940396,-33970.4452136147,-12640.8498815989,-80535.7585825345,-46373.2219391760,-80471.0751062237,-80458.7613970389,-80501.6890314303,-2416.9791292124
5447237000,5333,1,0,-6717.6394035844,-80234.7906016190,-33965.9675011839,-12641.3244217750,-80536.8171721581,-46314.5736404894,-80471.3792986443,-80458.2625214692,-80500.5087648384,-2417.8308679900
5447237000,5333,1,0,-6717.5420620098,-80235.1678002205,-33984.0608663596,-12640.8742169926,-80535.1380299965,-46122.8350739535,-80471.0507708301,-80459.1629310341,-80501.7742053080,-2417.0521353933
5447273367,5334,1,0,-6716.5929816576,-80234.4012353207,-34001.0834742149,-12640.2536644546,-80531.4998886465,-46048.2714278225,-80470.0651873874,-80457.4107826916,-80498.9999704324,-2415.2878193540
5447273367,5334,1,0,-6716.9580125623,-80234.4255707143,-33995.9365384588,-12640.8377139021,-80530.3926282356,-46190.9133376778,-80470.1260258715,-80458.5302107993,-80500.5331002321,-2416.1030550411
5447273367,5334,1,0,-6717.0188510464,-80234.5472476826,-33973.9738456934,-12641.3487571687,-80534.9555145442,-46362.1128319766,-80470.4423859890,-80457.5932981439,-80500.4235909607,-2416.8574522441
5447273367,5334,1,0,-6718.2112853351,-80235.1312971301,-33967.1234323821,-12641.7989619511,-80537.7540848135,-46333.3727320808,-80472.8272545662,-80460.0876759926,-80501.7011991271,-2418.4149174375
5447273367,5334,1,0,-6717.8827575209,-80234.8757754968,-33982.3330534108,-12641.6894526797,-80534.9798499378,-46138.2515458281,-80471.2697893729,-80459.0534217627,-80501.3848390097,-2417.0156323028
5447273367,5334,1,0,-6717.7610805526,-80235.0217878587,-34000.9374618530,-12641.5069372274,-80532.6801552383,-46042.4674364379,-80471.5496463998,-80459.1872664277,-80501.2509943446,-2416.5775952172
5447273367,5334,1,0,-6717.2865403765,-80234.9122785873,-33998.0293823123,-12640.5091860879,-80533.1425277176,-46169.5346943599,-80470.7100753190,-80458.4693723152,-80501.7985407017,-2415.8353657110
5447273367,5334,1,0,-6716.8241678973,-80233.9023597510,-33976.5412297230,-12639.9859751245,-80535.6369055663,-46349.8234581855,-80471.5496463998,-80459.1872664277,-80500.8372926526,-2417.2833216329
5447320811,5335,1,0,-6717.1161926210,-80234.7662662254,-33965.2739424650,-12640.5943599656,-80537.3160477278,-46347.1465648844,-80471.2332862824,-80459.2846080023,-80500.4235909607,-2417.5996817503
5447320811,5335,1,0,-6717.5420620098,-80234.7906016190,-33979.2911292050,-12641.5556080147,-80535.5638993853,-46163.9983923055,-80470.6857399254,-80458.2868568628,-80501.1779881637,-2418.0498865328
5447320811,5335,1,0,-6718.1382791541,-80234.6567569540,-33999.7815306549,-12641.5312726210,-80532.3029566368,-46040.1799094352,-80471.1846154951,-80457.8244843836,-80500.3505847797,-2416.6019306109
5447320811,5335,1,0,-6717.0188510464,-80234.7175954381,-33998.1753946742,-12640.6673661466,-80531.6580687052,-46138.9086014566,-80470.3450444144,-80457.1917641488,-80499.9368830878,-2416.3585766744
5447320811,5335,1,0,-6718.5763162398,-80234.6567569540,-33977.9405148577,-12641.4339310464,-80535.5152285980,-46331.1217081686,-80471.2697893729,-80458.2016829851,-80500.6669448971,-2417.7335264154
5447320811,5335,1,0,-6717.9070929145,-80235.2894771888,-33965.5294640983,-12641.4826018337,-80537.6689109357,-46358.0244858441,-80472.1458635442,-80458.8830740072,-80501.2996651319,-2417.9768803519
5447320811,5335,1,0,-6717.1770311051,-80234.1943844747,-33974.8864229551,-12640.5821922688,-80534.8460052728,-46180.3761122292,-80470.3085413239,-80457.9218259581,-80500.9711373177,-2416.5410921267
5447320811,5335,1,0,-6717.1526957115,-80234.1213782938,-33996.0947185175,-12640.3145029387,-80532.3029566368,-46039.6445307750,-80471.1724477983,-80457.4107826916,-80500.3992555670,-2416.0543842538
5447326336,5336,1,0,-6717.4203850416,-80233.9266951446,-33998.9906303614,-12640.5943599656,-80531.5972302211,-46118.9900817574,-80471.2211185856,-80458.1165091073,-80500.7399510781,-2416.9061230314
5447326336,5336,1,0,-6717.2257018924,-80233.5008257558,-33979.9238494398,-12640.8620492957,-80533.8725895269,-46309.4632078238,-80470.2598705366,-80457.5202919630,-80499.8030384227,-2416.6749367918
5447326336,5336,1,0,-6717.6272358876,-80233.8780243573,-33964.0206696922,-12640.8377139021,-80535.5882347790,-46362.8185583924,-80471.4888079157,-80458.8465709167,-80500.3384170829,-2417.1859800584
5447326336,5336,1,0,-6718.0652729732,-80234.2917260493,-33972.8057467984,-12641.3974279560,-80535.7099117472,-46204.4438165449,-80470.6735722286,-80458.2138506819,-80501.3240005256,-2417.6605202345
5447326336,5336,1,0,-6717.2135341956,-80234.5350799857,-33994.3669055686,-12640.6795338434,-80532.0474350035,-46042.0780701396,-80469.8826719351,-80457.4594534789,-80499.7908707259,-2416.7357752759
5447326336,5336,1,0,-6716.8363355941,-80232.6369192814,-34000.1100584691,-12640.9350554767,-80529.9545911500,-46091.4180807566,-80469.0917716416,-80457.1309256646,-80498.3915855912,-2415.4703348063
5447326336,5336,1,0,-6717.4812235257,-80232.8924409146,-33981.7246685696,-12641.2514155941,-80532.4611366955,-46287.5248504520,-80469.6758210891,-80457.7758135963,-80499.8760446036,-2416.4315828553
5447326336,5336,1,0,-6717.8705898240,-80234.1822167779,-33964.4465390810,-12640.8012108116,-80536.5616505248,-46369.7784809751,-80470.8560876809,-80458.8465709167,-80501.5308513716,-2417.3441601171
5447360746,5337,1,0,-6717.9800990954,-80235.0339555555,-33969.0824315706,-12640.9715585672,-80537.3525508183,-46229.2415826701,-80471.1967831920,-80459.3697818801,-80502.2244100905,-2417.8308679900
5447360746,5337,1,0,-6718.4789746652,-80235.3746510665,-33991.4709937248,-12641.8354650416,-80534.5904836395,-46059.3196965377,-80472.5960683266,-80459.5279619388,-80501.9080499731,-2417.0764707870
5447360746,5337,1,0,-6718.0044344891,-80234.3160614429,-34001.7892006306,-12641.2149125036,-80531.4390501624,-46085.3220646483,-80471.0386031333,-80458.2381860755,-80501.0198081050,-2416.5410921267
5447360746,5337,1,0,-6716.7146586259,-80234.2065521715,-33986.9324428098,-12639.9859751245,-80533.0695215366,-46276.8294449446,-80470.4667213826,-80457.6784720217,-80499.4866783053,-2416.5410921267
5447360746,5337,1,0,-6718.6858255112,-80234.0118690224,-33970.0315119228,-12641.6042788019,-80536.3304642852,-46386.7280826494,-80471.5253110062,-80458.8830740072,-80501.3605036160,-2418.0133834423
5447360746,5337,1,0,-6717.5542297066,-80234.3890676239,-33973.6088147887,-12640.6551984498,-80536.7685013708,-46270.0277024206,-80471.4888079157,-80458.2868568628,-80500.9589696209,-2417.1859800584
5447360746,5337,1,0,-6717.3230434670,-80233.5616642399,-33995.2308120431,-12640.2414967578,-80533.3250431699,-46081.1485446381,-80471.3306278570,-80457.7271428090,-80499.9612184814,-2416.2977381903
5447360746,5337,1,0,-6717.6880743717,-80234.6810923476,-34009.6617004751,-12640.6673661466,-80531.6580687052,-46073.6410756983,-80470.6735722286,-80458.5180431025,-80500.7277833812,-2416.6140983077
5447440776,5338,0,0,-6717.1161926210,-80234.4377384112,-33997.0072957792,-12641.2392478973,-80532.1934473654,-46257.4584716025,-80469.7853303605,-80457.9826644423,-80499.6691937577,-2416.1030550411
5447440776,5338,0,0,-6718.3086269097,-80235.2043033110,-33979.5101477478,-12641.2879186845,-80536.7198305835,-46391.0111119311,-80471.4401371284,-80458.9804155817,-80501.5795221588,-2418.0985573201
5447440776,5338,0,0,-6717.5907327971,-80234.4255707143,-33978.8044213321,-12640.9958939608,-80536.8780106422,-46298.4392745022,-80471.1602801015,-80458.9682478849,-80501.4700128875,-2417.2711539361
5447440776,5338,0,0,-6717.5298943130,-80234.5229122889,-34000.8401202784,-12641.6164464988,-80535.0528561188,-46111.2149234876,-80471.9146773045,-80459.2967756991,-80501.6403606430,-2416.7114398823
5447440776,5338,0,0,-6717.9922667923,-80234.3282291397,-34017.6193741973,-12640.6308630561,-80532.2056150622,-46079.2138808432,-80471.4644725221,-80458.7370616453,-80501.6890314303,-2416.4924213395
5447440776,5338,0,0,-6718.2356207287,-80234.9122785873,-34007.7635397707,-12641.6042788019,-80532.3759628177,-46244.9865823590,-80472.0728573632,-80459.3576141832,-80501.3605036160,-2417.2468185425
5447440776,5338,0,0,-6716.9701802591,-80235.4476572475,-33986.5917472988,-12640.2536644546,-80536.6954951899,-46392.7145894863,-80472.8394222631,-80459.1750987309,-80502.1027331222,-2416.9182907283
5447440776,5338,0,0,-6717.7245774622,-80235.1312971301,-33983.0387798265,-12641.0932355354,-80538.1556188086,-46323.7602515907,-80472.5595652361,-80460.5013776846,-80501.8837145794,-2417.5753463567
5447445770,5339,0,0,-6717.0066833496,-80233.9510305382,-34001.1443126990,-12640.6430307529,-80534.9068437569,-46126.8869169955,-80471.0507708301,-80458.5302107993,-80501.4578451906,-2416.6749367918
5447445770,5339,0,0,-6717.8705898240,-80234.6445892572,-34019.0916655129,-12641.1662417163,-80532.4733043923,-46066.9488424457,-80472.2918759060,-80459.5401296356,-80502.0540623350,-2416.7966137600
5447445770,5339,0,0,-6718.0531052764,-80235.6423403966,-34012.1439106270,-12642.0301481907,-80533.1060246271,-46220.4930086544,-80471.6104848839,-80459.1872664277,-80501.1779881637,-2417.5266755694
5447445770,5339,0,0,-6717.6272358876,-80234.2795583525,-33990.2177209520,-12641.1175709290,-80534.9555145442,-46383.9781831675,-80470.9412615587,-80459.1750987309,-80500.8737957431,-2417.0643030901
5447445770,5339,0,0,-6717.7732482495,-80234.0483721128,-33983.5376553962,-12641.8232973448,-80537.8635940849,-46341.1357226539,-80471.5009756125,-80458.6275523739,-80501.7620376112,-2417.2468185425
5447445770,5339,0,0,-6716.9701802591,-80234.0118690224,-33998.8202826058,-12640.1441551832,-80534.7486636982,-46149.8108578099,-80470.0165166001,-80458.1165091073,-80500.8129572590,-2416.3829120681
5447445770,5339,0,0,-6717.1040249242,-80234.3525645334,-34018.0695789797,-12640.7525400243,-80532.7774968129,-46063.1038502497,-80470.4180505953,-80459.1142602468,-80501.5065159779,-2416.6019306109
5447445770,5339,0,0,-6717.0310187433,-80235.2651417951,-34014.2245867837,-12640.9837262640,-80532.3881305145,-46194.3324604851,-80471.9390126982,-80459.1872664277,-80500.5574356257,-2416.5532598236
5447460016,5340,0,0,-6717.7002420685,-80234.9852847682,-33993.0284589181,-12641.8841358289,-80536.4643089502,-46373.7208147457,-80472.5352298425,-80459.9173282371,-80501.8350437921,-2418.7677806453
5447460016,5340,0,0,-6716.8971740782,-80234.2552229588,-33981.9801902029,-12640.9593908703,-80536.9145137327,-46359.7888018834,-80471.6956587617,-80459.0290863690,-80500.6304418067,-2417.4049986012
5447460016,5340,0,0,-6718.2356207287,-80235.1799679174,-33997.7251898918,-12642.2248313399,-80536.3791350725,-46169.4495204822,-80472.7907514758,-80459.7834835720,-80501.8958822763,-2418.3540789534
5447460016,5340,0,0,-6717.9070929145,-80235.1312971301,-34016.8163062070,-12641.2757509877,-80532.3272920304,-46055.6450520972,-80471.1846154951,-80458.6640554643,-80501.4335097970,-2416.4194151585
5447460016,5340,0,0,-6717.9435960050,-80235.1921356142,-34016.2200890626,-12641.9571420098,-80533.2763723826,-46169.7902159932,-80472.2918759060,-80459.1507633373,-80501.6403606430,-2417.3684955107
5447460016,5340,0,0,-6717.3960496479,-80234.4255707143,-33993.7463530307,-12640.5943599656,-80534.6756575173,-46354.9338908511,-80471.8295034268,-80460.0146698117,-80501.8715468826,-2417.6848556281
5447460016,5340,0,0,-6718.1869499414,-80234.8271047095,-33981.6881654791,-12641.1054032322,-80538.6423266815,-46370.2773565448,-80472.9732669281,-80459.7226450879,-80501.5430190684,-2418.1228927137
5447460016,5340,0,0,-6717.4812235257,-80234.0118690224,-33992.6147572261,-12639.6696150071,-80535.8559241091,-46192.6898214140,-80471.2576216761,-80458.7857324326,-80499.9977215719,-2416.9547938187
5447489285,5341,0,0,-6718.0287698827,-80234.2552229588,-34013.9934005440,-12641.1784094131,-80532.7409937224,-46059.9280813789,-80471.7321618522,-80457.8974905645,-80500.1193985401,-2416.8817876378
5447489285,5341,0,0,-6718.9535148413,-80233.7320119954,-34017.0353247498,-12641.9936451003,-80531.9014226416,-46147.2799768708,-80471.3184601602,-80458.5180431025,-80500.5696033226,-2417.7943648995
5447489285,5341,0,0,-6718.7709993889,-80233.5494965431,-33996.7761095396,-12641.8111296479,-80533.8239187397,-46341.0383810793,-80470.1625289620,-80457.7393105058,-80500.2775785988,-2417.9038741709
5447489285,5341,0,0,-6717.2257018924,-80231.8460189879,-33980.3618865254,-12641.0810678386,-80535.3205454489,-46383.5158106882,-80469.3959640622,-80456.9605779091,-80499.1946535816,-2417.0521353933
5447489285,5341,0,0,-6717.1283603178,-80233.2453041225,-33990.4732425853,-12640.8133785085,-80533.4345524413,-46217.7066060820,-80470.2111997493,-80458.0313352295,-80500.3870878702,-2416.3099058871
5447489285,5341,0,0,-6717.4325527384,-80232.7099254623,-34012.0465690524,-12640.3023352419,-80531.8527518543,-46065.2575325873,-80469.8826719351,-80457.4229503884,-80499.4380075180,-2416.3099058871
5447489285,5341,0,0,-6717.5907327971,-80233.2209687289,-34017.6558772878,-12640.5943599656,-80530.8063299276,-46127.6656495922,-80470.2233674461,-80456.7172239727,-80499.0243058260,-2416.4802536426
5447489285,5341,0,0,-6717.4203850416,-80232.4544038290,-33998.1388915838,-12641.3487571687,-80532.5341428764,-46319.9639301820,-80470.0651873874,-80456.6198823981,-80499.3650013371,-2417.2833216329
5447519353,5342,0,0,-6717.7854159463,-80233.1236271543,-33980.4713957968,-12640.9715585672,-80535.7220794440,-46388.9912742585,-80470.4180505953,-80458.0800060168,-80500.5696033226,-2417.2954893298
5447519353,5342,0,0,-6717.6272358876,-80234.5594153794,-33987.2122998367,-12641.1419063227,-80536.3304642852,-46243.0275831705,-80471.1116093142,-80458.3111922565,-80500.1315662369,-2417.3928309044
5447519353,5342,0,0,-6716.7389940195,-80232.0407021370,-34007.3255026851,-12640.4361799069,-80532.7166583288,-46070.4896422212,-80469.9921812065,-80457.0335840901,-80499.8273738164,-2416.0665519507
5447519353,5342,0,0,-6717.4082173448,-80233.8658566605,-34016.1227474881,-12640.5700245720,-80531.0861869545,-46100.9332196722,-80470.5397275635,-80457.3742796011,-80499.7908707259,-2416.4072474617
5447519353,5342,0,0,-6718.2477884255,-80234.7054277413,-34001.3876666355,-12642.5898622446,-80535.1988684806,-46295.0323193918,-80472.9002607472,-80460.0146698117,-80501.8107083985,-2418.5609297994
5447519353,5342,0,0,-6717.1891988020,-80233.2453041225,-33980.6539112492,-12640.5213537847,-80536.4156381629,-46388.5167340824,-80471.6834910649,-80459.1750987309,-80500.4844294448,-2417.3319924202
5447519353,5342,0,0,-6718.6493224207,-80234.8149370127,-33983.1482890979,-12641.8719681320,-80536.8536752486,-46259.9406817544,-80472.5230621457,-80459.6861419975,-80502.4920994206,-2418.5609297994
5447519353,5342,0,0,-6717.0310187433,-80234.7419308317,-34003.5170135795,-12640.7403723275,-80534.2984589157,-46080.1142904081,-80472.1823666346,-80458.7857324326,-80501.3848390097,-2416.4680859458
5447577289,5343,0,0,-6717.3838819511,-80233.8901920541,-34014.4071022360,-12640.0589813054,-80531.6580687052,-46087.7556040129,-80470.6735722286,-80458.5910492834,-80501.1536527701,-2416.5045890363
5447577289,5343,0,0,-6717.1648634083,-80234.4985768953,-33999.4164997502,-12640.4970183911,-80533.5440617127,-46269.0664543716,-80471.0507708301,-80459.1872664277,-80500.8494603495,-2416.4802536426
5447577289,5343,0,0,-6718.3572976970,-80234.5959184699,-33978.9747690876,-12641.6286141956,-80537.2187061532,-46387.7501691826,-80471.7321618522,-80458.3841984374,-80501.5673544620,-2417.5753463567
5447577289,5343,0,0,-6717.5785651003,-80234.4134030175,-33978.8287567257,-12641.3000863814,-80537.4863954834,-46283.1201442021,-80471.4766402189,-80458.6762231612,-80501.0441434986,-2417.6726879313
5447577289,5343,0,0,-6718.2599561224,-80234.4985768953,-34000.0005491977,-12642.1153220685,-80534.5783159427,-46091.8682855391,-80471.1602801015,-80458.1286768041,-80501.4700128875,-2417.7578618090
5447577289,5343,0,0,-6717.8705898240,-80232.9776147924,-34013.0321524950,-12641.1175709290,-80531.1470254386,-46067.7397427392,-80470.6127337445,-80457.9826644423,-80499.9368830878,-2417.1008061806
5447577289,5343,0,0,-6716.8606709877,-80232.5030746163,-34001.0104680340,-12639.7791242785,-80531.3173731941,-46242.8207323245,-80469.5176410304,-80456.0966714347,-80499.2798274593,-2415.6650179555
5447577289,5343,0,0,-6717.2500372861,-80231.9920313498,-33980.5930727651,-12641.5556080147,-80535.4543901139,-46384.1850340134,-80470.3085413239,-80457.6784720217,-80500.3140816893,-2417.2346508457
5447577378,5344,0,0,-6717.3595465575,-80233.6103350272,-33977.7701671021,-12640.9472231735,-80536.7685013708,-46304.6447998819,-80471.2454539793,-80458.9317447944,-80499.9733861782,-2417.4171662980
5447577378,5344,0,0,-6717.9922667923,-80234.1700490811,-33997.7373575886,-12642.2004959463,-80534.8460052728,-46112.6628794095,-80471.1724477983,-80459.4549557578,-80501.3240005256,-2417.9768803519
5447577378,5344,0,0,-6717.5907327971,-80233.4156518780,-34012.5332769253,-12641.1297386259,-80531.2808701037,-46062.9578378878,-80470.8195845905,-80457.6663043249,-80500.6912802908,-2416.5167567331
5447577378,5344,0,0,-6717.6272358876,-80233.8050181764,-34004.8067894427,-12641.1662417163,-80532.6193167542,-46218.5583448596,-80470.7465784095,-80457.6906397185,-80499.7300322418,-2416.7722783664
5447577378,5344,0,0,-6718.4789746652,-80233.3913164844,-33983.5984938803,-12641.3730925623,-80536.2452904074,-46377.4806330640,-80471.1359447079,-80458.6032169802,-80501.4700128875,-2416.9912969092
5447577378,5344,0,0,-6717.3717142543,-80233.7076766018,-33978.2812103687,-12641.3974279560,-80537.4255569992,-46326.9360204615,-80472.0241865759,-80459.5401296356,-80501.7985407017,-2416.9912969092
5447577378,5344,0,0,-6718.5884839366,-80234.4012353207,-33998.0658854028,-12641.9693097066,-80536.6468244026,-46132.5935668055,-80471.9876834855,-80459.1872664277,-80502.2000746968,-2417.7213587186
5447577378,5344,0,0,-6717.1770311051,-80233.7806827827,-34015.8428904611,-12640.8012108116,-80532.0961057908,-46056.1804307574,-80470.7830815000,-80457.7514782026,-80499.7787030291,-2416.0787196475
5447614576,5345,0,0,-6717.1283603178,-80233.2209687289,-34011.7788797223,-12640.0954843959,-80531.9744288226,-46201.4748985202,-80469.8948396319,-80457.5446273566,-80499.8638769068,-2415.8597011047
5447614576,5345,0,0,-6717.2013664988,-80233.5616642399,-33991.7630184485,-12640.8012108116,-80535.2475392679,-46374.9862552153,-80471.4036340380,-80458.7735647357,-80501.0563111955,-2417.0277999997
5447614576,5345,0,0,-6717.8827575209,-80233.5859996335,-33983.3916430343,-12640.8133785085,-80536.9996876104,-46344.7495286103,-80471.6226525808,-80458.3476953469,-80501.5916898557,-2416.6262660045
5447614576,5345,0,0,-6717.6272358876,-80234.8271047095,-33999.6233505961,-12641.7502911638,-80536.3182965883,-46150.9059505240,-80472.1458635442,-80458.7248939485,-80501.0441434986,-2417.6361848408
5447614576,5345,0,0,-6718.0652729732,-80234.8149370127,-34019.3471871461,-12642.2248313399,-80533.1060246271,-46048.1862539447,-80471.9268450013,-80458.4450369215,-80501.1536527701,-2417.2103154520
5447614576,5345,0,0,-6717.7124097653,-80233.9875336287,-34017.0231570530,-12639.9008012467,-80532.6436521478,-46167.9772291666,-80471.1359447079,-80458.5667138898,-80501.6281929461,-2416.6019306109
5447614576,5345,0,0,-6717.2865403765,-80233.9145274478,-33997.6278483172,-12640.8498815989,-80535.5638993853,-46357.9514796632,-80471.5253110062,-80458.6397200707,-80501.4456774938,-2416.9426261219
5447614576,5345,0,0,-6718.1017760637,-80234.6080861667,-33988.4169018222,-12641.1662417163,-80537.6324078452,-46368.6347174737,-80471.8903419109,-80459.1629310341,-80502.2487454841,-2417.6483525376
5447678291,5346,0,0,-6716.4226339021,-80233.2088010320,-34002.0568899607,-12640.3023352419,-80535.2718746616,-46187.4698794769,-80470.3207090207,-80458.4085338311,-80500.0828954496,-2416.9182907283
5447678291,5346,0,0,-6718.9413471445,-80233.8171858732,-34024.2264335721,-12642.1639928558,-80532.7653291161,-46063.2863657020,-80472.1580312410,-80458.9804155817,-80501.1171496796,-2417.4049986012
5447678291,5346,0,0,-6717.8705898240,-80232.7220931591,-34023.8248995770,-12641.2149125036,-80531.7067394925,-46159.0704750922,-80469.1647778225,-80457.2282672392,-80500.1072308433,-2416.8817876378
5447678291,5346,0,0,-6717.6394035844,-80232.8802732178,-34004.5512678094,-12641.5312726210,-80533.3007077763,-46343.6544358962,-80470.9777646492,-80458.0556706232,-80500.1680693274,-2417.2224831488
5447678291,5346,0,0,-6716.9823479560,-80231.6270004451,-33989.5363299299,-12640.9472231735,-80535.8802595027,-46368.5252082023,-80470.2233674461,-80457.6419689312,-80499.7787030291,-2417.2224831488
5447678291,5346,0,0,-6716.9945156528,-80232.1258760148,-33999.8545368358,-12640.4361799069,-80534.4931420649,-46199.4915639380,-80470.5640629572,-80457.8366520804,-80500.2654109020,-2416.9912969092
5447678291,5346,0,0,-6717.1405280147,-80232.7585962496,-34021.2818509410,-12640.7525400243,-80530.6238144752,-46054.6107978672,-80470.1381935684,-80457.9339936550,-80500.1802370242,-2416.4437505522
5447678291,5346,0,0,-6716.3131246307,-80231.6026650514,-34025.1390108339,-12640.2049936673,-80529.9910942404,-46124.8305762324,-80468.7754115242,-80457.4959565693,-80499.9490507846,-2415.6285148650
5447685768,5347,0,0,-6716.7998325036,-80231.2132987531,-34006.5467700884,-12640.4726829974,-80533.0938569303,-46319.4407192186,-80468.6172314655,-80457.1674287551,-80498.7079457086,-2416.5775952172
5447685768,5347,0,0,-6717.1891988020,-80231.2984726308,-33990.9234473677,-12639.8764658531,-80535.5760670821,-46374.8402428534,-80469.6758210891,-80456.7293916695,-80499.3771690339,-2416.9182907283
5447685768,5347,0,0,-6718.3938007874,-80232.9654470956,-33999.3556612660,-12642.0058127971,-80536.1357811360,-46215.3217375047,-80471.3062924634,-80457.6906397185,-80499.0243058260,-2417.7578618090
5447685768,5347,0,0,-6717.6637389780,-80232.1867144989,-34019.5783733858,-12640.7890431148,-80531.2443670132,-46050.5589548252,-80470.1868643557,-80457.5324596598,-80499.3284982466,-2417.2346508457
5447685768,5347,0,0,-6717.8949252177,-80232.4422361322,-34027.1831839001,-12640.8498815989,-80530.5264729006,-46099.6556115058,-80469.7609949669,-80456.6320500949,-80499.8760446036,-2416.0787196475
5447685768,5347,0,0,-6717.9922667923,-80232.8072670369,-34010.9149732478,-12641.3730925623,-80532.5828136637,-46293.2923387461,-80470.8925907714,-80458.5667138898,-80499.7421999386,-2417.5023401758
5447685768,5347,0,0,-6717.5542297066,-80232.5639131004,-33993.4421606101,-12640.6551984498,-80535.7829179281,-46379.5978123112,-80470.4302182921,-80457.9461613518,-80499.6935291513,-2416.9061230314
5447685768,5347,0,0,-6717.5420620098,-80233.2209687289,-33999.7328598676,-12640.3510060292,-80536.3061288915,-46245.8383211366,-80470.8804230746,-80458.7370616453,-80500.8251249558,-2416.8574522441
5447706664,5348,0,0,-6717.6272358876,-80232.9046086115,-34021.8902357821,-12641.3365894718,-80532.8261676002,-46068.9200093310,-80471.1359447079,-80457.7271428090,-80500.1072308433,-2416.5289244299
5447706664,5348,0,0,-6717.8827575209,-80232.6734223718,-34032.1841072943,-12641.1905771100,-80530.8550007149,-46086.9647037194,-80471.0507708301,-80458.2625214692,-80500.9711373177,-2417.1251415743
5447706664,5348,0,0,-6718.8561732667,-80233.3791487876,-34018.9578208478,-12642.1031543717,-80534.4323035808,-46276.1723893162,-80471.1846154951,-80458.4450369215,-80501.7498699144,-2417.4536693885
5447706664,5348,0,0,-6717.7245774622,-80232.7220931591,-33998.9176241804,-12640.7403723275,-80535.9897687741,-46384.7812511578,-80470.4910567762,-80457.5202919630,-80499.9977215719,-2417.5875140535
5447706664,5348,0,0,-6717.9314283082,-80232.1137083180,-34000.4994247674,-12640.6186953593,-80534.8581729696,-46266.2557164055,-80469.4689702431,-80456.9849133028,-80499.3771690339,-2417.7821972027
5447706664,5348,0,0,-6717.0553541369,-80231.6148327482,-34021.4278633029,-12640.3510060292,-80532.2421181527,-46078.5811606084,-80469.2377840035,-80457.5811304471,-80499.6813614545,-2416.4559182490
5447706664,5348,0,0,-6717.5663974035,-80231.7243420196,-34034.6054789621,-12641.1905771100,-80530.2101127832,-46069.5405618690,-80469.2134486098,-80456.6320500949,-80499.1338150974,-2416.9912969092
5447706664,5348,0,0,-6717.6029004939,-80231.4688203864,-34022.9974961930,-12640.9472231735,-80531.6824040988,-46246.3250290095,-80470.5397275635,-80458.1408445009,-80500.4722617480,-2416.2247320094
5447743200,5349,0,0,-6717.4933912225,-80232.1745468021,-34002.4462562591,-12640.6673661466,-80535.5517316885,-46381.1431098077,-80470.5397275635,-80458.0678383200,-80499.9125476941,-2417.2346508457
5447743200,5349,0,0,-6717.4325527384,-80232.5395777068,-34002.7382809828,-12641.1540740195,-80536.7076628867,-46294.1440775237,-80470.9169261650,-80458.6640554643,-80499.9490507846,-2416.7966137600
5447743200,5349,0,0,-6717.3717142543,-80232.3083914671,-34021.9632419631,-12640.3631737260,-80533.6414032873,-46098.0981463124,-80470.5518952603,-80456.8510686377,-80500.0585600560,-2415.7988626206
5447743200,5349,0,0,-6717.9192606113,-80232.7464285528,-34036.7713289966,-12641.2879186845,-80531.4147147687,-46054.2335992657,-80470.6857399254,-80457.8731551708,-80500.8737957431,-2416.9304584251
5447743200,5349,0,0,-6718.3086269097,-80233.1114594575,-34026.0759234892,-12641.3852602591,-80532.8139999033,-46219.3249097594,-80472.0971927569,-80458.5545461929,-80500.6061064130,-2417.0399676965
5447743200,5349,0,0,-6718.7344962985,-80232.4909069195,-34003.3344981272,-12640.9350554767,-80534.9311791505,-46369.0484191657,-80471.6713233681,-80458.6883908580,-80500.6061064130,-2417.7335264154
5447743200,5349,0,0,-6717.6150681908,-80232.2232175894,-33997.8225314664,-12640.5943599656,-80536.6589920994,-46302.9413223267,-80470.7709138032,-80458.1286768041,-80499.5231813958,-2417.1616446647
5447743200,5349,0,0,-6717.0066833496,-80232.2840560735,-34015.2345056200,-12640.3753414228,-80533.9942664952,-46108.2946762501,-80469.7731626637,-80457.7393105058,-80499.9368830878,-2416.0057134665
5447785878,5350,0,0,-6717.2013664988,-80231.7486774133,-34031.0890145803,-12640.9837262640,-80530.1249389055,-46041.4696852985,-80469.4081317590,-80456.6685531854,-80498.7687841928,-2415.6041794714
