steady_timestamp,sequence,battery,flags,EEG-ch1,EEG-ch2,EEG-ch3,EEG-ch4,EEG-ch5,EEG-ch6,EEG-ch7,EEG-ch8,EEG-ch9,EEG-ch10
8474660970,8524,-2,0,56326.3492695552,59676.2743849699,40053.3810478240,57853.0423576266,57089.9330836790,62966.2370904410,66077.9187020625,58544.2892141379,68606.2322572048,28228.3022320224
8474660970,8524,-2,0,56309.7403633919,59644.5045285652,40021.7085329939,57807.3283206628,57062.6287720083,62952.0617236423,66038.7143828990,58495.6062591493,68581.6656773193,28230.9791253235
8474660970,8524,-2,0,56306.3212405847,59562.2630657389,39978.3428615169,57737.8264364102,56975.8609259639,62979.8527431859,66012.3713192773,58405.3341164199,68584.4155768012,28234.9336267909
8474660970,8524,-2,0,56328.1379209882,59547.2481278594,39986.4100445105,57740.6980128604,56949.9802348215,63011.9997981921,66037.0352407374,58399.4327834608,68617.1223458613,28239.5695192805
8474660970,8524,-2,0,56341.8144122172,59624.0384625090,40035.7622228244,57816.8677949720,57025.2617750650,63005.8916143870,66082.9317931535,58497.1028858586,68635.1913756434,28233.3274908103
8474660970,8524,-2,0,56331.0946713162,59687.1036351423,40059.6109085974,57858.0554487176,57101.0786939688,62971.3475231067,66086.9714684987,58563.4046658468,68616.2706070837,28227.6816794844
8474660970,8524,-2,0,56306.8444515481,59650.8195632163,40026.4539347548,57804.4202411221,57075.9524000294,62956.7097838287,66043.9829956233,58510.6820355130,68587.3114886451,28225.0047861834
8474660970,8524,-2,0,56300.3955722319,59567.8480385806,39984.8769147109,57735.8309341312,56987.9191135154,62976.1902664422,66018.4064969015,58418.5725705633,68586.6179299262,28226.9151145846
8474672759,8525,-2,0,56318.4524343172,59544.3035452282,39984.6943992585,57742.1216333887,56954.5309534333,63003.7500997462,66042.8513998188,58407.3782894862,68614.0439185651,28231.3441562282
8474672759,8525,-2,0,56337.7869045688,59605.9207619396,40025.7482083391,57812.0372193333,57015.4911145162,63003.9934536826,66087.5433502494,58484.2294626199,68630.4459738824,28229.2391446778
8474672759,8525,-2,0,56338.1519354735,59675.9823602461,40056.2526242742,57862.2046333343,57094.9826778605,62980.6071403889,66098.6402897519,58555.0697935231,68618.6068048737,28227.6330086972
8474672759,8525,-2,0,56323.0518237162,59667.6961587097,40036.6139616020,57834.5231230621,57094.9218393764,62961.7350426166,66066.8460979536,58531.4279585961,68596.1087334481,28229.1539708000
8474672759,8525,-2,0,56312.3807536025,59584.9801557073,39987.2496155913,57753.2794113753,57006.9980621338,62973.2456838111,66024.3930037384,58432.7966081493,68589.6355187383,28233.3031554166
8474672759,8525,-2,0,56327.0184928805,59543.2571233015,39977.2721041965,57729.7714211134,56949.2136699216,63009.3350725879,66033.1659131477,58396.1110022281,68615.4797067902,28237.7443647570
8474672759,8525,-2,0,56347.5940682081,59606.3101282380,40025.0181465297,57800.8794413466,57006.2558326276,63017.6212741243,66080.3644091239,58480.6521597539,68638.2698029396,28234.7024405513
8474672759,8525,-2,0,56352.9721902038,59691.2893228494,40066.4369865150,57865.8062715939,57101.2368740275,62992.0326077057,66102.8503128527,58570.8634639992,68632.6604947042,28232.9989629961
8474695410,8526,-2,0,56330.1090878735,59678.6592535472,40041.0916740328,57831.0796648612,57097.9880989758,62965.9450657173,66065.9335206919,58543.1576183334,68602.1317433754,28227.6330086972
8474695410,8526,-2,0,56306.5645945211,59594.2276052928,39989.0747701148,57753.3037467689,57010.2711725792,62969.5467039769,66024.4295068288,58447.0693165226,68589.2948232272,28230.0300449713
8474695410,8526,-2,0,56307.6718549320,59541.4563041717,39969.8619768313,57724.6731561446,56945.7093732366,62995.8410968113,66026.8265431029,58402.6328877252,68606.2322572048,28232.0133795534
8474695410,8526,-2,0,56325.6435431395,59582.1815854381,40009.5530038678,57778.5760530702,56986.8848592855,63015.0538900947,66067.3693089170,58463.5200426272,68630.8353401808,28235.8705394463
8474695410,8526,-2,0,56337.3488674832,59668.3897174286,40060.2922996194,57850.2316196605,57081.4156959029,62999.2845550122,66098.0562403044,58560.0585492205,68633.5852396627,28239.5573515836
8474695410,8526,-2,0,56323.5385315891,59681.6646746624,40052.1521104449,57843.8922496157,57105.7024187615,62964.7526314286,66071.3481457781,58562.0418838026,68605.4535246081,28237.0264706445
8474695410,8526,-2,0,56305.7250234404,59599.7760750440,39996.4362266926,57762.8918918654,57023.8259868399,62953.8625427721,66024.7215315526,58458.2270945093,68580.5705846052,28234.4469189180
8474695410,8526,-2,0,56312.5997721453,59531.8803267720,39967.6109529191,57719.4410465107,56943.1298215102,62981.4953822570,66020.7305269946,58387.0582357919,68595.0988146118,28233.5586770499
8474717859,8527,-2,0,56330.9364912575,59568.6389388741,39999.6850017444,57772.6382170206,56973.4152189025,62998.3841454473,66061.3097958992,58443.8327091677,68618.3756186341,28224.2990597677
8474717859,8527,-2,0,56339.2105250971,59655.1147601948,40044.2917782973,57844.0382619776,57067.7878754612,62982.8824996948,66088.8574615063,58539.4099677119,68617.7794014897,28219.5171549163
8474717859,8527,-2,0,56330.1334232672,59674.7290874734,40041.3715310598,57840.8138223195,57098.7181607851,62965.7503825681,66071.1656303257,58547.3068029500,68598.6761174777,28224.4450721295
8474717859,8527,-2,0,56320.8859736817,59613.9027710555,40000.4150635538,57779.2574440923,57036.0058513597,62965.7017117808,66036.9744022533,58470.4556298163,68589.1366431685,28236.1138933827
8474717859,8527,-2,0,56322.7841343861,59546.0556935707,39968.4140209094,57732.7403391382,56957.8892377564,62986.0704362624,66025.0257239731,58402.0123351873,68602.4481034928,28236.8074521017
8474717859,8527,-2,0,56339.4660467304,59565.1954806732,39991.0459370001,57768.4890324040,56967.5503890338,63011.8294504366,66059.8010014931,58434.9989612743,68625.9317583611,28232.6460997882
8474717859,8527,-2,0,56355.5274065367,59657.7551504054,40047.4797148649,57850.9860168635,57064.8919636174,63007.5220857613,66103.1180021828,58536.8425836823,68637.0286978636,28238.4987619600
8474717859,8527,-2,0,56343.0311818995,59697.1054819307,40055.4738916776,57862.6426704199,57116.0327933642,62968.6097913215,66090.3054174282,58566.9332979254,68614.0682539587,28243.8890516526
8474746748,8528,-2,0,56324.4876119413,59631.5580991456,40003.6273355150,57791.1087807978,57054.2695642909,62958.3645905966,66041.3912762000,58481.3943892601,68589.2826555304,28247.0769882202
8474746748,8528,-2,0,56321.9202279117,59545.4594764264,39960.3955087031,57729.8687626880,56962.2331055222,62977.2245206722,66023.0423893910,58394.6873816999,68594.2470758342,28244.6191134620
8474746748,8528,-2,0,56340.1839408429,59558.6492597825,39982.8935801287,57770.3628577147,56970.0082637920,62993.8090914418,66060.2147031851,58430.8254412640,68618.0470908198,28237.4645077301
8474746748,8528,-2,0,56350.5386508392,59642.8497217972,40032.4526092886,57848.5524774989,57058.2727365457,62989.8545899744,66101.7065493513,58531.2576108406,68624.8244979502,28230.9061191425
8474746748,8528,-2,0,56345.4890566577,59688.3447402182,40048.2949505520,57871.2817351642,57114.9011975596,62980.7653204476,66103.8967347795,58569.7562035883,68614.5427941348,28230.5654236315
8474746748,8528,-2,0,56333.5160429840,59642.5090262862,40012.0108786260,57820.0800669332,57071.5963645668,62965.5313640253,66069.4864881642,58509.0880672292,68598.6761174777,28236.1625641700
8474746748,8528,-2,0,56325.2420091443,59556.8727760463,39964.6176995007,57753.6931130673,56977.4792296413,62980.0230909414,66043.6423001122,58420.6410790232,68600.3917627297,28239.9832209724
8474746748,8528,-2,0,56333.6742230427,59543.4274710570,39968.3653501221,57762.3443455084,56954.5309534333,63000.4891569976,66062.0763607990,58421.0304453215,68618.9840034752,28236.0895579891
8474785466,8529,-2,0,56341.2546981633,59623.3327360933,40018.0703916438,57837.2730225441,57034.0590198680,62992.0569430993,66099.7597178596,58514.1011583202,68628.8276702050,28227.3166485798
8474785466,8529,-2,0,56328.5881257707,59678.7809305154,40036.5287877242,57866.9743704889,57100.4946445213,62957.0383116429,66090.3054174282,58566.0815591478,68605.3318476399,28216.4143922264
8474785466,8529,-2,0,56316.5056028255,59640.0998223153,40001.8386840820,57812.1832316952,57066.2912487520,62955.5051818432,66050.2493594871,58501.9334614973,68583.7585211728,28223.2283024472
8474785466,8529,-2,0,56321.8228863371,59563.7718601449,39964.7393764689,57747.1103890861,56979.3165518616,62981.9577547363,66030.1483243356,58411.5031387092,68594.1375665628,28240.2752456962
8474785466,8529,-2,0,56339.8675807255,59561.1071345407,39981.2022702703,57765.1915865650,56963.3160305394,63001.6572558926,66060.9204296008,58421.5779916786,68622.6708156126,28249.6443722499
8474785466,8529,-2,0,56346.0000999243,59629.5869322602,40026.8433010532,57833.3915272575,57033.6453181760,62994.4053085862,66097.0098183777,58509.0272287450,68631.8817621075,28239.9588855788
8474785466,8529,-2,0,56334.7936511504,59681.4821592101,40047.8082426791,57865.9401162589,57100.0079366484,62975.2168506964,66096.7542967444,58562.2243992549,68617.9132461548,28234.2400680720
8474785466,8529,-2,0,56315.3131685368,59650.4180292211,40019.6400245340,57823.1098234422,57077.8505607338,62965.3731839666,66061.7478329848,58520.4648637586,68597.2768323431,28236.6249366493
8474821589,8530,-2,0,56309.1563139444,59570.3789195198,39974.6073785923,57751.9044616343,56990.8150253593,62978.7819858655,66029.3209209516,58426.3963996204,68597.7270371255,28243.0251451782
8474821589,8530,-2,0,56323.2951776527,59540.5680623036,39970.2270077360,57742.0364595109,56944.4682681607,62999.9537783374,66041.8414809824,58399.1285910402,68618.3877863309,28240.4820965422
8474821589,8530,-2,0,56338.5534694687,59609.6805802579,40012.8139466163,57815.7605345611,57012.3883518264,62994.1619546497,66086.8011207432,58483.6332454756,68632.5753208264,28232.4879197295
8474821589,8530,-2,0,56335.1465143582,59680.5330788579,40040.2886060425,57869.5539222153,57096.6374846284,62974.0244164077,66099.2608422899,58558.1847239097,68618.4242894214,28228.3995735970
8474821589,8530,-2,0,56318.6227820727,59654.7862323806,40010.4412457359,57827.8065544158,57082.5229563138,62956.2474113494,66063.5729875082,58512.7140408824,68592.3002443425,28230.0057095776
8474821589,8530,-2,0,56306.9296254258,59568.2495725758,39961.0160612411,57748.8260343381,56987.5905857012,62967.3443508519,66029.4425979199,58413.4986409881,68584.5494214663,28232.8042798469
8474821589,8530,-2,0,56312.0643934851,59529.6414705566,39953.2652383648,57736.5488282438,56936.2064020179,62985.7419084482,66041.5251208650,58386.3403416793,68602.6427866420,28230.5289205410
8474821589,8530,-2,0,56327.0793313646,59584.8098079518,39994.7084137438,57798.6527528280,56988.3328152074,62989.6720745220,66079.4639995590,58459.4803672820,68618.5703017832,28226.2823943498
8474869635,8531,-2,0,56329.0504982499,59657.1954363515,40026.4174316644,57855.7557540181,57069.9415577989,62967.3808539424,66096.5109428079,58535.8570002396,68611.7077207751,28225.1142954548
8474869635,8531,-2,0,56316.7976275492,59654.3360275981,40008.8472774520,57836.2874391014,57078.1182500639,62953.6191888357,66069.7055067070,58521.1462547807,68588.6864383861,28230.2247281204
8474869635,8531,-2,0,56311.7967041550,59579.8818907385,39963.2427497597,57765.1794188681,57000.3301642748,62965.3488485730,66038.0694949673,58431.8596954939,68582.8702793047,28236.4302535001
8474869635,8531,-2,0,56327.4930330566,59534.0826798970,39949.5054200466,57740.6006712858,56939.9905557298,62994.8798487622,66048.8865774429,58386.5228571317,68606.8041389554,28234.5929312799
8474869635,8531,-2,0,56345.5133920514,59587.1703411355,39995.1951216167,57804.5419180903,56987.9921196964,62999.2358842249,66091.8993857120,58462.2059313704,68626.9051741069,28226.4162390149
8474869635,8531,-2,0,56340.6949841095,59666.5767306020,40040.0574198029,57860.5254911727,57077.0596604403,62968.0500772677,66100.3437673071,58547.3919768278,68615.3458621251,28220.4297321780
8474869635,8531,-2,0,56314.3154173974,59659.2274417209,40021.1731543337,57821.8078798821,57081.6712175362,62942.4857462427,66056.8685865588,58523.4946202675,68585.1943093979,28213.5914865635
8474869635,8531,-2,0,56296.4289030676,59579.2856735942,39970.5312001566,57742.5475027775,57002.0214741332,62952.3537483661,66012.9918718152,58430.1075471514,68575.9711952061,28218.4950683831
8474896959,8532,-2,0,56300.7849385302,59524.8230626147,39948.3129857579,57714.8173217180,56937.7760349081,62972.5521250922,66016.0702991115,58383.3957590482,68591.7892010759,28224.4694075232
8474896959,8532,-2,0,56313.0864800182,59555.3396462466,39973.7556398147,57762.1496623592,56963.9000799869,62972.7224728477,66049.9695024602,58429.7668516404,68604.6382889210,28217.8136773610
8474896959,8532,-2,0,56319.6205332122,59633.8942969356,40008.2753957014,57831.0553294675,57048.0153681239,62949.7985320333,66076.9331186198,58514.8068847359,68598.0555649397,28209.7343266706
8474896959,8532,-2,0,56311.2856608884,59659.6411434129,40002.5444104978,57835.0219986318,57082.2309315900,62926.9719327934,66061.9425161339,58528.1670158475,68575.4723196364,28214.4432253411
8474896959,8532,-2,0,56302.7682731124,59594.3127791705,39957.1710690450,57763.3664320415,57014.6272080418,62935.3433082076,66021.6187688627,58438.8682888640,68564.1806969847,28226.5379159831
8474896959,8532,-2,0,56313.7435356467,59531.6369728356,39936.5346552333,57720.3292883788,56939.6985310061,62972.8928206032,66021.5579303786,58374.5255080642,68585.4376633344,28238.6569420187
8474896959,8532,-2,0,56336.2902778596,59568.8944605074,39979.5109604119,57774.6458869964,56969.9352576111,62989.2948759205,66069.3891465896,58431.5433353765,68618.4364571182,28239.8980470947
8474896959,8532,-2,0,56337.9085815370,59649.5054519594,40026.2105808184,57843.8314111316,57056.4232466286,62962.0148996435,66094.0895711402,58522.9349062137,68614.0804216556,28226.5987544672
8474901562,8533,-2,0,56315.8728825907,59661.9043350220,40018.2650747930,57831.7732235801,57081.4035282061,62928.9796027692,66065.9943591760,58520.7447207855,68583.0284593634,28212.7032446954
8474901562,8533,-2,0,56293.7763451602,59592.5727985249,39969.7159644695,57755.5182675907,57012.9237304866,62925.0981074827,66016.8490317081,58432.7479373620,68561.3091205345,28209.9533452134
8474901562,8533,-2,0,56293.5329912238,59524.1416715926,39937.4107294046,57705.3873566802,56935.6466879641,62954.4344245228,66002.7831741808,58365.9107787136,68573.4889850542,28220.4053967843
8474901562,8533,-2,0,56314.6804483020,59541.5658134431,39957.0372243800,57739.1283799702,56944.1032372560,62973.9027394395,66036.5850359549,58398.8122309228,68597.4715154922,28225.6253387214
8474901562,8533,-2,0,56326.3249341616,59626.6545173259,40004.5885835640,57818.0723969575,57032.1365237700,62963.1099923575,66075.5216657883,58496.0686316286,68603.6770408719,28218.9696085592
8474901562,8533,-2,0,56316.4325966445,59668.4140528222,40014.6999396239,57841.5073810384,57087.3170288620,62933.6154952587,66068.1237061200,58537.4388008266,68582.0793790112,28212.4112199717
8474901562,8533,-2,0,56298.5339146180,59608.4394751820,39971.5654543866,57775.5097934708,57032.5015546747,62923.2729529592,66021.0712225057,58461.0986709595,68561.3577913218,28212.3503814875
8474901562,8533,-2,0,56296.8791078501,59526.8672356810,39930.3047944600,57710.9723295219,56943.1419892070,62951.5263449821,66001.3352182589,58377.1050597907,68572.4182277338,28214.5162315220
8474966059,8534,-2,0,56318.0995711093,59540.9939316924,39957.1710690450,57746.6358489100,56948.3375957504,62985.4742191181,66040.3935250605,58409.9821766063,68605.5265307890,28218.9087700751
8474966059,8534,-2,0,56327.5295361471,59623.9897917217,40008.0198740681,57822.3675939360,57034.0711875648,62972.7711436350,66077.1034663753,58506.9587202851,68612.9366581542,28216.4508953169
8474966059,8534,-2,0,56318.3550927426,59662.7560737996,40022.1222346859,57838.6358045882,57086.4409546908,62945.1261364532,66067.0529487996,58538.7894151740,68592.6409398535,28206.0840176237
8474966059,8534,-2,0,56303.6686826773,59615.9712795154,39988.8192484815,57783.6134795549,57043.8905189010,62934.4428986427,66027.0455616457,58475.6755717534,68572.8562648194,28206.7410732522
8474966059,8534,-2,0,56296.8791078501,59534.3260338334,39945.0885460998,57718.8326616695,56957.4268652771,62951.3681649234,66001.3473859557,58390.8302218070,68575.5574935141,28212.5937354240
8474966059,8534,-2,0,56314.6926159989,59524.9325718861,39950.3449911273,57734.7845122044,56942.1807411580,62984.2817848295,66032.0099819495,58398.4837031086,68603.0078175467,28220.0647012733
8474966059,8534,-2,0,56329.1965106118,59606.1397804824,39999.9040202872,57817.5735213877,57025.5903028792,62982.4444626092,66077.8213604879,58501.1425612038,68618.9961711720,28221.1719616842
8474966059,8534,-2,0,56322.4677742687,59670.2027042552,40027.4760212880,57859.0045290698,57101.9426004432,62954.0572259213,66081.0092970555,58565.3149942480,68605.7212139382,28221.1719616842
8474982007,8535,-2,0,56305.6398495626,59631.4120867837,39993.3212963060,57806.9997928486,57068.9924774467,62936.7547610391,66038.5927059307,58506.9100494979,68582.8459439111,28224.2625566772
8474982007,8535,-2,0,56298.8624424322,59542.1011921033,39944.2124719286,57731.3167186099,56971.7725798314,62951.2464879552,66006.0319492325,58402.5963846348,68580.9477832067,28226.6109221640
8474982007,8535,-2,0,56308.8886246143,59521.3431013233,39948.3373211516,57735.1617108059,56941.9617226152,62978.6481412004,66026.9117169807,58396.7072193725,68605.2588414589,28227.3288162766
8474982007,8535,-2,0,56319.5961978185,59591.6845566568,39996.8864314751,57803.3251484081,57013.1062459389,62980.7409850540,66061.8938453467,58481.1875384142,68619.2760281990,28225.7835187801
8474982007,8535,-2,0,56312.5754367517,59653.9344936030,40026.1984131216,57837.2608548472,57085.0660049498,62954.6412753688,66065.1182850047,58537.3536269489,68605.5143630922,28223.5568302615
8474982007,8535,-2,0,56294.4334007887,59630.6941926711,40003.1284599453,57797.0101137570,57065.5733546394,62936.6452517677,66030.5620260276,58498.0519662107,68581.7021804097,28221.9628619777
8474982007,8535,-2,0,56283.9813492178,59546.8465938642,39953.7397785409,57728.0314404677,56974.7780009466,62948.7764455001,65999.8872623369,58402.7910677839,68574.7179224333,28221.9993650681
8474982007,8535,-2,0,56296.7939339723,59512.3876764617,39943.2998946669,57717.9079167110,56927.0562940071,62976.9689990389,66013.9166167738,58371.4105776776,68594.7094483134,28222.5347437283
8475016583,8536,-2,0,56318.6227820727,59582.2789270126,39993.0171038854,57795.5256547445,56996.7163583184,62982.6756488488,66065.3008004571,58459.5533734630,68617.1223458613,28223.7758488043
8475016583,8536,-2,0,56315.2158269622,59658.3757029433,40026.8798041436,57851.7160786729,57085.6987251846,62944.1405530106,66077.3589880086,58539.4099677119,68603.6648731751,28220.1377074542
8475016583,8536,-2,0,56297.0494556056,59637.3864259237,39994.0270227217,57811.0273004970,57074.2732578678,62925.7673308079,66039.8703140971,58498.1493077853,68572.8927679099,28217.5094849405
8475016583,8536,-2,0,56289.5419866658,59552.0300327108,39941.9492803195,57733.8719349427,56986.0939589920,62936.4749040121,66001.2987151684,58398.0943368103,68565.2392866083,28219.5536580067
8475016583,8536,-2,0,56302.8534469901,59517.8874754256,39937.7392572188,57725.7195780713,56938.0558919350,62967.5877047884,66013.5394181723,58373.2478998978,68585.6080110899,28217.6311619087
8475016583,8536,-2,0,56319.8395517550,59574.9783089189,39981.1049286957,57787.1421116335,56989.7077649484,62972.5764604858,66055.0190966417,58448.5537755350,68602.2169172532,28208.6270662597
8475016583,8536,-2,0,56322.9423144448,59652.0119975049,40017.5106775900,57844.4032928823,57073.5066929680,62956.3812560145,66074.4752438616,58529.8583257059,68598.2502480889,28207.3007873060
8475016583,8536,-2,0,56309.2658232158,59656.8547408405,40008.2267249141,57827.0399895160,57086.4166192971,62938.9206110735,66054.2160286514,58524.5775452848,68580.8869447226,28216.7915908279
8475060828,8537,-2,0,56296.6479216104,59583.2158396680,39965.4694382783,57753.5836037959,57009.5289430730,62946.7322724339,66019.3555772536,58437.1039728246,68575.4601519396,28227.8033564527
8475060828,8537,-2,0,56298.6312561926,59519.4327729221,39937.3498909204,57711.6780559377,56931.8016957680,62963.9982342256,66014.4276600404,58374.4281664897,68587.8468673053,28223.8366872884
8475060828,8537,-2,0,56312.8066229913,59558.6127566920,39972.3928577705,57764.5953694206,56964.5936387058,62968.9018160453,66053.0966005437,58432.7601050588,68603.4458546323,28212.9465986319
8475060828,8537,-2,0,56314.5466036370,59640.0146484375,40015.6125168856,57834.8516508763,57056.1068865112,62944.8949502136,66074.3900699838,58523.4824525707,68595.8167087243,28212.4720584558
8475060828,8537,-2,0,56300.7849385302,59640.8177164278,40000.9504422140,57818.6442787081,57069.7833777402,62914.9624160292,66047.3291122496,58507.4332604612,68565.4948082416,28216.2075413804
8475060828,8537,-2,0,56289.7123344214,59560.9246190884,39949.3715753815,57745.1270545039,56991.6302610464,62916.2886949829,66008.9521964700,58412.9997654184,68552.2198510077,28217.0471124612
8475060828,8537,-2,0,56294.2873884268,59501.0595507195,39923.9410890216,57712.6758070771,56922.6637554540,62940.3442316018,66009.6822582794,58358.5736575294,68567.9283476061,28214.0295236491
8475060828,8537,-2,0,56311.3464993726,59533.5838043272,39951.3305745700,57757.5259375665,56950.8319735991,62955.2374925131,66046.0515040832,58409.7874934571,68590.7184437555,28205.7189867190
8475080659,8538,-2,0,56315.0819822972,59615.7644286694,39991.7759988095,57821.8443829726,57038.2447075751,62940.0887099685,66072.6135862477,58501.2033996879,68590.7062760587,28200.4017032074
8475080659,8538,-2,0,56296.8912755469,59640.2458346771,39988.4177144863,57818.1697385320,57070.9514766352,62910.5942128697,66052.8532466072,58517.4594426433,68566.5168947747,28202.7013979069
8475080659,8538,-2,0,56279.3941275155,59573.6033591779,39942.4724912829,57742.9368690758,57001.5956047444,62913.8551556183,66010.9233633554,58429.2679760707,68549.1414237115,28211.1214441084
8475080659,8538,-2,0,56290.5640731990,59503.7851148078,39916.7621478960,57694.1079017253,56920.1450422116,62945.4181611770,66004.3284716773,58353.4388894701,68565.6894913907,28216.8037585247
8475080659,8538,-2,0,56315.3618393241,59530.3958677596,39948.3738242420,57744.5673404501,56938.4452582333,62959.3501740393,66048.6918942938,58400.2723545416,68588.8811215352,28211.1579471989
8475080659,8538,-2,0,56325.9234001664,59613.8906033586,39991.3014586334,57824.3509285181,57029.9463383419,62932.0458623686,66081.8610358331,58499.1470589248,68584.5372537695,28202.2755285181
8475080659,8538,-2,0,56312.3929212993,59638.3598416696,39989.9751796797,57828.4392746506,57071.7302092318,62913.0764230216,66063.2444596940,58515.7681327850,68561.2239466567,28202.0930130658
8475080659,8538,-2,0,56297.7551820213,59579.7967168608,39950.1624756750,57765.6661267410,57015.3451021543,62909.0975861605,66022.9572155132,58440.9976358080,68546.3671888359,28208.6879047438
8475098161,8539,-2,0,56290.1017007197,59508.5670196593,39913.5133728443,57709.8285660206,56934.6124337341,62929.6731614881,66005.6060798437,58362.4429851191,68554.0085024407,28210.0993575753
8475098161,8539,-2,0,56299.2518087306,59517.7414630638,39929.6355711347,57729.4915640864,56932.8481176948,62950.4190845712,66030.7932122672,58380.2443255710,68576.6160831377,28204.6725647923
8475098161,8539,-2,0,56312.6119398421,59604.0956074162,39984.8769147109,57808.2895687118,57022.3536955243,62955.8215419606,66073.7816851427,58477.5493970641,68592.0447227092,28203.8208260147
8475098161,8539,-2,0,56312.5145982676,59654.9809155297,40004.4912419894,57840.6313068672,57087.4387058303,62930.2328755420,66077.5901742483,58525.5752964242,68577.0906233138,28207.1426072473
8475098161,8539,-2,0,56300.1157152050,59598.8391623887,39962.0138123805,57781.5206357013,57038.1351983037,62913.9159941024,66036.2686758375,58449.2351665571,68552.7552296679,28210.3305438149
8475098161,8539,-2,0,56298.6312561926,59509.8932986130,39914.3042731378,57710.7898140696,56940.3069158472,62931.6199929798,66010.3149785142,58348.6569846187,68553.7043100201,28210.3183761181
8475098161,8539,-2,0,56310.9449653774,59508.5791873561,39926.8126654718,57733.3243885857,56930.5849260857,62959.7395403376,66040.6247113002,58363.2703885030,68577.4313188249,28208.4323831106
8475098161,8539,-2,0,56323.5263638923,59597.4033741636,39981.6646427496,57815.5171806246,57023.5582975098,62957.6831995745,66080.4374153048,58466.0752589601,68591.5336794427,28208.2011968709
8475153213,8540,-2,0,56311.8210395486,59648.3373530644,39998.4682320621,57835.3991972333,57082.1457577123,62929.1499505247,66069.4499850737,58510.1466568528,68574.6935870397,28205.4391296921
8475153213,8540,-2,0,56288.0696953503,59605.1907001302,39961.6244460822,57773.9523282775,57040.6174084556,62917.4202907874,66025.6462765111,58452.4109354279,68550.2243487288,28206.4125454379
8475153213,8540,-2,0,56285.1616158096,59528.1083407569,39922.7486547329,57707.4558651401,56953.6183761715,62935.8421837773,66001.4568952271,58373.1383906264,68554.6047195850,28208.7365755311
8475153213,8540,-2,0,56302.7196023251,59511.0005590239,39925.9609266942,57716.4234576986,56928.5042499290,62963.1221600544,66024.8310408240,58371.7999439759,68577.0906233138,28208.9312586803
8475153213,8540,-2,0,56318.0265649283,59586.6227947784,39974.7777263478,57794.2115434877,57002.9948898790,62963.3168432035,66071.4211519590,58465.0896755174,68593.5535171153,28207.8483336631
8475153213,8540,-2,0,56311.2491577980,59650.8925693972,39999.6728340476,57840.4731268085,57079.7243860445,62928.4807271995,66077.2981495245,58531.2697785374,68574.4502331032,28206.2543653792
8475153213,8540,-2,0,56292.7299232334,59612.6129951922,39961.6731168695,57787.4949748414,57050.1447150679,62912.0908395790,66033.4336024778,58474.5196405552,68543.5686185666,28209.0042648612
8475153213,8540,-2,0,56295.8448536201,59530.3593646692,39917.3096942531,57719.0273448187,56960.0794231845,62936.0368669265,66009.1833827097,58381.5827722215,68549.2265975893,28219.7970119432
8475158194,8541,-2,0,56311.6993625804,59512.3633410680,39922.4566300092,57724.4298022081,56930.0252120319,62956.4542621954,66034.3461797395,58379.3317483093,68574.5232392842,28220.6730861144
8475158194,8541,-2,0,56319.1338253392,59575.3555075204,39965.0679042831,57786.9352607875,56993.0903846652,62947.6083466051,66067.9533583645,58461.3541925928,68582.5782545810,28208.1403583868
8475158194,8541,-2,0,56312.3564182089,59631.7041115074,39987.7119880706,57821.8808860630,57062.6044366146,62922.5428911499,66066.9556072250,58520.0511620666,68564.2415354688,28198.4913748062
8475158194,8541,-2,0,56294.7984316934,59609.6562448643,39965.7249599115,57788.0790242889,57047.0297846813,62910.1683434809,66033.7742979888,58486.4196480480,68542.3396811875,28197.2624374271
8475158194,8541,-2,0,56284.9912680541,59528.9844149282,39920.2664445810,57718.7596554886,56959.9090754290,62921.3504568612,65998.4879772023,58395.5269527806,68538.7380429279,28202.9569195402
8475158194,8541,-2,0,56298.6555915862,59496.3263166554,39912.6129632794,57704.6086240835,56913.6596598050,62957.7197026650,66012.2739777027,58365.9837848945,68562.9639273024,28208.2498676582
8475158194,8541,-2,0,56322.1757495450,59566.1445610254,39963.0845697010,57779.1357671240,56981.3607249279,62967.0036553409,66066.5905763203,58453.5060281420,68590.5845990905,28202.1903546404
8475158194,8541,-2,0,56319.6327009090,59644.4193546874,40001.4614854805,57837.5772149646,57070.0754024639,62933.4208121096,66080.6077630603,58537.4874716139,68578.0032005755,28197.4084497890
8475196947,8542,-2,0,56298.9354486131,59627.5670945876,39980.1680160404,57799.4558208184,57061.8622071084,62912.0786718821,66038.6170413244,58503.3935851160,68549.1657591052,28202.2876962150
8475196947,8542,-2,0,56284.8087526017,59538.2440322104,39932.4098060103,57715.5108804369,56968.8523325939,62925.2927906318,65994.9106743364,58399.2381003116,68541.9989856765,28205.8528313841
8475196947,8542,-2,0,56295.1634625980,59495.0973792763,39922.2376114663,57696.9429750851,56913.8056721669,62953.9842197403,66001.3717213493,58368.9405352225,68565.4704728479,28204.3562046749
8475196947,8542,-2,0,56312.2955797247,59547.9173511847,39956.1733179055,57758.5601917965,56960.8581557812,62956.2839144399,66042.9730767870,58443.7353675931,68585.3038186693,28201.8496591293
8475196947,8542,-2,0,56316.2379134954,59624.4764995946,39989.8656704083,57820.0800669332,57047.6381695224,62937.7890152690,66064.2300431367,58525.6117995147,68579.5971688593,28201.9348330071
8475196947,8542,-2,0,56302.7196023251,59632.4341733168,39980.2531899181,57811.0151328002,57065.2083237347,62920.4743826900,66044.4940388899,58522.4847014312,68557.7926561526,28206.3395392570
8475196947,8542,-2,0,56287.7046644456,59556.3617327798,39933.0181908515,57734.7601768108,56984.4513199209,62918.5518865919,66000.2522932416,58429.2071375865,68545.5032823615,28207.7144889980
8475196947,8542,-2,0,56290.6492470767,59494.8661930366,39912.5034540080,57691.5405176957,56909.5713136725,62951.3681649234,65995.9205931727,58369.2933984304,68563.4384674785,28207.7388243916
8475257806,8543,-2,0,56308.1707305018,59537.5261380979,39955.1755667660,57745.5285884991,56947.8995586648,62965.9694011109,66039.2010907719,58430.7037642958,68589.2948232272,28206.8749179172
8475257806,8543,-2,0,56312.2469089374,59626.0826355752,40003.3839815785,57820.2869177792,57043.8175127200,62939.9183622130,66066.8339302568,58527.6681402778,68586.1190543564,28204.6117263082
8475257806,8543,-2,0,56295.7840151360,59635.0745635274,39989.4519687163,57805.1624706283,57062.9086290352,62918.3450357459,66038.2885135102,58519.6252926778,68559.1554381968,28205.8528313841
8475257806,8543,-2,0,56288.2157077121,59564.5992635289,39945.7942725156,57734.2856366347,56988.9412000485,62932.3013840019,66000.2401255448,58429.7668516404,68552.0738386459,28213.9565174682
8475257806,8543,-2,0,56297.9863682610,59505.4155861821,39927.7009073399,57700.1795824400,56918.6605831992,62962.5502783037,66001.7245845572,58376.0099670766,68571.8463459831,28218.3247206276
8475257806,8543,-2,0,56314.4005912751,59536.9420886504,39961.5879429917,57744.0076263962,56941.7062009819,62977.5773838800,66039.4201093147,58424.4374004320,68595.0623115213,28214.4797284316
8475257806,8543,-2,0,56317.6858694173,59618.0276202784,40004.5399127767,57807.9123701103,57030.3722077307,62960.0193973645,66067.4423150979,58513.8456366869,68594.6486098293,28203.3584535354
8475257806,8543,-2,0,56307.9030411717,59651.5131219352,40008.7134327870,57817.3179997544,57074.7112949535,62932.3987255764,66056.0655185685,58543.2184568175,68575.9225244188,28208.9920971644
8475264926,8544,-2,0,56290.2963838689,59584.9558203137,39959.1665713240,57747.1955629638,57010.8673897235,62924.6965734875,66010.3879846951,58461.6097142260,68554.7872350374,28217.0592801580
8475264926,8544,-2,0,56289.7001667245,59502.3979973700,39917.2731911626,57688.9244628788,56918.2712169009,62946.5497569815,65991.2603652895,58370.9238698047,68561.5403067741,28217.6311619087
8475264926,8544,-2,0,56304.7881107850,59517.4007675527,39938.3719774536,57726.9120123600,56923.1626310237,62962.1000735212,66026.9482200712,58403.3629495346,68584.4277444981,28207.1426072473
8475264926,8544,-2,0,56315.6051932606,59602.9518439148,39990.9729308191,57809.3724937291,57014.6758788291,62951.2099848647,66064.4247262858,58509.1124026228,68588.8689538384,28202.3850377896
8475264926,8544,-2,0,56307.4528363892,59637.6297798602,39997.4826486194,57820.4937686252,57061.8743748053,62926.0228524412,66052.3787064311,58537.5239747044,68568.1960369362,28204.7090678827
8475264926,8544,-2,0,56293.1679603191,59584.5907894090,39958.7528696320,57758.0856516204,57008.0809871510,62928.3347148376,66015.8269451750,58467.1216808868,68551.8304847094,28214.4675607347
8475264926,8544,-2,0,56295.4798227154,59516.4760225942,39927.3845472224,57708.9403241525,56929.2343117384,62951.5141772853,66004.9611919121,58396.2205114996,68565.0932742464,28223.0457869949
8475264926,8544,-2,0,56309.3266616999,59521.8541445899,39941.2922246911,57731.6330787273,56927.5064987895,62968.6097913215,66034.8450553093,58414.8370876386,68588.8689538384,28219.5414903099
8475286869,8545,-2,0,56321.7742155498,59599.0946840219,39986.4343799042,57804.6149242713,57010.5510296061,62960.9684777167,66070.4599039100,58510.0249798845,68599.8442163727,28210.2818730276
8475286869,8545,-2,0,56311.3708347662,59646.1228322426,39999.9770264681,57829.0354917949,57071.5476937795,62931.5956575861,66063.3174658749,58557.4303267067,68576.6890893187,28208.2863707487
8475286869,8545,-2,0,56288.2887138931,59594.1545991118,39959.6776145905,57763.0744073178,57029.2406119261,62920.7907428074,66013.6002566564,58486.2614679893,68553.8868254725,28211.2309533798
8475286869,8545,-2,0,56287.4856459028,59511.2195775667,39918.1370976370,57693.6211938524,56936.3645820766,62945.5155027516,65989.6177262184,58389.1024088581,68561.3456236249,28218.0083605102
8475286869,8545,-2,0,56311.6871948836,59513.3610922075,39938.8830207201,57721.8259150880,56927.4334926086,62974.9978321536,66027.8121265456,58405.5044641755,68592.7504491249,28221.6708372539
8475286869,8545,-2,0,56325.3028476285,59593.8139036008,39987.7484911611,57801.7676832147,57009.1395767746,62962.6597875751,66069.5473266483,58504.9997210967,68601.9127248326,28216.2197090772
8475286869,8545,-2,0,56309.1076431571,59636.0723146669,39993.7593333916,57819.6907006349,57063.7968709033,62929.4784783389,66059.3021259234,58544.5082326807,68575.2776364872,28203.3949566259
8475286869,8545,-2,0,56290.4423962307,59594.9820024958,39954.9565482232,57768.1848399834,57029.6908167086,62915.9966702591,66021.3024087453,58488.4273180238,68552.6092173061,28198.5765486840
8475388110,8546,-2,0,56287.3883043282,59517.4494383400,39914.8396517980,57708.7213056097,56947.0964906744,62938.7015925307,65999.1206974371,58400.1506775734,68556.8679111941,28205.7676575063
8475388110,8546,-2,0,56299.7506843003,59498.8937006850,39918.8671594464,57712.7853163485,56916.8840994631,62966.7359660108,66020.6331854201,58384.8437149701,68578.8549393531,28208.1646937804
8475388110,8546,-2,0,56314.8264606639,59574.9661412221,39970.6042063375,57789.8068372378,56992.8226953351,62966.3587674093,66066.7487563790,58469.3848724959,68593.5535171153,28208.9434263771
8475388110,8546,-2,0,56308.0855566240,59644.0543237827,39998.9792753286,57835.8007312285,57071.4138491144,62929.1621182215,66070.8492702083,58533.1314361513,68572.2965507656,28204.3197015844
8475388110,8546,-2,0,56287.2057888758,59613.5620755444,39964.3500101706,57786.2173666750,57049.9500319188,62913.9646648897,66025.2447425159,58484.4363134659,68543.2400907524,28204.6847324891
8475388110,8546,-2,0,56286.3662177951,59528.5950486298,39919.2930288352,57708.5752932478,56960.6391372384,62936.1220408043,65991.5888931037,58388.4940240170,68545.2355930313,28213.0561079033
8475388110,8546,-2,0,56307.0391346972,59506.2916603534,39924.9753432515,57710.4977893458,56928.6867653813,62970.6661320846,66016.5813423780,58382.5075171801,68576.6160831377,28216.9376031898
8475388110,8546,-2,0,56324.5849535159,59578.0445685183,39977.7588120694,57783.5769764644,57000.1963196098,62974.7909813076,66061.2489574150,58472.4998028826,68597.5810247637,28211.6324873750
8475398204,8547,-2,0,56321.4335200388,59645.1737518904,40010.3195687676,57825.3486796576,57077.0839958339,62951.3194941361,66068.0385322422,58534.4090443177,68584.8049430996,28205.7189867190
8475398204,8547,-2,0,56303.0116270488,59626.7640265973,39989.9751796797,57788.5657321618,57064.3079141698,62929.0404412533,66032.3628451574,58495.2047251542,68558.4740471747,28205.5973097508
8475398204,8547,-2,0,56294.1170406713,59544.3035452282,39939.8686041628,57715.9367498257,56975.8000874798,62935.9030222614,65996.2369532901,58397.2912688200,68550.4311995748,28209.3936311596
8475398204,8547,-2,0,56306.8566192449,59500.9865445386,39924.7198216182,57696.2494163662,56920.4857377227,62966.8454752822,66005.9711107484,58356.0184411965,68569.9603529756,28214.6987469744
8475398204,8547,-2,0,56329.7318892720,59560.5352527900,39969.7281321663,57765.5687851665,56973.4395542961,62975.1925153027,66052.3787064311,58431.6163415575,68594.3687528024,28220.1498751510
8475398204,8547,-2,0,56326.7143004599,59640.3675116454,40006.5354150557,57828.4392746506,57059.1123076265,62939.4438220369,66064.9966080365,58514.4418538313,68581.2763110209,28217.5824911214
8475398204,8547,-2,0,56299.9210320558,59627.2629021671,39978.9390786613,57791.0479423137,57051.8725280168,62910.3021881460,66023.0788924815,58479.4597254653,68545.6736301170,28213.8835112872
8475398204,8547,-2,0,56285.5996528952,59541.6023165336,39926.6544854131,57706.4459463038,56958.9356596832,62918.9899236776,65981.5018724375,58371.8607824600,68535.0025600033,28215.6721627202
8475408389,8548,-2,0,56295.0661210235,59495.4867455746,39912.3209385556,57683.2056453720,56898.5352126541,62946.1482229864,65991.1265206244,58331.0989981032,68556.6002218640,28211.4499719226
8475408389,8548,-2,0,56313.3906724388,59546.5180660500,39955.0903928883,57744.0441294867,56944.6386159162,62962.1974150958,66034.0054842285,58400.5887146590,68578.6237531135,28207.7388243916
8475408389,8548,-2,0,56317.4181800872,59626.9343743528,39998.4560643653,57806.2818987360,57033.5114735110,62946.2212291673,66056.5400587446,58486.5899958035,68576.2388845362,28206.4490485284
8475408389,8548,-2,0,56303.8146950392,59636.5468548430,39992.4330544379,57796.5599089745,57050.4489074885,62919.3549545822,66032.5210252161,58485.4949030895,68552.4145341569,28205.9623406555
8475408389,8548,-2,0,56290.8926010132,59561.7155193819,39945.3805708236,57725.5492303158,56974.9361810053,62914.9867514228,65986.7096466777,58397.1574241549,68535.7326218126,28211.6324873750
8475408389,8548,-2,0,56298.0715421387,59494.5254975256,39915.0343349472,57681.8185279342,56897.7808154511,62940.6240886287,65981.1368415328,58332.5347863283,68549.6402992813,28213.8835112872
8475408389,8548,-2,0,56313.5731878912,59530.3228615787,39942.8375221876,57732.7646745318,56928.3339021735,62951.6115188599,66023.5047618703,58389.5891167310,68571.8463459831,28204.8794156383
8475408389,8548,-2,0,56314.5466036370,59617.6382539801,39985.8624981535,57806.8294450931,57025.8701599062,62933.8223461047,66052.5490541866,58491.3110621708,68575.5939966046,28197.7734806937
8475418306,8549,-2,0,56295.6745058646,59630.9983850917,39975.1914280398,57797.9713618060,57054.1235519290,62910.3143558428,66029.0897347120,58495.8131099953,68551.7209754380,28197.9194930555
8475418306,8549,-2,0,56284.2368708510,59557.0187884082,39927.9564289731,57726.5956522426,56983.3562272068,62913.3562800485,65992.2216133385,58404.9934209089,68539.4924401309,28203.9790060734
8475418306,8549,-2,0,56291.1846257369,59489.4394002536,39905.6408729999,57689.0704752406,56909.6199844598,62944.9922917882,65991.2481975926,58344.4712969116,68557.0260912528,28206.8627502204
8475418306,8549,-2,0,56312.4780951771,59516.6950411370,39939.4549024708,57739.3352308162,56933.5416764137,62967.2226738837,66034.5408628887,58391.2560911958,68584.2817321362,28200.7058956280
8475418306,8549,-2,0,56324.8891459365,59603.7549119051,39989.9995150733,57814.4220879106,57027.0869295885,62957.4763487285,66072.7961017000,58487.3930637939,68591.7770333791,28200.7302310216
8475418306,8549,-2,0,56315.3983424146,59642.8497217972,39997.1297854116,57827.7943867190,57076.9379834721,62929.0161058597,66063.3052981781,58517.5324488243,68572.2965507656,28208.0308491154
8475418306,8549,-2,0,56294.7619286029,59581.7070452620,39952.8150335824,57756.8567142412,57017.4257783111,62922.9565928418,66016.8733671018,58439.2576551623,68551.2220998682,28214.7109146712
8475418306,8549,-2,0,56292.8881032921,59504.1866488030,39916.6039678373,57693.0979828890,56927.4213249118,62954.1910705863,65996.4316364392,58354.8625099984,68563.1342750579,28214.0903621332
8475441672,8550,-2,0,56311.7358656709,59519.6274560713,39942.0466218941,57726.5713168489,56932.5560929710,62977.4800423054,66032.5210252161,58389.1389119486,68592.5557659758,28207.5076381520
8475441672,8550,-2,0,56320.8251351976,59607.2592085901,39991.1919493620,57806.6469296407,57027.2572773440,62956.6489453446,66068.3792277533,58492.2966456135,68596.8266275606,28199.8176537599
8475441672,8550,-2,0,56311.2856608884,59644.4436900811,39994.0026873281,57821.8930537599,57079.8217276191,62935.8178483837,66059.7523307058,58521.0975839934,68573.3308049955,28200.0001692123
8475441672,8550,-2,0,56301.8678635475,59594.6778100752,39957.2562429228,57766.8463933329,57037.1739502547,62936.0733700170,66024.8310408240,58450.8778056282,68559.4961337078,28208.3107061423
8475441672,8550,-2,0,56303.2671486821,59520.9537350250,39922.8094932170,57716.3139484272,56955.2975183331,62958.6444476235,66013.6975982310,58376.3871656782,68568.9139310488,28213.3116295366
8475441672,8550,-2,0,56319.9003902391,59522.6937156707,39936.2791336000,57737.4249024150,56945.0523176082,62973.6228824126,66041.9509902539,58388.2506700805,68592.6287721567,28213.4089711111
8475441672,8550,-2,0,56324.3781026699,59595.2740272195,39975.0697510716,57801.0619567990,57014.4568602863,62954.7751200338,66072.1633814652,58469.1171831658,68595.0744792181,28201.5211313151
8475441672,8550,-2,0,56309.9837173284,59641.5112751467,39987.4929695278,57827.0034864255,57072.1682463175,62925.9255108666,66066.1038684474,58514.9042263105,68569.9603529756,28195.5589598719
8475495731,8551,-2,0,56286.2810439173,59592.8404878550,39945.7821048187,57768.4768647071,57031.8323313494,62911.6041317060,66019.0148817426,58449.3081727380,68542.0111533733,28198.2236854761
8475495731,8551,-2,0,56282.2413685721,59500.7431906021,39903.0248181829,57690.0803940769,56933.5903472010,62936.1342085011,65986.8191559491,58343.9480859482,68545.5884562392,28203.3219504449
8475495731,8551,-2,0,56300.8214416207,59495.0852115794,39923.2353626058,57706.9691572672,56917.3221365487,62972.4791189112,66017.9684598158,58352.1856166973,68578.7332623849,28204.5995586113
8475495731,8551,-2,0,56318.0387326252,59582.9481503379,39985.4366287647,57791.2304577660,57003.1165668473,62969.0478284071,66063.5243167209,58455.9639029002,68597.8973848811,28202.0565099753
8475495731,8551,-2,0,56310.7989530155,59643.8109698463,40005.6106700971,57822.3675939360,57070.1484086449,62940.1860515431,66061.3341312928,58507.1534034343,68581.4953295637,28196.8122326446
8475495731,8551,-2,0,56292.3648923288,59612.1871258034,39971.1030819073,57774.5607131186,57042.0531966807,62926.2053678936,66023.7602835036,58458.2635975997,68557.8048238495,28192.1276693678
8475495731,8551,-2,0,56289.0796141866,59533.4621273590,39925.9852620878,57711.7753975122,56959.7265599767,62937.5213259389,65996.8210027376,58372.6395150567,68556.9165819814,28196.4715371336
8475495731,8551,-2,0,56301.0039570731,59507.3259145833,39920.2421091874,57708.4414485828,56923.6250035030,62955.8580450511,66011.8481083139,58356.3834721012,68576.1658783553,28206.1205207142
8475511990,8552,-2,0,56316.4569320382,59573.0923159113,39962.0016446837,57776.9699170896,56988.6856784153,62960.2140805137,66053.0600974532,58440.6204372065,68591.1808162348,28204.8794156383
8475511990,8552,-2,0,56316.2987519795,59648.7753901500,39996.9594376560,57833.5740427099,57077.6923806751,62942.5709201204,66068.0628676359,58522.3265213725,68581.2033048400,28205.2322788461
8475511990,8552,-2,0,56301.6853480951,59629.1002243873,39971.3951066310,57795.1727915367,57066.0478948155,62918.6248927729,66030.9757277196,58483.5359039010,68555.0670920643,28204.1858569193
8475511990,8552,-2,0,56288.1061984407,59535.4454619411,39916.9324956515,57710.0354168666,56967.5138859433,62925.3292937223,65990.2017756659,58373.3452414724,68545.5641208456,28197.8343191778
8475511990,8552,-2,0,56291.0264456782,59496.6305090760,39909.3763559245,57698.0989062833,56916.6894163139,62947.8273651479,66001.7367522540,58344.8606632099,68564.1685292879,28192.7603896026
8475511990,8552,-2,0,56300.2130567796,59556.5807513226,39953.7397785409,57765.6296236506,56976.5666523796,62948.9711286493,66042.7783936378,58425.9826979285,68578.3195606929,28186.8103858562
8475511990,8552,-2,0,56293.3139726810,59620.5219981272,39980.0828421626,57809.1899782767,57051.8360249263,62923.8083316194,66049.2637760444,58494.0487939560,68564.0468523196,28180.9212205939
8475511990,8552,-2,0,56277.5811406889,59608.5611521502,39960.9308873633,57779.6711457843,57049.6093364077,62908.3675243511,66016.4353300161,58469.3362017086,68541.7069609527,28183.7319585600
8475526196,8553,-2,0,56268.9420759446,59531.1380972658,39918.7819855686,57710.6559694045,56968.5481401733,62916.3860365575,65981.3315246820,58381.2299090137,68537.1805777346,28196.5567110114
8475526196,8553,-2,0,56281.2922882199,59484.0856136515,39910.2037593085,57687.7441962869,56907.8069976332,62951.1491463806,65990.0557633040,58337.5478774193,68557.4762960352,28208.1768614773
8475526196,8553,-2,0,56302.7804408092,59538.7185723865,39954.9322128296,57752.2694925390,56956.2587663821,62959.7152049439,66036.8770606787,58409.0939347382,68584.4034091044,28209.4788050373
8475526196,8553,-2,0,56298.9841194004,59617.6017508896,39991.6664895381,57816.8434595783,57047.7841818843,62927.9696839329,66059.4238028916,58502.5418463384,68575.6548350887,28199.3674489775
8475526196,8553,-2,0,56276.4373771875,59615.7887640630,39974.5465401082,57792.1795381182,57056.6422651714,62898.9010562229,66025.4272579683,58487.1375421606,68545.1382514568,28195.9239907766
8475526196,8553,-2,0,56258.9523968530,59530.9677495103,39919.0618425956,57709.2080134826,56968.0370969067,62905.3012647517,65979.4455316744,58384.7220380019,68530.5735183597,28195.8753199893
8475526196,8553,-2,0,56268.2363495289,59478.9508455922,39904.3145940462,57683.5828439735,56904.2540301609,62935.9760284424,65985.7362309319,58340.2977769013,68553.8016515947,28198.7833995300
8475526196,8553,-2,0,56284.5167278780,59521.0632442964,39941.0975415419,57742.2554780537,56946.6341181952,62946.5375892847,66028.3110021153,58406.8915816133,68576.4822384727,28193.2105943851
8475561050,8554,-2,0,56286.9746026362,59597.2695294985,39980.8980778497,57801.1106275863,57033.2316164841,62927.0692743680,66048.6432235065,58495.7157684207,68574.0730345017,28187.9054785703
8475561050,8554,-2,0,56273.5292976468,59610.0821142531,39975.1062541620,57793.0677799863,57057.2993207998,62907.2480962434,66026.8143754061,58501.4954244116,68549.9566593987,28186.4696903451
8475561050,8554,-2,0,56263.5274508584,59542.7339123381,39931.9474335311,57727.1553662964,56990.9123669339,62907.5036178767,65989.6907323993,58419.1322846171,68537.8741364535,28195.4129475100
8475561050,8554,-2,0,56270.0128332650,59475.0815180025,39905.2393390047,57683.3638254307,56912.3212131545,62937.1441273374,65982.6821390293,58348.2311152299,68552.3780310664,28202.4337085768
8475561050,8554,-2,0,56291.7078367003,59509.6499446765,39939.5522440454,57736.3054743073,56937.8125379985,62959.0338139219,66026.4736798951,58400.0533359988,68582.7972731238,28203.8573291051
8475561050,8554,-2,0,56301.6001742174,59602.7084899784,39992.4938929220,57819.5081851826,57037.5024780689,62941.5975043746,66059.5333121630,58507.1777388280,68587.0437993150,28203.3462858386
8475561050,8554,-2,0,56283.8353368559,59624.2818164454,39988.7584099974,57814.1543985805,57068.5301049674,62910.7402252316,66034.2488381649,58517.2282564037,68557.4762960352,28201.3386158628
8475561050,8554,-2,0,56266.1191702817,59553.3684793613,39938.7735114487,57737.0233684198,56998.7483636878,62916.8484090367,65990.1652725754,58431.6528446480,68543.6294570507,28206.4855516189
8475616200,8555,2,0,56267.4697846290,59483.0270240279,39908.6097910247,57691.1876544878,56921.7998489796,62940.0643745749,65984.6046351273,58369.2325599463,68556.7949050132,28206.0718499269
8475616200,8555,2,0,56282.2657039657,59497.3362354917,39928.8203354476,57725.4762241349,56928.4434114449,62951.7088604345,66013.8922813801,58403.0222540236,68576.9324432551,28200.5355478725
8475616200,8555,2,0,56289.8826821769,59571.8998816227,39972.0278268658,57792.2160412087,57011.9381470439,62937.5334936357,66045.3457776674,58487.6485854271,68577.8206851232,28194.9384073339
8475616200,8555,2,0,56281.3409590072,59606.6629914458,39980.8980778497,57806.7564389121,57059.2583199883,62912.4071996963,66036.0131542043,58516.6807100467,68557.0260912528,28194.1961778277
8475616200,8555,2,0,56268.4066972844,59551.3486416887,39943.9934533858,57747.8282831986,57009.1152413810,62913.4049508358,65996.4073010456,58446.9598072512,68540.0521541848,28193.8311469230
8475616200,8555,2,0,56279.1021027918,59477.5758958512,39913.4768697538,57692.6234427129,56926.9954555229,62951.1126432901,65983.8502379243,58368.8310259511,68558.6322272334,28201.2899450755
8475616200,8555,2,0,56303.0968009266,59495.6205902397,39942.9835345495,57727.5082295043,56934.8922907610,62985.7540761450,66024.8188731272,58404.1173467376,68595.8775472084,28210.0020160007
8475616200,8555,2,0,56310.5677667759,59585.7588883040,39996.2293758467,57808.6789350101,57026.7705694711,62957.7805411491,66062.4657270973,58509.5747751021,68601.9735633167,28207.5441412425
8475630964,8556,2,0,56289.4811481817,59623.2718976091,39998.3222197002,57819.3865082143,57073.6162022394,62914.4148696721,66044.9199082787,58542.0746933162,68569.4979804963,28196.8730711288
8475630964,8556,2,0,56265.5837916215,59563.2973199689,39945.0763784030,57750.3104933505,57015.8804808145,62899.9718135433,65994.4361341603,58463.4713718400,68538.0688196026,28189.6211238223
8475630964,8556,2,0,56267.0560829370,59484.3167998911,39905.0324881587,57694.9474728061,56930.3294044524,62931.2062912878,65976.8538122511,58384.2109947353,68542.7168797890,28193.4539483215
8475630964,8556,2,0,56290.9412718005,59486.2636313828,39925.3282064594,57717.1656872048,56923.2478049015,62968.2082573264,66007.9544453306,58400.6860562336,68572.9779417877,28198.4183686253
8475630964,8556,2,0,56312.0400580915,59570.2207394611,39980.4843761578,57795.6594994096,57006.0124786911,62970.4714489354,66053.5833084166,58496.7378549539,68593.3588339661,28203.5288012909
8475630964,8556,2,0,56309.3996678809,59634.8312095909,40006.2312226351,57837.1148424854,57080.6126279126,62944.9557886977,66062.3197147355,58557.0774634988,68583.1623040285,28204.3318692812
8475630964,8556,2,0,56292.9002709890,59601.3822110247,39974.8750679224,57789.6364894822,57052.6755960071,62924.6844057907,66024.7336992494,58501.3615797466,68561.3699590186,28207.6536505139
8475630964,8556,2,0,56288.4955647391,59513.6409492344,39925.1578587039,57714.1237629991,56957.0618343724,62940.8796102620,65995.5068914807,58396.0988345313,68559.5569721920,28211.5108104068
8475692060,8557,2,0,56300.4320753224,59494.8418576430,39929.1488632618,57718.0539290729,56928.1270513275,62969.4006916150,66016.9950440700,58386.4498509507,68583.3083163903,28206.8992533109
8475692060,8557,2,0,56309.0346369762,59568.7849512360,39975.5686266413,57789.3931355458,57002.2648280697,62959.6787018535,66055.7491584511,58476.4056335627,68592.2880766457,28196.0091646543
8475692060,8557,2,0,56296.5384123390,59625.9852940007,39996.9837730497,57819.2648312461,57072.5089418285,62937.8620214499,66051.0645951742,58529.2499408648,68573.5619912352,28191.7261353727
8475692060,8557,2,0,56279.5279721806,59595.1766856450,39967.7082944937,57771.9811613922,57049.9987027061,62928.8579258010,66012.1523007345,58480.2262903651,68552.9620805139,28195.0114135148
8475692060,8557,2,0,56279.6861522393,59519.9438161887,39930.4264714282,57709.7920629301,56967.4652151561,62947.9612098130,65989.8975832453,58393.0812457192,68558.2063578446,28204.6969001859
8475692060,8557,2,0,56298.8867778259,59496.4844967141,39933.1763709102,57710.4126154681,56932.2519005505,62977.9180793911,66010.9598664458,58374.2334833405,68584.4034091044,28212.2895430034
8475692060,8557,2,0,56316.3230873731,59562.7984443991,39978.0630044900,57781.6301449727,56992.5793413986,62979.7797370050,66060.3972186374,58454.0292391053,68604.2124195322,28210.5130592673
8475692060,8557,2,0,56314.4614297592,59639.0534003885,40010.1127179216,57837.8814073852,57074.1394132028,62948.5087561700,66079.1354717448,58532.3770389483,68591.4728409585,28197.5301267572
8475696998,8558,2,0,56297.3658157230,59624.6225119565,39984.6457284712,57805.1746383251,57065.8653793632,62925.9741816539,66044.9807467628,58503.5152620842,68563.5479767499,28193.5877929866
8475696998,8558,2,0,56290.2355453847,59537.2097779805,39929.9884343426,57723.4442187654,56972.1862815234,62940.0887099685,66006.1049554135,58397.5467904532,68555.0670920643,28202.4215408800
8475696998,8558,2,0,56300.0670444177,59496.7156829537,39920.9356679063,57705.9835738245,56920.0963714243,62965.3853516634,66015.7174359036,58362.0049480334,68576.2632199299,28210.0385190912
8475696998,8558,2,0,56307.6110164479,59553.9038580215,39965.4451028846,57767.4426104772,56973.7194113230,62969.6683809451,66055.1042705195,58438.3450779006,68591.7892010759,28210.7320778101
8475696998,8558,2,0,56299.1301317623,59621.8482770808,39998.4317289716,57813.9840508250,57052.1523850437,62948.8981224684,66063.7189998701,58509.7451228576,68581.8968635589,28210.7199101133
8475696998,8558,2,0,56280.5987295010,59611.0920330894,39979.6569727738,57786.6432360638,57054.2087258068,62923.4554684116,66032.9468946049,58484.6796674023,68557.7683207590,28210.8050839910
8475696998,8558,2,0,56263.0650783791,59525.0299134607,39925.8757528164,57710.6194663141,56968.7671587161,62913.5752985913,65992.0269301893,58388.5426948043,68541.6582901654,28206.4855516189
8475696998,8558,2,0,56270.1466779301,59465.6637206616,39901.0779866912,57679.2389762077,56900.4333733585,62938.0080338118,65993.4383830208,58333.5568728614,68554.6047195850,28205.3052850271
8475728098,8559,2,0,56288.4103908613,59508.5305165688,39936.1817920254,57734.4194812997,56936.8147868591,62948.3870792018,66035.8063033583,58393.8356429223,68574.8030963111,28200.7545664153
8475728098,8559,2,0,56289.2256265484,59590.0297498889,39977.7953151599,57801.3783169164,57025.2496073682,62920.9732582597,66058.7545795663,58485.3123876371,68564.8620880068,28195.5346244782
8475728098,8559,2,0,56271.7528139107,59597.8900820365,39964.8488857403,57783.0902685915,57040.1550359763,62896.9420570344,66027.2889155822,58475.8094164184,68534.7835414604,28196.1795124098
8475728098,8559,2,0,56262.2863457824,59525.4922859400,39919.1956872606,57706.5554555752,56962.7076456983,62907.1750900625,65986.3567834698,58379.2344067347,68524.3193221927,28200.0123369091
8475728098,8559,2,0,56271.7893170012,59473.7065682615,39904.8134696159,57678.5454174888,56900.7497334759,62940.9161133525,65991.8322470402,58333.9219037661,68548.0828340879,28198.1141762047
8475728098,8559,2,0,56290.1868745975,59518.9460650492,39946.0741295425,57741.4524100634,56941.8522133438,62961.6985395261,66038.2763458133,58400.0411683020,68575.7035058760,28196.2403508940
8475728098,8559,2,0,56293.5694943142,59601.3578756310,39988.3812113959,57809.9808785702,57034.8620878583,62941.9747029761,66062.9402672734,58489.4615722538,68576.1902137489,28197.0069157938
8475728098,8559,2,0,56281.0611019803,59619.8406071051,39983.3802880016,57808.2530656213,57067.7148692803,62918.2111910809,66044.8590697945,58502.8582064558,68559.2406120746,28202.5432178482
8475760953,8560,2,0,56267.7861447464,59555.0354538261,39935.0258608273,57740.9657021905,57005.0512306421,62913.4536216231,66006.9201911006,58426.3842319236,68546.2333441708,28210.7320778101
8475760953,8560,2,0,56264.3791896360,59475.8480829024,39894.4830950132,57682.3295712007,56917.1882918837,62932.4473963637,65989.4352107660,58343.8142412831,68552.2198510077,28207.8970044503
8475760953,8560,2,0,56276.6442280335,59494.1239635304,39917.5652158863,57718.5041338553,56924.2212206473,62946.9756263703,66020.9252101438,58378.3583325635,68572.7224201544,28199.1971012219
8475760953,8560,2,0,56285.7334975603,59584.4812801376,39971.2247588755,57800.1615472341,57017.6812999443,62940.5145793573,66057.1849466762,58484.5093196468,68576.7012570155,28194.6098795197
8475760953,8560,2,0,56278.9925935204,59619.4512408067,39979.4014511405,57811.2828221303,57063.3831692113,62914.6703913054,66043.3381076917,58510.0858183686,68555.7363153896,28195.6684691433
8475760953,8560,2,0,56266.3868596118,59554.2445535326,39933.2858801816,57739.0675414861,56998.7970344751,62911.8961564298,65998.5244802928,58424.4374004320,68533.7006164432,28194.9505750307
8475760953,8560,2,0,56273.0547574708,59488.3808106300,39907.3078474646,57692.5017657447,56925.8638597184,62945.8440305658,65994.6308173094,58362.5281589968,68548.7277220195,28205.1349372715
8475760953,8560,2,0,56291.7443397908,59509.9663047939,39934.9163515559,57729.6497441451,56941.4020085613,62958.2794167188,66031.5841125607,58410.7000707188,68572.8440971226,28211.7663320400
8475794703,8561,2,0,56294.8957732679,59585.7953913945,39975.1914280398,57792.0335257564,57022.1590123752,62940.7457655970,66058.5477287203,58513.0060656061,68572.1383707069,28204.1006830416
8475794703,8561,2,0,56277.9218361999,59619.1957191734,39979.2554387787,57803.3008130144,57067.6540307962,62913.2346030803,66043.8613186551,58555.2766443690,68549.0440821369,28195.7293076274
8475794703,8561,2,0,56261.7996379095,59567.2274860427,39939.8564364660,57746.5871781227,57022.1346769815,62908.0511642337,66004.4258132519,58496.0442962350,68531.5347664087,28198.0046669333
8475794703,8561,2,0,56263.6612955234,59482.6011546391,39900.1654094295,57684.9942968049,56931.6556834061,62935.8665191710,65984.4221196750,58405.9059981706,68541.1715822925,28205.6581482349
8475794703,8561,2,0,56280.8055803470,59484.9130170355,39917.6138866736,57711.7388944218,56924.4037360997,62957.0383116429,66017.6034289111,58423.7073386226,68573.9026867462,28206.2908684697
8475794703,8561,2,0,56289.2377942453,59568.7484481455,39966.3455124495,57793.3841401037,57011.8286377725,62946.2820676514,66055.6883199670,58527.9601650015,68583.4299933586,28201.3386158628
8475794703,8561,2,0,56274.6852288450,59616.8716890803,39977.5762966171,57812.0858901206,57070.2335825226,62917.3594523033,66044.5670450708,58570.2550791581,68560.6520649060,28201.6306405865
8475794703,8561,2,0,56251.2624124609,59565.6091823652,39933.5292341180,57740.9657021905,57019.8228145852,62901.6266203112,65993.4140476271,58494.8640296431,68532.7272006974,28196.4350340431
8475823186,8562,2,0,56247.1375632379,59486.9450224049,39892.8282882453,57676.7202629653,56931.2176463205,62921.1801091057,65971.1714978348,58409.2521147969,68535.4771001794,28197.3841143953
8475823186,8562,2,0,56265.3891084723,59479.5713981302,39904.5579479826,57694.9474728061,56915.1927896047,62952.6457730898,65999.5465668259,58415.5184786607,68557.9751716050,28201.2291065914
8475823186,8562,2,0,56290.8195948322,59561.5086685359,39960.1764901603,57779.3426179700,56995.4509178488,62957.9752242983,66051.3809552916,58510.5116877574,68576.2753876267,28205.8771667777
8475823186,8562,2,0,56293.6546681920,59627.7617777368,39990.8512538509,57825.9935675892,57071.4503522049,62933.8588491952,66062.8429256988,58576.3997660537,68563.3654612975,28206.4612162252
8475823186,8562,2,0,56275.6343091972,59593.5583819675,39960.0791485857,57776.5805507912,57043.6106618740,62905.3377678422,66021.4727565008,58528.4225374808,68534.1264858320,28208.1160229932
8475823186,8562,2,0,56261.7022963350,59499.3195700738,39907.3321828582,57691.3580022433,56942.1564057643,62918.3085326555,65982.0250834009,58423.7925125003,68527.6897742127,28202.2025223372
8475823186,8562,2,0,56273.8334900674,59475.0815180025,39911.3231874162,57690.6036050403,56910.2648723914,62950.7354446886,66002.9535219363,58413.5229763818,68556.8922465877,28197.8586545714
8475823186,8562,2,0,56290.4910670180,59556.1183788433,39965.7614630020,57770.3020192306,56988.6978461121,62951.3681649234,66049.2637760444,58511.6432835620,68577.3339772503,28197.4814559699
8475849665,8563,2,0,56283.8718399463,59622.7365189489,39988.8557515720,57809.6888538465,57064.1862372016,62921.8493324310,66050.1641856093,58572.4939353735,68563.1099396643,28196.1551770162
8475849665,8563,2,0,56265.8271455579,59594.9089963149,39956.8912120181,57764.8387233571,57042.7589230964,62906.3233512849,66009.2320534970,58524.1638435928,68540.1251603657,28198.8442380141
8475849665,8563,2,0,56259.0740738212,59514.8820543104,39909.6197098610,57696.0182301265,56954.8594812475,62918.7344020443,65976.6591291019,58431.3486522274,68538.7623783216,28204.0641799511
8475849665,8563,2,0,56271.1687644632,59482.2604591281,39905.2758420952,57685.1038060764,56911.6519898292,62951.9035435836,65990.9196697784,58408.9965931636,68564.0225169260,28210.8050839910
8475849665,8563,2,0,56294.3968976982,59542.0525213160,39951.1115560272,57751.1865675217,56971.6022320759,62957.6345287872,66035.8306387519,58487.4173991875,68584.5129183758,28208.3350415360
8475849665,8563,2,0,56295.1999656885,59616.4579873883,39986.8237462025,57808.4964195578,57057.5670101299,62924.1976979178,66053.6928176880,58569.0991479599,68573.0752833623,28199.9758338186
8475849665,8563,2,0,56272.6410557788,59599.5327211076,39958.5825218765,57774.0861729425,57051.2519754788,62893.6932819827,66018.1631429650,58540.5902343038,68538.1053226931,28195.1695935735
8475849665,8563,2,0,56257.7112917770,59510.5746896350,39904.7039603445,57689.9100463214,56952.9369851495,62907.9781580528,65976.9268184321,58432.3707387605,68526.6068491954,28200.4990447820
8475880740,8564,2,0,56267.8591509274,59467.6592229405,39899.0216459282,57676.1240458210,56896.8560704925,62943.8971990741,65989.2040245264,58398.8365663165,68552.1225094331,28206.1205207142
8475880740,8564,2,0,56281.8520022737,59525.3949443654,39943.6162547843,57746.5506750322,56950.6129550563,62948.6547685319,66034.9545645807,58479.0216883797,68571.1771226579,28203.3462858386
8475880740,8564,2,0,56281.5721452468,59602.1122728340,39975.6903036095,57802.2908941781,57035.6529881518,62925.7551631111,66050.5413842109,58556.4204078704,68561.6376483487,28196.0943385321
8475880740,8564,2,0,56270.1466779301,59601.8202481103,39957.9376339449,57780.3768722000,57045.5939964562,62911.8596533393,66020.0004651853,58538.6068997216,68541.9989856765,28192.7725572994
8475880740,8564,2,0,56269.2827714556,59537.8424982153,39920.2056060969,57719.9642574741,56979.4990673139,62925.9255108666,65988.2549441742,58458.1419206315,68540.1859988498,28197.6883068159
8475880740,8564,2,0,56284.2003677606,59491.8851073150,39907.6728783693,57692.6964488939,56920.0842037275,62955.5173495400,65992.5988119400,58414.0218519515,68564.6795725544,28204.6360617018
8475880740,8564,2,0,56298.1202129260,59531.3814512023,39941.5599140212,57738.8241875496,56953.5697053843,62964.0955758002,66029.8806350055,58470.9423376892,68587.4453333101,28201.8739945230
8475880740,8564,2,0,56295.3703134440,59611.8585979892,39982.1756860162,57803.4711607699,57043.7688419327,62936.9129410978,66052.0136755264,58564.9134602528,68579.2321379547,28197.1529281557
8475914641,8565,2,0,56274.9042473878,59622.6513450712,39970.3730200979,57792.9217676244,57066.6684473535,62909.5599586398,66027.9094681202,58566.0572237542,68549.4212807384,28196.3133570749
8475914641,8565,2,0,56256.8838883931,59538.8159139611,39913.5985467221,57710.0597522602,56982.3219729769,62911.5554609187,65980.8204814154,58462.7291423338,68527.8601219682,28193.1010851136
8475914641,8565,2,0,56261.8604763936,59477.3082065211,39889.6768547682,57672.0843704758,56909.6443198534,62945.5398381452,65982.3657789119,58405.1637686644,68548.1071694816,28194.6098795197
8475914641,8565,2,0,56281.7059899119,59519.1164128048,39927.1655286796,57728.0436081645,56947.7048755156,62964.6066190668,66028.9802254406,58465.3451971507,68574.2798853477,28194.3178547959
8475914641,8565,2,0,56295.0174502362,59610.6539960037,39979.7178112579,57804.7731043300,57043.4159787249,62958.0603981760,66064.7045833127,58560.4235801251,68578.0518713628,28198.4427040189
8475914641,8565,2,0,56290.5154024117,59640.7812133374,39982.1878537130,57811.3679960080,57083.0339995804,62927.5681499377,66052.1231847978,58575.1951640682,68557.2937805829,28199.9636661218
8475914641,8565,2,0,56274.6852288450,59578.3244255452,39935.2813824605,57744.1049679708,57018.9102373234,62916.6902289780,66009.4389043430,58493.5620860831,68538.7988814120,28202.7500686942
8475914641,8565,2,0,56271.8988262726,59500.9135383576,39896.6489450477,57684.6657689907,56929.9157027605,62939.8940268194,65989.2161922232,58411.1746108949,68545.6857978138,28207.3859611838
8475967788,8566,2,0,56292.5474077811,59523.0952496659,39926.0461005719,57723.7484111860,56943.0568153292,62973.0266652682,66028.2988344185,58450.0504022442,68580.7409323607,28211.2796241671
8475967788,8566,2,0,56308.5600968001,59614.8153483172,39984.0738467205,57807.9732085944,57042.7345877028,62959.0946524060,66067.9168552740,58560.9954618758,68590.4994252127,28205.2809496334
8475967788,8566,2,0,56294.5307423632,59647.1935895630,39986.9575908676,57816.9529688497,57089.5680527743,62924.2950394924,66049.3854530127,58584.1749243235,68563.8156660800,28202.6162240292
8475967788,8566,2,0,56272.0935094217,59576.2194139948,39931.4850610518,57737.2910577499,57020.9179072992,62916.0696764401,65997.0156858867,58493.0632105133,68539.8696387324,28200.2921939360
8475967788,8566,2,0,56268.5162065558,59496.8495276188,39892.4389219470,57678.9226160903,56929.9765412446,62942.7534355728,65981.0273322614,58412.0263496726,68549.0562498338,28200.9005787772
8475967788,8566,2,0,56284.3342124256,59509.3944230432,39914.7423102234,57714.0994276054,56932.4222483060,62966.3587674093,66014.4519954340,58443.4311751726,68576.2875553235,28196.8974065224
8475967788,8566,2,0,56295.0661210235,59586.8174779276,39962.6830357058,57786.8622546066,57014.7610527068,62954.9211323957,66049.4097884063,58531.7686541071,68582.6390930651,28191.4584460425
8475967788,8566,2,0,56290.9899425878,59631.8379561725,39974.9602418002,57811.4410021890,57070.2944210067,62926.5825664951,66047.4507892178,58570.6566131532,68560.7007356933,28193.8189792262
8475976257,8567,2,0,56275.5734707131,59589.4578681382,39938.7005052678,57759.5336075423,57031.3821265670,62913.9159941024,66013.1378841771,58508.6621978404,68537.8619687567,28199.6351383076
8475976257,8567,2,0,56268.5283742526,59502.7265251842,39892.9377975167,57684.0087133623,56933.9553781057,62927.1057774585,65983.4122008387,58408.2421959606,68534.9782246096,28201.6428082834
8475976257,8567,2,0,56279.6131460583,59496.0707950221,39904.3389294398,57690.7861204927,56912.4793932132,62954.7264492465,66005.7155891151,58408.3395375352,68558.0725131796,28197.1407604589
8475976257,8567,2,0,56289.1647880643,59577.9228915500,39953.2165675776,57768.6958832500,56994.2949866506,62947.3649926687,66046.3556965038,58508.7473717181,68570.0576945502,28186.5913673134
8475976257,8567,2,0,56280.2458662931,59631.7041115074,39969.1440827188,57796.2678842507,57061.2173191768,62921.2896183771,66041.5129531682,58560.4600832156,68551.4532861079,28185.2285852692
8475976257,8567,2,0,56263.6734632203,59587.7057197957,39931.7284149882,57738.5321628259,57025.1400980968,62916.7145643717,65998.2567909627,58499.4999221327,68534.0169765606,28192.7238865121
8475976257,8567,2,0,56265.5594562278,59513.0690674837,39898.1820748474,57679.7256840806,56945.3930131192,62932.3013840019,65978.6789667746,58417.1732854287,68543.0940783905,28204.5752232177
8475976257,8567,2,0,56277.6663145666,59494.8296899462,39901.7715454102,57688.7541151232,56915.7646713554,62947.9247067225,66001.4447275303,58415.2751247243,68560.9319219329,28206.6072285871
8476004312,8568,2,0,56288.3495523772,59558.6249243888,39942.6915098257,57757.7692915030,56979.1462041061,62946.5619246783,66040.0528295495,58496.0686316286,68571.1527872642,28202.0200068849
8476004312,8568,2,0,56277.7514884444,59616.2511365423,39963.6199483612,57796.7059213364,57049.7310133760,62919.8051593647,66044.0560018042,58555.8606938165,68551.8913231935,28195.2669351481
8476004312,8568,2,0,56255.1925785347,59584.1162492329,39932.3854706167,57750.4200026219,57026.6245571092,62896.6013615233,66001.8219261318,58510.2561661242,68525.2075640608,28191.7991415536
8476004312,8568,2,0,56247.1132278442,59491.2402193834,39882.4979136426,57668.5679060940,56931.6191803157,62912.9669137502,65963.5545196236,58405.0542593930,68520.6446777522,28192.2736817297
8476004312,8568,2,0,56270.2196841110,59465.6758883584,39889.5430101031,57670.7824269157,56896.9290766735,62954.1058967086,65988.8754967122,58391.7306313719,68551.7939816189,28200.0001692123
8476004312,8568,2,0,56292.6934201430,59542.8677570031,39943.8717764175,57757.3434221142,56974.8631748244,62954.2397413736,66041.5737916523,58489.5710815252,68571.7855074990,28204.1128507384
8476004312,8568,2,0,56291.8538490622,59615.9591118185,39973.0499133990,57806.5739234598,57056.8612837142,62928.6875780454,66052.6342280644,58562.2974054359,68558.8025749889,28205.8528313841
8476004312,8568,2,0,56273.2616083167,59597.6953988873,39946.3296511758,57762.2956747211,57044.5354068326,62914.6825590022,66015.6079266322,58523.4946202675,68535.3189201207,28208.4810538978
8476035672,8569,2,0,56263.9776556408,59518.5080279636,39902.1365763148,57688.5472642772,56960.0794231845,62920.5717242645,65983.7285609561,58436.7389419199,68531.5225987119,28211.4013011353
8476035672,8569,2,0,56271.8744908789,59473.9377545012,39886.5740920783,57670.6364145539,56903.6578130165,62932.8732657525,65988.1332672060,58402.6572231189,68543.3861031143,28202.1173484594
8476035672,8569,2,0,56292.5595754779,59522.3651878565,39922.8703317011,57732.3266374462,56946.9018075253,62937.4483197580,66026.0964812936,58467.3772025201,68557.7196499717,28190.3633533285
8476035672,8569,2,0,56294.6767547251,59597.3790387699,39960.4198440967,57795.7446732874,57032.2947038287,62912.7357275106,66045.1145914278,58549.4239821972,68548.5087034767,28186.5305288293
8476035672,8569,2,0,56272.7018942629,59591.3681965394,39938.3233066663,57769.2312619102,57031.5524743225,62886.6481855222,66010.5218293602,58528.4833759649,68520.3648207253,28189.1465836462
8476035672,8569,2,0,56258.4048504959,59508.8225412925,39882.8507768505,57684.7509428685,56942.7039521214,62897.0393986090,65968.9691447098,58424.6929220652,68508.2336269928,28193.8676500135
8476035672,8569,2,0,56269.5991315730,59460.6262941769,39866.9962678902,57660.0505183179,56880.3931766911,62926.6312372824,65978.0584142366,58381.4854306470,68529.8556242472,28196.2281831971
8476035672,8569,2,0,56291.1359549496,59517.5224445209,39916.1415953581,57729.4428932992,56934.0892227707,62939.5654990052,66025.1839040318,58460.8918201135,68557.0869297369,28195.4981213878
8476092193,8570,2,0,56291.5131535512,59594.9576671021,39955.8812931818,57789.7459987536,57018.8250634457,62912.4558704836,66041.9388225570,58545.9318532090,68547.9489894229,28195.5224567814
8476092193,8570,2,0,56265.9123194357,59587.7057197957,39934.9893577368,57762.1374946624,57022.2685216466,62882.2069761818,66004.7421733693,58524.4071975292,68514.7068417026,28192.8455634804
8476092193,8570,2,0,56249.9483012040,59511.8644654983,39889.9567117951,57690.4819280721,56945.6850378430,62888.6801908916,65963.8222089537,58438.6492703211,68501.9672631290,28191.8599800377
8476092193,8570,2,0,56259.7554648433,59453.6907069878,39873.7615073237,57657.8481651930,56881.0989031068,62918.9047497998,65964.9538047583,58384.6977026082,68520.2796468475,28194.2448486150
8476092193,8570,2,0,56279.2724505473,59488.5876614760,39905.0081527651,57705.2413443183,56912.6254055751,62932.0215269749,66005.2288812422,58436.2522340470,68546.4645304105,28189.1344159494
8476092193,8570,2,0,56283.9935169146,59574.8566319506,39946.2688126917,57775.8869920723,57009.0178998064,62906.5545375245,66036.0009865074,58535.2242800048,68546.8903997993,28182.9288905697
8476092193,8570,2,0,56262.6513766871,59591.7697305345,39932.4219737071,57767.8563121692,57040.8850977857,62874.9671965722,66012.5660024265,58542.7317489446,68517.5905858496,28183.0992383252
8476092193,8570,2,0,56250.0334750817,59520.2236732156,39877.8011826690,57691.1754867910,56967.5990598211,62878.7756856777,65969.4436848859,58453.2383388119,68502.3931325178,28188.8667266193
8476101161,8571,2,0,56258.9645645498,59456.0999109587,39852.9547457565,57651.9833353243,56891.9038178856,62911.1052561363,65968.6162815020,58390.2826754500,68522.8470308772,28191.3976075584
8476101161,8571,2,0,56276.0966816765,59493.6007525670,39893.0351390913,57703.5013636726,56920.9237748083,62934.9174388188,66011.4465743187,58443.2608274170,68551.4167830174,28191.9573216123
8476101161,8571,2,0,56283.5798152226,59582.5466163427,39948.8726998118,57777.9068297449,57015.5276176067,62931.4253098306,66045.8689886308,58535.8813356333,68559.4839660110,28195.2304320577
8476101161,8571,2,0,56272.5680495978,59612.1992935003,39954.5063434408,57785.1831124450,57056.1433896017,62903.0502408395,66030.5985291181,58554.1085454740,68541.6582901654,28197.1894312462
8476101161,8571,2,0,56257.4070993565,59550.4847352143,39907.6242075820,57722.7384923497,56995.8524518440,62885.3705773558,65989.3987076756,58478.0482726338,68521.4355780457,28199.8541568504
8476101161,8571,2,0,56253.6716164318,59466.7588133756,39863.1634433910,57661.3767972716,56904.6920672465,62898.7793792547,65967.2656671546,58393.6531274699,68524.2828191023,28196.4228663463
8476101161,8571,2,0,56264.3305188487,59470.1901038797,39880.5510821509,57683.4124962180,56903.8281607721,62918.9777559807,65994.8255004586,58417.9276826317,68546.5618719851,28186.5670319197
8476101161,8571,2,0,56271.8623231821,59555.9480310878,39933.7239172672,57762.0401530878,56994.8912037950,62915.3882854180,66033.3970993873,58524.7357253435,68557.4032898543,28178.0861472341
8476129673,8572,2,0,56262.4810289316,59599.2163609902,39944.6140059237,57779.9388351144,57053.1866392737,62894.7640393031,66023.8941281686,58565.5826835781,68540.1494957594,28176.6138559186
8476129673,8572,2,0,56248.2813267392,59541.6388196240,39902.5259426132,57715.4257065591,56998.5171774482,62889.9699667548,65979.6767179140,58487.5999146398,68522.2386460360,28185.0095667264
8476129673,8572,2,0,56250.4836798642,59465.4568698156,39870.6587446339,57657.3127865327,56910.1918662105,62909.2192631287,65962.3864207286,58404.5067130360,68531.0602262326,28191.6896322822
8476129673,8572,2,0,56260.7410482859,59468.2676077817,39888.9102898683,57680.1637211662,56905.1179366353,62924.5505611256,65987.3058638220,58424.7902636398,68554.6168872818,28192.6995511185
8476129673,8572,2,0,56262.0794949365,59541.4076333844,39929.6842419220,57741.7200993935,56981.6892527421,62915.1814345720,66016.2649822606,58511.5216065937,68557.8778300304,28186.8712243403
8476129673,8572,2,0,56253.5986102509,59589.5187066223,39942.7280129162,57767.0532441789,57043.8418481137,62900.3368444480,66014.3424861626,58557.4911651908,68543.1184137842,28187.7229631179
8476129673,8572,2,0,56241.3214041565,59556.8727760463,39914.2556023505,57723.5050572496,57016.5375364430,62892.6833631464,65983.8989087116,58508.3823408134,68528.9795500759,28193.6851345611
8476129673,8572,2,0,56239.3624049680,59477.3325419148,39874.7227553728,57656.6678986011,56925.6935119629,62909.4261139747,65958.8456209532,58415.4454724798,68534.4306782526,28193.2592651723
8476204415,8573,2,0,56254.8883861141,59465.6028821775,39886.3185704450,57663.9806843917,56901.9421677645,62933.4694828969,65982.0615864913,58409.7874934571,68557.3667867638,28186.0559886532
8476204415,8573,2,0,56269.4044484239,59549.8641826763,39941.9492803195,57744.7863589929,56986.7875177109,62934.5159048236,66024.6363576748,58510.5968616352,68569.8386760073,28183.2939214744
8476204415,8573,2,0,56264.0506618218,59612.4669828304,39965.9561461512,57781.0095924348,57062.9207967320,62908.9759091923,66027.2889155822,58571.2406626007,68554.2640240740,28182.7342074205
8476204415,8573,2,0,56245.1298932621,59571.3401675688,39928.7473292666,57726.5713168489,57030.7737417258,62896.6987030979,65986.0890941397,58512.7383762760,68530.2084874550,28188.8667266193
8476204415,8573,2,0,56242.3434906897,59489.4637356472,39884.8219437358,57663.2384548855,56945.8553855985,62918.7344020443,65963.8222089537,58425.2039653318,68535.3675909079,28195.8023138083
8476204415,8573,2,0,56260.6072036209,59474.0715991662,39892.6579404898,57675.3209778307,56921.8728551605,62946.3064030451,65992.8908366637,58423.0381152973,68564.1320261974,28197.1529281557
8476204415,8573,2,0,56281.3652944008,59543.4883095411,39940.8298522118,57750.6511888615,56990.6446776038,62945.5276704484,66037.3272654611,58506.6910309550,68579.3294795292,28190.2660117539
8476204415,8573,2,0,56280.3067047772,59609.5589032897,39968.9372318728,57797.2412999966,57066.1087332996,62921.9223386119,66046.5990504402,58574.4285991684,68566.6750748334,28186.0803240468
8476209400,8574,2,0,56263.5882893425,59591.3195257521,39944.5896705301,57760.0081477184,57051.3858201439,62907.8078102973,66011.6290897711,58542.5857365827,68544.6637112807,28191.0204089569
8476209400,8574,2,0,56251.0068908276,59501.1325569004,39894.6777781624,57672.0113642949,56954.4457795555,62916.5198812225,65969.5288587637,58437.2013143992,68535.2215785461,28193.0645820232
8476209400,8574,2,0,56260.9235637383,59465.2378512728,39890.1635626411,57656.0595137600,56905.6411475987,62950.5285938426,65984.3734488877,58411.9776788853,68560.0436800649,28192.6752157248
8476209400,8574,2,0,56276.4008740971,59533.0240902734,39940.3066412484,57731.8642649669,56973.7194113230,62947.9733775098,66031.7301249226,58502.1889831306,68577.2366356757,28185.3745976311
8476209400,8574,2,0,56277.5568052952,59607.5147302234,39974.2788507781,57790.1840358393,57062.3367472845,62924.3558779765,66047.7793170320,58580.8774784845,68567.1861180999,28184.1578279488
8476209400,8574,2,0,56262.7243828681,59594.2032698991,39952.4865057682,57756.7228695762,57058.6377674504,62907.8078102973,66014.7926909450,58551.0179504810,68544.1526680141,28187.3700999100
8476209400,8574,2,0,56247.8554573504,59513.3732599043,39903.3411783003,57682.1348880516,56969.4485497382,62910.8740698967,65976.8416445543,58458.3487714775,68537.5699440329,28188.6112049860
8476209400,8574,2,0,56249.6562764802,59468.4257878404,39888.4600850859,57659.1744441467,56910.2162016041,62933.0436135081,65980.0539165155,58419.7650048519,68554.4343718295,28186.3115102864
8476231955,8575,2,0,56269.1002560033,59520.4426917584,39929.1853663522,57722.1179398117,56956.6846357709,62951.7575312217,66022.6286876990,58489.5589138283,68576.8594370742,28188.9884035875
8476231955,8575,2,0,56274.5878872704,59597.9752559142,39970.2756785233,57787.3367947827,57042.8684323678,62929.2959628866,66046.3678642006,58575.3655118237,68570.8364271468,28191.6774645854
8476231955,8575,2,0,56252.1019835416,59594.8968286180,39952.8880397633,57761.3465943689,57051.8846957136,62893.8636297382,66010.0351214873,58560.9224556949,68538.1783288741,28191.9938247028
8476231955,8575,2,0,56230.9788618570,59505.6224370281,39895.5051815463,57666.5237330277,56959.1060074387,62892.7076985400,65957.9817144787,58452.2405876724,68520.5351684808,28189.3777698858
8476231955,8575,2,0,56240.1898083520,59451.2936707137,39877.0832885564,57631.6389462363,56890.5775389319,62930.1842047547,65959.9285459704,58397.5467904532,68540.4658558768,28189.5602853382
8476231955,8575,2,0,56264.9875744771,59506.4620081089,39924.6346477405,57703.7690530027,56941.6696978914,62952.3902514565,66014.7075170673,58472.5363059730,68569.6561605550,28187.9054785703
8476231955,8575,2,0,56274.5757195736,59595.1036794640,39973.9624906607,57778.0771775004,57039.6318250129,62935.6475006282,66045.5769639071,58564.8039509814,68569.6196574645,28188.6112049860
8476231955,8575,2,0,56258.3683474055,59601.5768941738,39963.4739359993,57762.9527303495,57053.8193595085,62909.8154802731,66019.3312418600,58554.0720423836,68544.9192329140,28190.3998564190
8476258145,8576,2,0,56244.3024898781,59529.9943337645,39919.2686934415,57694.5459388110,56982.3584760673,62910.4603682047,65980.7596429313,58469.0806800753,68532.9827223306,28192.4927002725
8476258145,8576,2,0,56247.7946188663,59465.5663790870,39889.1171407143,57651.9589999307,56906.3833771049,62930.6830803244,65971.4026840744,58407.5973080290,68540.8308867814,28190.1808378761
8476258145,8576,2,0,56266.8492320911,59495.4867455746,39917.0906757102,57697.5270245326,56932.2153974600,62953.5218472611,66008.9886995605,58451.1819980488,68565.7990006621,28189.5846207318
8476258145,8576,2,0,56279.8199969043,59584.8706464359,39970.4825293693,57776.1060106151,57028.0846807280,62939.5046605210,66046.2705226260,58551.3951490825,68570.9216010246,28191.5314522235
8476258145,8576,2,0,56268.9177405510,59610.3133004927,39972.6727147974,57781.7031511537,57067.4715153438,62914.5122112467,66034.3461797395,58567.5903535539,68549.5794607971,28194.3908609769
8476258145,8576,2,0,56254.9492245982,59538.5847277215,39925.3647095498,57704.9006488073,56994.0272973205,62909.6694679112,65986.9895037046,58474.0451003791,68529.0890593473,28198.4305363221
8476258145,8576,2,0,56257.8573041389,59465.9557453853,39895.9310509351,57654.8914148650,56908.3180408997,62936.4384009217,65980.1755934838,58399.9803298178,68540.8430544783,28201.0952619263
8476258145,8576,2,0,56275.6586445909,59494.2334728018,39923.3692072709,57699.9605638972,56927.2996479435,62949.9932151824,66016.6421808621,58447.6777013638,68563.9981815323,28198.1750146888
8476290655,8577,2,0,56278.4572148601,59577.8012145818,39963.1089050946,57767.8319767755,57014.1891709562,62937.0346180660,66044.6887220390,58540.4320542451,68564.8499203099,28193.9163208008
8476290655,8577,2,0,56266.8370643942,59609.6684125611,39965.3720967037,57773.1492602872,57058.7472767218,62916.8605767335,66029.0897347120,58563.3316596658,68545.4181084837,28191.6409614949
8476290655,8577,2,0,56253.7081195223,59556.6172544131,39927.1533609828,57714.6834770529,57008.4216826621,62904.4008551869,65991.0291790498,58492.7955211832,68529.4297548584,28192.3466879106
8476290655,8577,2,0,56252.2236605099,59477.8314174845,39889.6160162840,57658.1158545231,56920.3397253608,62924.7695796685,65973.6780433803,58408.1813574765,68535.9394726586,28193.1862589914
8476290655,8577,2,0,56266.4720334895,59482.3091299154,39907.5755367947,57685.6391847366,56915.7525036586,62949.3726626444,66005.6669183278,58426.4572381046,68561.8201638010,28189.7549684873
8476290655,8577,2,0,56278.1408547427,59567.5681815537,39957.8889631576,57768.5620385849,57005.3189199722,62942.1572184284,66049.1907698635,58533.5086347528,68573.3794757828,28180.7265374447
8476290655,8577,2,0,56270.6698888935,59615.2533854028,39972.9769072180,57797.8010140504,57068.3840926055,62926.7042434633,66048.2660249050,58579.6850441959,68556.5028802894,28183.2695860807
8476290655,8577,2,0,56262.3836873570,59569.4663422581,39942.9105283685,57739.9071125669,57028.3036992708,62931.3766390433,66015.2428957275,58516.6563746530,68544.4446927379,28196.2160155003
8476349445,8578,2,0,56267.3237722671,59498.2001419661,39910.8243118464,57685.2619861350,56946.8166336475,62947.5596758178,66002.4789817602,58439.0143012258,68556.7218988322,28206.0596822301
8476349445,8578,2,0,56276.5103833685,59497.3605708853,39918.7819855686,57702.8321403474,56935.8413711132,62954.8481262148,66025.3420840905,58451.9363952518,68572.0775322228,28201.2534419850
8476349445,8578,2,0,56277.9705069872,59564.5992635289,39953.0705552157,57762.6607056258,57004.2238272582,62937.6551706040,66048.8014035652,58529.9313318869,68570.9824395087,28192.6752157248
8476349445,8578,2,0,56267.8591509274,59612.1506227130,39964.6542025911,57784.4165475452,57063.7360324192,62916.9214152177,66040.3935250605,58571.8368797451,68552.2928571887,28187.8933108734
8476349445,8578,2,0,56249.3034132724,59573.5911914811,39931.9352658342,57733.8110964586,57029.7273197991,62902.9772346586,65997.9769339357,58516.2061698706,68528.6145191712,28186.0194855627
8476349445,8578,2,0,56244.4728376337,59490.5223252708,39888.9224575651,57661.8270020541,56937.2406562479,62925.0616043922,65967.5211887879,58421.2859669548,68530.2693259391,28182.7585428141
8476349445,8578,2,0,56260.8262221637,59476.2252815039,39898.4254287838,57669.0059431796,56909.5469782788,62958.6322799267,65993.3897122335,58415.7253295067,68560.7859095711,28185.5327776898
8476349445,8578,2,0,56276.3278679161,59555.4856586085,39952.6325181301,57752.5006787786,56987.4445733393,62954.2275736768,66042.9974121806,58514.1254937139,68578.3195606929,28187.9176462671
8476356628,8579,2,0,56265.9853256166,59615.9347764249,39973.5366212719,57794.2237111845,57058.6986059345,62918.2111910809,66046.0393363864,58575.1951640682,68558.7904072921,28188.9762358907
8476356628,8579,2,0,56244.9838809002,59579.7602137703,39939.0168653852,57742.0607949045,57029.1919411388,62906.7005498864,66006.1049554135,58518.3841876019,68533.9804734701,28192.9185696613
8476356628,8579,2,0,56239.9829575060,59501.0473830227,39901.2361667499,57672.4372336837,56944.6994544003,62929.5758199135,65978.2287619921,58428.9151128628,68535.2337462429,28194.4638671578
8476356628,8579,2,0,56254.8883861141,59485.0955324878,39909.5710390737,57676.4160705448,56914.8764294873,62955.1644863322,65997.2955429136,58420.3490542994,68558.8147426858,28192.9064019645
8476356628,8579,2,0,56271.5459630647,59552.4193990091,39956.3436656611,57743.3749061614,56977.2115403112,62955.2009894226,66033.7742979888,58498.5508417805,68572.3573892497,28188.4651926241
8476356628,8579,2,0,56270.8889074363,59620.8991967287,39988.2351990340,57792.9826061086,57056.4110789318,62933.2504643540,66045.6134669976,58568.5029308156,68561.3456236249,28188.1488325067
8476356628,8579,2,0,56255.4724355616,59605.1176939493,39968.1098284888,57762.8797241686,57050.5097459726,62918.3085326555,66015.6322620258,58541.5879854432,68539.2734215881,28192.5657064534
8476356628,8579,2,0,56246.5535137904,59518.2281709367,39918.8184886591,57684.7144397780,56961.5030437128,62929.1742859184,65979.3725254935,58443.0053057838,68534.6618644922,28196.7148910701
8476381580,8580,2,0,56255.7279571949,59473.1590219045,39906.5047794743,57661.9121759318,56906.2008616525,62953.0108039945,65989.5203846438,58409.5441395207,68558.8634134731,28195.3277736322
8476381580,8580,2,0,56265.5837916215,59530.7487309675,39943.4459070287,57724.5758145700,56961.0406712335,62948.8251162874,66031.3164232306,58492.5034964595,68573.1969603305,28184.2795049170
8476381580,8580,2,0,56260.2786758067,59603.8765888734,39969.1197473251,57776.0573398278,57045.7035057276,62924.1125240400,66043.9221571392,58572.7251216131,68558.9729227445,28181.8216301588
8476381580,8580,2,0,56244.9230424161,59594.3736176546,39944.1516334445,57742.3771550219,57047.1392939527,62912.2246842440,66010.9720341426,58547.6718338547,68533.6154425655,28182.0284810048
8476381580,8580,2,0,56240.6643485281,59520.8685611473,39903.0613212734,57676.0510396401,56970.7869963887,62931.1819558941,65980.0417488187,58460.2225967882,68532.3500020959,28186.9685659149
8476381580,8580,2,0,56257.4801055374,59480.8368385998,39897.6831992776,57664.3943860837,56918.4415646564,62958.4254290807,65993.2193644780,58425.7271762952,68557.3059482797,28191.3246013775
8476381580,8580,2,0,56273.6874777055,59525.9668261161,39936.1331212381,57719.7452389313,56957.1591759470,62955.8580450511,66031.6206156512,58482.8788482725,68573.3916434796,28186.1654979246
8476381580,8580,2,0,56265.8028101643,59596.8071570192,39969.2292565965,57773.8671543997,57032.6232316429,62926.8867589157,66047.4629569146,58561.0684680568,68560.6764002997,28180.9090528971
8476434383,8581,2,0,56241.9541243913,59598.8148269950,39952.4378349809,57756.8567142412,57048.3073928477,62899.8258011814,66016.7760255272,58556.2378924181,68530.2571582423,28183.1114060220
8476434383,8581,2,0,56225.4668951962,59520.6495426044,39898.3767579966,57675.6981764322,56964.2651108916,62907.2724316371,65970.1372436049,58455.3676857559,68513.0155318442,28189.5724530350
8476434383,8581,2,0,56235.4079035006,59463.2545166906,39880.2347220336,57639.6817938363,56893.8141462868,62939.5898343988,65968.6649522893,58394.3953569761,68532.3743374895,28191.5192845267
8476434383,8581,2,0,56254.9248892046,59507.4110884611,39922.7608224297,57698.2449186451,56931.9963789172,62950.0783890602,66010.4488231792,58456.5966231350,68555.7728184800,28186.6278704038
8476434383,8581,2,0,56261.9091471809,59587.8760675512,39962.5370233439,57766.9437349075,57022.3415278275,62926.7285788569,66032.2533358860,58546.0170270868,68548.4722003863,28179.1690722514
8476434383,8581,2,0,56249.7536180548,59598.9608393569,39949.2985692006,57757.0392296936,57047.2123001336,62907.2602639402,66009.4145689493,58543.8755124459,68523.4554157183,28184.0118155869
8476434383,8581,2,0,56241.1145533105,59534.9587540682,39909.7292191324,57695.1543236521,56983.5022395687,62912.0908395790,65978.5329544127,58466.2334390188,68515.3638973310,28191.1907567124
8476434383,8581,2,0,56246.6873584554,59471.4798797429,39882.4249074617,57654.1978561461,56908.9629288314,62929.1986213120,65974.6027883389,58403.8253220139,68529.2594071028,28191.6044584044
8476444695,8582,2,0,56262.4688612348,59496.2654781713,39910.4957840322,57692.9519705271,56924.6227546425,62945.4546642675,66013.4055735072,58441.8372068888,68554.7385642501,28188.1123294162
8476444695,8582,2,0,56268.8325666732,59580.4781078828,39956.9520505022,57764.3641831810,57012.6803765501,62926.5460634046,66045.5282931198,58538.2418688169,68556.0891785974,28184.3038403107
8476444695,8582,2,0,56252.7590391701,59606.5048113871,39952.4256672841,57768.6958832500,57053.0892976991,62897.2584171518,66025.9869720221,58557.9778730637,68526.9718801001,28182.8802197824
8476444695,8582,2,0,56234.0816245469,59535.6036419998,39898.4132610870,57690.9443005514,56984.8771893097,62890.1646499040,65976.0020734735,58465.8319050236,68506.2502924107,28181.8824686429
8476444695,8582,2,0,56239.0460448506,59461.0521635657,39864.8425855525,57638.3676825794,56900.0683424538,62922.5307234530,65966.2314129247,58389.7107936993,68519.8902805492,28181.5417731319
8476444695,8582,2,0,56260.1448311416,59486.7260038621,39897.9143855173,57683.0231299196,56914.4262247048,62942.5465847268,66009.0982088319,58434.2932348585,68546.9390705866,28184.0848217678
8476444695,8582,2,0,56266.1800087658,59568.9552989915,39949.0673829609,57755.5426029844,57002.7150328521,62928.9796027692,66040.0528295495,58530.0408411583,68551.1490936873,28184.4011818852
8476444695,8582,2,0,56254.9127215077,59602.9153408244,39957.9741370353,57764.4128539683,57047.8693557621,62908.4283628352,66026.2303259586,58554.7169303152,68531.2914124723,28185.8004670199
8476483949,8583,2,0,56241.5282550025,59553.3441439677,39923.0406794567,57707.4680328369,57002.4960143093,62901.3467632843,65988.8024905312,58492.4791610658,68516.1669653213,28191.9694893091
8476483949,8583,2,0,56237.0870456621,59472.9765064522,39881.1838023857,57647.9314922823,56914.5965724604,62919.1724391299,65967.4360149102,58409.6779841857,68521.8249443440,28194.1961778277
8476483949,8583,2,0,56256.6648698503,59474.9841764279,39896.1500694780,57675.3453132244,56910.3865493596,62953.8990458626,66002.3938078825,58429.1828021929,68553.0472543917,28195.7536430210
8476483949,8583,2,0,56276.2670294320,59565.5361761843,39951.0385498462,57763.8896430049,57005.0147275517,62948.3749115050,66052.3665387343,58537.5969808853,68570.0090237629,28194.4273640673
8476483949,8583,2,0,56263.7586370980,59614.7058390458,39960.8943842728,57788.9550984602,57065.0014728888,62913.4171185326,66044.9442436723,58582.2402605287,68547.4257784595,28188.2826771718
8476483949,8583,2,0,56237.6224243223,59559.3184831078,39916.7986509865,57717.1291841143,57012.4005195232,62897.9641435675,65991.6375638910,58502.1038092528,68519.5130819477,28185.1677467851
8476483949,8583,2,0,56231.1978803998,59475.4465489072,39874.0413643507,57645.1085866193,56915.1806219079,62917.3107815160,65960.1232291196,58406.1128490166,68522.7496893026,28184.2186664329
8476483949,8583,2,0,56249.7536180548,59475.4222135136,39888.9589606556,57667.3024656244,56903.9376700435,62947.0364648544,65989.3257014946,58419.2904646758,68550.8935720540,28182.3205057285
8476505759,8584,2,0,56270.0371686587,59556.8484406527,39940.1484611897,57746.6115135163,56987.5905857012,62947.7421912702,66032.4601867320,58513.1277425744,68563.0004303929,28178.6093581975
8476505759,8584,2,0,56266.5572073673,59613.4890693635,39961.8434646250,57780.4742137746,57054.8292783448,62927.0692743680,66036.5850359549,58565.2298203702,68544.5542020093,28177.1005637915
8476505759,8584,2,0,56255.7766279822,59586.4037762356,39934.3201344115,57741.2212238238,57035.1419448853,62910.7402252316,66008.7575133209,58521.0854162966,68522.5185030629,28183.8901386187
8476505759,8584,2,0,56251.5057663973,59502.1303080399,39886.0387134181,57669.6508311112,56943.9328895005,62923.3946299275,65979.3360224030,58424.6442512779,68517.8826105734,28185.6301192644
8476505759,8584,2,0,56267.1899276021,59478.6223177780,39888.1923957558,57668.1177013115,56909.8633383962,62953.2176548405,65999.2058713149,58409.9335058190,68545.3937730901,28187.7838016020
8476505759,8584,2,0,56283.2147843179,59551.6406664125,39940.0389519183,57747.4875876876,56984.5608291923,62953.6070211388,66046.4165349879,58506.0704784171,68567.2104534936,28188.8910620129
8476505759,8584,2,0,56275.0502597497,59616.5918320533,39965.1652458577,57791.9605195754,57061.0348037245,62917.5176323620,66053.9483393213,58577.3366787090,68549.6159638876,28191.3732721648
8476505759,8584,2,0,56253.5742748572,59581.3906851446,39929.0271862935,57742.0121241173,57036.9914348023,62903.9871534949,66012.3591515805,58528.6050529332,68522.6888508184,28198.1141762047
8476554374,8585,2,0,56245.5070918636,59495.1703854572,39881.2568085667,57666.8522608419,56947.9847325425,62920.5960596582,65980.9421583836,58433.2468129318,68522.9443724517,28200.2800262392
8476554374,8585,2,0,56257.7477948675,59465.4081990283,39882.7534352759,57664.0780259663,56909.8146676090,62945.8318628690,65997.8674246643,58415.3724662989,68544.7488851584,28200.3652001169
8476554374,8585,2,0,56270.5360442284,59528.0231668791,39929.3678818046,57727.1066955091,56967.0758488577,62947.9733775098,66033.7864656857,58486.4196480480,68557.8413269399,28194.1718424341
8476554374,8585,2,0,56264.0628295186,59598.0725974888,39961.2959182680,57773.3196080427,57042.4668983727,62923.5163068957,66041.6467978333,58552.0765401046,68545.3816053932,28189.4264406731
8476554374,8585,2,0,56245.2515702303,59590.6259670332,39941.2800569942,57744.9323713548,57041.0311101476,62900.5436952940,66009.5119105239,58528.2156866348,68521.0948825346,28185.7396285358
8476554374,8585,2,0,56239.5205850267,59512.1808256157,39889.7498609491,57674.2380528135,56960.1889324559,62912.7843982979,65974.0795773755,58437.1891467024,68514.4878231598,28185.1434113914
8476554374,8585,2,0,56256.6770375471,59467.5862167596,39871.5834895924,57655.8891660045,56904.8259119115,62938.2270523546,65988.2792795679,58400.6008823558,68536.8277145267,28183.6467846822
8476554374,8585,2,0,56274.7947381164,59523.6792991134,39911.0798334797,57725.1598640175,56962.7076456983,62942.4005723649,66036.7432160136,58480.3723027270,68558.9485873508,28179.3515877037
8476582042,8586,2,0,56272.7749004438,59602.2461174991,39948.8605321149,57783.8324980977,57051.3371493566,62928.0791932043,66056.6860711064,58566.3249130843,68554.3491979517,28182.6855366332
8476582042,8586,2,0,56251.5787725783,59595.1036794640,39933.8334265386,57752.2086540549,57053.3813224229,62919.8781655456,66022.9815509069,58541.6731593210,68531.9728034944,28188.7085465606
8476582042,8586,2,0,56241.2849010661,59522.7545541548,39895.7972062701,57682.6580990149,56976.7491678320,62937.7403444817,65990.2261110595,58456.5236169541,68530.3301644233,28202.7987394815
8476582042,8586,2,0,56247.7337803822,59475.2031949708,39884.2865650756,57656.7652401757,56918.3928938691,62952.0252205518,65993.2436998716,58415.8105033845,68547.6204616086,28204.4900493399
8476582042,8586,2,0,56260.1326634448,59510.9153851461,39914.3529439251,57703.7812206996,56948.5322788996,62951.3681649234,66022.1054767356,58470.6259775718,68561.9418407693,28192.7238865121
8476582042,8586,2,0,56264.5860404820,59589.8594021333,39957.8767954607,57768.1970076802,57034.7282431933,62934.0413646475,66046.3921995942,58559.3528228047,68558.5713887493,28184.8878897582
8476582042,8586,2,0,56251.2624124609,59603.0613531862,39950.7100220320,57761.2735881880,57058.1510595774,62904.9970723312,66023.8697927750,58565.3271619448,68532.3500020959,28181.5539408287
8476582042,8586,2,0,56237.0627102685,59529.3859489233,39899.9707262804,57686.6856066633,56980.8010108740,62911.7379763711,65983.0350022372,58473.8017464426,68515.0718726073,28185.4476038120
8476604508,8587,2,0,56246.6143522745,59468.6326386864,39876.1342082042,57648.1140077346,56907.8800038141,62942.4979139395,65982.6943067261,58410.5783937506,68536.2558327760,28189.6819623064
8476604508,8587,2,0,56266.8370643942,59508.3845042069,39913.5620436316,57706.8839833894,56943.3853431435,62958.8756338632,66028.6030268391,58470.9301699924,68561.6984868328,28184.5593619439
8476604508,8587,2,0,56274.4297072117,59594.7751516498,39961.2594151775,57780.3160337159,57039.7291665875,62944.4204100375,66056.9172573461,58565.8990436955,68564.0590200164,28180.6413635670
8476604508,8587,2,0,56264.7928913280,59613.4525662730,39957.6942800084,57775.2421041407,57073.7013761172,62924.0273501623,66035.9401480233,58568.8192909330,68543.2644261460,28190.1199993920
8476604508,8587,2,0,56251.2380770672,59546.8222584706,39910.1307531275,57704.4261086312,57003.7371193852,62907.7591395100,65993.8764201064,58481.6620785902,68527.0692216747,28198.5887163808
8476604508,8587,2,0,56244.0591359417,59469.8859114591,39869.0282732596,57651.2776089086,56913.4528089590,62917.8096570857,65979.6158794299,58406.0398428357,68529.0403885600,28196.8609034319
8476604508,8587,2,0,56251.9559711798,59481.0558571426,39880.7944360874,57678.5819205793,56913.4893120495,62932.8976011462,66006.8471849197,58429.3409822516,68544.0188233491,28188.1610002035
8476604508,8587,2,0,56255.6184479235,59560.2675634599,39927.5913980684,57748.9720467000,56995.7064394821,62923.9786793750,66038.0208241800,58521.5842918663,68545.4181084837,28184.8270512740
8476626854,8588,2,0,56242.3191552960,59596.0527598162,39936.4981521428,57764.3276800905,57044.4502329548,62899.3269256117,66025.7557857825,58553.2933097869,68524.7938623688,28189.0127389811
8476626854,8588,2,0,56226.3429693675,59532.4400408259,39889.4700039222,57691.8568778131,56985.2178848207,62893.5229342271,65981.2220154105,58467.7422334248,68505.7879199314,28191.1542536220
8476626854,8588,2,0,56229.9446076271,59453.8488870465,39852.6505533359,57633.4397653661,56899.5572991872,62922.3968787880,65966.2192452279,58387.1920804569,68518.0651260257,28192.5900418471
8476626854,8588,2,0,56248.4151714043,59471.1148488382,39880.5389144541,57671.3786440601,56908.5127240489,62946.8052786148,66007.1513773402,58427.8200201487,68549.3239391639,28194.4516994610
8476626854,8588,2,0,56255.9713111313,59554.8772737674,39933.0790293356,57745.7354393451,56995.7672779662,62935.4893205695,66041.1235868699,58527.8019849428,68555.8944954483,28190.5215333872
8476626854,8588,2,0,56243.9861297607,59592.6093016153,39943.0078699431,57755.7981246176,57040.9337685730,62911.1539269236,66026.0599782031,58559.1946427460,68533.0922316021,28185.4719392057
8476626854,8588,2,0,56228.5088194020,59543.7194957807,39905.6530406967,57699.3035082687,56993.6744341127,62902.8677253872,65987.7682363013,58495.6184268462,68512.3219731253,28188.4408572305
8476626854,8588,2,0,56228.3628070401,59466.2964408964,39868.8822608977,57642.8940657976,56907.6123144840,62921.3747922549,65969.0299831940,58412.9997654184,68515.6924251453,28191.0325766537
8476695802,8589,2,0,56243.5967634624,59462.4392810035,39878.7380953243,57661.5106419367,56894.8970713040,62946.2455645610,65998.1472816913,58420.5315697518,68540.2833404244,28189.7062977000
8476695802,8589,2,0,56255.1195723537,59541.3224595066,39924.6833185278,57740.1748018970,56977.3940557636,62934.8687680315,66039.6634632511,58513.5171088727,68548.8372312909,28181.8337978556
8476695802,8589,2,0,56245.7747811937,59595.1523502513,39943.7744348430,57772.8450678666,57045.8495180894,62903.5856194997,66035.0519061552,58564.6701063164,68529.3202455869,28183.6102815918
8476695802,8589,2,0,56223.9946038807,59546.7492522897,39905.0933266428,57708.0520822844,57004.0169764122,62892.5860215718,65986.2594418953,58494.9978743082,68504.1817839508,28189.2439252208
8476695802,8589,2,0,56217.2415321439,59459.7380523088,39862.0805183737,57634.1576594787,56909.8511706994,62914.2201865230,65955.7671936570,58399.2989387958,68509.5355705528,28194.1353393436
8476695802,8589,2,0,56231.7575944537,59451.7803785866,39873.7615073237,57650.1825161945,56890.6505451128,62942.0598768539,65983.3148592641,58408.7654069240,68537.2049131282,28194.1231716468
8476695802,8589,2,0,56247.7216126854,59528.0718376664,39923.9045859311,57727.3987202329,56967.6720660020,62939.3708158560,66025.0743947604,58499.6946052818,68550.8814043572,28189.5724530350
8476695802,8589,2,0,56245.4949241668,59584.9193172232,39946.6460112932,57763.5246121002,57035.9085097851,62915.5951362640,66026.8387107998,58555.4348244277,68537.5699440329,28187.3579322132
8476718243,8590,2,0,56227.8395960767,59556.6172544131,39920.0960968255,57720.2562821978,57012.1084947994,62894.0948159778,65989.5203846438,58510.7307063003,68513.7699290472,28188.3435156559
8476718243,8590,2,0,56212.0337579037,59469.2166881339,39866.6677400760,57640.2536755870,56917.1396210964,62896.8568831566,65949.8050222137,58408.9600900732,68504.3399640094,28185.4719392057
8476718243,8590,2,0,56222.2911263254,59439.2354831621,39859.4766312536,57629.0715622067,56872.2529875165,62931.4131421338,65961.6320235256,58383.6147775910,68524.3314898895,28187.1510813672
8476718243,8590,2,0,56240.1654729583,59513.5071045694,39916.2632723263,57708.1737592526,56943.2880015689,62937.8741891468,66011.3614004410,58474.4831374647,68547.9854925133,28190.2660117539
8476718243,8590,2,0,56234.8238540531,59586.9148195022,39953.0583875189,57759.6552845105,57026.1013461458,62912.0056657012,66019.9517943980,58550.6529195763,68534.7227029763,28188.5381988050
8476718243,8590,2,0,56214.2239433318,59560.7907744233,39922.4566300092,57713.5883843389,57008.9327259286,62891.9411336402,65978.0340788429,58505.8757952679,68509.5477382497,28187.6256215433
8476718243,8590,2,0,56202.1657557803,59473.0616803299,39866.4973923205,57633.9386409359,56915.6916651744,62899.7162919100,65939.6936661538,58407.6946496036,68502.8798403907,28187.8203046925
8476718243,8590,2,0,56212.4474595957,59439.4423340081,39858.6492278697,57627.3437492578,56877.5946064218,62927.7628330869,65956.8744540678,58390.5625324769,68525.1345578799,28185.0339021200
8476729902,8591,2,0,56230.3218062286,59497.0320430711,39899.5691922852,57696.8091304200,56937.4110040034,62939.6628405797,66001.8584292223,58473.1568585110,68546.7200520438,28181.2497484081
8476729902,8591,2,0,56231.3073896712,59569.0283051725,39936.0722827540,57752.1356478739,57021.0274165706,62918.5153835015,66016.2649822606,58551.6141676253,68540.5997005418,28183.5859461981
8476729902,8591,2,0,56213.4938815225,59561.6060101105,39920.2056060969,57727.2162047806,57023.4609559352,62894.4355114889,65986.7826528586,58536.0273479952,68517.8461074829,28187.1997521545
8476729902,8591,2,0,56200.9611537948,59482.1874529471,39872.8489300620,57652.2631923512,56939.9540526394,62900.2395028734,65946.9456134603,58441.6546914364,68508.3796393547,28188.7815527415
8476729902,8591,2,0,56211.2063545197,59432.4824114254,39856.6658932875,57623.9002910570,56876.7915384315,62930.4397263880,65955.4143304491,58394.9550710300,68527.0327185842,28191.3732721648
8476729902,8591,2,0,56233.5949166740,59491.4105671389,39908.3299339977,57697.2106644152,56933.4565025359,62946.2333968641,66008.4411532035,58477.4763908832,68554.4100364359,28195.0235812117
8476729902,8591,2,0,56237.6589274128,59575.5501906696,39954.4211695630,57768.9879079737,57029.8489967673,62919.1724391299,66038.1668365419,58574.5502761366,68548.6060450513,28195.9483261702
8476729902,8591,2,0,56219.9427608386,59571.5956892021,39936.1209535413,57746.9643767242,57036.4803915358,62896.8447154598,66004.6691671884,58556.7246002910,68521.9952920995,28195.6806368401
8476748511,8592,2,0,56207.1301760841,59493.8441065035,39886.8052783179,57671.0014454586,56956.9888281915,62897.2340817581,65962.8001224206,58461.9625774339,68510.6184955701,28194.8288980625
8476748511,8592,2,0,56215.0391790190,59440.3914143603,39865.9741813571,57639.5966199585,56889.9934894844,62918.7587374379,65959.0159687087,58409.8604996381,68522.2508137328,28193.1862589914
8476748511,8592,2,0,56227.7300868053,59478.3546284479,39892.8282882453,57683.0596330101,56918.5389062310,62926.8867589157,65990.3356203309,58457.2901818539,68539.4072662532,28187.9298139639
8476748511,8592,2,0,56230.2001292604,59559.1724707459,39932.7261661277,57748.7165250667,57006.4505157768,62913.9524971929,66017.0558825541,58543.8876801428,68539.8088002483,28181.7364562810
8476748511,8592,2,0,56219.0180158801,59580.5267786701,39933.6387433894,57751.1500644313,57040.9094331793,62898.0249820516,66002.5519879412,58561.0684680568,68521.7397704663,28180.8482144129
8476748511,8592,2,0,56209.0405044853,59513.2272475424,39893.5948531451,57684.1668934210,56975.8000874798,62905.5446186882,65964.3089168267,58477.1113599785,68512.2367992475,28185.9586470786
8476748511,8592,2,0,56218.7624942468,59445.5870209037,39869.7096642817,57638.0756578557,56898.6325542287,62931.5591544957,65958.6387701072,58406.6968984641,68528.6023514744,28192.3223525170
8476748511,8592,2,0,56235.7607667084,59475.1788595771,39903.1099920607,57684.1912288146,56923.2843079919,62946.7079370402,65998.2811263563,58454.9418163671,68553.4244529932,28192.0546631869
8476811033,8593,2,0,56235.8459405862,59555.2788077625,39945.0277076157,57752.8778773801,57013.2035875135,62924.0151824654,66023.2492402370,58546.4428964756,68548.5208711735,28186.7738827657
8476811033,8593,2,0,56218.2636186770,59570.3180810357,39935.9506057858,57743.0342106504,57038.8652601131,62899.0714039784,65995.6042330553,58549.0832866862,68515.9844498690,28181.5904439191
8476811033,8593,2,0,56209.7827339915,59508.5305165688,39894.7994551306,57680.5409197677,56978.6716639300,62899.9231427560,65961.1574833495,58471.1978593225,68502.5634802733,28188.0514909321
8476811033,8593,2,0,56218.0932709215,59443.3359969915,39866.4852246236,57637.7471300415,56902.6357264834,62921.5208046167,65954.7694425175,58402.2191860333,68515.2057172723,28190.0956639984
8476811033,8593,2,0,56232.0374514806,59458.2535932964,39885.9657072372,57665.6233234628,56909.3644628265,62941.0012872303,65983.9475794989,58429.6208392785,68538.7137075343,28186.1776656214
8476811033,8593,2,0,56239.6179266013,59542.5148937953,39935.9749411794,57735.8065987376,56999.6122701623,62927.0814420648,66017.0802179478,58526.6095506542,68546.3671888359,28182.7342074205
8476811033,8593,2,0,56226.5619879103,59586.6958009594,39943.7744348430,57754.1433178497,57054.4520797433,62900.6410368686,66009.8161029445,58566.3614161747,68528.3589975379,28183.3912630489
8476811033,8593,2,0,56211.6322239085,59531.5274635642,39900.5426080310,57693.3656722191,57002.7272005489,62899.5459441545,65970.7091253555,58491.7004284692,68509.5112351592,28186.0316532595
8476819429,8594,2,0,56217.7282400168,59453.1309929339,39865.7916659047,57637.4064345304,56914.2680446462,62929.0404412533,65958.8577886500,58408.4855498971,68521.7276027694,28189.9496516365
8476819429,8594,2,0,56242.0149628754,59469.7520667941,39893.4853438737,57678.3629020364,56918.9404402262,62956.9774731588,66000.6051564495,58439.8173692162,68552.2320187045,28195.0235812117
8476819429,8594,2,0,56256.7013729407,59554.9867830388,39946.1958065107,57758.9738934884,57007.2900868575,62942.7656032696,66038.9699045322,58539.7263278293,68558.3158671160,28190.4606949031
8476819429,8594,2,0,56243.3412418291,59595.9189151512,39950.9290405748,57771.4701181256,57057.2263146189,62906.1408358325,66027.0577293426,58570.1577375835,68533.4450948099,28184.3525110979
8476819429,8594,2,0,56220.6363195575,59545.4838118201,39904.7039603445,57712.3351115661,57009.8818062808,62888.9478802217,65984.2882750099,58504.7076963729,68508.8420118339,28182.5030211809
8476819429,8594,2,0,56218.2149478898,59465.4933729060,39863.4433004179,57652.0320061116,56925.7056796597,62916.2765272860,65961.9727190367,58422.1255380356,68513.7699290472,28188.6355403796
8476819429,8594,2,0,56238.9608709729,59458.1562517218,39879.4924925274,57665.3921372232,56911.0071018976,62951.5141772853,65988.3887888393,58426.7857659188,68543.3009292365,28192.6387126344
8476819429,8594,2,0,56257.3705962660,59542.0646890128,39941.0853738451,57744.9323713548,56995.5482594234,62957.2208270952,66034.1758319840,58526.2810228400,68566.3830501096,28190.3998564190
8476848315,8595,2,0,56251.7004495465,59605.3245447953,39968.4870270903,57783.4796348898,57069.1019867181,62926.6434049792,66035.9158126297,58591.7310640506,68553.1810990567,28189.3777698858
8476848315,8595,2,0,56234.8725248404,59564.6601020130,39928.2849567873,57728.3964713724,57031.8201636526,62900.2273351766,65989.9219186390,58529.3229470457,68521.7154350726,28191.8478123409
8476848315,8595,2,0,56232.0861222679,59473.8525806234,39875.8178480868,57655.0495949237,56932.8359499980,62912.6262182392,65960.3909184497,58423.8168478940,68517.7122628179,28194.9627427276
8476848315,8595,2,0,56242.5016707483,59454.8223027923,39880.2955605177,57661.1699464256,56902.7574034517,62939.6750082766,65985.1765168780,58415.9565157464,68539.5532786150,28191.3611044680
8476848315,8595,2,0,56251.7247849401,59526.1371738716,39928.9906832031,57731.5722402432,56971.7725798314,62942.4249077585,66024.6971961589,58501.5562628958,68552.5483788219,28185.9099762913
8476848315,8595,2,0,56243.5602603719,59587.0608318641,39955.1147282819,57766.2623438854,57040.8607623920,62923.7961639226,66029.1749085898,58560.0828846141,68541.3662654417,28180.1789910877
8476848315,8595,2,0,56229.1172042431,59565.8890393921,39930.3534652473,57730.6353275878,57026.6002217156,62904.9118984534,65997.1251951581,58524.0665020182,68522.3603230042,28184.3768464916
8476848315,8595,2,0,56222.3641325064,59487.2370471286,39883.3374847234,57658.8824194229,56940.3677543314,62913.2954415644,65965.8177112327,58431.8110247067,68518.2111383876,28191.3002659838
8476875843,8596,2,0,56236.3448161559,59456.4406064698,39876.0490343265,57645.8508161255,56895.7974808689,62943.0819633870,65980.7231398408,58403.5211295933,68540.2955081212,28191.7383030695
8476875843,8596,2,0,56250.4593444706,59519.2502574698,39920.3272830651,57715.0971787449,56956.4777849249,62943.6538451377,66024.0644759241,58486.1397910211,68555.4686260594,28183.4886046235
8476875843,8596,2,0,56247.4295879616,59592.5241277376,39953.6181015727,57771.8716521207,57041.9193520156,62916.0331733496,66035.3074277885,58565.2176526734,68540.8673898719,28180.0329787258
8476875843,8596,2,0,56228.5453224924,59573.5668560874,39926.6909885035,57734.4194812997,57032.9274240635,62899.5581118513,65999.6074053100,58527.2301031922,68514.5121585534,28180.8603821098
8476875843,8596,2,0,56223.4835606141,59492.6516722149,39878.3730644196,57658.5538916087,56945.1374914860,62913.6969755596,65965.8785497168,58430.4847457530,68510.5941601764,28188.3435156559
8476875843,8596,2,0,56237.8901136525,59456.7447988904,39870.5005645752,57650.4380378278,56899.7398146396,62938.6772571371,65980.4189474202,58406.8064077355,68533.0192254211,28191.8478123409
8476875843,8596,2,0,56253.9149703683,59512.9838936060,39910.2037593085,57713.1868503437,56953.1681713891,62951.3194941361,66021.6187688627,58482.9275190598,68553.7164777170,28189.4386083699
8476875843,8596,2,0,56257.9424780167,59593.1203448819,39952.1214748635,57773.6116327664,57041.4569795364,62943.1671372647,66043.6423001122,58567.9553844586,68555.5172968467,28193.1254205073
8476905323,8597,2,0,56243.3047387387,59594.5926361975,39945.4049062172,57757.8057945934,57053.1258007896,62921.8006616437,66020.1221421535,58562.9422933675,68536.5478574998,28195.2182643608
8476905323,8597,2,0,56226.9391865118,59514.3345079533,39897.9387209109,57682.7554405895,56970.7626609951,62918.8439113157,65978.5086190190,58468.3627859628,68522.3359876106,28193.3079359596
8476905323,8597,2,0,56231.4777374268,59453.9583963179,39874.6497491918,57641.5069483597,56898.5230449573,62945.6128443262,65973.7145464708,58407.8041588750,68537.2779193092,28189.6454592159
8476905323,8597,2,0,56247.4174202648,59502.3371588859,39912.7589756413,57699.4373529338,56941.9982257056,62961.2605024405,66015.5835912385,58475.0428515186,68558.9120842603,28186.0924917436
8476905323,8597,2,0,56249.6684441771,59590.9179917569,39960.1156516762,57770.7400563162,57040.7634208175,62942.6317586045,66039.7608048257,58572.0193951974,68556.0770109006,28186.0559886532
8476905323,8597,2,0,56234.6291709039,59598.1212682761,39947.1083837724,57754.4718456639,57059.0027983550,62923.9665116781,66011.7751021330,58561.1658096313,68532.7515360910,28188.8910620129
8476905323,8597,2,0,56227.2312112356,59529.1547626837,39904.7282957381,57688.5959350645,56987.6757595790,62930.7925895958,65977.6082094541,58473.1446908142,68528.6631899585,28194.6463826102
8476905323,8597,2,0,56237.9996229239,59473.9499221980,39885.2843162151,57659.4664688704,56921.7511781923,62957.3425040635,65979.7497240950,58424.1088726177,68548.0828340879,28200.8275725962
8476966894,8598,2,0,56255.6792864076,59507.7396162753,39914.8396517980,57705.9470707341,56947.1208260681,62964.9229791842,66017.0802179478,58475.2983731518,68568.7679186869,28194.1353393436
8476966894,8598,2,0,56260.0231541734,59585.0409941914,39953.0705552157,57768.5498708881,57027.6466436423,62941.3054796508,66040.4543635446,58559.7056860126,68563.5723121435,28183.3912630489
8476966894,8598,2,0,56241.5647580930,59605.1663647366,39945.5022477918,57761.2370850975,57055.4376631859,62910.0223311190,66019.0270494394,58569.5006819551,68535.3432555143,28182.2109964571
8476966894,8598,2,0,56220.5633133766,59534.4355431048,39894.6169396783,57684.0452164528,56983.1007055735,62912.7357275106,65972.3882675171,58478.6931605654,68513.8672706218,28192.1398370646
8476966894,8598,2,0,56225.0896965947,59461.7335545878,39865.6456535428,57630.9210521238,56900.7497334759,62943.8363605900,65962.2039052763,58401.8784905222,68527.4585879730,28200.7910695057
8476966894,8598,2,0,56243.4385834037,59485.5457372703,39897.2329944952,57677.3043124128,56921.1306256543,62960.3722605724,66003.2942174474,58447.5438566987,68556.5758864703,28195.7901461115
8476966894,8598,2,0,56251.6152756687,59571.5591861116,39949.3594076847,57757.7206207157,57017.2554305555,62944.8949502136,66038.1790042387,58551.1761305397,68559.8246615221,28191.0447443506
8476966894,8598,2,0,56240.9685409487,59598.3402868189,39949.3107368974,57762.7337118067,57058.1145564870,62918.8439113157,66022.0811413420,58568.6124400870,68537.1075715536,28191.2272598029
8476998610,8599,2,0,56221.4272198510,59535.2264433983,39903.2681721194,57695.0326466839,56996.0593026900,62914.6947266991,65982.0980895818,58492.4426579754,68520.0484606079,28191.8964831282
8476998610,8599,2,0,56217.0711843884,59463.0111627542,39872.0945328590,57640.7282157631,56912.6497409687,62940.1252130590,65964.7712893059,58416.9299314922,68529.8191211567,28192.9672404486
8476998610,8599,2,0,56230.0297815048,59473.5727235965,39897.0748144365,57665.5503172819,56916.1905407442,62962.3312597609,65992.6474827273,58436.0575508979,68553.1202605726,28189.6089561255
8476998610,8599,2,0,56242.2583168119,59555.4248201244,39947.5585885549,57743.1437199218,57000.5005120303,62951.7210281313,66028.2866667217,58528.6050529332,68562.6840702755,28185.7396285358
8476998610,8599,2,0,56240.0316282933,59604.7404953478,39960.7848750014,57775.0960917788,57061.3389961451,62924.6357350034,66028.4935175677,58575.5723626697,68546.4645304105,28187.2362552450
8476998610,8599,2,0,56228.3141362528,59555.1206277038,39917.2366880721,57716.7519855128,57015.6736299686,62912.3098581218,65987.0625098856,58508.3823408134,68525.3535764227,28196.3011893781
8476998610,8599,2,0,56222.8630080761,59467.3063597327,39869.5636519198,57645.0234127416,56918.6240801088,62929.7948384563,65960.7072785671,58412.7807468756,68526.7650292541,28197.7248099064
8476998610,8599,2,0,56234.2519723024,59465.7610622362,39883.0454599997,57664.6620754138,56907.7218237554,62952.8769593294,65987.9142486632,58427.8200201487,68550.8205658731,28191.1785890156
8477029710,8600,2,0,56242.4773353547,59546.1286997517,39933.0546939419,57742.4623288997,56992.1656397066,62941.8651937047,66028.2136605408,58526.1715135686,68558.4862148715,28185.7761316262
8477029710,8600,2,0,56230.5164893777,59590.8814886665,39944.7235151951,57762.2956747211,57048.2708897572,62917.4811292715,66023.4804264766,58564.1955661403,68537.1319069473,28181.6026116160
8477029710,8600,2,0,56218.3244571612,59555.3639816403,39913.2335158174,57713.5397135516,57014.4933633767,62918.6127250760,65990.3234526341,58510.7428739971,68523.0052109358,28190.9230673823
8477029710,8600,2,0,56220.1131085941,59481.3843849568,39877.2171332215,57653.0540926447,56932.8602853916,62929.8921800309,65968.5676107147,58428.8907774691,68523.5649249897,28200.5355478725
8477029710,8600,2,0,56231.6115820918,59461.7335545878,39879.0666231385,57653.7476513636,56902.8182419358,62945.7345212944,65984.3369457972,58417.1976208223,68541.5487808940,28194.0501654658
8477029710,8600,2,0,56242.1731429341,59532.4035377354,39926.4963053544,57726.7538323013,56974.5346470102,62940.1008776654,66022.5921846086,58505.3404166077,68552.5970496092,28185.6179515675
8477029710,8600,2,0,56239.1433864252,59594.1180960214,39948.6415135721,57771.9568259985,57050.9234476646,62911.6649701901,66029.7954611277,58572.7007862195,68537.8011302725,28179.4854323688
8477029710,8600,2,0,56225.7954230104,59560.6082589710,39915.8982414216,57725.4275533476,57025.3104458523,62896.7352061884,65991.5523900132,58525.5631287274,68514.6581709153,28185.9829824722
8477044808,8601,2,0,56223.8242561251,59474.9355056406,39869.5028134357,57651.7156459942,56932.9819623598,62921.5208046167,65961.9605513398,58427.1386291266,68517.6879274242,28197.0799219747
8477044808,8601,2,0,56236.0527914322,59454.8831412764,39873.9196873824,57656.4002092710,56899.9466654855,62943.1549695679,65981.2706861978,58418.1710365681,68540.7335452069,28195.8388168988
8477044808,8601,2,0,56241.4917519120,59518.7148788096,39917.0298372261,57720.2684498947,56962.8414903633,62931.2427943783,66014.1964738007,58495.6305945430,68546.5862073787,28185.7396285358
8477044808,8601,2,0,56232.0131160870,59577.6552022199,39938.2137973949,57753.8147900355,57030.2383630656,62904.0114888885,66014.3424861626,58548.5965788133,68526.1201413225,28181.2619161049
8477044808,8601,2,0,56216.8886689361,59557.6150055525,39913.0023295777,57716.7519855128,57018.5938772061,62891.4787611609,65980.6136305694,58512.0569852540,68502.9528465716,28181.9798102175
8477044808,8601,2,0,56215.3190360459,59483.8422597150,39870.8169246926,57652.3970370163,56939.1753200427,62911.2025977109,65952.7617725417,58426.4572381046,68504.3886347967,28188.5868695923
8477044808,8601,2,0,56229.9202722334,59445.8303748402,39864.4897223447,57638.5136949413,56889.5189493083,62939.0544557386,65966.4625991643,58397.8996536611,68528.4563391125,28190.1808378761
8477044808,8601,2,0,56249.6319410866,59506.3768342311,39913.9392422331,57710.7776463728,56951.0509921419,62942.3884046681,66015.5957589354,58480.1046133969,68550.8327335699,28188.1731679004
8477070127,8602,2,0,56246.7968677268,59582.8629764601,39951.2697360859,57772.8450678666,57039.5953219225,62915.8384902004,66034.6260367664,58566.5439316271,68542.5830351240,28189.9496516365
8477070127,8602,2,0,56225.9414353723,59565.5970146684,39925.2186971880,57735.8552695248,57032.5867285524,62893.1700710193,65995.2513698474,58532.8272437307,68513.1737119029,28195.4129475100
