steady_timestamp,sequence,battery,flags,EEG-ch1,EEG-ch2,EEG-ch3,EEG-ch4,EEG-ch5,EEG-ch6,EEG-ch7,EEG-ch8,EEG-ch9,EEG-ch10
4193309949,28084,-2,0,-9134.2778372857,42630.1828748057,12495.9447801345,30327.2055985863,50873.1282490237,14299.3556293532,46206.4149834303,57627.4897616197,60609.4028866245,16068.5752504994
4193309949,28084,-2,0,-9140.2400087290,42623.8556724578,12491.7225893369,30317.5809503993,50865.6207800839,14289.6093041980,46186.1192651296,57618.2544797311,60605.7039067903,16063.9028549194
4193309949,28084,-2,0,-9146.8470681038,42623.9530140324,12494.1317933079,30316.1086590837,50867.2634191550,14283.0265802168,46192.9696784409,57620.9192053353,60606.0811053918,16062.4305636039
4193309949,28084,-2,0,-9155.7294867846,42621.2031145504,12495.4702399584,30313.3465919049,50864.4648488857,14266.7340341709,46203.0932021976,57617.8407780391,60601.3113682372,16058.0380250508
4193309949,28084,-2,0,-9162.6042354895,42612.4545405347,12499.8262754210,30306.5205139873,50852.7108537548,14265.5781029727,46183.3693656476,57610.7470107914,60597.7097299776,16054.5093929721
4193309949,28084,-2,0,-9165.4514765461,42610.6780567986,12502.2354793920,30307.0558926475,50849.7906065173,14263.8624577207,46179.3175226056,57611.2702217547,60598.6466426330,16055.2272870847
4193309949,28084,-2,0,-9169.9656920674,42610.2765228034,12502.7708580522,30303.5029251752,50850.5450037203,14260.3824964293,46192.8966722600,57612.8155192512,60597.2960282856,16057.8676772953
4193309949,28084,-2,0,-9175.1734663076,42602.7690538636,12502.5883425998,30294.0607924406,50844.9600308786,14261.4897568402,46177.0786663902,57605.1377025560,60592.0395832581,16056.9429323367
4193324163,28085,-2,0,-9178.4344090562,42598.8632231835,12506.5063409768,30291.0432036285,50838.8153439830,14263.8989608112,46161.6013560314,57602.5946539200,60591.4920369011,16054.3755483071
4193324163,28085,-2,0,-9177.4731610072,42602.2336752034,12512.3225000582,30296.3969902306,50844.2178013724,14267.3910897993,46179.4757026643,57608.9948624488,60597.5880530094,16059.4616455791
4193324163,28085,-2,0,-9172.9224423954,42605.2512640155,12523.9183151304,30302.2861554929,50848.1601351430,14265.2495751585,46183.4788749190,57612.4991591339,60602.5646410100,16067.5044931790
4193324163,28085,-2,0,-9175.2951432759,42602.1971721130,12528.8827354342,30299.8282807346,50842.3196406680,14257.0728828935,46165.5193544084,57607.8632666443,60597.7340653713,16062.1750419706
4193324163,28085,-2,0,-9180.6245944843,42600.4815268609,12528.0674997471,30297.3460705828,50842.8185162377,14248.7866813571,46174.9614871430,57608.2404652458,60595.4222029749,16055.0691070260
4193324163,28085,-2,0,-9183.6178479028,42595.5536096476,12525.0134078445,30293.4889106899,50842.0762867315,14242.5933236742,46178.6969700676,57605.7704227908,60591.8449001090,16051.9906797298
4193324163,28085,-2,0,-9188.5092620256,42586.6955263605,12523.6871288908,30286.3951434421,50831.5755643733,14242.6419944615,46155.6391845881,57598.8470032985,60588.5231188763,16051.2971210109
4193324163,28085,-2,0,-9183.2163139076,42592.1223191436,12529.0530831897,30291.2257190808,50834.9460163933,14246.2192973274,46162.8059580168,57606.2449629669,60594.2906071704,16055.9451811972
4193355612,28086,-2,0,-9175.3924848505,42599.3864341469,12532.8494045985,30298.9035357761,50845.8969435339,14243.3842239677,46186.0705943423,57613.8862765717,60597.5758853126,16057.2592924541
4193355612,28086,-2,0,-9173.6890072952,42599.7149619611,12538.2396942911,30300.6800195123,50844.8383539103,14241.8510941680,46177.2246787520,57612.5356622243,60597.7705684617,16057.3809694223
4193355612,28086,-2,0,-9176.3537328995,42601.6009549686,12548.6674104683,30303.4055836006,50845.4102356610,14243.0921992439,46170.9339794946,57617.7921072518,60599.6443937725,16063.3188054719
4193355612,28086,-2,0,-9178.0085396674,42604.9227362013,12552.6340796326,30305.1090611558,50848.6225076223,14241.1332000554,46188.0052581371,57623.4014154872,60605.0833542523,16064.8154321812
4193355612,28086,-2,0,-9178.8846138386,42601.5401164845,12553.4371476229,30299.8891192188,50844.0717890105,14234.8425007980,46183.1746824984,57619.6902679562,60603.9274230541,16065.6306678683
4193355612,28086,-2,0,-9180.0040419464,42599.5932849929,12556.9779473984,30294.7908542499,50839.5940765796,14231.9830920446,46168.7559617633,57615.4924125523,60603.3555413035,16062.8807683863
4193355612,28086,-2,0,-9178.2032228166,42602.5256999272,12562.4412432719,30297.0662135558,50846.3714837100,14227.2133548900,46184.3184459998,57620.7610252766,60604.2559508684,16062.2115450610
4193355612,28086,-2,0,-9180.4785821224,42600.7613838879,12566.2740677711,30296.6403441670,50845.3615648737,14217.6738805808,46187.5915564452,57618.4369951835,60601.9684238656,16061.5788248263
4193403139,28087,-2,0,-9186.1122257515,42592.3778407769,12570.9221279575,30291.5664145919,50836.2114568629,14220.9469910262,46163.3535043739,57611.9394450800,60596.9431650778,16059.2182916426
4193403139,28087,-2,0,-9183.1433077267,42595.6874543127,12575.5580204470,30295.8251084799,50838.4989838656,14219.9249044930,46170.3742654407,57617.5852564058,60599.5348845011,16062.3697251197
4193403139,28087,-2,0,-9182.7661091252,42598.4373537947,12574.9374679090,30294.6691772817,50842.9280255091,14211.6143675630,46185.1215139901,57620.7366898830,60597.9895870046,16064.7059229097
4193403139,28087,-2,0,-9184.6521021327,42595.7239574032,12581.4958564966,30289.6195831002,50836.7955063104,14207.7328722765,46168.2814215872,57615.1517170413,60596.1766001779,16062.8199299022
4193403139,28087,-2,0,-9182.9121214870,42596.5148576967,12588.9424869523,30289.3762291637,50835.0798610583,14203.9000477772,46163.0979827406,57616.7091822346,60597.1500159238,16060.8487630169
4193403139,28087,-2,0,-9180.6489298780,42600.9804024307,12593.1525100530,30292.8926935456,50840.4701507509,14201.2596575667,46181.2886894909,57619.8362803181,60598.2329409410,16059.8388441806
4193403139,28087,-2,0,-9181.9873765285,42601.8321412083,12597.0948438236,30295.0342081864,50841.3218895285,14206.7107857433,46176.8961509378,57620.0796342546,60599.7295676502,16063.3553085624
4193403139,28087,-2,0,-9181.1599731445,42604.3386867538,12601.7064009195,30297.7962753652,50841.9546097633,14207.7450399733,46166.0790684622,57621.6127640542,60601.8954176847,16064.2800535209
4193420412,28088,-2,0,-9179.4078248020,42605.2877671060,12597.9100795108,30298.0152939080,50845.8604404435,14203.7418677185,46177.2368464488,57624.3139927489,60601.7494053228,16065.6550032619
4193420412,28088,-2,0,-9181.0017930858,42598.9727324549,12594.1624288893,30290.1671294572,50840.3363060858,14191.0996307195,46173.9880713971,57617.8772811296,60595.1180105543,16060.5567382931
4193420412,28088,-2,0,-9185.6620209690,42592.9375548307,12599.4675447041,30283.4870639014,50831.1983657718,14186.1473781126,46151.9037016635,57609.6762534709,60589.6303792872,16057.8920126889
4193420412,28088,-2,0,-9187.8400387003,42594.3611753590,12603.4585492620,30284.1684549235,50832.9140110239,14180.2825482439,46159.1799843636,57611.4770726007,60588.3771065144,16059.8510118774
4193420412,28088,-2,0,-9186.5015920498,42596.8920562982,12604.4076296142,30284.6429950996,50834.4593085204,14171.7286573774,46175.6793812555,57612.0002835641,60585.6758778197,16061.5544894326
4193420412,28088,-2,0,-9192.1717387693,42593.9718090607,12605.4297161473,30282.3554680969,50828.9716772532,14173.0427686342,46158.6689410970,57606.1962921796,60583.6925432376,16058.7194160729
4193420412,28088,-2,0,-9193.1694899088,42595.6266158286,12610.6618257812,30284.7525043710,50830.6873225053,14175.9873512654,46157.5616806862,57609.9804458915,60587.1481691353,16060.3985582344
4193420412,28088,-2,0,-9188.4119204510,42599.2769248755,12614.7866750042,30288.6583350512,50839.1317041004,14173.7119919595,46176.2147599157,57615.5289156428,60592.5749619183,16063.7446748607
4193448259,28089,-2,0,-9180.0162096432,42598.8388877898,12618.9723627113,30288.4879872957,50837.1240341246,14172.4465514899,46166.3345900955,57613.8862765717,60592.9643282167,16062.6617498435
4193448259,28089,-2,0,-9177.3879871294,42597.4639380488,12619.1305427700,30289.1085398336,50834.4593085204,14168.3460376606,46157.4886745052,57612.4626560434,60591.9544093804,16061.1164523470
4193448259,28089,-2,0,-9180.8801161176,42599.2647571786,12615.4924014199,30286.8331805277,50836.2966307406,14152.6740441526,46171.9925691182,57613.8741088749,60587.8295601574,16060.3133843567
4193448259,28089,-2,0,-9189.9815533412,42591.5991081802,12610.7348319621,30278.6199851723,50827.7670752678,14139.6789439457,46162.0637285106,57604.0669452356,60575.8200433931,16053.5846480136
4193448259,28089,-2,0,-9196.8563020461,42580.5630071618,12610.1872856051,30271.8182426482,50816.0130801368,14140.6888627820,46137.6796640775,57597.2773704084,60570.3324121260,16049.4476310938
4193448259,28089,-2,0,-9194.7391227989,42581.7311060568,12614.7015011264,30274.8845022476,50818.6413026505,14145.6532830858,46150.9302859176,57602.1566168344,60574.5546029236,16054.5215606689
4193448259,28089,-2,0,-9189.6530255269,42582.8383664677,12619.2278843446,30278.6443205659,50824.0315923431,14145.9574755064,46161.7230329996,57605.5270688543,60578.1319057895,16058.3908882586
4193448259,28089,-2,0,-9186.8787906513,42583.3737451279,12622.6226717582,30276.6731536806,50820.6368049295,14149.3279275263,46148.0708771643,57601.6455735678,60578.7037875402,16060.7392537455
4193479458,28090,-2,0,-9185.6133501817,42585.8437875829,12625.1900557878,30278.6929913532,50820.1014262693,14146.1034878683,46152.4999188078,57604.4319761402,60579.4095139559,16060.0821981170
4193479458,28090,-2,0,-9186.0270518737,42588.0704761015,12625.4942482084,30279.2527054071,50826.2582808617,14146.6145311348,46168.1840800126,57610.2724706153,60581.7943825332,16061.8586818532
4193479458,28090,-2,0,-9187.0734738005,42583.0452173137,12627.1125518858,30275.9309241744,50821.1235128024,14141.6136077406,46152.3660741428,57604.1521191133,60579.0323153544,16059.5711548505
4193479458,28090,-2,0,-9189.0324729890,42579.2732312985,12626.7475209811,30273.2661985702,50817.6070484206,14134.2399834659,46143.1186245573,57600.8911763648,60573.1066470016,16052.7450769328
4193479458,28090,-2,0,-9190.6751120601,42578.2998155527,12624.4113231911,30273.4000432352,50819.9797493011,14129.1052154066,46157.9388792877,57601.0736918171,60568.3855806343,16051.8446673679
4193479458,28090,-2,0,-9193.4006761484,42577.9226169512,12624.4721616752,30274.5438067366,50819.9919169979,14131.8551148886,46153.1204713458,57598.5184754843,60567.2904879203,16052.7572446296
4193479458,28090,-2,0,-9197.4768545841,42574.0167862710,12624.4599939784,30273.8745834113,50816.1590924987,14131.3684070157,46136.5845713634,57597.1800288338,60568.2639036661,16051.3457917982
4193479458,28090,-2,0,-9196.0775694495,42573.7856000314,12621.7344298901,30275.0548500031,50816.6944711589,14122.7658453619,46146.0388717948,57599.1025249318,60566.2197305998,16053.1222755343
4193526998,28091,-2,0,-9194.3010857133,42568.8090120308,12621.4545728632,30271.4653794404,50813.7863916182,14116.8523447059,46149.2876468466,57594.6613155914,60563.1291356068,16053.0492693534
4193526998,28091,-2,0,-9191.0644783584,42566.0956156393,12628.1589738126,30273.9962603795,50809.7102131825,14122.8266838460,46136.5845713634,57592.6171425252,60561.9367013182,16053.9253435246
4193526998,28091,-2,0,-9186.0392195705,42570.2691356496,12634.9850517303,30279.3743823753,50811.5232000091,14121.6099141637,46147.0122875407,57597.3503765893,60566.2318982967,16053.7671634659
4193526998,28091,-2,0,-9186.0757226610,42572.8608550729,12639.2680810119,30281.1508661114,50815.7088877162,14119.7604242466,46161.4796790631,57601.9010952011,60566.9132893188,16056.2980444051
4193526998,28091,-2,0,-9195.0676506132,42565.9982740647,12638.8665470168,30271.5262179245,50806.2059164975,14113.0560232971,46138.8720983661,57593.3350366377,60563.4333280274,16051.6864873092
4193526998,28091,-2,0,-9198.5232765109,42564.9396844411,12637.3212495203,30268.4477906283,50804.4781035486,14116.0127736251,46133.1897839498,57593.3593720314,60564.6866008002,16048.9365878272
4193526998,28091,-2,0,-9190.2492426713,42570.5976634638,12638.2581621756,30275.7362410252,50814.4556149435,14116.5238168917,46155.5661784072,57601.6699089614,60567.9597112455,16055.5071441116
4193526998,28091,-2,0,-9183.8855372329,42573.2258859775,12642.9792285429,30279.8124194609,50818.3492779268,14121.0015293225,46152.6824342602,57603.0326910056,60570.9407969672,16066.5675805237
4193544441,28092,-2,0,-9185.4916732135,42574.5034941440,12648.6493752624,30280.3356304243,50815.6602169289,14116.6211584663,46141.9991964496,57603.3490511230,60573.9827211729,16069.9136971500
4193544441,28092,-2,0,-9190.8941306029,42575.5864191612,12650.5232005732,30279.9462641260,50816.9621604890,14109.2475341916,46157.5373452925,57606.5248199938,60576.2459127820,16070.4125727197
4193544441,28092,-2,0,-9195.0798183100,42571.5954146033,12649.6227910083,30275.1400238809,50813.1901744739,14098.0532531145,46155.0916382311,57600.8303378807,60570.5757660625,16066.8839406411
4193544441,28092,-2,0,-9199.1194936552,42565.3168830426,12646.3496805629,30269.9079142470,50806.3519288594,14093.4416960186,46136.3655528206,57594.9290049215,60564.3945760764,16059.4494778822
4193544441,28092,-2,0,-9198.4746057236,42566.8378451455,12642.4073467923,30270.9665038706,50812.2410941217,14094.6097949136,46144.5300773888,57597.1800288338,60562.6180923403,16057.9528511730
4193544441,28092,-2,0,-9194.0333963832,42571.5467438160,12645.0599046997,30274.1422727414,50819.4322029440,14101.1195127138,46153.8505331552,57599.3945496555,60564.4432468637,16064.5599105479
4193544441,28092,-2,0,-9189.9815533412,42572.4471533809,12653.5894601725,30276.6001474997,50820.3691155994,14108.1767768711,46137.7891733489,57599.1268603254,60566.4265814458,16069.4756600643
4193544441,28092,-2,0,-9182.9486245775,42580.1371377730,12661.6688108630,30283.2680453586,50827.6453982995,14108.6148139568,46144.0190341222,57608.2648006395,60573.7393672364,16072.7000997224
4193574692,28093,-2,0,-9178.7142660831,42581.6094290886,12659.8436563395,30283.3775546300,50834.6296562759,14098.2114331732,46163.0006411660,57607.9241051284,60570.3810829133,16065.8496864111
4193574692,28093,-2,0,-9181.6588487143,42573.1772151903,12656.1203411117,30277.0503522821,50827.0735165488,14092.7359696028,46150.3340687733,57600.3923007950,60566.9011216219,16054.9474300577
4193574692,28093,-2,0,-9185.8445364214,42568.6143288816,12657.8724894542,30274.9331730349,50821.0140035310,14089.6697100034,46138.5557382487,57596.5838116894,60565.1976440667,16050.7739100475
4193574692,28093,-2,0,-9191.7337016837,42566.8256774487,12656.7043905592,30273.2175277829,50819.2740228853,14081.8337132495,46150.6747642844,57596.2674515721,60561.6811796849,16047.4277934212
4193574692,28093,-2,0,-9196.3209233859,42560.7904998245,12654.8670683390,30267.8515734840,50810.7931381997,14075.7133617475,46142.2668857797,57589.2831935957,60553.2246303929,16044.9212478756
4193574692,28093,-2,0,-9195.1893275814,42558.7098236678,12655.6458009356,30268.4721260219,50805.9017240769,14083.1599922032,46127.7021526827,57584.7689780744,60551.3386373854,16042.9987517776
4193574692,28093,-2,0,-9183.2406493013,42569.0767013609,12662.3988726724,30280.8223382972,50818.7386442251,14097.1406758527,46149.6283423576,57598.5549785748,60561.2188072056,16050.6522330793
4193574692,28093,-2,0,-9176.1955528408,42576.4016548483,12669.4683045265,30288.7556766258,50828.7526587104,14101.6548913740,46163.0128088628,57607.2670495000,60568.7141084485,16059.0479438871
4193606206,28094,-2,0,-9176.3902359899,42573.8586062123,12675.2236251237,30288.6705027480,50824.7008156684,14097.3718620924,46145.7590147679,57604.6266592894,60570.4297537006,16060.8122599264
4193606206,28094,-2,0,-9179.8945326749,42573.5544137918,12680.3462254862,30286.9426897992,50823.3988721083,14092.6021249378,46147.2678091739,57607.4982357396,60572.0358896812,16058.0015219603
4193606206,28094,-2,0,-9183.1554754235,42570.7680112193,12676.1727054759,30284.0711133489,50822.9851704163,14078.9378014056,46160.6157725887,57604.9795224973,60569.2738225024,16054.8257530895
4193606206,28094,-2,0,-9188.0468895463,42564.6719951110,12668.1906963601,30278.1211096025,50815.6237138385,14076.1270634395,46146.2092195504,57595.9389237578,60562.6302600371,16045.8703282278
4193606206,28094,-2,0,-9186.6719398053,42564.9883552284,12669.4683045265,30280.4208043021,50816.8526512176,14082.4055950002,46142.1938795988,57597.2773704084,60563.5428372988,16045.2741110835
4193606206,28094,-2,0,-9178.6777629927,42571.6927561779,12675.4061405761,30289.3032229828,50827.2803673948,14087.1753321547,46164.9474726577,57608.0214467030,60571.1233124195,16053.3656294708
4193606206,28094,-2,0,-9176.1347143567,42570.2448002559,12678.5940771437,30289.8020985525,50826.0149269252,14084.5592773378,46158.7176118843,57606.3058014510,60571.1841509036,16056.7360814907
4193606206,28094,-2,0,-9175.4533233346,42570.0257817131,12680.8694364496,30289.3275583764,50821.2330220738,14082.4420980906,46146.6350889391,57602.3147968930,60569.7605303753,16055.6288210798
4193641024,28095,-2,0,-9175.0274539458,42570.0501171068,12679.8108468260,30289.8020985525,50823.7152322257,14077.8792117820,46160.1047293221,57604.2616283847,60569.0183008691,16055.7261626544
4193641024,28095,-2,0,-9175.9156958138,42570.2326325591,12682.1957154033,30290.2401356382,50825.8202437761,14081.2861668924,46163.8402122468,57602.6433247073,60570.4297537006,16057.8676772953
4193641024,28095,-2,0,-9180.6732652716,42567.7990931945,12685.3228134868,30288.6339996575,50820.0892585725,14083.9630601935,46143.9216925476,57600.8425055775,60573.7028641460,16057.3444663319
4193641024,28095,-2,0,-9181.7561902889,42569.5512415370,12686.4057385040,30291.8949424061,50820.8558234723,14077.7697025106,46151.7211862111,57602.6068216168,60574.2504105030,16056.2615413146
4193641024,28095,-2,0,-9181.5006686556,42565.5359015854,12679.6526667673,30289.3518937701,50817.4001975746,14070.2013950867,46161.5648529409,57599.2485372937,60568.3004067566,16051.8933381552
4193641024,28095,-2,0,-9177.1324654961,42559.8900902596,12676.2943824442,30285.2270445471,50811.7908893392,14071.0653015612,46145.4913254378,57588.6991441482,60562.3138999197,16049.8369973921
4193641024,28095,-2,0,-9175.3438140632,42558.6976559710,12679.1172881071,30285.9692740533,50807.5078600576,14067.9625388713,46143.6661709144,57587.0321696834,60561.0484594501,16046.1136821643
4193641024,28095,-2,0,-9176.3780682931,42559.2452023280,12683.5950005379,30285.9936094470,50812.1194171534,14065.5289995067,46159.3868352096,57589.5995537131,60564.7231038906,16051.1146055585
4193673472,28096,-2,0,-9180.1987250955,42555.4245455256,12689.3138180447,30282.8056728793,50809.9535671190,14069.9823765439,46144.4449035110,57586.8496542311,60565.0272963112,16054.2903744293
4193673472,28096,-2,0,-9178.7264337799,42559.5128916581,12695.8965420259,30283.7912563220,50810.6227904442,14076.2365727109,46133.9806842433,57590.4999632780,60570.2472382482,16055.9816842877
4193673472,28096,-2,0,-9175.9400312075,42568.5169873071,12698.2814106032,30287.9647763323,50821.6832268563,14073.0243007497,46153.1083036490,57599.6014005015,60573.8975472951,16057.4661433001
4193673472,28096,-2,0,-9174.0175351095,42569.2835522069,12700.3742544568,30288.7921797162,50825.6133929301,14070.2257304804,46155.3349921676,57600.5018100664,60573.7028641460,16056.9672677304
4193673472,28096,-2,0,-9175.0031185521,42565.1343675903,12702.1507381929,30287.9161055450,50821.9630838832,14067.7191849349,46138.0081918917,57596.9853456846,60571.9263804098,16053.2682878962
4193673472,28096,-2,0,-9174.4190691046,42566.4849819376,12700.6419437869,30290.8120173888,50823.8247414971,14064.5920868514,46149.6040069639,57601.7550828392,60572.8024545811,16050.0925190254
4193673472,28096,-2,0,-9175.3681494568,42561.9464310227,12693.3413256931,30287.9526086355,50819.1888490076,14054.2130414614,46155.5905138008,57597.8979229463,60566.2197305998,16047.0505948197
4193673472,28096,-2,0,-9180.0405450368,42555.7044025525,12690.0073767636,30281.5524001066,50810.5376165665,14051.7429990063,46136.9861053586,57588.0664239134,60560.3914038217,16044.8725770884
4193704348,28097,-2,0,-9179.9918742495,42559.3668792962,12692.6842700647,30284.0467779553,50813.4821991976,14057.0602825180,46140.8067621610,57591.5950559920,60561.3404841739,16051.6864873092
4193704348,28097,-2,0,-9182.2672335554,42561.9464310227,12693.5846796296,30284.8741813393,50816.4389495256,14050.2707076908,46153.4489991600,57592.9700057330,60564.5162530446,16057.4053048160
4193704348,28097,-2,0,-9185.5038409103,42555.4123778288,12694.6189338595,30280.9683506591,50809.4546915492,14048.7862486784,46137.6188255934,57587.1903497421,60562.9587878513,16055.4584733243
4193704348,28097,-2,0,-9184.2018973503,42556.2762843032,12697.9528827890,30283.2072068745,50810.4037719014,14049.2851242481,46131.2064493677,57590.6824787303,60566.3170721744,16052.9884308693
4193704348,28097,-2,0,-9186.1365611451,42562.1046110814,12697.7095288525,30288.3419749338,50817.1325082445,14040.9380842276,46150.6990996780,57595.8659175769,60565.4288303064,16049.6179788493
4193704348,28097,-2,0,-9189.9693856443,42560.0239349246,12694.9231262801,30286.2004602930,50813.9932424642,14031.3134360406,46143.4836554620,57591.8992484126,60560.0628760074,16043.6679751029
4193704348,28097,-2,0,-9193.9603902023,42551.0928454566,12692.1975621917,30280.9926860527,50802.9206383553,14028.8677289792,46123.9545020612,57585.6937230329,60551.5576559282,16038.0343314739
4193704348,28097,-2,0,-9188.8621252335,42552.4312921071,12696.4805914734,30284.0711133489,50803.7480417393,14032.6397149943,46138.4827320678,57590.7311495176,60555.6216666671,16042.3295284524
4193732205,28098,-2,0,-9185.8202010277,42552.2122735643,12701.2138255375,30283.9372686839,50805.2811715390,14034.2823540654,46143.4836554620,57591.9357515031,60557.8726905793,16047.9023335973
4193732205,28098,-2,0,-9185.3213254580,42550.8008207329,12707.4801894014,30282.3311327033,50803.7845448297,14035.2922729017,46128.4565498857,57590.2444416447,60558.0673737285,16049.4232957001
4193732205,28098,-2,0,-9183.1919785140,42555.1081854082,12709.6582071327,30285.9936094470,50808.5177788939,14031.6419638548,46137.1686208109,57595.1723588580,60560.9511178755,16049.9830097540
4193732205,28098,-2,0,-9182.8877860934,42556.9941784157,12706.6041152301,30286.7723420436,50812.3384356963,14020.2529996286,46148.2898957071,57595.6468990341,60558.8217709315,16051.9298412457
4193732205,28098,-2,0,-9183.7516925678,42551.7620687819,12706.2147489318,30285.0445290948,50805.7070409278,14018.6955344352,46128.6390653380,57592.0574284713,60555.0132818259,16049.9465066635
4193732205,28098,-2,0,-9182.3280720395,42551.5552179359,12710.0597411278,30287.9404409386,50805.1594945707,14018.5495220734,46125.3416194990,57592.8604964616,60555.6094989702,16047.9753397782
4193732205,28098,-2,0,-9180.0527127336,42555.5218871002,12710.2665919738,30291.0797067190,50811.0364921362,14017.7951248703,46145.3453130759,57597.7762459781,60556.1327099336,16049.4597987906
4193732205,28098,-2,0,-9181.3789916873,42555.0716823177,12709.3540147121,30288.1959625719,50809.6007039111,14020.9830614379,46136.6697452412,57592.8483287648,60553.6870028722,16052.4287168154
4193766211,28099,-2,0,-9180.8436130271,42555.5948932811,12713.8317271429,30288.6948381417,50808.2500895637,14027.4197730573,46124.5750545992,57591.6315590825,60557.3981504032,16052.3313752408
4193766211,28099,-2,0,-9176.3293975058,42559.7197425041,12718.2729364833,30293.9026123819,50814.5894596085,14025.7649662894,46141.0257807038,57597.5937305258,60559.9898698265,16051.5283072505
4193766211,28099,-2,0,-9175.7575157551,42556.4953028460,12717.6888870358,30291.1283775062,50811.8152247329,14018.9875591590,46139.4804832073,57592.1304346523,60557.2764734350,16050.9685931966
4193766211,28099,-2,0,-9184.4087481963,42549.3772002046,12714.9876583411,30286.2126279898,50802.1054026682,14013.6094371632,46121.6669750585,57582.9073204605,60549.8541783730,16048.0848490496
4193766211,28099,-2,0,-9188.0103864558,42548.4646229429,12710.6802936658,30285.4460630899,50800.6939498367,14006.1384713140,46129.9045058076,57582.1650909543,60546.4837263530,16046.8559116705
4193766211,28099,-2,0,-9188.7526159620,42544.8508169864,12707.1881646776,30281.7470832558,50798.2482427753,14000.0302875088,46137.6796640775,57578.2470925773,60542.1641939809,16048.4377122575
4193766211,28099,-2,0,-9190.6507766664,42536.3212615136,12705.7645441493,30272.6334783354,50787.8570296885,13997.4750711760,46116.6295485738,57570.0460649186,60536.9199166502,16045.5539681104
4193766211,28099,-2,0,-9188.6431066906,42536.0900752739,12708.1615804234,30271.9764227069,50787.4311602997,14001.6850942768,46115.8751513708,57570.1555741900,60536.1046809631,16042.8162363253
4193794805,28100,-2,0,-9184.0437172916,42540.0202413477,12707.0421523157,30273.7285710494,50793.5393441048,13998.5214931028,46132.0095173580,57571.7495424738,60533.9996694127,16043.8261551616
4193794805,28100,-2,0,-9180.6854329684,42539.8133905017,12705.7767118461,30274.0936019541,50792.2495682416,14003.3520687415,46123.0662601931,57568.5616059062,60532.2718564638,16043.9234967362
4193794805,28100,-2,0,-9178.3370674816,42540.3487691620,12703.5378556307,30276.3202904727,50792.6389345399,14007.9027873533,46114.8287294440,57567.5151839794,60534.2916941364,16042.3295284524
4193794805,28100,-2,0,-9177.0351239216,42539.7890551081,12697.2349886764,30280.3477981211,50796.0945604376,14014.3273312758,46130.3425428932,57571.8347163516,60538.0515124547,16044.7022293328
4193794805,28100,-2,0,-9178.5439183276,42537.2460064721,12689.3259857415,30280.9805183559,50792.2495682416,14016.9190506991,46126.4488799099,57569.1091522632,60537.0050905280,16046.6125577340
4193794805,28100,-2,0,-9181.4641655651,42534.4961069901,12678.2777170263,30277.7560786978,50785.3139810525,14019.3160869732,46107.7106268026,57565.4588432164,60532.4178688257,16040.2975230829
4193794805,28100,-2,0,-9181.0017930858,42536.2725907263,12664.4430457386,30277.7804140915,50787.6745142362,14022.3945142694,46119.7688143541,57570.8126298185,60532.7220612463,16038.3871946817
4193794805,28100,-2,0,-9185.5038409103,42534.8854732885,12643.6241164746,30275.7849118125,50785.9710366809,14023.6964578295,46124.0883467262,57571.1533253295,60530.4832050309,16040.1758461147
4193837578,28101,-2,0,-9186.8422875608,42531.1621580606,12623.9854538023,30275.8457502966,50781.9678644262,14035.5842976255,46104.5226902349,57573.1001568212,60531.1645960529,16043.5341304378
4193837578,28101,-2,0,-9185.7106917563,42533.7417097871,12603.5193877461,30278.4131343263,50784.0363728861,14043.1161019589,46110.2415077417,57578.9893220835,60536.6400596233,16048.1700229274
4193837578,28101,-2,0,-9189.6895286174,42533.3888465792,12574.8157909408,30277.5248924582,50784.9976209351,14045.1116042378,46123.3947880073,57579.2935145040,60536.8469104693,16049.7883266048
4193837578,28101,-2,0,-9190.5290996982,42527.4631782265,12545.1022752992,30271.8060749514,50779.1814618537,14044.8439149077,46110.4848616782,57573.6112000877,60532.2718564638,16048.5593892257
4193837578,28101,-2,0,-9190.3587519427,42520.8804542452,12512.7848725375,30267.1701824619,50771.3211297061,14045.0507657537,46101.6511137847,57569.9973941313,60527.8428148203,16041.0154171955
4193837578,28101,-2,0,-9191.9770556201,42517.6438468903,12482.7428290816,30265.3085248480,50767.5734790847,14044.9899272696,46113.4781150966,57570.0460649186,60525.5917909080,16034.7855564221
4193837578,28101,-2,0,-9195.6760354543,42513.0931282786,12456.9838149074,30261.6217127106,50763.4729652553,14055.1864572072,46103.1842435844,57568.7197859649,60525.8473125413,16036.5985432488
4193837578,28101,-2,0,-9196.1992464177,42514.3464010513,12438.7322696730,30262.9601593611,50760.2728609909,14069.3374886123,46089.1427214507,57571.2019961168,60531.5539623513,16040.8815725304
4193876383,28102,-2,0,-9193.3398376643,42520.0895539518,12417.2806201742,30269.0318400758,50768.3765470750,14069.7998610916,46108.8057195166,57577.5535338584,60537.2849475549,16044.3858692154
4193876383,28102,-2,0,-9194.7147874053,42518.3982440934,12391.9109722984,30268.3747844473,50769.8488383905,14066.6970984017,46111.1175819130,57577.1154967727,60535.3989545473,16043.7653166775
4193876383,28102,-2,0,-9197.6228669460,42513.9935378435,12372.8076882863,30263.7875627451,50763.3147851966,14067.4636633016,46092.5375088643,57574.0127340829,60532.0285025274,16040.3826969607
4193876383,28102,-2,0,-9197.8905562761,42514.4315749291,12356.0649374580,30263.9944135911,50761.8181584874,14066.5145829494,46098.8403758186,57578.7581358438,60532.1988502829,16040.6382185940
4193876383,28102,-2,0,-9200.4701080025,42512.8254389485,12340.0522484390,30260.3441045442,50760.7352334702,14062.1950505772,46108.3311793405,57575.3390130366,60528.0740010599,16039.0442503102
4193876383,28102,-2,0,-9199.6548723154,42511.0732906060,12332.3744317437,30257.9714036637,50758.9100789467,14072.4889220895,46091.1260560329,57572.8081320974,60529.1447583803,16041.0762556796
4193876383,28102,-2,0,-9195.9923955717,42513.2391406404,12323.4555099725,30258.5432854144,50760.6257241988,14074.5695982462,46090.2621495585,57572.9906475498,60533.2574399065,16042.5850500856
4193876383,28102,-2,0,-9195.3353399433,42513.2878114277,12312.3707381668,30261.1471725345,50765.7239891676,14075.0441384223,46105.0215658047,57578.0524094281,60536.1046809631,16044.4467076995
4193887586,28103,-2,0,-9203.4146906337,42504.0160264486,12299.9110166201,30254.6374547342,50755.6004654109,14064.8232730910,46087.9746225557,57568.4277612412,60530.1911803071,16041.6968082176
4193887586,28103,-2,0,-9210.4841224878,42500.3900527954,12292.4157153772,30251.9118906459,50749.9911571755,14064.8354407878,46076.3423043930,57564.2420735341,60525.6769647858,16038.7278901928
4193887586,28103,-2,0,-9208.6468002676,42506.4617335101,12285.3584512198,30255.7325474483,50757.7784831422,14064.4339067927,46095.4577561019,57567.8680471873,60525.7134678763,16038.4358654690
4193887586,28103,-2,0,-9204.3881063795,42510.0147009824,12284.0321722661,30256.6694601037,50762.9497542919,14068.5465883188,46098.8403758186,57568.2209103952,60526.8572313776,16041.8063174890
4193887586,28103,-2,0,-9199.5210276504,42510.4770734616,12285.7721529118,30257.0223233115,50761.7329846096,14077.1978207599,46082.0854572934,57569.4863508648,60532.9654151827,16045.2254402962
4193887586,28103,-2,0,-9190.6264412728,42516.8651142937,12285.4801281881,30264.7974815814,50768.3643793781,14080.4344281148,46096.4311718477,57577.7847200980,60541.3124552033,16053.1831140184
4193887586,28103,-2,0,-9190.4804289109,42515.6848477019,12276.5490387200,30263.6537180800,50767.9263422925,14063.7160126801,46103.8899700002,57575.4485223080,60538.2461956039,16052.6233999646
4193887586,28103,-2,0,-9199.4236860758,42506.7659259306,12269.9419793452,30255.6838766610,50758.3503648929,14059.7980143031,46083.5577486090,57565.6535263655,60531.0672544784,16046.1015144675
4193917045,28104,-2,0,-9203.8648954161,42507.0457829576,12270.8423889101,30254.1142437709,50758.1191786532,14058.7880954668,46082.4383205013,57566.4930974463,60530.0330002484,16042.1956837873
4193917045,28104,-2,0,-9209.2430174119,42509.9903655887,12269.9541470420,30252.7757971203,50761.4896306732,14055.3568049628,46097.2829106253,57570.7031205470,60530.0938387325,16045.7729866532
4193917045,28104,-2,0,-9213.9762514760,42505.9020194562,12267.3989307092,30247.9817245721,50755.6734715918,14056.7439224006,46081.9516126284,57564.9964707371,60527.5507900965,16046.1380175579
4193917045,28104,-2,0,-9211.9929168939,42508.3477265176,12271.9861524114,30252.1674122792,50756.5617134599,14064.6894284259,46077.7780926181,57568.0505626396,60532.0163348306,16050.2506990841
4193917045,28104,-2,0,-9205.9577392697,42516.9624558683,12275.7094676393,30261.9745759185,50766.6243987325,14065.0666270275,46102.1499893545,57578.6242911788,60535.4719607283,16053.8158342532
4193917045,28104,-2,0,-9202.9523181544,42516.3297356335,12271.2804259957,30260.6969677521,50766.1863616468,14060.1630452078,46098.9133819996,57574.1709141416,60532.2718564638,16048.9000847367
4193917045,28104,-2,0,-9205.7752238173,42512.3752341660,12271.4021029639,30254.0534052867,50759.9199977830,14062.3288952423,46079.9804457431,57570.3867604297,60532.4908750067,16042.1591806968
4193917045,28104,-2,0,-9201.7355484721,42516.0377109097,12276.7315541724,30256.5842862259,50765.0060950550,14063.4483233500,46095.5185945860,57575.9717332714,60536.9199166502,16046.7220670054
4193949034,28105,-2,0,-9197.5011899777,42516.7799404159,12279.7248075908,30255.1850010913,50766.6243987325,14061.5014918583,46100.0328101073,57574.4872742590,60536.4210410805,16052.2218659694
4193949034,28105,-2,0,-9194.8851351608,42514.4072395354,12280.2723539479,30254.2845915264,50767.8533361116,14062.0247028217,46084.0687918756,57573.8423863274,60538.1731894230,16051.4066302823
4193949034,28105,-2,0,-9192.1839064661,42519.2621505678,12281.0510865445,30259.2611795270,50775.4824820196,14062.8642739025,46092.2819872311,57578.5634526947,60538.2826986944,16048.7784077685
4193949034,28105,-2,0,-9192.0500618011,42521.3914975118,12281.1605958159,30262.4004453073,50779.9601944504,14058.3500583812,46107.5037759566,57580.8144766069,60536.4453764741,16048.8027431622
4193949034,28105,-2,0,-9196.8806374398,42516.2080586652,12280.8077326081,30257.3995219130,50771.8443406695,14059.1531263715,46091.3329068789,57573.7815478433,60534.2065202587,16048.0726813528
4193949034,28105,-2,0,-9196.3087556891,42518.3617410029,12285.8816621832,30259.9912413363,50771.9173468504,14069.1428054631,46090.2013110743,57578.9041482057,60539.2439467434,16049.3137864287
4193949034,28105,-2,0,-9190.5047643046,42526.1125638791,12291.1259395139,30266.5131268334,50782.9899509593,14072.7687791164,46111.5799543923,57587.7865668865,60546.3133785975,16050.5670592015
4193949034,28105,-2,0,-9189.4218392873,42527.4510105296,12294.5328946243,30267.3040271269,50783.7565158592,14070.5542582946,46104.6808702936,57586.2777724804,60544.9870996438,16046.3935391912
4194004469,28106,-2,0,-9192.8531297914,42524.4942602017,12295.3724657051,30264.1647613466,50783.1481310180,14068.7291037712,46090.3716588299,57582.7978111891,60541.8234984699,16046.0528436802
4194004469,28106,-2,0,-9192.0378941042,42527.4510105296,12295.3724657051,30267.1823501587,50788.4410791360,14069.6051779424,46108.9152287880,57590.0497584955,60545.1087766120,16051.3579594950
4194004469,28106,-2,0,-9196.2235818113,42524.0683908129,12294.9465963163,30263.3495256595,50786.7862723681,14062.0490382154,46109.3532658737,57586.0100831503,60540.2903686702,16051.5161395537
4194004469,28106,-2,0,-9201.6868776848,42519.2864859614,12297.3558002873,30259.4315272825,50779.3396419124,14059.2383002493,46091.8317824486,57582.8708173700,60539.2561144402,16047.2087748784
4194004469,28106,-2,0,-9201.9423993181,42522.6934410719,12300.3612214025,30263.9457428038,50784.7177639082,14057.5713257845,46104.6687025968,57588.5652994831,60541.7018215016,16045.7851543501
4194004469,28106,-2,0,-9196.4426003541,42522.9976334924,12299.6798303805,30266.3549467747,50788.0395451408,14055.9043513198,46118.0166660116,57590.0497584955,60541.7748276826,16048.0483459591
4194004469,28106,-2,0,-9191.3199999917,42524.2995770525,12302.6730837989,30265.8682389018,50785.9710366809,14062.2802244550,46103.5736098828,57589.2101874147,60545.1817827930,16048.9000847367
4194004469,28106,-2,0,-9189.2393238350,42528.8746310579,12306.3233928458,30267.9975858458,50790.6799353514,14057.7295058432,46103.0869020098,57595.0141787993,60549.5378182556,16048.6202277098
4194016108,28107,-2,0,-9191.1131491457,42529.3248358404,12302.4053944688,30265.8560712050,50793.0404685351,14047.6668205707,46117.0432502658,57596.2917869657,60548.0046884559,16045.2132725994
4194016108,28107,-2,0,-9191.3686707790,42527.5118490137,12303.8898534812,30264.5297922513,50790.6677676546,14045.9998461059,46109.9494830180,57593.8582476011,60546.1430308420,16039.9568275719
4194016108,28107,-2,0,-9188.0103864558,42530.1035684370,12310.4117389783,30270.0174235184,50794.8412876649,14057.5104873004,46106.2505031838,57596.2552838752,60548.3210485733,16042.3295284524
4194016108,28107,-2,0,-9178.8237753545,42537.1730002912,12315.3761592820,30277.3058739154,50804.6362836073,14058.5204061367,46127.3979602621,57604.6266592894,60554.1007045642,16050.4818853237
4194016108,28107,-2,0,-9182.7296060347,42532.9629771904,12309.6938448657,30274.3491235874,50799.7570371813,14050.3558815685,46120.2676899238,57600.8181701838,60549.6108244365,16050.2020282968
4194016108,28107,-2,0,-9187.2194861624,42530.6511147941,12308.7082614231,30270.9178330833,50794.4032505792,14050.6965770796,46101.7484553593,57596.6568178704,60546.8487572577,16048.4863830448
4194016108,28107,-2,0,-9187.9008771844,42537.9395651910,12310.0710434672,30275.1765269714,50800.1829065701,14049.3581304290,46117.7976474688,57600.8181701838,60546.4593909594,16050.6765684729
4194016108,28107,-2,0,-9189.4826777714,42540.6651292794,12310.6429252179,30271.3802055626,50800.7304529272,14045.6104798076,46125.2442779244,57599.2728726873,60544.7072426169,16052.0271828202
4194044587,28108,-2,0,-9193.1451545151,42533.6930389998,12309.4139878388,30263.0331655421,50790.5339229895,14045.2332812061,46102.4176786846,57590.2809447352,60540.7405734526,16051.8568350647
4194044587,28108,-2,0,-9192.9869744564,42532.8047971317,12313.9890418442,30262.9114885738,50793.3689963493,14047.4964728151,46106.9318942059,57594.9168372247,60546.1186954483,16053.4386356517
4194044587,28108,-2,0,-9191.3199999917,42532.4519339239,12315.3031531011,30264.9678293369,50797.8832118706,14042.7389033574,46123.4312910978,57598.9565125699,60545.2182858834,16053.1101078375
4194044587,28108,-2,0,-9194.1185702610,42528.4974324564,12313.7456879078,30261.6947188915,50791.9818789115,14037.0079181538,46107.8566391644,57592.9091672489,60541.9695108317,16047.5738057830
4194044587,28108,-2,0,-9194.6661166180,42529.7142021387,12314.7312713504,30262.0840851899,50789.2928179136,14037.2999428775,46100.4830148897,57588.5531317863,60539.8401638877,16046.8680793673
4194044587,28108,-2,0,-9190.8941306029,42532.8291325254,12315.6803517026,30266.1237605351,50795.1211446918,14034.9394096939,46118.3938646131,57589.7942368622,60539.8036607972,16045.4687942327
4194044587,28108,-2,0,-9190.0545595221,42527.3171658646,12313.1616384603,30264.7731461878,50791.5195064322,14035.6329684128,46107.9174776485,57584.2335994142,60533.6224708112,16042.0496714254
4194044587,28108,-2,0,-9188.3024111796,42523.5451798495,12312.9669553111,30263.4103641436,50786.6524277030,14035.1705959335,46091.7344408740,57579.3178498977,60531.5417946545,16038.2533500167
4194074316,28109,-2,0,-9181.1964762350,42530.2860838894,12313.6848494237,30267.3405302174,50793.6001825889,14032.7492242657,46111.6042897859,57587.6040514341,60534.2551910460,16041.4047834938
4194074316,28109,-2,0,-9183.1919785140,42528.0472276740,12307.9295288264,30265.2841894543,50792.4564190876,14027.7483008715,46114.8408971408,57587.5553806468,60531.2376022339,16042.5850500856
4194074316,28109,-2,0,-9188.9838022017,42521.7443607197,12303.3179717305,30260.2467629696,50785.0097886319,14029.1962567934,46096.5163457255,57582.0920847733,60529.4976215882,16040.1150076306
4194074316,28109,-2,0,-9191.5025154440,42519.2621505678,12301.2129601801,30261.1350048377,50782.7100939324,14023.2462530470,46101.4320952419,57583.2845190620,60530.2276833976,16037.1217542121
4194074316,28109,-2,0,-9197.7932147015,42512.9714513103,12293.7419943309,30255.9028952038,50775.5798235942,14012.8428722634,46108.5867009738,57575.2538391588,60522.6958790642,16034.6517117571
4194074316,28109,-2,0,-9200.7986358168,42509.2359683857,12292.8659201596,30251.5346920444,50767.6464852656,14020.3625089000,46092.9755459500,57568.9266368109,60518.5710298412,16033.3619358939
4194074316,28109,-2,0,-9200.3484310343,42512.2170541073,12297.2462910159,30254.3332623137,50772.2702100583,14022.1268249393,46092.6105150453,57572.6012812514,60518.5101913571,16032.6683771749
4194074316,28109,-2,0,-9201.0419897532,42514.2490594767,12295.8591735780,30253.2381695996,50776.5289039463,14012.3318289968,46107.5037759566,57575.7892178190,60518.6805391126,16027.7161245680
4194119730,28110,-2,0,-9210.7518118179,42504.6852497739,12289.8361636507,30244.4287570998,50766.1863616468,14008.3043213484,46091.1868945170,57566.2010727226,60511.4894302903,16022.1068163326
4194119730,28110,-2,0,-9216.0325922391,42503.1034491869,12292.8415847660,30244.4530924934,50763.8501638568,14016.9677214864,46076.6829999041,57568.4399289380,60516.0644842957,16025.9518085287
4194119730,28110,-2,0,-9206.0064100570,42510.9029428504,12297.4288064682,30253.3111757805,50773.2436258041,14022.8325513550,46099.3027482979,57576.8964782299,60523.3894377831,16034.9194010872
4194119730,28110,-2,0,-9198.3529287553,42513.5068299705,12298.4995637886,30257.9714036637,50777.7943444159,14027.6996300842,46104.4010132667,57580.4129426118,60527.6116285807,16040.8815725304
4194119730,28110,-2,0,-9193.7657070531,42512.5820850120,12297.2097879254,30262.5707930628,50775.2877988704,14033.8808200703,46091.1260560329,57579.9870732230,60531.2010991434,16041.2222680415
4194119730,28110,-2,0,-9190.9428013902,42515.1129659512,12301.8700158086,30267.7663996062,50778.3297230761,14032.6397149943,46104.5105225381,57585.8762384853,60537.0659290121,16042.7797332348
4194119730,28110,-2,0,-9193.8022101436,42514.4194072323,12308.4892428803,30262.6194638501,50777.4658166017,14026.1056618004,46112.8088917714,57587.1781820453,60539.1952759561,16044.4345400027
4194119730,28110,-2,0,-9201.1758344183,42510.6717566108,12314.5244205044,30254.6861255215,50770.1408631143,14028.4175241968,46094.9467128353,57580.9361535751,60536.3358672027,16044.2763599440
4194134538,28111,-2,0,-9205.3250190349,42514.1152148117,12317.9557110085,30254.1629145581,50772.5257316916,14027.8213070524,46099.2540775106,57582.6152957367,60535.7883208457,16047.7928243259
4194134538,28111,-2,0,-9205.6535468491,42513.8840285721,12311.5189993892,30253.1651634187,50775.0201095403,14020.9830614379,46114.6583816885,57581.4593645385,60532.2718564638,16050.0073451476
4194134538,28111,-2,0,-9203.7918892352,42506.1575410895,12303.5369902733,30248.8334633497,50767.6464852656,14019.0970684304,46098.0738109188,57573.0028152466,60525.9933249032,16046.4665453722
4194134538,28111,-2,0,-9200.9446481786,42504.9772744977,12301.5049849039,30249.0403141957,50764.5437225757,14021.1655768903,46088.2179764922,57571.8955548357,60524.5453689813,16044.0816767949
4194134538,28111,-2,0,-9196.8197989557,42510.4284026743,12302.3080528942,30252.3742631252,50773.7303336771,14016.2376596770,46107.0049003868,57578.1984217900,60526.8572313776,16047.1601040911
4194134538,28111,-2,0,-9199.1803321393,42507.5081554368,12300.8479292755,30250.2084130907,50772.0146884250,14012.4535059651,46102.1986601418,57573.8423863274,60521.1870846581,16045.4079557486
4194134538,28111,-2,0,-9203.9500692939,42503.3103000329,12299.0227747520,30248.1155692371,50765.7969953485,14012.6238537206,46085.7601017340,57570.1312387964,60517.3055893716,16040.8937402273
4194134538,28111,-2,0,-9205.2398451571,42504.8190944390,12296.3458814510,30249.7825437019,50767.0259327276,14007.2944025121,46097.3559168062,57572.1145733785,60518.5588621444,16041.4169511906
4194167367,28112,-2,0,-9209.1700112309,42500.7429160033,12296.0051859399,30246.9961411294,50765.7118214707,14003.0965471082,46098.6091895790,57569.6932017107,60516.3565090194,16039.5674612736
4194167367,28112,-2,0,-9209.8027314657,42498.2363704578,12299.5581534122,30245.3291666647,50763.1444374411,14011.6869410652,46081.2458862127,57567.5516870699,60518.7535452935,16040.0785045401
4194167367,28112,-2,0,-9200.2145863693,42507.7636770701,12305.2039647381,30254.2724238296,50776.4680654622,14018.0628142004,46095.1900667717,57578.0767448218,60526.7477221062,16043.6558074061
4194167367,28112,-2,0,-9194.9216382513,42512.3022279851,12303.8533503907,30257.4360250035,50783.8295220401,14010.7865315003,46111.6894636637,57579.8288931643,60524.9834060669,16043.2907765014
4194167367,28112,-2,0,-9202.1492501641,42504.7339205612,12299.2539609916,30250.1110715161,50773.2314581073,14006.3574898568,46089.4104107809,57568.7441213586,60518.1451604524,16041.3439450097
4194167367,28112,-2,0,-9207.8680676709,42502.4220581648,12300.9331031532,30248.1155692371,50766.9164234562,14005.0920493872,46080.9781968826,57569.0604814759,60516.3808444131,16041.9036590636
4194167367,28112,-2,0,-9211.2141842972,42503.0791137933,12298.3048806395,30245.6455267821,50767.7073237497,13998.0469529267,46094.5330111433,57571.4331823564,60513.5944418406,16039.4579520021
4194167367,28112,-2,0,-9218.5999762687,42499.4774755337,12296.1146952113,30239.9997154562,50762.6212264777,13994.3236376989,46084.5554997485,57563.5363471183,60508.3866676004,16033.9703207350
4194194657,28113,-2,0,-9217.2006911341,42496.8005822326,12296.8812601112,30238.4422502629,50759.7374823307,13999.0690394598,46070.4166360402,57559.1924793525,60506.6831900452,16032.3398493607
4194194657,28113,-2,0,-9210.5692963656,42502.1665365316,12300.1908736470,30246.5459363470,50768.2061993195,14005.3354033236,46090.3594911330,57567.4300101017,60513.1442370582,16039.9446598751
4194194657,28113,-2,0,-9209.6080483166,42500.9741022429,12300.7140846104,30245.7793714471,50769.2769566399,14000.8820262864,46092.6956889230,57566.6512775050,60512.9008831217,16044.2276891567
4194194657,28113,-2,0,-9212.6256371287,42496.4720544184,12301.7605065372,30241.6910253146,50763.3512882871,13998.4606546187,46073.4098894587,57561.1758139347,60512.3533367647,16042.4755408142
4194194657,28113,-2,0,-9214.9861703123,42497.3846316801,12302.3080528942,30237.6270145758,50763.8014930695,13993.3745573467,46080.2846381636,57561.6868572012,60509.9441327937,16037.1217542121
4194194657,28113,-2,0,-9212.3214447081,42499.9276803161,12305.8001818824,30236.2885679252,50767.2571189673,13992.9365202611,46094.0463032704,57563.8405395389,60511.5015979871,16037.5354559041
4194194657,28113,-2,0,-9211.6643890796,42497.9078426435,12306.9804484742,30236.0452139888,50762.6698972650,13995.4552335034,46075.9894411851,57561.2123170252,60508.1798167544,16034.7490533317
4194194657,28113,-2,0,-9209.3038558960,42498.9664322671,12310.5455836433,30240.1092247276,50764.6167287567,13994.5183208480,46078.3013035815,57563.8770426294,60511.4164241093,16037.8761514152
4194234607,28114,-2,0,-9205.3858575190,42502.3733873775,12312.0422103526,30244.4895955839,50770.6032355936,13993.6422466768,46099.5947730217,57568.0992334269,60513.7526218993,16043.7774843743
4194234607,28114,-2,0,-9202.8184734894,42501.8501764142,12313.1007999762,30244.0393908015,50768.7780810701,13997.0857048777,46095.9444639748,57565.2154892799,60511.9883058600,16046.2475268293
4194234607,28114,-2,0,-9198.0609040316,42505.1232868595,12317.4568354388,30247.8357122102,50772.5135639948,14002.4759945702,46090.5420065854,57569.4985185616,60516.2469997480,16047.3061164529
4194234607,28114,-2,0,-9196.8197989557,42512.2778925914,12323.4068391852,30252.6906232426,50779.6316666362,14001.0645417388,46108.0878254041,57576.1177456333,60523.3164316022,16052.2462013631
4194234607,28114,-2,0,-9207.0893350742,42508.1408756716,12325.5240184324,30247.3855074278,50775.4216435355,14000.7360139246,46099.0228912710,57572.6986228260,60521.3574324137,16053.2196171089
4194234607,28114,-2,0,-9214.9131641314,42505.2936346151,12329.0404828142,30245.4751790266,50769.2161181558,13997.9009405648,46080.8565199143,57567.0406438033,60520.7855506630,16052.2948721503
4194234607,28114,-2,0,-9217.3345357991,42503.2616292456,12325.4631799483,30243.6743598968,50766.8190818816,13984.6989895119,46090.0552987125,57565.3128308545,60514.3975098309,16047.6103088735
4194234607,28114,-2,0,-9214.0127545665,42497.9565134308,12323.7718700899,30239.6346845516,50765.4319644438,13980.8053265286,46095.7619485224,57560.8107830300,60506.2329852627,16042.3538638460
4194266187,28115,2,0,-9208.3547755438,42494.8537507410,12328.2739179144,30238.4909210502,50761.7208169128,13988.7995033413,46080.3089735573,57556.0653812691,60504.3713276488,16040.7233924717
4194266187,28115,2,0,-9201.3340144770,42500.8402575779,12336.6574610254,30245.6820298726,50770.3477139603,13991.6832474883,46091.0287144583,57565.6048555782,60512.9130508185,16047.7928243259
4194266187,28115,2,0,-9201.9058962276,42503.2981323361,12338.5921248202,30244.8424587918,50773.6086567088,13987.2663735416,46105.1554104697,57569.3768415934,60512.3533367647,16048.0848490496
4194266187,28115,2,0,-9204.7653049810,42499.6356555924,12339.0544972995,30239.2818213437,50766.6852372166,13984.8815049643,46087.4757469860,57562.4290867074,60509.8224558255,16046.1136821643
4194266187,28115,2,0,-9204.1569201399,42500.7307483065,12340.2225961945,30238.6125980184,50764.8722503900,13985.6237344705,46082.3409789267,57561.7111925949,60510.5038468476,16040.9545787114
4194266187,28115,2,0,-9202.0397408927,42503.3589708202,12340.9283226102,30241.9952177352,50769.5081428795,13981.9369223331,46098.0981463124,57564.1690673531,60510.9783870237,16042.0010006381
4194266187,28115,2,0,-9207.8924030645,42498.4553890006,12337.6917152553,30235.7045184777,50762.8524127174,13979.6128922399,46088.2301441890,57556.4425798706,60506.6831900452,16041.8793236699
4194266187,28115,2,0,-9213.8059037205,42494.0871858411,12340.9404903070,30234.2808979495,50756.0263347997,13978.8463273401,46072.9110138889,57552.2568921635,60506.6345192579,16041.7819820953
4194292583,28116,2,0,-9214.1100961411,42494.7807445600,12342.5952970750,30233.3561529909,50756.9267443646,13971.7038893050,46087.3297346241,57552.1230474984,60502.7408562746,16041.3682804033
4194292583,28116,2,0,-9213.6598913586,42493.7829934206,12343.9459114223,30231.4579922865,50755.2719375967,13967.0436614218,46092.5131734707,57549.4948249847,60500.0031244894,16042.8892425062
4194292583,28116,2,0,-9217.2493619214,42491.0695970290,12346.5984693297,30229.1217944965,50749.9181509946,13968.2969341946,46073.6045726079,57543.9950260207,60496.5231631980,16039.7499767259
4194292583,28116,2,0,-9213.3070281507,42494.5252229268,12351.9157528413,30233.3926560814,50752.2543487846,13971.2780199162,46080.5401597969,57548.5579123293,60499.2608949832,16036.4768662805
4194292583,28116,2,0,-9209.7783960721,42494.6834029855,12350.6989831590,30231.8108554944,50754.0186648239,13963.9043956415,46092.3793288057,57548.1563783341,60496.2554738679,16033.5809544367
4194292583,28116,2,0,-9213.1001773048,42488.0155051265,12348.7886547578,30225.9581933226,50745.5621155320,13959.2441677583,46075.2107085885,57538.9697672328,60488.1639554807,16031.6097875513
4194292583,28116,2,0,-9215.1565180678,42489.6459765008,12349.5187165672,30225.7513424766,50748.0078225934,13958.3072551030,46074.8821807743,57540.0283568564,60485.9859377494,16032.5710356004
4194292583,28116,2,0,-9209.3281912896,42495.9123403646,12352.9256716776,30231.9568678563,50757.6203030835,13957.8813857142,46095.4455884050,57548.2537199087,60489.2833835884,16037.4502820264
4194350931,28117,2,0,-9206.1645901157,42497.5428117388,12359.2893771160,30234.8041089128,50759.7618177243,13963.1256630449,46087.5000823797,57548.0833721532,60491.4370659260,16043.2786088045
4194350931,28117,2,0,-9207.5152044630,42497.1412777437,12366.9063553272,30237.6148468789,50759.9808362671,13967.4208600234,46077.0967015960,57551.6728427160,60496.1702999902,16045.3106141740
4194350931,28117,2,0,-9205.0694974016,42503.3711385170,12372.9293652546,30242.4819256081,50768.3887147718,13966.2162580379,46096.3825010604,57559.1073054748,60502.3149868858,16048.9365878272
4194350931,28117,2,0,-9206.5052856267,42501.7650025364,12374.3894888733,30239.8780384880,50768.2792055004,13963.6245386146,46096.6136873000,57555.9558719976,60498.7863548071,16049.1191032796
4194350931,28117,2,0,-9206.6512979886,42498.0903580959,12376.8960344188,30237.6756853631,50762.8402450205,13965.3158484730,46078.0214465546,57550.9671163002,60496.7908525281,16043.7044781934
4194350931,28117,2,0,-9207.9167384582,42500.2805435240,12378.4413319154,30239.7928646103,50764.5193871821,13964.2329234557,46087.8651132843,57553.9603697187,60496.9733679805,16041.0884233764
4194350931,28117,2,0,-9212.8446556715,42497.2386193183,12375.1195506827,30236.0938847761,50761.4652952795,13957.9543918951,46093.8394524244,57548.2902229992,60492.7998479702,16038.6427163150
4194350931,28117,2,0,-9217.5778897356,42488.9159146914,12372.7590174990,30230.2168872106,50749.4679462121,13962.2009180863,46074.0304419967,57537.6799913696,60488.3829740235,16037.9248222025
4194355587,28118,2,0,-9214.6333071044,42490.3760383101,12378.4778350058,30232.4679111228,50750.5630389262,13962.0914088149,46077.7537572245,57540.0040214628,60491.1937119896,16043.3394472887
4194355587,28118,2,0,-9214.2804438966,42494.2331982030,12384.3304971777,30233.0884636608,50756.1723471616,13956.4942682763,46094.0584709672,57546.0026959965,60494.3086423763,16046.6490608245
4194355587,28118,2,0,-9210.5571286688,42494.6468998950,12391.3999290318,30231.8595262817,50753.6171308287,13960.0107326582,46080.4428182223,57542.5714054924,60495.0387041856,16049.7761589080
4194355587,28118,2,0,-9206.4201117490,42496.2408681788,12401.8641482995,30236.6657665268,50753.9578263398,13966.2040903411,46075.6487456741,57545.9540252092,60500.5871739369,16052.7815800233
4194355587,28118,2,0,-9202.9523181544,42503.3346354266,12407.3517795667,30242.8591242096,50764.2516978520,13964.2207557589,46096.9057120238,57551.5633334446,60504.6025138885,16055.5071441116
4194355587,28118,2,0,-9206.4931179299,42499.0637738417,12404.6505508720,30237.5905114853,50760.0660101449,13955.2288278068,46093.7542785466,57545.4064788522,60497.8737775454,16048.6202277098
4194355587,28118,2,0,-9212.3092770113,42492.4567144669,12402.8862348326,30231.2146383501,50752.2300133909,13952.0043881487,46073.9331004221,57538.0085191838,60490.2811347279,16041.6968082176
4194355587,28118,2,0,-9214.3777854712,42490.3273675228,12402.7767255612,30229.5233284917,50750.9524052245,13950.1062274443,46082.2193019585,57537.3879666458,60488.9791911678,16037.7058036596
4194386083,28119,2,0,-9214.6454748013,42487.8208219773,12407.9114936205,30228.0875402666,50749.0907476106,13950.5442645299,46087.5730885606,57535.6358183033,60487.7259183951,16038.2898531071
4194386083,28119,2,0,-9220.6928201223,42486.0200028475,12413.0827647703,30225.7026716893,50742.8973899277,13954.1824058800,46072.0836105050,57531.5596398676,60487.5434029427,16039.4579520021
4194386083,28119,2,0,-9222.6396516139,42490.3760383101,12415.4311302571,30226.3110565304,50745.0754076590,13954.6569460561,46080.8078491270,57536.2077000540,60489.5145698280,16038.5940455277
4194386083,28119,2,0,-9217.4805481610,42494.9024215283,12417.2197816901,30228.2092172348,50752.7775597480,13953.7200334007,46100.3735056183,57539.8823444945,60490.6461656326,16040.9302433177
4194386083,28119,2,0,-9212.8689910651,42493.7951611174,12422.7560837445,30227.2966399731,50751.4756161879,13960.4974405311,46087.0377099004,57538.3370469980,60492.7755125766,16044.2641922472
4194386083,28119,2,0,-9209.5107067420,42495.5838125504,12430.3243911684,30232.4192403355,50754.1525094890,13961.6290363356,46084.3121458120,57543.2771319081,60499.2852303768,16048.2795321988
4194386083,28119,2,0,-9207.1380058615,42498.9907676608,12431.5411608507,30236.5684249522,50759.4819606974,13950.7876184664,46102.3933432909,57550.4195699432,60501.2929003526,16048.6810661939
4194386083,28119,2,0,-9214.9861703123,42494.4643844426,12431.9305271490,30232.1637187023,50756.0506701933,13946.8574523926,46093.7907816371,57543.3744734827,60494.2478038921,16043.3029441982
4194422629,28120,2,0,-9213.6842267523,42495.1092723743,12436.9436182401,30232.2002217927,50755.5639623204,13955.1314862322,46082.2436373521,57541.7926728957,60495.3307289094,16043.0230871713
4194422629,28120,2,0,-9205.8238946046,42499.4531401400,12440.2775671695,30236.8604496759,50760.3945379591,13957.0174792397,46096.6015196032,57546.7570931995,60498.2631438437,16044.6535585455
4194422629,28120,2,0,-9198.7179596600,42499.5139786242,12443.0883051356,30239.0262997104,50761.3679537050,13959.1346584869,46099.8502946549,57547.6209996739,60498.9201994722,16047.1601040911
4194422629,28120,2,0,-9199.2290029266,42497.1412777437,12448.6002717964,30236.9821266442,50756.8780735773,13962.2860919641,46087.3662377146,57545.0414479475,60500.8548632670,16049.1556063700
4194422629,28120,2,0,-9199.4723568631,42501.2661269667,12451.7152021831,30238.5030887470,50758.8979112499,13958.1855781347,46101.5051014229,57550.7602654542,60504.2253152870,16051.2971210109
4194422629,28120,2,0,-9199.8008846773,42502.7749213727,12452.7981272004,30238.6247657152,50763.5824745267,13953.7808718848,46116.0089960358,57550.6629238797,60503.2153964507,16051.2727856172
4194422629,28120,2,0,-9205.0938327953,42496.3747128438,12452.7007856258,30236.0087108983,50757.7663154454,13951.7975373027,46096.2121533049,57543.6664982065,60496.3163123520,16046.8437439737
4194422629,28120,2,0,-9204.7653049810,42497.3359608929,12458.8454725214,30240.3404109673,50761.5261337637,13951.8583757868,46095.6281038574,57547.0004471360,60496.5231631980,16044.3615338218
4194491924,28121,2,0,-9204.4246094700,42499.0272707512,12461.7048812747,30242.3359132462,50765.2859520819,13945.8718689499,46112.5655378349,57549.9693651608,60495.3063935157,16041.1005910732
4194491924,28121,2,0,-9207.4543659789,42498.0173519149,12463.9559051870,30239.0871381945,50762.3657048444,13950.6781091950,46102.2960017163,57542.9364363971,60493.4812389923,16038.9955795229
4194491924,28121,2,0,-9206.6269625949,42503.1886230647,12470.9036600729,30242.9442980874,50766.3323740087,13956.3847590049,46097.3315814126,57545.6863358791,60499.7110997656,16042.6093854793
4194491924,28121,2,0,-9208.4277817247,42506.8024290211,12470.1127597794,30245.1466512123,50771.0047695887,13949.4735072095,46116.6295485738,57550.6142530924,60502.9233717269,16045.4201234454
4194491924,28121,2,0,-9210.6179671529,42498.7352460275,12463.8463959156,30239.4278337056,50762.6942326587,13937.9263629245,46110.4483585877,57542.0360268322,60495.7565982982,16041.8306528826
4194491924,28121,2,0,-9208.9023219008,42493.4544656063,12465.9270720723,30237.3958283361,50755.8681547410,13940.9804548271,46092.5253411675,57536.8525879856,60489.9526069136,16038.5697101341
4194491924,28121,2,0,-9202.0032378022,42499.5504817146,12468.8229839162,30238.8316165612,50760.5283826242,13939.7150143575,46103.0260635257,57541.0139402991,60486.3753040477,16038.8860702515
4194491924,28121,2,0,-9202.6967965211,42499.2341215972,12468.1780959846,30235.2664813921,50761.0272581939,13938.0237044991,46108.8178872134,57540.6002386071,60483.6497399594,16039.6648028481
4194498842,28122,2,0,-9206.2619316903,42495.7176572154,12472.3881190853,30231.6648431325,50755.3936145649,13946.1273905832,46087.9746225557,57536.3293770222,60483.4063860229,16042.8162363253
4194498842,28122,2,0,-9206.2497639934,42497.3481285897,12476.6468129733,30234.1957240717,50757.2796075724,13950.2035690189,46092.3428257152,57541.0626110864,60490.6705010262,16044.5927200614
4194498842,28122,2,0,-9203.5850383892,42499.8425064384,12480.2849543234,30239.2696536469,50760.5527180178,13947.1738125100,46108.1486638882,57544.5304046809,60493.4082328114,16045.3957880517
4194498842,28122,2,0,-9204.0474108685,42498.9055937830,12484.2272880940,30239.9875477594,50757.5472969026,13944.3144037566,46097.6601092268,57541.1477849641,60490.9138549627,16042.8284040221
4194498842,28122,2,0,-9204.1569201399,42501.1322823016,12488.1574541678,30241.0339696862,50758.2773587119,13945.3486579865,46092.3063226247,57540.3203815802,60493.1648788749,16039.2024303689
4194498842,28122,2,0,-9204.4367771668,42501.9110148983,12487.6707462949,30240.9974665957,50758.9952528245,13939.9218652035,46107.0170680837,57541.6953313212,60493.0432019067,16040.2731876893
4194498842,28122,2,0,-9210.1069238863,42495.8515018805,12485.3832192922,30235.2056429080,50751.0619144959,13936.0647053106,46095.6646069478,57535.4046320637,60487.9449369379,16041.5264604620
4194498842,28122,2,0,-9213.3070281507,42491.3007832687,12485.7725855905,30233.6360100178,50744.7590475416,13937.7316797754,46079.7370918066,57533.1536081514,60486.0467762335,16042.7188947507
4194509388,28123,2,0,-9208.3791109375,42498.2363704578,12490.9681921339,30241.3016590163,50755.8803224378,13942.5257523236,46101.1400705182,57539.8580091009,60489.4293959503,16047.6468119640
4194509388,28123,2,0,-9205.4588636999,42504.1133680232,12493.3408930144,30245.0371419409,50762.9497542919,13938.0845429832,46112.1031653556,57544.0680322016,60490.1472900628,16052.0028474266
4194509388,28123,2,0,-9206.1524224189,42502.5559028299,12497.4170714501,30245.7307006598,50761.1367674653,13939.0822941227,46092.5740119548,57540.6245740007,60489.8552653391,16051.4553010696
4194509388,28123,2,0,-9200.6039526676,42502.1543688347,12499.8992816020,30247.3368366405,50762.0858478175,13939.7515174480,46099.6677792026,57543.3379703923,60492.1184569481,16047.4399611180
4194509388,28123,2,0,-9197.4768545841,42502.3490519839,12501.2012251620,30248.0790661467,50764.8965857836,13938.6199216434,46112.2491777175,57545.0171125538,60492.9701957257,16048.7905754653
4194509388,28123,2,0,-9196.4791034446,42499.8060033479,12504.1458077932,30246.7527871930,50762.3657048444,13942.3310691744,46097.5505999554,57539.1522826852,60491.5465751975,16046.7464023991
4194509388,28123,2,0,-9195.3840107306,42504.9894421945,12508.7451971922,30250.2449161812,50764.6288964535,13944.4117453312,46096.6988611778,57542.4740639178,60494.1017915303,16045.7121481691
4194509388,28123,2,0,-9201.1028282373,42508.5180742731,12510.6433578966,30249.6000282495,50766.6122310356,13931.9155206940,46113.9769906664,57544.3235538349,60493.7489283224,16047.4034580275
4194546459,28124,2,0,-9213.5747174808,42496.5937313867,12509.5726005762,30235.2908167858,50752.8870690194,13922.5707295340,46094.5695142338,57530.9877581170,60480.7659958123,16045.2254402962
4194546459,28124,2,0,-9218.8920009925,42488.6238899676,12510.2296562046,30227.7468447555,50745.0875753559,13924.0551885464,46076.8533476596,57523.4681214804,60477.8092454843,16042.8040686285
4194546459,28124,2,0,-9216.2881138724,42490.0596781927,12510.4486747475,30230.2533903011,50749.7113001486,13924.8339211431,46092.2333164438,57530.5132179409,60479.8655862474,16042.3660315428
4194546459,28124,2,0,-9212.5769663414,42489.6216411071,12510.1688177205,30230.3385641788,50752.4368642369,13928.0461931043,46095.9566316716,57530.3307024885,60480.8998404774,16045.1889372058
4194546459,28124,2,0,-9210.2894393387,42489.4026225643,12511.8722952757,30233.1006313576,50749.7478032390,13932.9984457112,46080.5401597969,57528.4203740873,60484.1486155291,16047.1236010006
4194546459,28124,2,0,-9213.8424068110,42492.6513976160,12513.0525618676,30236.9699589473,50754.4080311222,13928.9344349724,46090.4324973140,57533.2266143324,60485.1220312749,16044.0451737044
4194546459,28124,2,0,-9223.1263594869,42489.4391256548,12508.6600233145,30233.5386684433,50751.9014855767,13917.7888246826,46093.4622538229,57529.0895974126,60480.1332755775,16037.2190957867
4194546459,28124,2,0,-9221.4350496285,42484.3530283828,12511.1665688600,30230.1438810297,50745.2457554146,13922.2422017198,46076.5126521485,57525.8651577545,60476.9331713131,16035.5642890188
4194586118,28125,2,0,-9210.5206255783,42492.6392299192,12521.6064527341,30235.4246614508,50752.5707089020,13933.6555013397,46084.7258475040,57531.8759999850,60481.5447284090,16040.0420014496
4194586118,28125,2,0,-9201.2001698119,42501.7893379301,12530.4280329307,30241.5693483464,50764.1543562774,13934.4098985427,46108.9760672721,57540.0770276437,60488.8696818964,16046.7585700959
4194586118,28125,2,0,-9202.2465917387,42500.2318727367,12531.9368273368,30238.5395918375,50760.8082396511,13930.8569310704,46096.1756502144,57534.1756946846,60486.9715211920,16046.1380175579
4194586118,28125,2,0,-9207.3326890107,42495.6324833376,12529.6006295468,30234.1713886781,50751.4512807943,13927.1579512362,46082.9736991615,57530.1603547330,60484.5258141306,16040.9180756209
4194586118,28125,2,0,-9215.5702197598,42491.0209262417,12523.8574766463,30231.2511414405,50749.1637537915,13915.5134653767,46095.0683898035,57526.8142381067,60479.5735615237,16031.0865765880
4194586118,28125,2,0,-9221.9217575014,42486.0200028475,12521.8863097610,30227.4913231223,50745.1727492336,13918.2998679491,46092.0021302041,57521.4847868982,60475.8015755086,16024.6376972718
4194586118,28125,2,0,-9220.3277892176,42488.4292068185,12530.4402006275,30232.6382588784,50747.7523009601,13931.8911853004,46083.9957856946,57526.0233378132,60481.6420699836,16027.1929136046
4194586118,28125,2,0,-9210.0947561895,42498.0538550054,12540.2351965700,30243.7960368650,50760.0416747513,13933.1444580731,46102.7827095893,57535.1247750368,60491.6195813784,16034.0798300064
4194603638,28126,2,0,-9202.2952625260,42502.7140828886,12545.7593309276,30246.9231349485,50763.4851329521,13932.5847440193,46110.4848616782,57537.9111776092,60493.8949406843,16043.2907765014
4194603638,28126,2,0,-9199.6427046186,42499.2341215972,12548.7039135588,30244.9519680632,50757.8271539295,13932.7672594716,46092.7321920135,57533.9080053545,60492.6051648210,16046.4178745849
4194603638,28126,2,0,-9200.1902509756,42500.4508912795,12548.6187396810,30245.2926635742,50759.7618177243,13927.7298329869,46098.3049971584,57536.4875570809,60491.0233642341,16047.8901659004
4194603638,28126,2,0,-9202.7211319148,42499.6478232892,12543.9341764042,30243.3093289921,50759.7009792402,13921.5851460913,46108.4650240056,57535.7696629684,60485.7912546002,16048.5350538321
4194603638,28126,2,0,-9203.5363676019,42495.6933218218,12545.1752814801,30238.6734365025,50751.5242869752,13922.4003817785,46091.4789192408,57528.6028895397,60483.4428891134,16046.2353591325
4194603638,28126,2,0,-9200.2389217629,42498.8569229957,12552.4028933930,30242.4819256081,50752.7775597480,13930.2972170166,46087.7799394066,57531.1946089630,60485.2437082432,16046.6733962181
4194603638,28126,2,0,-9196.1262402368,42504.8555975294,12558.9247788901,30250.0258976383,50760.2728609909,13932.5725763224,46109.8278060497,57537.6191528855,60490.5123209675,16049.9951774508
4194603638,28126,2,0,-9194.5931104371,42505.3301377055,12564.6800994873,30250.1232392129,50758.2286879246,13928.9466026692,46105.5812798585,57535.9886815112,60490.4393147866,16049.8613327858
4194633609,28127,2,0,-9195.2623337623,42501.9110148983,12566.8581172186,30249.7338729146,50755.1137575380,13927.5716529282,46089.2765661158,57532.1315216183,60487.4217259745,16046.4543776753
4194633609,28127,2,0,-9198.4746057236,42502.5680705267,12563.9743730716,30249.5878605527,50757.0240859392,13923.9335115782,46102.8557157702,57534.8692534035,60486.6916641651,16046.4422099785
4194633609,28127,2,0,-9200.5674495771,42498.1998673673,12558.6084187727,30245.1588189092,50751.8528147894,13923.2886236465,46099.3027482979,57528.3838709969,60480.6686542377,16043.6923104965
4194633609,28127,2,0,-9203.9135662034,42491.5684725988,12554.7390911830,30238.9289581358,50739.9649749934,13919.6504822965,46076.7316706913,57518.2603472402,60475.2296937579,16039.0320826133
4194633609,28127,2,0,-9206.9433227123,42489.7433180753,12553.4249799261,30234.6702642478,50738.1276527731,13913.0799260121,46081.9394449316,57517.2625961007,60473.7939055328,16037.7788098406
4194633609,28127,2,0,-9211.5183767178,42487.1881017425,12551.4659807376,30229.9370301837,50738.7482053111,13907.8843194687,46091.4789192408,57513.5879516602,60468.0872557228,16036.1970092536
4194633609,28127,2,0,-9214.4021208648,42482.4426999816,12553.9238554958,30226.7247582224,50734.4651760294,13908.9550767891,46074.6753299283,57507.3702585836,60466.3472750771,16039.0685857038
4194633609,28127,2,0,-9216.0447599359,42482.7103893117,12557.1969659412,30228.3308942030,50735.7427841958,13911.9361625107,46072.4121383192,57510.5581951513,60467.6127155467,16043.5949689219
4194667865,28128,2,0,-9215.0226734028,42483.2457679719,12557.7566799951,30229.3651484330,50739.7094533601,13905.6332955565,46088.3639888541,57514.9750690980,60468.5496282021,16046.5152161595
4194667865,28128,2,0,-9215.2538596424,42479.7049681964,12558.4867418044,30228.0267017825,50736.4606783084,13902.6765452285,46079.0435330877,57510.9475614496,60466.9556599183,16044.6778939392
4194667865,28128,2,0,-9216.8843310167,42477.8189751889,12558.9491142837,30229.3408130393,50732.6278538092,13900.3160120448,46071.2197040306,57508.9520591706,60464.0840834681,16039.8959890878
4194667865,28128,2,0,-9217.9185852466,42480.6418808518,12559.2168036138,30231.2389737437,50735.7914549831,13898.9410623038,46088.2179764922,57512.7848836698,60463.9015680157,16040.7598955622
4194667865,28128,2,0,-9219.4030442590,42478.9627386902,12560.0928777851,30228.2700557189,50734.5138468167,13903.7473025489,46085.3585677388,57509.7186240705,60461.6262087098,16042.2200191810
4194667865,28128,2,0,-9217.2615296182,42477.9284844603,12564.8382795460,30225.7635101734,50732.0559720585,13910.9140759776,46070.1854498006,57509.5239409213,60465.1791761821,16045.2254402962
4194667865,28128,2,0,-9211.2993581750,42484.9127424366,12569.4741720355,30231.1416321691,50739.2470808809,13908.4440335226,46086.1494680323,57516.6420435627,60470.3261119382,16045.0915956312
4194667865,28128,2,0,-9210.4962901846,42484.8397362557,12567.0406326710,30232.3340664578,50740.2083289299,13899.0505715752,46097.7939538919,57515.7051309074,60467.9534110578,16039.0929210975
4194705466,28129,2,0,-9215.5093812757,42478.3543538491,12562.4290755751,30226.7004228288,50730.5471776524,13896.5683614234,46077.7659249213,57507.8691341534,60460.9569853846,16035.4182766569
4194705466,28129,2,0,-9219.0015102639,42478.3665215459,12564.5462548223,30228.7445958950,50731.0947240095,13902.4088558984,46080.1142904081,57510.5216920608,60464.1935927395,16042.3173607555
4194705466,28129,2,0,-9222.8221670663,42479.0844156584,12566.1888938933,30229.0001175283,50732.1898167235,13897.5904479565,46090.7853605218,57514.0989949267,60466.1890950184,16046.1258498611
4194705466,28129,2,0,-9227.0930286511,42472.5260270709,12564.2298947049,30221.7238348282,50726.8968686056,13893.1249032225,46072.9110138889,57504.9245515222,60461.2368424115,16039.5431258799
4194705466,28129,2,0,-9225.0123524944,42473.7306290564,12566.1280554092,30223.1717907501,50729.8779543272,13893.0762324352,46064.2597814478,57503.8051234145,60458.2679243867,16036.6593817329
4194705466,28129,2,0,-9218.2592807577,42480.8974024851,12570.9951341384,30229.1826329806,50739.7824595411,13893.9766420001,46082.8033514060,57511.1544122956,60462.1007488859,16043.2786088045
4194705466,28129,2,0,-9219.2691995940,42476.7238824748,12571.5183451018,30227.6495031810,50734.8180392373,13893.0397293447,46076.6586645104,57505.8371287839,60459.2413401325,16048.1335198369
4194705466,28129,2,0,-9220.1087706748,42474.2295046261,12574.9983063932,30227.5643293032,50728.5881784639,13895.2055793792,46060.7798201565,57503.5252663876,60459.4846940690,16048.0605136560
4194727020,28130,2,0,-9224.0024336581,42475.4827773989,12575.6553620216,30226.2502180463,50729.9266251145,13890.0951467136,46073.6410756983,57505.5937748475,60458.7911353501,16045.5052973231
4194727020,28130,2,0,-9231.8140950184,42473.4751074231,12574.1830707060,30222.6729151804,50731.2529040682,13885.3010741653,46078.7271729703,57502.2598259180,60454.1065720733,16043.9234967362
4194727020,28130,2,0,-9237.3869001633,42471.6986236869,12573.9153813759,30219.8986803047,50728.1744767720,13883.8531182434,46059.8915782884,57495.7014373304,60449.7748720043,16039.5066227894
4194727020,28130,2,0,-9233.9069388720,42472.6233686455,12573.6598597426,30219.8743449111,50729.4764203320,13886.2988253048,46062.4102915307,57495.6771019368,60449.2516610409,16037.2921019677
4194727020,28130,2,0,-9227.1173640448,42472.6720394327,12571.7738667351,30219.5701524905,50733.7594496137,13885.1185587130,46071.5603995416,57497.8186165776,60447.9862205713,16037.6084620851
4194727020,28130,2,0,-9224.0632721422,42470.1898292809,12570.9707987448,30219.4606432191,50729.6832711780,13886.8585393587,46055.2556857989,57493.3287364500,60444.7374455196,16035.4669474442
4194727020,28130,2,0,-9222.3597945870,42473.9983183865,12573.7572013172,30222.1132011265,50730.0848051732,13892.7720400146,46056.8374863858,57497.6239334285,60447.5238480921,16035.5886244124
4194727020,28130,2,0,-9216.3976231438,42481.4692842357,12578.7094539242,30228.0510371761,50738.0303111986,13890.7156992515,46080.8200168239,57504.9732223095,60452.4639330022,16041.8184851858
4194769675,28131,2,0,-9217.0181756817,42476.9429010176,12579.8532174255,30224.3642250388,50732.1411459362,13888.2334890996,46071.0250208814,57496.6505176826,60450.6387784787,16039.8473183005
4194769675,28131,2,0,-9220.7536586064,42470.8468849093,12577.0059763689,30220.6895805982,50724.9622048107,13890.3993391341,46053.7955621801,57492.4526622787,60449.9573874566,16033.5079482557
4194769675,28131,2,0,-9225.8032527879,42471.5769467187,12572.8324563587,30222.4538966376,50728.1866444688,13891.3484194863,46070.5504807053,57497.1980640397,60451.1619894421,16031.3907690085
4194769675,28131,2,0,-9231.8992688962,42471.7594621710,12568.9022902849,30223.3664738993,50729.1600602146,13895.4732687093,46075.2715470726,57497.5022564602,60451.4175110754,16030.5511979278
4194769675,28131,2,0,-9236.2066335715,42471.8568037456,12567.5760113312,30224.5589081879,50727.2862349039,13903.9298180012,46060.4391246454,57495.1295555798,60450.8943001120,16030.2956762945
4194769675,28131,2,0,-9230.9866916345,42476.2980130860,12563.0982989003,30227.5764970000,50730.7175254080,13913.2016029803,46070.4409714339,57501.3472486563,60456.0655712618,16034.2623454587
4194769675,28131,2,0,-9221.9095898046,42481.3719426612,12553.9481908895,30227.6616708778,50736.1199827974,13921.3782952453,46078.9583592099,57506.0561473268,60459.5942033404,16037.9734929897
4194769675,28131,2,0,-9215.7527352122,42480.6175454581,12541.0504322572,30225.6174978115,50733.1145616821,13932.7550917748,46063.0795148560,57504.9853900063,60462.7699722112,16038.3628592881
4194819237,28132,2,0,-9211.5062090209,42485.4359534000,12525.8408112285,30231.8473585849,50737.6409449002,13940.7979393748,46065.8780851253,57511.0692384178,60467.4302000944,16036.6472140360
4194819237,28132,2,0,-9210.2529362482,42490.8384107894,12503.1358889569,30235.1934752112,50742.2646696929,13943.6208450377,46085.8331079149,57518.4063596020,60470.9709998699,16037.7423067501
4194819237,28132,2,0,-9213.1731834857,42485.0222517080,12478.3624582254,30232.8694451180,50735.6819457117,13948.2202344367,46073.8479265443,57516.5203665945,60469.4987085543,16036.2943508282
4194819237,28132,2,0,-9214.3291146839,42481.3232718739,12450.9608049801,30234.2078917685,50732.6521892028,13963.3446815877,46066.3647929982,57519.6596323748,60472.6501420314,16037.5841266914
4194819237,28132,2,0,-9208.9509926881,42485.9956674539,12424.3622197251,30238.0163808741,50738.4683482842,13967.9927417740,46086.8916975385,57529.4789637109,60480.1454432744,16040.8572371368
4194819237,28132,2,0,-9206.2010932061,42486.5553815077,12397.3986035655,30235.2664813921,50739.7216210569,13967.8588971090,46085.3829031325,57527.5442999161,60478.8191643207,16036.5377047646
4194819237,28132,2,0,-9207.1258381647,42482.3331907102,12370.6905090391,30231.3728184088,50733.0293878043,13969.2946853341,46068.1777798248,57525.9138285418,60476.6776496798,16032.3155139671
4194819237,28132,2,0,-9207.5517075535,42482.6495508276,12342.6683032559,30232.3097310641,50736.5945229734,13973.4073668602,46079.5910794447,57533.6403160244,60479.4762199491,16033.0577434733
4194822932,28133,2,0,-9209.9609115244,42481.1650918152,12314.4635820203,30233.1371344481,50738.1033173795,13977.8607438974,46082.6573390441,57536.1590292667,60480.5713126632,16035.1992581141
4194822932,28133,2,0,-9211.5792152019,42477.2714288318,12290.7122378219,30233.3561529909,50732.3601644791,13986.0131007688,46063.8460797559,57534.5285578924,60481.1796975043,16035.5642890188
4194822932,28133,2,0,-9208.8658188104,42484.7545623779,12274.9550704362,30241.0096342925,50738.2614974382,13990.9531856789,46073.5437341237,57543.6178274192,60488.5046509917,16038.8739025546
4194822932,28133,2,0,-9210.1677623704,42489.4999641389,12255.6692709719,30244.5626017648,50746.5111958841,13987.8990937764,46093.2188998864,57550.0545390385,60489.7822591581,16040.7112247749
4194822932,28133,2,0,-9209.9122407371,42487.0299216838,12239.3402218355,30242.2385716717,50743.8099671895,13988.4101370429,46081.2215508190,57547.0247825296,60488.7115018377,16039.5796289704
4194822932,28133,2,0,-9206.1889255093,42487.9546666424,12226.8561648951,30242.4332548208,50743.9559795513,13992.0726137866,46075.6122425836,57548.6065831166,60488.9791911678,16036.5985432488
4194822932,28133,2,0,-9204.1690878367,42489.6703118944,12214.0314124438,30246.8257933739,50748.9082321583,13989.1036957618,46093.7177754562,57550.0180359481,60489.0887004392,16038.2411823198
4194822932,28133,2,0,-9204.3272678954,42488.3075298502,12203.3725100269,30245.2196573933,50748.6283751313,13992.6566632341,46086.6361759052,57547.8278505199,60487.3608874904,16039.2876042466
4194854341,28134,2,0,-9201.8937285308,42489.7433180753,12196.6437736838,30246.9839734326,50746.9857360602,13998.6310023742,46072.6798276493,57545.8080128473,60486.2049562922,16037.2069280899
4194854341,28134,2,0,-9202.7332996116,42491.2034416941,12186.6905976826,30246.6067748311,50748.3971888917,13996.5989970048,46082.6451713473,57549.5799988624,60488.1639554807,16036.3308539186
4194854341,28134,2,0,-9211.3966997495,42484.6572208033,12173.8536775344,30239.3426598278,50741.8996387883,13988.9455157031,46075.9407703979,57543.2771319081,60481.3257098662,16032.1938369988
4194854341,28134,2,0,-9220.2547830366,42476.7360501716,12164.3872094062,30233.4169914750,50732.3479967822,13989.9067637521,46051.3620228155,57536.4145509000,60479.9629278220,16028.6165341329
4194854341,28134,2,0,-9221.2403664793,42480.5567069740,12161.3574528972,30234.5607549764,50737.5314356288,13995.0536995083,46058.8329886648,57543.9828583239,60484.7326649766,16031.4394397958
4194854341,28134,2,0,-9216.4341262342,42486.3606983586,12160.9194158116,30238.9046227422,50746.1583326763,13998.6066669806,46078.5689929116,57548.6187508134,60489.0765327424,16040.0906722369
4194854341,28134,2,0,-9216.8356602294,42482.6738862212,12154.0690025003,30234.8771150938,50738.6386960397,13992.7661725055,46064.0650982987,57541.0382756927,60484.4041371624,16040.3705292639
4194854341,28134,2,0,-9219.4152119559,42478.3543538491,12148.8125574728,30233.2588114163,50734.4530083326,13986.0982746466,46060.4512923423,57540.6367416976,60481.2405359884,16039.0199149165
4194884608,28135,2,0,-9225.9492651498,42475.6531251544,12140.9400576283,30230.3628995725,50731.9099596966,13976.1572663422,46070.9033439132,57537.9963514870,60476.2396125942,16035.1992581141
4194884608,28135,2,0,-9223.2237010614,42470.2750031586,12135.8052895691,30225.4228146624,50726.6291792755,13972.8233174127,46060.4877954327,57530.8417457551,60472.1147633712,16035.2965996887
4194884608,28135,2,0,-9219.5247212273,42471.5039405377,12135.6106064199,30223.5733247453,50725.5949250455,13976.6683096088,46049.7680545317,57530.7444041805,60473.0881791170,16034.7612210285
4194884608,28135,2,0,-9217.1520203468,42477.6729628270,12139.3825924350,30226.5665781637,50733.6499403423,13976.7656511834,46070.8181700354,57537.3879666458,60479.6344000078,16042.5728823888
4194884608,28135,2,0,-9221.9095898046,42474.5702001371,12136.4258421070,30223.0014429946,50730.3646622001,13976.5101295501,46067.8735874042,57533.3361236038,60478.1621086922,16044.7022293328
4194884608,28135,2,0,-9227.2755441035,42471.9784807138,12136.3406682293,30222.7580890581,50726.0329621311,13983.4822198296,46049.1109989033,57531.1459381757,60478.8556674111,16045.8216574405
4194884608,28135,2,0,-9221.6540681713,42478.6950493601,12140.3316727872,30230.4359057534,50734.5990206945,13986.6458210036,46064.1381044796,57540.5150647293,60484.4284725560,16050.0925190254
4194884608,28135,2,0,-9212.2971093144,42484.6937238938,12143.6656217167,30236.3859094998,50740.5368567441,13985.8670884069,46079.8831041685,57544.6642493460,60485.0003543067,16053.2196171089
4194938160,28136,2,0,-9210.2042654609,42482.1263398642,12142.2785042789,30234.1592209812,50736.1686535846,13982.4479655997,46064.5639738684,57538.9941026265,60481.0215174456,16049.3624572160
4194938160,28136,2,0,-9214.5724686203,42479.0600802648,12136.1581527769,30231.5309984675,50734.7206976627,13976.1694340390,46066.3891283918,57537.8868422156,60477.5658915479,16043.8748259489
4194938160,28136,2,0,-9219.9019198288,42477.4782796778,12133.6272718378,30229.0366206188,50735.6211072276,13974.3321118188,46081.0146999730,57538.0815253647,60477.1521898559,16043.6679751029
4194938160,28136,2,0,-9225.5233957610,42473.2925919707,12136.1216496865,30226.5300750732,50732.3479967822,13975.7557323471,46065.6590665825,57534.5772286797,60477.4685499733,16042.7797332348
4194938160,28136,2,0,-9228.3828045144,42473.0979088216,12138.6281952320,30227.8685217238,50731.7517796379,13982.3506240251,46059.0520072076,57533.7011545085,60479.4032137682,16039.0807534006
4194938160,28136,2,0,-9227.1051963480,42479.8388128615,12143.1545784501,30232.1393833086,50740.5246890473,13986.1956162211,46077.8389311022,57541.7074990180,60484.8543419448,16041.5507958557
4194938160,28136,2,0,-9225.6937435165,42480.9095701819,12146.5615335605,30229.8883593964,50742.3863466612,13990.2961300505,46072.4851445001,57539.1401149883,60487.5434029427,16040.1393430242
4194938160,28136,2,0,-9222.8343347631,42479.7171358932,12150.1631718201,30229.6571731567,50741.4129309153,13996.3069722810,46057.2755234715,57540.7584186658,60491.2302150801,16043.6679751029
4194948053,28137,2,0,-9218.9041686893,42484.1826806273,12151.4529476834,30234.2687302526,50745.4891093510,13991.3912227645,46072.2661259573,57548.0712044564,60491.4979044102,16047.5007996021
4194948053,28137,2,0,-9215.8135736963,42484.4016991701,12148.9098990474,30237.1281390060,50748.7257167059,13984.1392754581,46083.4725747313,57546.5989131408,60489.0887004392,16049.3259541256
4194948053,28137,2,0,-9216.3246169628,42482.7225570085,12148.5692035363,30234.4512457050,50742.8000483531,13983.9932630962,46067.2408671695,57544.6399139523,60486.1927885954,16044.5075461837
4194948053,28137,2,0,-9214.4264562585,42485.6428042460,12151.8301462849,30239.6468522484,50748.7865551900,13986.0374361625,46074.5901560505,57549.9693651608,60490.0134453978,16043.4002857728
4194948053,28137,2,0,-9218.1619391831,42486.3606983586,12150.4430288471,30239.2696536469,50750.0763310533,13981.7787422744,46084.3973196898,57552.2203890730,60491.4370659260,16043.7531489806
4194948053,28137,2,0,-9223.2358687583,42482.0655013801,12151.9396555563,30237.0064620378,50742.1916635120,13982.3384563283,46067.7154073455,57546.4772361726,60489.7700914613,16043.4002857728
4194948053,28137,2,0,-9223.8442535994,42484.7910654684,12156.9040758600,30237.5175053044,50740.0988196585,13984.0054307930,46065.4765511301,57548.6065831166,60491.2788858674,16043.8504905552
4194948053,28137,2,0,-9222.2502853156,42488.1615174884,12156.3321941094,30241.2894913195,50743.0312345928,13980.7809911349,46084.7501828977,57552.0987121048,60492.7268417893,16046.5517192499
4194979475,28138,2,0,-9222.8586701568,42484.9735809207,12153.5214561433,30237.6756853631,50736.8987153940,13978.4326256481,46075.4418948281,57545.5524912140,60487.9084338474,16046.3570361008
4194979475,28138,2,0,-9227.2755441035,42479.5954589250,12151.5381215611,30234.8284443065,50733.3214125281,13978.2744455894,46061.3882049976,57543.1189518494,60484.8421742480,16043.7896520711
4194979475,28138,2,0,-9221.9825959855,42483.7081404512,12151.9883263436,30239.0141320136,50741.4859370963,13982.6669841425,46077.1210369897,57549.0081171117,60488.6749987472,16049.7639912112
4194979475,28138,2,0,-9216.0325922391,42487.7478157964,12157.8774916059,30241.1069758671,50746.7910529111,13979.6615630272,46082.4139851077,57551.2713087208,60490.0134453978,16051.7838288838
4194979475,28138,2,0,-9221.6297327776,42484.4016991701,12159.5566337675,30235.2664813921,50742.6053652040,13972.7138081413,46064.1259367828,57545.2726341871,60487.3730551872,16047.0749302133
4194979475,28138,2,0,-9228.3219660303,42482.1506752578,12157.5854668821,30231.0686259882,50739.4782671205,13966.7029659108,46068.5793138200,57543.6543305096,60486.2414593826,16038.8617348578
4194979475,28138,2,0,-9232.0087781676,42478.9992417807,12154.6773873415,30227.9901986920,50736.1321504942,13964.0504080034,46074.6023237473,57541.5858220497,60483.4672245070,16039.9811629655
4194979475,28138,2,0,-9233.5905787546,42474.8013863768,12153.9594932289,30223.3543062025,50727.6512658086,13965.5348670158,46053.6617175151,57534.2608685623,60480.3279587267,16043.6193043156
4195008657,28139,2,0,-9227.0686932575,42479.1087510521,12154.6895550383,30228.5985835331,50730.6931900143,13969.7935609038,46055.0610026497,57538.0328545774,60478.5514749905,16045.1159310248
4195008657,28139,2,0,-9225.1583648563,42483.0389171259,12152.2803510673,30233.0397928735,50738.3345036191,13966.0702456760,46075.7095841582,57542.5714054924,60477.4442145797,16043.7896520711
4195008657,28139,2,0,-9229.4900649253,42479.4007757758,12153.5579592337,30232.9546189958,50737.8964665335,13965.1089976270,46065.6955696729,57539.6146551644,60475.9354201736,16041.2831065256
4195008657,28139,2,0,-9233.8339326910,42478.6463785728,12156.3930325935,30233.8915316511,50736.1321504942,13963.4541908591,46056.5211262684,57539.5416489835,60475.5095507848,16039.6039643640
4195008657,28139,2,0,-9235.3548947939,42477.5026150715,12157.3421129457,30236.7144373140,50737.6166095066,13959.1468261838,46072.5703183779,57544.5304046809,60475.2053583642,16039.8108152100
4195008657,28139,2,0,-9232.9578585198,42474.7648832863,12156.1740140507,30234.2565625558,50734.9397162055,13959.3171739393,46068.9200093310,57539.3226304407,60473.1611852980,16039.1172564911
4195008657,28139,2,0,-9231.3030517519,42471.0902388458,12155.0789213366,30228.7324281982,50730.5593453493,13960.8503037390,46052.2989354709,57536.9986003475,60473.0030052393,16035.4547797474
4195008657,28139,2,0,-9228.6869969349,42474.1443307483,12155.7238092682,30227.9415279047,50736.7405353353,13961.6047009420,46067.0218486266,57542.0116914386,60475.4973830880,16040.5530447162
4195064519,28140,2,0,-9230.5364868520,42472.2218346503,12154.4705364955,30224.1573741928,50735.3777532911,13957.3946778412,46071.5238964511,57537.9841837902,60473.5505515963,16042.0861745159
4195064519,28140,2,0,-9234.7830130432,42465.6877814564,12151.6232954389,30220.0446926666,50725.1568879599,13956.6037775478,46051.4106936028,57529.4546283173,60468.4279512339,16039.5066227894
4195064519,28140,2,0,-9231.8749335026,42469.5692767429,12156.1496786570,30225.5566593274,50728.4178307084,13959.8282172058,46056.8496540827,57533.4212974816,60471.2265215031,16040.8207340463
4195064519,28140,2,0,-9227.1051963480,42474.6067032276,12161.4182913814,30226.9681121589,50732.9563816234,13953.0751454691,46073.2517094000,57537.6434882791,60469.1945161337,16039.7134736354
4195064519,28140,2,0,-9231.6924180502,42466.4056755689,12162.2700301590,30219.2902954636,50725.7531051042,13951.3351648234,46055.0853380433,57529.0287589285,60463.6703817761,16031.9748184560
4195064519,28140,2,0,-9231.9236042898,42468.7175379653,12167.1006057977,30219.6309909746,50727.1280548452,13963.0526568639,46051.5810413583,57532.1680247088,60470.4599566033,16033.3376005002
4195064519,28140,2,0,-9229.2345432920,42472.2948408312,12171.0916103556,30223.8775171658,50734.2461574866,13962.8579737147,46071.9254304463,57537.7164944601,60474.1954395279,16038.6670517087
4195064519,28140,2,0,-9228.7356677222,42471.9541453202,12171.8703429523,30224.4372312197,50734.6355237849,13962.7484644433,46068.7374938787,57535.9886815112,60475.9719232641,16043.1447641395
4195074837,28141,2,0,-9228.1516182747,42472.6842071296,12175.4598135150,30223.9991941341,50732.2871582981,13962.7971352306,46057.0686726255,57534.9665949781,60477.2738668241,16046.1015144675
4195074837,28141,2,0,-9228.0299413065,42476.4683608415,12175.5936581801,30225.9946964130,50737.4462617511,13962.7484644433,46070.9398470036,57541.7805051989,60479.8655862474,16046.7950731864
4195074837,28141,2,0,-9230.0619466759,42476.5048639320,12175.5206519992,30224.7049205498,50737.3002493892,13959.8647202963,46073.3247155809,57538.7750840837,60479.0016797730,16041.7333113080
4195074837,28141,2,0,-9233.2255478499,42471.8811391393,12175.0217764294,30222.2957165789,50728.5151722830,13960.4000989565,46053.0898357644,57534.3460424401,60476.3856249561,16037.4624497232
4195074837,28141,2,0,-9229.1493694142,42475.2759265529,12174.5715716470,30226.7855967065,50734.0149712470,13964.0990787907,46061.8262420832,57540.3447169738,60477.6875685161,16040.0663368433
4195074837,28141,2,0,-9225.0610232817,42478.1596706999,12174.0240252899,30227.6616708778,50739.4417640300,13960.7894652548,46075.7460872487,57541.1234495705,60477.0791836750,16043.9356644330
4195074837,28141,2,0,-9226.1804513894,42474.3511815943,12172.4787277934,30221.6873317377,50733.0050524107,13957.3216716603,46056.4237846939,57535.2221166114,60471.8835771316,16038.8252317674
4195074837,28141,2,0,-9228.2489598493,42473.6454551786,12171.7486659840,30219.7526679429,50729.1113894273,13959.1711615774,46050.8874826394,57535.0030980685,60471.0196706572,16032.7292156591
4195116389,28142,2,0,-9224.3309614723,42478.3665215459,12175.1556210945,30222.4052258503,50735.4872625626,13965.1211653238,46068.6888230914,57538.9332641423,60474.2562780120,16032.8995634146
4195116389,28142,2,0,-9221.7514097459,42482.1141721674,12183.2471394817,30223.2326292342,50737.3610878733,13970.2315979895,46061.1691864548,57538.8967610519,60475.7285693276,16034.2988485492
4195116389,28142,2,0,-9218.3566223323,42488.5995545740,12193.5531786908,30225.9216902321,50739.2349131840,13977.8972469879,46052.2015938963,57541.1477849641,60479.6709030983,16037.0974188185
4195116389,28142,2,0,-9209.7905637689,42499.8546741352,12204.3702611663,30232.8572774212,50749.8329771168,13984.9788465389,46075.0890316202,57551.4659918700,60487.5312352459,16043.4976273474
4195116389,28142,2,0,-9207.0528319838,42502.1787042284,12209.5658677097,30232.2975633673,50750.0398279628,13983.3118720741,46075.1498701044,57550.3222283686,60487.9327692410,16043.8139874648
4195116389,28142,2,0,-9205.9212361792,42501.0836115143,12213.1796736662,30232.8816128148,50747.5089470236,13987.2542058447,46061.4733788754,57549.6286696497,60489.2347128011,16042.4755408142
4195116389,28142,2,0,-9203.1470013036,42506.7659259306,12213.6663815391,30239.5373429770,50752.0596656354,13987.0473549988,46074.3589698109,57557.7810265211,60493.8706052906,16041.2952742224
4195116389,28142,2,0,-9202.3317656165,42511.4018184202,12213.8975677787,30241.3503298036,50759.5062960910,13987.3150443289,46087.5244177733,57561.5895156267,60494.1626300144,16041.7089759144
4195129048,28143,2,0,-9194.3984272879,42514.0543763276,12215.5523745466,30242.5305963954,50759.2994452451,13996.3069722810,46073.2517094000,57558.2920697876,60495.6470890268,16042.9744163840
4195129048,28143,2,0,-9181.2208116286,42522.4379194386,12223.0963465769,30251.3521765920,50766.5757279452,14005.5665895633,46082.7790160123,57567.6003578572,60504.8580355217,16046.6368931277
4195129048,28143,2,0,-9172.2653867670,42528.2297431263,12228.8760025678,30257.0709940988,50773.9980230072,14001.4417403403,46101.3469213642,57573.7085416623,60508.5326799623,16050.3967114460
4195129048,28143,2,0,-9178.3979059657,42523.4478382749,12230.9688464213,30253.0191510568,50767.7194914465,13998.8865240075,46087.6947655288,57568.6589474808,60503.4100795998,16050.0316805413
4195129048,28143,2,0,-9184.8589529787,42523.8250368764,12232.6236531892,30247.9208860880,50764.5437225757,13998.4363192250,46076.8655153564,57565.8847126052,60501.8891174970,16046.7950731864
4195129048,28143,2,0,-9185.5403440008,42529.0449788134,12233.7309136001,30248.4927678387,50771.0777757697,13992.8391786865,46091.9777948105,57567.9410533682,60501.0008756289,16045.6148065946
4195129048,28143,2,0,-9184.8711206755,42531.3811766034,12233.4875596636,30246.7284517993,50771.9295145473,13991.1843719186,46086.6240082084,57566.4565943558,60498.9080317753,16042.0740068191
4195129048,28143,2,0,-9180.4785821224,42533.0846541587,12238.5371538452,30250.0867361225,50769.8610060874,13996.0149475573,46071.5725672384,57567.5516870699,60500.9887079321,16034.5787055761
4195181818,28144,2,0,-9172.5209084002,42540.0445767414,12243.4407356648,30258.6649623826,50776.5410716432,13998.3511453473,46090.2134787712,57577.4561922838,60504.8945386122,16036.5255370678
4195181818,28144,2,0,-9167.8606805171,42543.2325133090,12245.9472812103,30262.1692590676,50780.9336101962,13999.8477720565,46101.6267783911,57579.8410608611,60507.4375872482,16042.6945593570
4195181818,28144,2,0,-9167.4956496124,42544.7169723214,12250.9117015141,30264.9434939433,50781.6880073993,14004.2403106096,46090.9678759742,57580.0965824944,60507.4740903387,16049.1556063700
4195181818,28144,2,0,-9170.5497415149,42546.8584869622,12251.3010678124,30268.5572998997,50785.8250243191,13994.8346809654,46097.6357738332,57581.5323707195,60507.3889164609,16047.2452779688
4195181818,28144,2,0,-9176.4997452613,42542.1617559886,12243.9882820218,30265.2233509702,50783.9998697956,13984.5651448469,46106.2505031838,57579.1840052326,60504.0306321378,16041.3804481002
4195181818,28144,2,0,-9186.8301198640,42531.8557167795,12237.3082164660,30255.3675165436,50772.2337069678,13978.3474517704,46082.6938421346,57566.5417682336,60495.7687659950,16032.4736940258
4195181818,28144,2,0,-9184.9927976438,42531.8070459922,12238.8535139626,30253.8830575312,50770.0313538429,13984.7963310865,46077.6077448626,57566.2254081162,60499.1027149245,16031.9383153656
4195181818,28144,2,0,-9174.8571061902,42541.3221849078,12245.5700826088,30260.7091354489,50782.4910753896,13991.8049244565,46102.7827095893,57576.4462734475,60505.4177495756,16043.6801427997
4195200656,28145,2,0,-9169.0409471089,42543.2568487026,12250.8508630300,30261.3418556837,50786.4942476443,13995.5769104716,46100.4586794961,57577.8820616726,60507.2307364022,16051.1389409522
4195200656,28145,2,0,-9169.1382886835,42541.4438618760,12254.8905383752,30262.1084205835,50783.5983358005,13995.0050287210,46087.1837222623,57579.5977069246,60508.9828847447,16051.3214564045
4195200656,28145,2,0,-9171.3163064148,42541.7115512061,12255.7909479401,30262.2909360359,50785.4356580207,13987.7044106272,46100.7750396135,57582.7004696145,60510.1144805493,16052.7207415392
4195200656,28145,2,0,-9176.6579253200,42537.5258634990,12252.2988189519,30256.2192553212,50782.3207276341,13978.2866132862,46099.9719716232,57575.2781745525,60506.3424945342,16049.5084695779
4195200656,28145,2,0,-9185.2848223675,42531.2473319384,12248.6971806923,30248.7604571688,50775.2147926895,13976.4857941564,46081.0998738508,57566.6026067177,60500.6966832083,16041.4291188875
4195200656,28145,2,0,-9186.8544552577,42535.0314856503,12250.2424781888,30251.7172074967,50780.1183745091,13979.3938736971,46092.0994717787,57570.3867604297,60502.5948439127,16044.0816767949
4195200656,28145,2,0,-9191.0766460552,42535.8345536406,12249.5124163795,30250.2084130907,50780.3495607487,13972.2149325716,46101.5172691197,57568.1722396079,60502.2906514921,16049.7274881207
4195200656,28145,2,0,-9196.1505756304,42527.6700290724,12250.5953413967,30245.1466512123,50769.7393291191,13970.2194302926,46082.0732895966,57558.8274484479,60498.4821623865,16051.7108227028
4195229390,28146,2,0,-9198.1339102125,42525.2973281920,12252.5421728884,30242.8104534223,50764.2395301552,13964.3424327271,46082.6086682568,57558.7666099637,60497.1923865233,16049.9951774508
4195229390,28146,2,0,-9199.3750152885,42523.6060183336,12250.7413537586,30241.4841744686,50763.1322697443,13956.9201376652,46097.4045875935,57557.4890017973,60493.5055743859,16045.7486512596
4195229390,28146,2,0,-9200.7256296358,42516.2080586652,12247.1153801053,30235.7896923555,50757.2309367852,13954.3284182419,46082.9858668583,57549.2879741387,60487.3122167031,16040.9302433177
4195229390,28146,2,0,-9204.7044664969,42509.3819807476,12242.7471769459,30230.8982782327,50751.5972931561,13956.2387466431,46066.5108053601,57545.9418575124,60482.8345042722,16037.0000772439
4195229390,28146,2,0,-9202.5386164624,42511.9128616867,12244.6453376503,30233.9158670448,50754.5540434841,13956.7741253033,46083.0710407361,57550.8454393320,60484.8665096417,16041.5386281589
4195229390,28146,2,0,-9203.0009889417,42513.6285069388,12250.9117015141,30231.6161723452,50758.3138618024,13963.8192217638,46083.8497733328,57549.2514710482,60486.8620119206,16047.1479363942
4195229390,28146,2,0,-9201.7963869562,42516.9746235651,12261.6557778088,30233.1493021449,50759.5306314847,13970.2559333831,46075.6609133709,57552.2568921635,60492.2523016132,16051.8324996711
4195229390,28146,2,0,-9203.4390260273,42517.1693067142,12263.7972924496,30234.1348855876,50761.8303261842,13956.0683988875,46087.4879146828,57553.4979972394,60490.5244886643,16050.8469162284
4195296669,28147,2,0,-9210.9343272703,42507.7880124638,12256.1924819353,30225.8851871416,50752.5098704179,13942.2215599030,46088.6438458810,57544.1167029889,60480.0846047902,16045.5174650200
4195296669,28147,2,0,-9217.2736973150,42496.3868805407,12251.4714155680,30217.8666749353,50741.3885955217,13939.2039710909,46062.0574283229,57535.7453275747,60472.5771358505,16039.7986475132
4195296669,28147,2,0,-9217.2371942246,42497.9321780372,12254.7566937101,30220.4827297522,50745.4039354733,13944.2292298788,46064.5883092620,57539.2252888661,60474.3414518898,16039.0442503102
4195296669,28147,2,0,-9214.9009964345,42507.1552922290,12260.3294988551,30225.5079885401,50758.2043525310,13947.4536695369,46085.1882199833,57549.8111851021,60479.4153814650,16044.6292231519
4195296669,28147,2,0,-9217.0911818627,42508.4207326986,12266.4741857506,30226.7734290097,50758.9587497340,13954.9489707798,46076.5126521485,57549.7016758306,60482.0314362819,16046.6247254309
4195296669,28147,2,0,-9214.3291146839,42509.6740054713,12272.0834939860,30229.1096267997,50760.1876871131,13958.1977458316,46073.2030386127,57551.4416564763,60484.0147708641,16050.0438482381
4195296669,28147,2,0,-9213.7937360237,42510.6595889140,12276.0136600598,30228.7932666823,50762.9740896856,13952.9534685009,46089.6172616268,57555.0554624327,60487.3973905808,16055.0934424196
4195296669,28147,2,0,-9215.0591764932,42504.8312621358,12278.2281808816,30223.1717907501,50755.4666207458,13947.7213588670,46077.8510987991,57548.1928814246,60483.6740753530,16055.1786162974
4195304516,28148,2,0,-9214.8401579504,42502.5072320426,12282.4017008919,30219.8500095174,50749.1029153074,13942.5014169300,46060.8893294279,57543.5204858446,60480.3279587267,16048.0970167464
4195304516,28148,2,0,-9217.8334113689,42503.4563123948,12282.2191854395,30220.5314005395,50752.1083364227,13933.9718614571,46075.7704226423,57545.1874603093,60479.0016797730,16043.7166458902
4195304516,28148,2,0,-9224.9880171008,42496.2652035724,12277.4616159818,30212.1965282158,50747.5697855077,13927.9123484393,46075.4540625249,57539.1644503820,60472.0052540998,16039.8716536941
4195304516,28148,2,0,-9227.6770780986,42491.9335035035,12277.5102867691,30206.5507168900,50740.7558752869,13937.0989595406,46056.0830891828,57535.4289674573,60472.6744774251,16042.7067270539
4195304516,28148,2,0,-9220.9848448460,42496.8857561104,12283.8618245106,30212.5615591205,50747.2047546031,13939.6906789639,46066.0849359713,57541.3911389006,60478.9043381984,16050.8590839252
4195304516,28148,2,0,-9220.8996709683,42497.1047746532,12285.3949543103,30213.8026641964,50749.7234678454,13929.7009998722,46076.6586645104,57541.2451265387,60474.3292841930,16051.2606179204
4195304516,28148,2,0,-9222.1894468315,42493.8194965110,12287.2931150147,30211.1257708954,50745.0754076590,13928.1435346789,46060.6338077946,57534.2730362592,60467.3450262166,16047.4156257243
4195304516,28148,2,0,-9223.4427196043,42495.2309493425,12291.3449580567,30212.7684099665,50741.9969803628,13927.7054975933,46055.7058905813,57536.0373522985,60467.3693616103,16046.3448684039
4195323282,28149,2,0,-9225.1948679468,42494.9754277092,12291.3571257536,30212.0018450667,50743.2745885292,13918.0078432254,46069.4918910817,57535.6966567874,60464.4004435855,16048.2065260178
4195323282,28149,2,0,-9229.7942573458,42489.0132562660,12291.6734858710,30206.8914124010,50736.9838892718,13915.5012976799,46057.2755234715,57529.6249760728,60461.9790719177,16050.7009038665
4195323282,28149,2,0,-9231.6437472629,42486.5310461141,12294.9952671036,30205.4312887823,50732.6278538092,13921.2687859739,46048.9163157541,57526.4248718084,60460.5919544799,16049.2529479446
4195323282,28149,2,0,-9226.5454822941,42490.2056905546,12297.9033466443,30211.2352801668,50741.2912539471,13922.7167418959,46068.7009907882,57532.2045277993,60462.8916491794,16047.9875074750
4195323282,28149,2,0,-9223.8807566899,42488.7333992390,12297.5383157396,30211.2839509541,50737.7869572621,13919.7599915679,46068.2872890962,57529.2842805618,60460.4337744212,16045.6999804723
4195323282,28149,2,0,-9223.4913903915,42484.9370778303,12301.8943512022,30210.7607399907,50731.4962580046,13922.7167418959,46048.7703033922,57524.3806987421,60460.4337744212,16046.6003900372
4195323282,28149,2,0,-9223.5157257852,42485.5454626714,12304.1332074176,30213.5836456536,50733.8202880978,13922.0475185706,46056.2169338479,57530.1116839457,60461.9669042209,16051.2849533140
4195323282,28149,2,0,-9227.0321901670,42486.6162199918,12304.4739029287,30213.2064470521,50735.4750948657,13918.9569235776,46064.9898432572,57529.6493114664,60460.4824452085,16055.4219702338
4195354621,28150,2,0,-9235.7077580018,42481.5179550230,12305.3621447968,30204.2145191000,50728.6733523417,13918.2877002523,46046.0447393039,57520.5965450302,60455.5788633888,16053.5724803168
4195354621,28150,2,0,-9238.6036698456,42477.4052734969,12303.9141888748,30200.1505083611,50724.2199753045,13913.2381060708,46043.2826721251,57517.1895899197,60453.5590257162,16050.2506990841
4195354621,28150,2,0,-9237.5450802220,42472.6355363423,12302.5635745275,30197.1085841554,50723.2708949523,13907.1420899625,46053.8077298769,57517.0800806483,60451.8433804642,16046.4908807658
4195354621,28150,2,0,-9235.1358762511,42470.1654938872,12309.7668510467,30197.2302611236,50720.4601569862,13910.8289020998,46042.2484178951,57515.6442924232,60455.5666956920,16048.2430291083
4195354621,28150,2,0,-9234.3693113513,42473.4021012421,12315.5221716439,30198.7268878328,50722.0662929669,13911.0722560363,46036.9311343835,57517.9926579101,60459.5942033404,16048.1091844433
4195354621,28150,2,0,-9232.8848523389,42479.6562974091,12316.3374073311,30202.5232092416,50729.7562773590,13908.3953627353,46056.0465860923,57523.6871400232,60462.0764134923,16047.0384271228
4195354621,28150,2,0,-9236.7176768381,42478.0623291253,12316.7876121135,30199.8098128501,50727.0915517547,13907.3976115958,46053.1263388548,57520.7182219984,60456.2845898046,16042.3660315428
4195354621,28150,2,0,-9238.8713591757,42473.9374799023,12320.9124613365,30197.1085841554,50721.2997280670,13914.3088633912,46035.6413585203,57517.2504284039,60456.5401114378,16040.6747216844
4195383594,28151,2,0,-9240.2219735231,42474.1808338388,12326.1689063640,30200.2965207230,50722.0297898764,13914.9902544133,46049.1231666001,57519.6596323748,60459.3508494039,16044.4223723059
4195383594,28151,2,0,-9239.1025454154,42477.2592611350,12332.1797485945,30204.1293452222,50726.1668067962,13914.6495589023,46061.3517019072,57524.6483880722,60463.7068848666,16054.8135853927
4195383594,28151,2,0,-9239.6987625597,42472.9397287629,12333.4573567609,30200.2965207230,50719.4380704531,13909.7094739921,46041.6156976603,57517.8953163355,60459.8618926705,16053.9983497056
4195383594,28151,2,0,-9242.4608297385,42470.9077233934,12330.4641033425,30197.2545965172,50720.4601569862,13903.7959733362,46043.3556783060,57517.5911239149,60458.2557566899,16047.0505948197
4195383594,28151,2,0,-9244.8822014063,42469.3259228064,12328.3712594889,30195.1739203605,50721.2267218861,13897.0063985090,46054.3674439308,57516.2770126580,60454.3864291002,16041.0762556796
4195383594,28151,2,0,-9247.2305668931,42463.7409499647,12330.9021404281,30191.0612388344,50714.2059608192,13901.3867693652,46037.3813391660,57511.1422445987,60451.4540141659,16040.9789141050
4195383594,28151,2,0,-9244.8335306190,42465.6999491532,12337.5091998030,30194.4438585511,50715.1915442619,13904.9762399280,46036.3105818455,57514.7195474647,60453.4373487480,16043.0717579586
4195383594,28151,2,0,-9241.7307679291,42471.6864559901,12341.8774029624,30199.3961111581,50722.7841870794,13901.2285893065,46056.1317599701,57519.9151540081,60454.8609692763,16045.1524341153
4195416026,28152,2,0,-9245.2228969173,42468.0969854273,12341.1960119403,30194.9670695145,50718.3916485263,13897.2862555359,46046.3245963308,57512.2373373128,60450.6144430851,16044.3615338218
4195416026,28152,2,0,-9249.2625722625,42465.9311353928,12343.3131911875,30194.0544922528,50713.9139360955,13904.4043581773,46033.1348129747,57510.4243504862,60452.2084113689,16047.5373026926
4195416026,28152,2,0,-9246.7681944138,42466.8193772609,12344.5299608698,30194.9427341209,50713.0743650147,13893.5507726113,46045.1930005263,57513.0039022127,60453.1574917211,16045.2619433867
4195416026,28152,2,0,-9249.6032677736,42460.6138518812,12340.8796518229,30189.5159413379,50708.4019694347,13887.3939180189,46043.2461690346,57506.8835507107,60446.7816185858,16040.7477278654
4195416026,28152,2,0,-9251.3310807224,42459.1050574752,12339.7602237152,30187.2649174256,50705.9319269796,13899.7684656878,46025.9923749397,57505.9588057522,60445.1998179989,16039.5066227894
4195416026,28152,2,0,-9246.8046975043,42468.0848177305,12345.8319044299,30197.0234102776,50719.0852072452,13909.7338093858,46040.5449403399,57513.5271131760,60452.7194546354,16045.3349495676
4195416026,28152,2,0,-9237.6910925839,42477.5634535556,12356.3447944849,30206.4777107090,50728.8923708845,13913.3476153422,46060.0862614376,57523.4681214804,60460.9569853846,16053.1831140184
4195416026,28152,2,0,-9232.9578585198,42475.8721436972,12368.6950067602,30205.9544997457,50725.0838817789,13908.7725613368,46044.9131434994,57520.5113711524,60460.8353084163,16054.3633806102
4195453524,28153,2,0,-9234.6613360750,42474.8257217704,12374.6450105066,30203.2776064446,50722.5773362334,13905.3169354391,46043.8910569662,57519.6474646780,60461.8695626463,16051.9906797298
4195453524,28153,2,0,-9235.7807641827,42479.1209187489,12377.8937855583,30202.0486690655,50728.9410416718,13900.7783845241,46061.7897389928,57523.9791647470,60462.0520780986,16051.7959965806
4195453524,28153,2,0,-9242.1079665306,42473.9131445087,12374.4868304479,30196.0378268350,50723.7089320380,13895.7166226458,46048.0037384924,57516.5568696850,60456.0047327776,16046.8924147610
4195453524,28153,2,0,-9242.1323019243,42471.8933068361,12374.6936812939,30196.4515285269,50719.3772319690,13896.3980136678,46035.9090478504,57512.5050266429,60453.2426655988,16043.9478321298
4195453524,28153,2,0,-9239.3337316550,42473.1344119120,12373.9027810004,30199.4204465517,50722.1514668446,13892.2244936576,46049.8653961063,57516.4230250199,60449.5315180678,16042.9135778999
4195453524,28153,2,0,-9239.9056134057,42470.4210155205,12372.4548250785,30194.5290324289,50719.4015673626,13889.2069048455,46045.1808328295,57510.7163752099,60445.4675073290,16044.5805523646
4195453524,28153,2,0,-9238.4576574838,42469.9221399508,12378.5021703995,30193.7624675291,50718.7688471278,13899.2209193308,46031.2244845735,57509.8037979482,60447.6211896666,16047.2331102720
4195453524,28153,2,0,-9234.4544852290,42477.2714288318,12385.4499252854,30199.2866018867,50724.9013663266,13899.6711241132,46048.3079309130,57516.0093233279,60450.5779399946,16050.1655252063
4195480720,28154,2,0,-9235.2818886130,42476.5048639320,12384.8902112315,30199.9071544246,50724.7918570552,13890.1803205913,46054.3431085371,57512.7848836698,60448.5215992315,16050.2750344777
4195480720,28154,2,0,-9241.5239170831,42467.1357373783,12383.6734415492,30193.4582751085,50712.3321355085,13889.3650849042,46028.7422744217,57503.0385585147,60441.1966457441,16043.8869936457
4195480720,28154,2,0,-9246.2814865409,42468.5715256034,12387.1534028406,30194.0544922528,50713.9139360955,13893.4899341272,46030.5674289451,57505.6789487252,60444.0317191039,16044.0695090980
4195480720,28154,2,0,-9246.3909958123,42474.4850262594,12387.9564708309,30194.5290324289,50722.2244730255,13891.1294009435,46046.7991365069,57512.4441881588,60445.8812090210,16044.4345400027
4195480720,28154,2,0,-9245.7339401839,42474.1686661420,12388.5526879752,30191.7669652501,50723.4169073142,13896.4101813647,46036.9798051708,57510.1566611561,60446.1245629574,16041.6359697335
4195480720,28154,2,0,-9242.0106249561,42476.8577271398,12393.8213006996,30193.0689088102,50725.8017758915,13901.0947446415,46032.9522975224,57513.0890760904,60450.6266107819,16041.9523298508
4195480720,28154,2,0,-9239.3702347455,42479.3642726854,12399.2845965731,30197.3276026982,50729.2939048797,13890.8617116134,46050.1695885269,57516.2161741739,60452.8898023910,16043.1082610490
4195480720,28154,2,0,-9246.7195236265,42471.9784807138,12401.6451297567,30192.2780085167,50718.3794808295,13881.4439142724,46040.8978035478,57509.6456178895,60447.8888789967,16039.2024303689
4195539804,28155,2,0,-9246.9750452598,42470.7252079411,12406.5122084859,30193.7989706195,50716.5664940029,13885.4714219208,46026.5520889935,57508.9033883833,60446.5991031335,16039.7986475132
4195539804,28155,2,0,-9242.6676805845,42474.3755169880,12406.4513700018,30197.6926336029,50722.5895039302,13880.7625232504,46044.9374788930,57513.1499145745,60446.6964447081,16040.5408770194
4195539804,28155,2,0,-9241.2440600562,42471.8811391393,12403.3851104024,30196.1473361064,50720.0951260815,13874.0824576946,46047.7238814655,57508.4288482072,60440.8437825363,16035.9414876203
4195539804,28155,2,0,-9248.0214671866,42463.9964715980,12403.0079118009,30190.3190093282,50711.2127074008,13874.7273456262,46024.7512698637,57500.2886590327,60436.2808962277,16033.2524266224
4195539804,28155,2,0,-9248.9097090547,42463.8747946298,12402.9957441041,30192.8012194801,50711.3465520658,13875.4209043451,46030.8837890625,57503.6347756590,60436.4269085895,16035.1262519332
4195539804,28155,2,0,-9247.3157407709,42464.3736701995,12403.1174210723,30194.4438585511,50715.1307057778,13873.8512714549,46045.6797083992,57505.1800731555,60436.6580948292,16038.1803438357
4195539804,28155,2,0,-9251.3310807224,42460.7355288494,12402.1196699328,30187.4717682716,50707.7449138063,13868.4731494592,46028.5354235757,57499.1813986218,60431.5476621635,16034.0676623096
4195539804,28155,2,0,-9253.6307754220,42460.8572058177,12403.7014705198,30185.4884336895,50706.3456286716,13871.6975891173,46027.5741755267,57499.2787401964,60431.4503205889,16028.8355526757
4195546525,28156,2,0,-9250.4550065512,42465.2375766739,12408.4347045839,30189.9904815139,50713.5610728876,13874.4109855088,46046.1907516658,57504.8515453413,60435.9523684134,16033.3010974097
4195546525,28156,2,0,-9248.2039826389,42466.6855325959,12417.2927878710,30191.6574559787,50714.9360226286,13876.6863448147,46039.7783754401,57505.2287439428,60438.3250692939,16042.1105099095
4195546525,28156,2,0,-9244.7605244381,42467.3304205275,12423.6443256126,30194.9670695145,50715.7025875285,13875.3235627705,46030.8716213657,57506.8227122266,60440.5882609030,16044.3615338218
4195546525,28156,2,0,-9241.6942648387,42470.7252079411,12423.8390087618,30200.3695269039,50721.9446159986,13875.0437057436,46051.9825753535,57512.7727159730,60441.8050305853,16046.4300422817
4195546525,28156,2,0,-9238.8591914789,42470.7738787284,12424.8975983853,30201.3307749529,50723.3195657396,13876.2118046386,46054.3796116276,57511.3977662320,60441.2209811378,16045.6513096850
4195546525,28156,2,0,-9240.6965136992,42463.5584345124,12424.7272506298,30196.5123670110,50715.3740597142,13873.3523958852,46030.4579196737,57504.8028745540,60438.1425538416,16038.1681761389
4195546525,28156,2,0,-9241.1467184816,42464.7387011042,12424.1188657887,30197.3032673045,50715.3740597142,13868.8625157575,46038.5494380610,57507.1390723440,60439.0916341937,16035.2722642951
4195546525,28156,2,0,-9240.9520353325,42468.0118115496,12425.3356354710,30197.9116521457,50721.5917527908,13869.8602668970,46049.6707129571,57508.9520591706,60440.5030870252,16037.3894435422
4195575278,28157,2,0,-9242.9718730051,42468.8148795399,12430.1662111097,30197.3762734855,50719.9004429324,13875.4209043451,46034.5584335030,57504.5595206175,60438.9699572255,16036.5012016742
4195575278,28157,2,0,-9240.8546937579,42474.2903431102,12435.9458671006,30201.4767873148,50724.6945154806,13880.7868586440,46039.5836922909,57510.5216920608,60446.5869354367,16039.7134736354
4195575278,28157,2,0,-9242.4608297385,42474.3876846848,12435.5930038927,30201.5741288894,50726.4344961263,13876.3943200909,46053.7955621801,57512.2008342223,60446.2340722288,16040.4070323543
4195575278,28157,2,0,-9246.5735112647,42467.4277621021,12436.2500595212,30198.6903847424,50721.2023864924,13879.5579212649,46038.3790903054,57505.7397872094,60444.0317191039,16041.1857649510
4195575278,28157,2,0,-9248.7393612992,42466.4908494467,12440.2775671695,30197.9116521457,50717.9414437439,13880.3853246488,46029.1194730232,57505.0948992777,60445.0659733338,16038.9347410388
4195575278,28157,2,0,-9243.6167609367,42472.4895239804,12444.2564040306,30202.0608367623,50723.8062736125,13877.1608849908,46050.2425947078,57509.4144316499,60445.3823334512,16039.5431258799
4195575278,28157,2,0,-9238.5306636647,42474.2660077166,12448.8314580361,30202.6692216035,50723.3682365269,13875.0923765309,46052.2746000772,57508.3680097231,60441.7076890107,16040.4192000512
4195575278,28157,2,0,-9236.8758568968,42470.2385000682,12450.4375940167,30201.7688120386,50720.1437968688,13875.0802088340,46036.5539357820,57505.0583961873,60439.8460313968,16037.8396483247
4195604597,28158,2,0,-9234.4909883195,42472.6963748264,12451.9707238164,30204.2023514031,50722.2123053287,13877.5137481986,46049.6220421698,57510.5946982417,60442.1578937931,16039.0807534006
4195604597,28158,2,0,-9233.2985540308,42474.5702001371,12456.0225668584,30205.7719842933,50725.1325525662,13875.4087366483,46057.2025172905,57511.6776232590,60444.5062592800,16038.8252317674
4195604597,28158,2,0,-9234.5761621972,42473.2439211834,12460.2812607465,30204.7985685475,50723.5872550697,13874.3501470247,46042.5769457093,57507.9908111216,60442.3160738518,16035.6372951997
4195604597,28158,2,0,-9235.2453855225,42475.5314481861,12461.5345335192,30206.1248475012,50726.0329621311,13871.2352166380,46046.1542485753,57509.3535931658,60441.2453165314,16032.3033462703
4195604597,28158,2,0,-9237.3138939824,42473.2804242739,12457.4096842962,30205.4556241759,50725.2542295345,13868.7651741829,46056.7888155985,57506.8835507107,60437.2664796703,16030.5146948373
4195604597,28158,2,0,-9242.3391527703,42465.3227505517,12456.8986410297,30201.6714704640,50716.4083139442,13871.4907382713,46038.5007672737,57500.7266961183,60434.8207726089,16030.1009931453
4195604597,28158,2,0,-9246.7560267170,42464.5075148646,12461.4493596415,30202.7787308749,50713.7557560368,13869.5317390828,46034.8869613173,57501.0308885389,60434.3705678265,16029.6264529692
4195604597,28158,2,0,-9250.7470312749,42467.3669236179,12461.5832043065,30204.4700407332,50719.4867412404,13862.9976858889,46053.5765436373,57503.7077818399,60433.7256798948,16027.4484352379
4195658361,28159,2,0,-9251.8664593826,42462.1469816809,12458.5169447071,30198.0089937203,50713.9261037923,13861.2577052432,46043.1001566727,57497.3197410079,60429.0654520116,16022.8612135357
4195658361,28159,2,0,-9248.0214671866,42458.6426849959,12458.6751247658,30194.7237155781,50708.4993110093,13864.1292816934,46029.8982056198,57493.4017426309,60430.4647371463,16021.1820713741
4195658361,28159,2,0,-9242.4851651322,42458.6670203895,12460.9261486781,30196.9382363998,50712.5389863545,13862.8881766175,46043.2705044283,57496.6018468953,60433.8595245599,16023.2870829245
4195658361,28159,2,0,-9241.1832215721,42458.5575111181,12461.2790118859,30196.5367024047,50711.2613781881,13864.3969710235,46047.2006705021,57495.6527665431,60435.5386667214,16027.5944475998
4195658361,28159,2,0,-9243.0692145797,42456.8175304725,12465.0509979011,30195.1982557542,50706.2361194002,13866.5384856643,46030.6769382165,57492.5865069438,60433.5309967457,16027.1685782110
4195658361,28159,2,0,-9242.8623637337,42461.5507645366,12470.4777906841,30197.3397703950,50711.6750798801,13863.4965614586,46039.4011768386,57496.6748530763,60434.5287478851,16030.9527319229
4195658361,28159,2,0,-9242.4243266480,42463.2420743950,12472.4489575694,30199.7124712755,50717.0288664822,13862.9733504952,46051.9947430503,57496.2368159906,60434.8451080025,16036.0023261044
4195658361,28159,2,0,-9244.3468227461,42458.8982066292,12474.6026399071,30197.3641057887,50711.0910304326,13864.5308156886,46032.4655896495,57491.8564451344,60434.0663754059,16039.3849458212
4195666284,28160,2,0,-9249.4085846244,42459.4092498957,12477.4985517509,30198.9945771629,50708.7791680362,13861.6714069352,46031.8207017179,57492.0632959804,60434.8207726089,16040.8572371368
4195666284,28160,2,0,-9249.9682986783,42458.5940142086,12476.2452789782,30199.3352726740,50709.9837700217,13855.6727324015,46048.0159061892,57492.1606375550,60432.1560470047,16039.7013059386
4195666284,28160,2,0,-9248.7150259055,42455.9049532107,12475.9289188608,30194.4316908543,50705.0071820211,13856.2689495458,46037.7220346770,57485.2128826691,60427.7878438452,16035.5156182315
4195666284,28160,2,0,-9252.6330242825,42452.8265259145,12478.5328059809,30189.9053076362,50699.4465445730,13856.8529989933,46022.1230473500,57481.4530643508,60425.6828322949,16031.4759428863
4195666284,28160,2,0,-9256.4780164785,42454.6395127412,12479.3845447585,30190.7327110201,50702.3424564169,13858.1792779470,46035.5318492489,57484.8600194612,60426.5224033757,16033.0090726860
4195666284,28160,2,0,-9255.3464206740,42458.0951386389,12486.7216659427,30194.9427341209,50704.7881634783,13870.4564840413,46037.7342023738,57487.5490804591,60431.2921405302,16040.2731876893
4195666284,28160,2,0,-9250.9173790305,42461.8549569572,12493.2678868335,30198.6173785614,50707.2825413270,13871.4055643935,46025.6516794286,57492.2944822200,60435.2831450882,16043.2421057141
4195666284,28160,2,0,-9248.3256596072,42464.3980055932,12489.8487640262,30199.1405895248,50711.8332599388,13861.2820406368,46039.0726490243,57497.3927471888,60435.1127973327,16040.4070323543
4195696879,28161,2,0,-9252.5235150111,42459.8959577687,12484.2272880940,30193.3609335339,50712.3686385990,13852.3266157751,46045.4850252500,57493.3895749341,60431.3408113175,16036.4525308869
4195696879,28161,2,0,-9255.4437622486,42456.2456487218,12486.1862872825,30191.6939590692,50708.4749756156,13855.8065770665,46029.1559761136,57491.1263833250,60428.5787441387,16036.0023261044
4195696879,28161,2,0,-9251.3310807224,42460.0663055242,12490.6883351070,30196.5001993142,50713.6949175527,13860.8805066417,46037.7220346770,57495.9934620542,60431.7666807063,16038.6062132245
4195696879,28161,2,0,-9246.3179896314,42468.2673331828,12497.7942700516,30202.0121659750,50721.7255974558,13865.4798960407,46057.0200018382,57502.2963290085,60435.2466419977,16044.3371984281
4195696879,28161,2,0,-9241.8767802910,42472.1731638630,12506.8957072752,30203.3992834128,50724.1713045172,13872.0261169315,46047.0303227465,57503.2940801479,60437.1934734894,16046.4787130690
4195696879,28161,2,0,-9239.6014209851,42476.2006715114,12513.8312944642,30206.6480584646,50724.4754969378,13874.7151779294,46039.8148785305,57505.9223026617,60440.4179131475,16046.6977316118
4195696879,28161,2,0,-9237.5572479189,42482.4183645879,12517.1774110905,30212.4033790618,50731.5327610951,13870.0671177430,46058.4801254569,57514.0746595331,60444.5184269768,16049.5571403652
