steady_timestamp,sequence,battery,flags,EEG-ch1,EEG-ch2,EEG-ch3,EEG-ch4,EEG-ch5,EEG-ch6,EEG-ch7,EEG-ch8,EEG-ch9,EEG-ch10
6117765136,9155,-2,0,4365.9643032208,45763.1701235641,-731.5341006921,19709.7463570680,57440.4722614511,50782.7100939324,42203.1088840173,55616.5466753889,38692.4849966621,22534.7691992378
6117765136,9155,-2,0,4370.5393572262,45759.0817774316,-736.5106886927,19710.4277480901,57435.8972074457,50778.4514000444,42200.9795370733,55611.7039320534,38687.5935825392,22534.2338205775
6117765136,9155,-2,0,4354.9160345055,45756.9889335781,-744.8455610164,19685.9585097792,57428.1707199631,50785.2409748716,42200.3954876258,55607.3478965908,38685.1965462651,22534.8908762060
6117765136,9155,-2,0,4357.0697168432,45759.2521251871,-741.6454567520,19693.7701711395,57434.3032391619,50780.9579455899,42203.7416042521,55611.3145657551,38686.8026822458,22535.4749256535
6117765136,9155,-2,0,4368.2518302235,45757.5973184192,-738.2750047320,19705.0496260944,57436.0918905948,50772.7569179312,42201.0890463447,55609.1000449333,38681.1568709199,22533.0778893794
6117765136,9155,-2,0,4362.3139941739,45759.3007959744,-740.4165193728,19689.9860174276,57433.8895374699,50785.0462917224,42196.0029490727,55605.4132327959,38680.2321259614,22536.3144967343
6117765136,9155,-2,0,4362.6546896849,45767.4409851490,-733.3227521251,19698.2478835703,57440.5696030257,50788.3315698646,42198.7893516452,55614.0401298434,38685.7319249253,22540.0499796589
6117765136,9155,-2,0,4368.8845504583,45766.0295323175,-728.0419717039,19715.2826591225,57446.2640851388,50780.1427099028,42196.8303524567,55615.6827689145,38684.5029875462,22538.8332099766
6117785048,9156,-2,0,4360.1116410489,45762.7929249626,-733.4565967901,19703.2244715709,57437.3938341549,50783.1846341085,42195.0417010237,55610.4993300679,38680.5484860788,22538.4438436783
6117785048,9156,-2,0,4352.0566257521,45765.2142966304,-735.8901361547,19698.5764113846,57439.1946532847,50784.0607082797,42201.1255494352,55611.0347087281,38680.7675046216,22534.3189944553
6117785048,9156,-2,0,4370.0161462628,45765.6523337160,-729.7697846528,19721.9018861941,57446.0328988992,50773.7181659802,42205.0678832058,55615.1960610416,38679.6967473012,22532.9318770175
6117785048,9156,-2,0,4371.0990712800,45760.5175656567,-737.5571106195,19716.4264226238,57438.5619330499,50773.9615199167,42201.6244250049,55606.1676299989,38672.4447999947,22528.1013013788
6117785048,9156,-2,0,4355.2323946229,45760.3228825076,-745.9893245178,19697.0067784944,57431.0666318070,50781.7731812770,42200.9186985892,55604.4276493533,38675.5475626845,22526.7871901219
6117785048,9156,-2,0,4358.0796356795,45762.1358693342,-742.0226553535,19711.7783624374,57436.6272692550,50774.9714387530,42204.5568399392,55609.0270387523,38677.0928601810,22527.1643887234
6117785048,9156,-2,0,4366.7430358174,45756.4657226147,-746.0988337892,19715.9153793572,57431.4194950148,50767.7924976275,42198.5825007992,55604.6953386834,38671.6417320044,22524.0494583367
6117785048,9156,-2,0,4360.0142994743,45754.5188911230,-751.2822726357,19694.3298851933,57425.6641744176,50777.9038536873,42195.3945642315,55601.2275450888,38673.1261910168,22524.9011971143
6117835281,9157,-2,0,4363.8957947609,45757.4148029669,-743.9573191483,19699.5254917367,57432.3929107607,50782.0408706071,42199.4099041831,55608.3456477303,38679.8549273599,22525.1445510508
6117835281,9157,-2,0,4369.0792336074,45756.2345363751,-739.7472960476,19712.9099582420,57436.1527290790,50772.8542595058,42197.9741159580,55608.3943185175,38678.7111638585,22523.4289057988
6117835281,9157,-2,0,4347.3233916880,45750.8685820761,-745.4539458575,19691.8841781319,57424.4474047353,50779.2666357315,42193.4720681335,55598.3316332450,38677.0076863033,22524.6943462684
6117835281,9157,-2,0,4338.7451654278,45754.3607110643,-739.6986252603,19686.7494100727,57427.5623351220,50783.5374973164,42199.7627673910,55604.1964631136,38682.2397959372,22530.0359651736
6117835281,9157,-2,0,4357.1427230241,45753.0831028979,-731.5097652985,19706.6557620750,57432.6362646971,50774.1927061563,42201.6487603985,55606.9098595051,38680.5363183819,22530.6321823179
6117835281,9157,-2,0,4362.3870003548,45748.4837134988,-739.6499544730,19697.9558588466,57425.2383050288,50773.3044642883,42196.3436445837,55598.3072978513,38675.9369289829,22531.3257410369
6117835281,9157,-2,0,4352.3851535664,45749.5788062129,-746.2691815447,19681.6389774070,57422.0990392485,50779.9358590568,42198.4121530436,55598.7818380274,38677.7499158095,22533.7227773110
6117835281,9157,-2,0,4354.2103080898,45749.1651045209,-743.3489343072,19696.4227290469,57428.1342168726,50773.3653027724,42201.0525432542,55601.5074021158,38677.6647419317,22533.9174604601
6117846491,9158,-2,0,4355.4027423784,45746.9262483055,-745.0524118624,19700.5110751794,57427.6596766965,50768.8510872511,42197.8646066866,55598.4898133037,38672.6394831439,22532.6276845969
6117846491,9158,-2,0,4347.7370933800,45750.5887250492,-748.0821683713,19686.7129069822,57429.4604958263,50778.9624433109,42198.6190038896,55598.1247823990,38674.6958239069,22535.1098947488
6117846491,9158,-2,0,4356.8993690877,45755.7964992894,-741.9861522630,19700.7909322063,57437.3816664581,50775.7015005624,42200.6996800464,55605.7539283070,38677.9811020491,22535.1463978393
6117846491,9158,-2,0,4367.5826068982,45753.3021214407,-739.8689730158,19712.6179335182,57439.8517089131,50774.5820724547,42200.9065308923,55607.0437041702,38677.9932697459,22534.6596899663
6117846491,9158,-2,0,4354.9890406865,45752.2070287267,-745.2592627084,19697.4569832768,57433.8043635921,50788.5627561042,42202.7925238999,55606.9098595051,38684.2474659129,22538.9670546417
6117846491,9158,-2,0,4353.0300414980,45759.6901622728,-740.1853331332,19699.8540195510,57442.1879067031,50795.0724739045,42209.6064341207,55616.0721352128,38694.7116851807,22543.5907794344
6117846491,9158,-2,0,4372.0238162386,45763.2674651387,-732.6656964966,19722.4616002480,57450.2307543031,50785.2288071747,42209.8132849667,55619.2357363868,38697.6441001150,22544.9900645690
6117846491,9158,-2,0,4372.8025488352,45761.5761552803,-738.9563957541,19708.8581151999,57442.4190929428,50784.9367824510,42203.5834241934,55611.2050564836,38694.8942006330,22546.1581634640
6117877806,9159,-2,0,4363.6646085212,45764.0096946449,-741.5237797837,19694.3055497997,57440.6426092066,50789.3414887009,42203.5834241934,55609.8179390458,38699.2137330052,22547.0099022416
6117877806,9159,-2,0,4369.9431400819,45764.0218623417,-735.0749004676,19709.6976862807,57447.4443517306,50780.9701132867,42205.6154295628,55613.9549559656,38698.9947144623,22546.0364864958
6117877806,9159,-2,0,4368.2639979203,45758.5950695587,-736.7418749323,19707.6900163049,57443.5141856568,50781.0917902549,42201.4662449462,55607.9441137351,38692.4484935716,22541.5101032777
6117877806,9159,-2,0,4358.1891449509,45761.0164412265,-740.9153949426,19692.8697615746,57440.5330999352,50788.2220605932,42203.1575548046,55607.4330704685,38691.0127053465,22541.8873018792
6117877806,9159,-2,0,4370.8922204340,45770.0813753596,-730.1713186479,19711.7783624374,57453.5890386262,50784.5960869399,42210.0566389032,55619.8076181375,38692.9717045350,22542.2766681775
6117877806,9159,-2,0,4377.4019382343,45768.9376118582,-733.0063920077,19721.8897184973,57452.0437411297,50777.6118289636,42210.0809742968,55618.8707054821,38687.3867316933,22539.7944580256
6117877806,9159,-2,0,4361.3649138217,45768.6212517408,-739.4796067175,19702.3970681870,57447.4686871243,50787.6015080552,42208.6695214654,55617.0820540491,38686.2551358887,22541.1572400698
6117877806,9159,-2,0,4357.0575491464,45774.5469200936,-733.7851246043,19709.2839845887,57457.2028445826,50791.3734940703,42215.5077670799,55627.1569070185,38690.8788606814,22542.9458915028
6117907728,9160,-2,0,4370.0891524437,45774.0115414334,-726.8860405057,19730.3827708797,57465.9514185983,50783.0264540498,42216.2864996765,55629.8703034100,38690.8910283783,22543.2500839233
6117907728,9160,-2,0,4368.2396625266,45772.1133807290,-734.7342049565,19717.5580184283,57460.5124581185,50787.0174586077,42214.6681959991,55624.4556783238,38691.4629101289,22544.3816797279
6117907728,9160,-2,0,4364.3703349370,45772.8191071447,-741.0370719108,19709.1258045300,57458.3344403872,50789.3536563977,42218.4401820142,55625.9766404267,38695.4539146869,22546.5353620655
6117907728,9160,-2,0,4375.6132868013,45772.5392501178,-737.6787875877,19729.6405413735,57461.3155261088,50780.7754301375,42222.3460126944,55629.1037385102,38698.4593358021,22547.5696162955
6117907728,9160,-2,0,4370.3568417738,45766.7352587333,-744.1398346007,19722.4981033385,57452.4087720344,50782.9291124752,42217.0165614859,55621.2312386658,38693.1542199873,22545.3915985642
6117907728,9160,-2,0,4360.1846472299,45766.9056064888,-745.8554798527,19706.9964575860,57450.0847419412,50791.5438418258,42216.8340460336,55619.0653886313,38696.5368397041,22546.3893497037
6117907728,9160,-2,0,4368.8237119741,45769.2661396724,-735.8171299738,19719.6630299787,57455.8157271448,50785.2653102652,42215.1427361752,55623.6891134240,38698.6540189513,22546.6205359433
6117907728,9160,-2,0,4370.3446740770,45763.7663407085,-737.0582350497,19719.6873653724,57449.4520217064,50779.1692941569,42206.5280068245,55616.1086383033,38693.4219093174,22545.5132755324
6117958991,9161,-2,0,4351.0102038254,45760.3837209917,-744.6022070799,19695.0964500932,57436.9436293725,50786.3604029793,42203.0480455332,55607.7737659796,38690.1122957816,22547.1924176940
6117958991,9161,-2,0,4348.4914905830,45764.0218623417,-739.2484204778,19703.6990117470,57440.9589693240,50784.9611178446,42206.9782116070,55615.0257132860,38693.6530955571,22547.9954856843
6117958991,9161,-2,0,4363.2144037388,45763.8028437989,-732.7995411617,19722.8266311527,57444.3294213440,50776.6627486114,42203.0602132300,55616.3154891493,38689.5282463341,22547.1802499972
6117958991,9161,-2,0,4358.9922129412,45761.5761552803,-737.6787875877,19709.3569907697,57439.8395412163,50779.9358590568,42199.5802519386,55611.2902303614,38684.2961367002,22545.0143999627
6117958991,9161,-2,0,4354.9282022023,45766.2972216476,-738.3480109129,19708.9189536841,57444.8161292169,50783.0507894434,42204.5325045456,55614.7580239559,38685.2938878397,22542.2279973902
6117958991,9161,-2,0,4365.1125644432,45768.8524379804,-735.0749004676,19729.3606843466,57453.7228832913,50777.9890275651,42208.2314843798,55619.5034257169,38685.9144403777,22540.7678737715
6117958991,9161,-2,0,4359.1382253031,45767.2463019998,-742.0834938376,19718.5192664774,57448.8679722589,50781.7001750961,42209.1318939447,55614.7093531687,38685.6832541380,22542.4105128426
6117958991,9161,-2,0,4352.9205322266,45769.8866922104,-743.9938222388,19703.8571918057,57447.3713455497,50788.9642900994,42212.1129796663,55617.8121158585,38688.3358120454,22542.1914942997
6117969179,9162,-2,0,4370.2473325024,45772.6852624797,-734.7585403502,19721.5125198958,57452.3114304598,50780.5199085043,42212.7213645074,55621.9613004751,38690.6963452291,22541.5831094586
6117969179,9162,-2,0,4376.8422241805,45765.4576505668,-737.2164151084,19716.8036212253,57446.3005882293,50779.3761450029,42206.6375160959,55615.6219304304,38685.5859125635,22541.4005940063
6117969179,9162,-2,0,4363.9201301545,45765.5914952319,-741.2317550600,19698.6980883528,57437.9900512992,50786.6159246126,42207.4649194799,55611.9837890803,38689.2240539135,22546.0608218894
6117969179,9162,-2,0,4364.4555088147,45768.0980407774,-737.6666198909,19712.5327596405,57439.5718518862,50779.6438343330,42210.5190113825,55615.7436073986,38690.7815191069,22547.9103118065
6117969179,9162,-2,0,4371.8656361799,45765.3968120827,-738.3601786098,19727.0609896471,57438.4889268690,50769.6541552414,42208.3288259543,55611.9959567771,38684.6003291208,22547.1194115130
6117969179,9162,-2,0,4362.5816835040,45762.4522294516,-747.1695911096,19710.6832697234,57431.7358551322,50775.6893328656,42205.6641003501,55605.5714128546,38680.2807967487,22545.0022322658
6117969179,9162,-2,0,4359.6005977824,45765.2873028113,-747.9483237062,19709.3691584665,57437.2478217930,50776.1638730417,42207.6596026291,55609.8666098331,38681.8382619420,22543.6029471312
6117969179,9162,-2,0,4364.5650180861,45761.6369937644,-750.3940307677,19720.5634395436,57440.5209322384,50765.2494489915,42204.4838337583,55611.8621121121,38676.6426553986,22541.3154201285
6117999344,9163,-2,0,4351.1440484904,45755.1881144483,-758.3638721867,19703.0784592090,57431.7236874354,50767.3909636323,42200.3346491417,55605.3280589182,38672.7246570216,22540.8895507397
6117999344,9163,-2,0,4339.6212395991,45755.8695054704,-758.5220522454,19694.0743635601,57430.4825823595,50774.6550786356,42202.4031576016,55608.6255047572,38676.9468478192,22541.2424139476
6117999344,9163,-2,0,4357.2765676892,45756.8307535194,-748.0821683713,19716.4264226238,57439.5231810989,50770.0070184492,42204.3378213964,55613.6994343324,38679.8670950567,22541.5222709745
6117999344,9163,-2,0,4362.5695158072,45752.5963950250,-750.4305338581,19713.5548461736,57433.5001711716,50766.8677526689,42197.4265696010,55603.9287737835,38677.4335556921,22539.8187934193
6117999344,9163,-2,0,4350.4383220747,45754.9690959055,-752.6693900735,19697.5056540641,57429.7646882469,50780.8606040153,42197.4022342073,55602.1766254410,38681.1082001326,22541.6439479427
6117999344,9163,-2,0,4354.0886311216,45757.8406723557,-744.6387101704,19715.7085285113,57435.9580459298,50775.7501713497,42202.4761637825,55608.5038277890,38686.5228252188,22546.1338280704
6117999344,9163,-2,0,4360.2454857140,45753.8983385851,-743.1177480675,19723.4715190843,57434.7047731570,50767.2084481800,42200.1399659925,55603.9896122676,38682.8846838688,22545.7201263784
6117999344,9163,-2,0,4354.4536620263,45751.9636747902,-746.7315540240,19703.5529993851,57427.6353413029,50774.9227679657,42199.0813763689,55602.0184453823,38683.0915347148,22548.7012121000
6118032989,9164,-2,0,4358.8462005793,45755.5166422625,-740.7207117934,19710.7319405107,57435.4591703600,50772.3310485424,42202.1598036651,55608.2848092461,38686.0239496491,22550.1370003251
6118032989,9164,-2,0,4370.0039785660,45753.6428169518,-738.5548617589,19725.5400275442,57439.3284979497,50767.3179574514,42200.4441584131,55609.8666098331,38682.4344790863,22550.2708449902
6118032989,9164,-2,0,4356.0597980069,45748.5688873766,-749.1042549044,19706.2177249894,57430.6164270245,50770.3598816571,42196.3436445837,55603.6124136661,38677.7012450222,22546.8517221829
6118032989,9164,-2,0,4341.5437356971,45750.6130604429,-748.7878947870,19696.2645489882,57432.5875939098,50774.0831968849,42199.7627673910,55606.7638471433,38680.7675046216,22545.1239092341
6118032989,9164,-2,0,4350.9493653412,45750.1993587509,-739.2240850842,19713.9077093815,57439.4501749180,50765.8456661358,42200.6145061686,55611.0833795154,38679.8792627535,22545.6349525006
6118032989,9164,-2,0,4352.5555013219,45745.6608078359,-742.4241893486,19705.8040232974,57433.2689849319,50767.5126406005,42197.1345448772,55605.8391021847,38675.2312025671,22545.4646047451
6118032989,9164,-2,0,4345.1940447440,45746.9384160023,-746.3786908161,19689.4871418578,57430.0932160611,50775.0322772371,42198.2539729849,55606.3988162386,38677.2267048461,22547.4966101145
6118032989,9164,-2,0,4352.3608181727,45749.3597876701,-744.4561947181,19706.4854143195,57434.8021147316,50769.6176521509,42203.0237101395,55613.0545464007,38681.3393863723,22547.5087778114
6118075571,9165,-2,0,4355.9381210387,45746.5003789167,-748.4958700633,19710.8536174789,57431.4681658021,50766.3323740087,42199.2395564276,55607.9562814319,38676.4844753399,22547.3140946622
6118075571,9165,-2,0,4348.1386273751,45750.2236941445,-754.1416813891,19694.0865312569,57430.2878992103,50777.4536489049,42202.5126668730,55608.4916600921,38679.3438840933,22547.7277963542
6118075571,9165,-2,0,4357.9214556208,45757.1714490304,-745.2957657988,19709.5516739188,57441.5308510747,50777.8673505969,42209.2414032161,55618.2379852473,38687.4962409647,22548.3605165890
6118075571,9165,-2,0,4371.7804623021,45755.6869900180,-738.2385016415,19725.8077168743,57447.1036562196,50772.4527255107,42208.1584781988,55621.8517912037,38688.0072842312,22549.6016216649
6118075571,9165,-2,0,4355.7556055863,45750.6617312301,-746.5490385716,19702.0320372823,57435.5565119346,50772.4405578138,42201.2958971907,55613.9914590561,38683.7729257368,22546.5718651560
6118075571,9165,-2,0,4345.3522248027,45748.4107073179,-747.7779759507,19697.3961447927,57434.3519099492,50772.8055887185,42199.2152210340,55613.7967759069,38681.9356035166,22543.9436426422
6118075571,9165,-2,0,4359.4424177237,45747.8996640513,-742.3268477740,19719.1884898026,57440.3870875733,50766.9529265467,42198.4729915277,55615.6706012177,38678.9910208854,22540.9382215270
6118075571,9165,-2,0,4358.4690019778,45743.0934238063,-748.7392239997,19708.0307118160,57431.9062028878,50768.2183670163,42195.0538687205,55608.9296971778,38673.0166817454,22539.5632717860
6118087594,9166,-2,0,4348.3819813116,45744.5413797282,-750.6373847041,19696.2402135945,57427.4893289410,50776.3342207972,42198.4364884373,55610.3898207965,38676.6548230954,22540.7192029842
6118087594,9166,-2,0,4350.8033529794,45745.1010937821,-744.6752132609,19715.5381807557,57432.0765506433,50772.0390238187,42201.6487603985,55615.2568995257,38682.4831498736,22541.6074448522
6118087594,9166,-2,0,4344.3179705727,45740.0514996005,-747.0235787477,19713.4088338117,57428.7791048043,50774.2778800341,42196.6965077916,55611.2537272709,38682.7265038101,22539.4902656051
6118087594,9166,-2,0,4333.6225650654,45741.9983310922,-747.6684666793,19696.8972692230,57427.5745028188,50786.1535521333,42197.8767743834,55610.1951376473,38686.9486946076,22540.8043768619
6118087594,9166,-2,0,4348.1386273751,45747.0357575769,-739.4309359302,19710.7806112980,57440.0707274559,50779.6194989394,42201.9651205159,55618.1041405823,38690.9518668624,22540.9747246175
6118087594,9166,-2,0,4361.7177770296,45743.4462870141,-737.0095642624,19718.5679372646,57439.9977212750,50770.3112108698,42200.5293322908,55615.4272472812,38686.8148499426,22540.5001844414
6118087594,9166,-2,0,4347.7127579863,45740.2826858402,-742.6797109819,19696.3010520787,57428.9007817725,50780.6902562598,42199.2030533371,55609.0635418428,38685.0018631160,22542.3253389648
6118087594,9166,-2,0,4343.2593809491,45744.4075350632,-738.7252095145,19700.9977830523,57431.2369795625,50781.6150012183,42204.4229952742,55616.1938121811,38690.2704758403,22543.3230901043
6118123050,9167,-2,0,4355.4270777721,45742.0835049700,-733.3714229124,19721.5490229863,57434.9602947903,50769.6176521509,42202.9872070491,55615.0622163765,38685.0505339033,22542.2158296934
6118123050,9167,-2,0,4349.5014094193,45741.1952631019,-740.0271530745,19709.7950278553,57426.3699008333,50773.1949550169,42200.2859783544,55609.7936036522,38677.8229219904,22541.8264633951
6118123050,9167,-2,0,4344.7803430520,45749.7369862716,-738.0681538860,19703.3339808423,57431.8453644036,50782.6735908419,42205.4085787168,55615.5975950367,38681.2055417072,22545.7809648625
6118123050,9167,-2,0,4353.0057061043,45753.2656183503,-730.0009708924,19721.0988182038,57442.2974159745,50777.9525244746,42207.4892548736,55620.1604813453,38684.9775277223,22547.1072438162
6118123050,9167,-2,0,4346.1431250962,45748.8730797972,-734.6977018661,19712.2529026135,57437.3938341549,50776.8452640637,42202.8046915967,55617.8851220394,38682.9090192624,22547.7277963542
6118123050,9167,-2,0,4334.3891299652,45747.6198070244,-740.5381963411,19695.5344871788,57431.0422964133,50777.3319719367,42199.9817859338,55615.0622163765,38684.7341737859,22546.5110266719
6118123050,9167,-2,0,4347.9682796196,45746.5612174008,-736.3403409372,19713.1289767848,57433.1473079637,50766.0403492850,42199.2517241244,55615.9747936382,38681.9477712134,22544.0774873073
6118123050,9167,-2,0,4359.6614362665,45740.6720521385,-738.4453524875,19718.8721296852,57427.1608011268,50762.3778725413,42193.9101052191,55607.0923749575,38675.9977674670,22542.2523327839
6118155480,9168,-2,0,4345.8267649788,45739.8324810577,-747.4494481365,19697.0797846753,57416.8669296146,50769.5933167573,42195.5649119871,55600.6678310350,38677.4578910857,22542.8607176250
6118155480,9168,-2,0,4339.2318733008,45741.6941386716,-750.9415771247,19703.6746763534,57423.6078336545,50765.2859520819,42200.8700278019,55608.0049522192,38680.9256846803,22541.4492647935
6118155480,9168,-2,0,4347.0922054484,45736.7418860647,-754.3606999319,19721.3421721403,57425.9440314445,50750.9767406182,42198.9718670975,55604.8778541357,38674.3186253054,22536.5700183675
6118155480,9168,-2,0,4339.8402581419,45730.5606960786,-768.2562097037,19703.6138378693,57419.8480153362,50751.7189701244,42193.2043788034,55594.9490135282,38666.2271069182,22533.2239017412
6118155480,9168,-2,0,4338.1489482835,45730.5485283818,-773.1962946138,19696.2158782009,57419.8480153362,50750.6117097135,42193.2287141971,55595.6182368535,38663.8179029472,22532.8102000493
6118155480,9168,-2,0,4351.6794271506,45727.1659086650,-773.1354561297,19709.9775433077,57421.1256235026,50736.9230507877,42188.3616354679,55594.1581132347,38658.6831348879,22528.3689907089
6118155480,9168,-2,0,4344.6586660838,45721.2402403123,-781.2634776075,19696.2037105041,57410.4545533889,50734.6233560881,42179.9780923569,55586.0665948474,38651.2121690386,22523.4532411924
6118155480,9168,-2,0,4333.1236894956,45724.6958662100,-785.1693082876,19683.9751751970,57412.1823663378,50745.0267368717,42181.6450668216,55588.2324448819,38653.6092053128,22522.8326886544
6118193461,9169,-2,0,4344.3909767537,45726.3993437652,-777.9173609812,19705.5363339673,57421.6853375565,50740.1474904457,42185.5387298050,55593.0386851270,38656.1522539488,22520.5938324390
6118193461,9169,-2,0,4354.2103080898,45725.7422881368,-776.3355603942,19714.4309203448,57424.1188769211,50746.5233635810,42188.4589770425,55593.0873559143,38658.5127871324,22521.8471052118
6118193461,9169,-2,0,4340.0714443815,45729.4899387582,-777.8321871034,19699.2334670130,57421.7218406469,50757.3647814502,42194.2264653365,55593.7809146332,38664.8156540867,22526.1666375839
6118193461,9169,-2,0,4340.5094814672,45735.7076318348,-770.1178673176,19711.3403253518,57428.5479185646,50755.1745960221,42199.3612333958,55604.0139476613,38671.5200550361,22530.1333067482
6118193461,9169,-2,0,4348.8808568813,45732.3493475116,-768.1101973419,19720.0402285802,57426.1873853810,50747.7523009601,42195.4310673220,55599.8404276510,38669.6218943318,22529.5492573007
6118193461,9169,-2,0,4344.1962936045,45730.5485283818,-775.1917968928,19699.3308085876,57420.8092633852,50754.9920805697,42191.6955843974,55594.9490135282,38666.7381501847,22530.8998716481
6118193461,9169,-2,0,4347.1043731452,45735.9874888617,-773.0502822520,19701.2411369888,57427.2094719141,50755.2597698998,42196.1246260409,55598.6723287560,38669.3298696080,22531.8489520002
6118193461,9169,-2,0,4359.2599022713,45736.5472029155,-768.5847375180,19720.1010670643,57432.6362646971,50747.4846116300,42197.8646066866,55602.4321470743,38667.2856965418,22531.2770702496
6118225613,9170,-2,0,4346.8731869056,45731.8991427292,-776.2017157291,19703.3826516296,57421.7340083438,50749.7599709359,42193.9344406128,55595.0463551028,38661.0680034652,22530.4374991688
6118225613,9170,-2,0,4339.2075379071,45735.5859548665,-777.2359699591,19690.2902098481,57424.6542555813,50754.8582359047,42198.7650162515,55599.7795891669,38664.6209709375,22532.5546784160
6118225613,9170,-2,0,4356.7411890290,45735.3547686269,-771.9308541443,19708.1888918747,57431.0666318070,50746.4625250969,42199.3734010926,55603.2960535487,38662.8688225950,22530.2428160196
6118225613,9170,-2,0,4364.6380242671,45731.4854410372,-775.6054985848,19705.8040232974,57426.7470994348,50745.1362461431,42194.7496762999,55598.2464593672,38659.1941781545,22529.0138786405
6118225613,9170,-2,0,4350.3896512874,45731.1569132230,-782.5897565612,19689.1342786500,57418.9597734681,50750.8550636499,42193.7762605541,55595.0950258901,38660.6177986828,22529.6100957848
6118225613,9170,-2,0,4346.7880130278,45732.7143784163,-779.0489567857,19703.2488069646,57420.5294063583,50744.1384950037,42195.0782041142,55600.4244770985,38664.0855922773,22530.6808531052
6118225613,9170,-2,0,4347.4207332626,45727.6404488411,-782.4924149866,19711.5593438946,57416.6114079813,50738.1154850763,42191.3913919768,55594.9733489218,38659.8512337829,22529.7561081467
6118225613,9170,-2,0,4341.6654126653,45725.9491389828,-789.9025423517,19691.7503334669,57409.3472929780,50746.7423821238,42188.8970141281,55588.7921589358,38659.5592090592,22528.6001769485
6118254335,9171,-2,0,4351.3265639428,45730.4146837168,-783.7335200625,19695.9238534772,57416.5627371940,50749.1029153074,42192.2918015417,55594.3527963839,38663.4042012552,22529.0138786405
6118254335,9171,-2,0,4368.6898673091,45731.3637640690,-778.4040688541,19712.5449273373,57423.7295106227,50744.0898242164,42192.2431307544,55598.6479933624,38666.1419330404,22530.0846359609
6118254335,9171,-2,0,4358.0918033763,45729.0640693694,-784.1958925418,19694.9382700345,57416.3680540449,50750.0154925692,42189.8582621771,55592.8805050683,38665.5213805024,22531.6907719415
6118254335,9171,-2,0,4342.8335115603,45734.5395329398,-780.9714528837,19690.3023775450,57418.6555810476,50756.5130426726,42192.5351554782,55597.8449253721,38669.3177019112,22531.0580517068
6118254335,9171,-2,0,4350.9371976444,45737.2650970281,-768.2075389164,19715.1853175479,57429.6186758850,50748.7500520996,42194.4089807889,55602.9553580377,38669.8044097841,22526.6776808505
6118254335,9171,-2,0,4354.7700221436,45738.2385127739,-765.8956765201,19713.8347032005,57426.1873853810,50752.7653920511,42193.0096956543,55599.2563782035,38667.2735288449,22524.9863709921
6118254335,9171,-2,0,4349.3797324511,45742.1565111509,-765.1777824075,19698.3087220544,57423.0846226911,50763.3877913776,42195.1268749014,55601.0206942428,38670.9238378918,22525.0472094762
6118254335,9171,-2,0,4364.9908874749,45747.2669438165,-755.1759356191,19713.4696722958,57431.2491472593,50762.3292017540,42202.8533623840,55609.7084297744,38676.5818169145,22530.7051884989
6118331625,9172,-2,0,4373.0580704685,45741.1222569210,-759.6779834436,19714.1997341052,57428.2558938409,50755.3084406871,42198.0106190485,55603.5515751820,38672.1284398773,22530.1333067482
6118331625,9172,-2,0,4364.4798442084,45741.1709277083,-766.9664338405,19695.4493133011,57424.4839078258,50764.1908593679,42196.9763648185,55599.7552537733,38673.2965387723,22530.2671514133
6118331625,9172,-2,0,4369.5294383899,45744.4562058504,-762.2210320796,19708.1402210874,57432.9161217241,50758.0096693818,42198.8988609166,55603.9652768740,38677.8472573841,22529.5005865134
6118331625,9172,-2,0,4378.3388508897,45740.5503751703,-761.3206225147,19721.4030106244,57432.0643829464,50749.4436108185,42194.6158316349,55602.2617993188,38671.0455148600,22527.0792148456
6118331625,9172,-2,0,4364.9908874749,45739.2727670039,-768.1467004323,19702.5674159425,57421.9773622802,50756.1723471616,42192.3283046322,55597.4433913769,38668.4416277399,22527.8701151391
6118331625,9172,-2,0,4355.5244193467,45743.6044670728,-767.7329987403,19698.0532004212,57424.4474047353,50758.7640665848,42199.2517241244,55603.3933951233,38670.7778255299,22526.8236932124
6118331625,9172,-2,0,4369.5172706931,45744.4805412441,-761.2476163337,19720.5999426341,57430.4825823595,50750.7212189849,42200.6631769559,55607.9319460383,38670.1816083856,22523.9399490653
6118331625,9172,-2,0,4374.0679893048,45741.4386170384,-766.7352476009,19711.4985054105,57425.3478143002,50751.3539392197,42199.5437488482,55600.8990172746,38665.8985791039,22524.9011971143
6118340509,9173,-2,0,4369.6146122676,45742.6675544175,-769.1566192686,19698.1505419958,57424.5204109162,50756.4887072790,42199.4707426672,55598.9643534798,38668.7701555542,22526.0084575252
6118340509,9173,-2,0,4380.0179930513,45746.0988449215,-762.3183736541,19716.6941119539,57430.0932160611,50750.8428959531,42201.9164497286,55604.7440094707,38672.0067629091,22526.3856561267
6118340509,9173,-2,0,4379.8476452957,45744.3223611854,-764.9100930774,19717.0591428586,57428.3532354155,50748.0564933807,42199.0083701880,55601.4952344189,38668.0887645321,22524.3901538478
6118340509,9173,-2,0,4369.4320968153,45748.7148997385,-771.0791153667,19702.9324468472,57427.8300244521,50757.3769491470,42202.0016236064,55602.1279546537,38669.4028757889,22523.6844274321
6118340509,9173,-2,0,4381.2834335208,45755.1394436610,-763.5959818205,19721.1474889911,57439.9490504877,50757.1335952106,42208.0124658369,55612.7990247675,38674.7688300879,22523.4289057988
6118340509,9173,-2,0,4395.5318065005,45754.8717543309,-760.3228713752,19733.6923844156,57440.4844291479,50754.0551679144,42208.1463105020,55612.7503539802,38672.9315078676,22523.0273718036
6118340509,9173,-2,0,4382.7922279269,45753.7888293136,-767.3436324420,19711.4254992296,57430.8476132642,50765.2372812946,42205.8222804088,55607.6155859209,38673.0166817454,22523.5749181606
6118340509,9173,-2,0,4377.3410997502,45758.5950695587,-763.8515034538,19713.9077093815,57436.6759400423,50766.4540509769,42212.0764765758,55615.2082287384,38679.2587102155,22522.7840178672
6118349339,9174,-2,0,4399.6201526330,45764.0461977354,-753.7279796971,19738.4134507829,57445.5583587231,50762.2683632699,42216.4933505225,55619.1992332963,38679.5872380298,22521.0318695246
6118349339,9174,-2,0,4408.4052297392,45768.9619472519,-756.1615190617,19732.0132422540,57446.9941469482,50767.8290007179,42216.9192199113,55615.8166135795,38678.2731267729,22521.0805403119
6118349339,9174,-2,0,4412.5665820526,45780.3995822654,-749.7126397456,19733.3273535109,57452.3357658535,50776.8574317606,42224.8403905431,55621.9004619910,38683.7485903432,22522.7231793830
6118349339,9174,-2,0,4428.0560601082,45787.9192189020,-738.3115078225,19759.0985353819,57458.4196142649,50769.5689813636,42228.0283271107,55626.9378884757,38684.8436830573,22518.1967961649
6118349339,9174,-2,0,4428.9321342795,45789.3063363398,-738.9563957541,19756.7014991077,57453.9053987436,50771.0412726792,42226.0693279222,55623.1050639765,38680.4146414137,22516.9313556953
6118349339,9174,-2,0,4421.6436838825,45797.3856870302,-739.2484204778,19744.4972991943,57456.4119442892,50780.0575360250,42228.4420288027,55625.7332864902,38685.6832541380,22521.4090681262
6118349339,9174,-2,0,4435.5026905639,45805.7327270508,-729.5142630195,19764.7321790109,57472.0474347066,50774.8010909975,42231.9219900940,55632.2795073810,38689.1145446421,22521.2995588548
6118349339,9174,-2,0,4449.5198773039,45808.5191296232,-725.5475938552,19775.5979322738,57475.0163527314,50772.4648932075,42232.6885549939,55633.7031279093,38686.3768128569,22518.9268579743
6118378042,9175,-2,0,4441.0146572247,45813.7999100444,-727.7864500706,19756.7501698950,57470.2101124864,50782.2355537563,42233.5037906810,55629.7121233513,38687.2772224218,22518.1967961649
6118378042,9175,-2,0,4442.1219176356,45822.0982792776,-722.7733589796,19763.0043660620,57478.4111401450,50784.7177639082,42241.5953090683,55636.4651950881,38691.8157733368,22517.1017034508
6118378042,9175,-2,0,4455.3117009916,45823.0108565394,-718.6971805439,19780.3311663379,57480.3579716367,50781.8583551548,42241.4371290096,55636.0149903056,38690.1853019625,22514.3761393625
6118378042,9175,-2,0,4458.2197805323,45827.5615751511,-721.4227446322,19770.8525305128,57476.4034701693,50792.2130651511,42242.3983770586,55633.4841093665,38693.5314185888,22516.4081447319
6118378042,9175,-2,0,4463.4032193789,45834.6310070053,-716.1054611206,19770.9377043906,57482.9983618473,50798.2725781689,42248.5673993478,55640.5413735238,38701.4160861301,22517.9534422284
6118378042,9175,-2,0,4482.5551741782,45838.0014590252,-707.6854149191,19792.7057140068,57490.6275077553,50788.6966007693,42250.6967462918,55646.6252219352,38704.5310165168,22519.7420936614
6118378042,9175,-2,0,4478.6980142853,45834.4971623402,-714.0977911448,19776.7295280783,57482.5116539744,50790.4122460213,42244.7954133327,55637.9739894941,38700.5278442620,22518.4766531918
6118378042,9175,-2,0,4466.2504604354,45838.7193531378,-715.4849085826,19760.6925036657,57481.0271949620,50796.5812683105,42244.1870284915,55639.0082437241,38703.8861285852,22520.1071245661
6118426805,9176,-2,0,4477.8219401141,45843.7932827129,-707.5637379509,19780.4528433061,57486.9285279211,50789.3171533073,42243.4447989853,55642.9870805852,38704.0199732502,22519.6325843900
6118426805,9176,-2,0,4487.1302281836,45845.8496234760,-703.3902179406,19787.5831136444,57488.7780178382,50793.0404685351,42240.8530795621,55642.3665280472,38703.3020791377,22519.6690874805
6118426805,9176,-2,0,4476.2279718303,45850.7410375988,-701.5285603267,19771.1932260239,57485.8456029038,50806.2302518911,42244.3695439439,55642.2691864726,38707.0984005464,22522.4798254466
6118426805,9176,-2,0,4477.1162136983,45857.7617986657,-689.6650559244,19784.0179784753,57493.0245440294,50808.8706421017,42251.5849881599,55650.5918910995,38714.1556647037,22526.7750224251
6118426805,9176,-2,0,4486.8138680662,45857.1655815214,-684.0435799922,19797.0860848631,57495.9934620542,50805.4393515976,42250.7210816855,55652.2345301706,38713.1579135642,22526.1666375839
6118426805,9176,-2,0,4486.1933155282,45858.9298975607,-688.5699632103,19777.7637823083,57491.8686128312,50810.7809705029,42249.9788521793,55649.3021152363,38713.9609815546,22526.0814637062
6118426805,9176,-2,0,4490.8657111083,45863.8334793803,-685.7592252442,19778.4086702399,57497.4779210666,50809.2843437937,42254.7850924243,55654.2665355400,38715.6522914130,22524.9742032953
6118426805,9176,-2,0,4503.0820787185,45861.5824554681,-684.9439895571,19795.4921165793,57500.2399882454,50795.1089769950,42254.0793660086,55652.5752256816,38710.7000388060,22520.8858571628
6118437945,9177,-2,0,4492.8247102967,45856.6302028612,-693.2301910935,19782.1076500740,57491.9172836185,50797.1653177581,42250.8914294410,55643.2912730057,38705.1637367516,22517.8561006539
6118437945,9177,-2,0,4479.5619207597,45860.9375675365,-695.2865318566,19772.8967035791,57494.2656491053,50808.7367974367,42256.1235390749,55646.8199050844,38708.7167042239,22518.5861624632
6118437945,9177,-2,0,4492.9220518713,45865.4031122705,-687.4748704962,19796.5628738997,57507.4676001582,50803.0788184140,42258.3988983807,55653.0375981609,38711.8803053978,22516.8583495144
6118437945,9177,-2,0,4502.8022216916,45865.3666091800,-688.3752800611,19798.1081713962,57507.3215877963,50802.7259552061,42255.6733342924,55649.6914815346,38708.1326547764,22517.8317652602
6118437945,9177,-2,0,4497.1929134562,45869.8929923982,-689.3730312006,19781.8156253503,57505.2774147301,50811.2433429822,42259.6400034567,55649.9956739552,38709.4102629428,22522.5528316275
6118437945,9177,-2,0,4503.4349419264,45874.3707048290,-683.3256858796,19792.6570432195,57509.9133072196,50802.6894521157,42261.1487978627,55654.9235911685,38710.7487095933,22523.4167381019
6118437945,9177,-2,0,4507.0609155796,45867.3986145495,-686.4771193567,19796.0274952395,57502.8925461528,50792.9917977478,42254.8946016957,55648.1340163413,38703.0830605949,22520.4113169867
6118437945,9177,-2,0,4496.0004791675,45864.5270380992,-692.8773278856,19776.0968078435,57493.3287364500,50803.9670602821,42252.4853977248,55642.3178572599,38704.4823457295,22520.3626461994
6118469303,9178,-2,0,4498.4583539258,45866.9484097670,-687.6695536454,19778.7493657509,57498.8528708076,50798.0048888388,42256.1113713780,55644.0821732992,38705.4192583849,22515.7145860130
6118469303,9178,-2,0,4509.5309580346,45862.5802066076,-686.1364238457,19792.4015215863,57498.0741382109,50787.8083589012,42252.0473606392,55643.8753224532,38700.1384779637,22509.6672406920
6118469303,9178,-2,0,4497.3024227276,45855.6202840248,-697.0630155927,19773.4929207234,57485.1277087913,50791.5681772195,42246.4380524038,55634.6765436551,38694.5048343347,22505.5788945595
6118469303,9178,-2,0,4483.8814531319,45859.1245807099,-696.7831585658,19765.8881102091,57487.0745402830,50800.6452790494,42249.2852934604,55640.3953611619,38699.9316271177,22505.6397330436
6118469303,9178,-2,0,4495.2095788740,45862.3855234584,-685.1630080999,19787.7777967935,57499.9966343089,50794.9873000267,42250.4655600522,55646.8564081749,38702.7788681743,22505.9804285547
6118469303,9178,-2,0,4493.6034428934,45858.9298975607,-686.0877530584,19779.6497753158,57494.8983693401,50794.2450705205,42242.8364141442,55640.7482243698,38699.3232422766,22505.8709192833
6118469303,9178,-2,0,4481.5817584324,45858.5648666560,-687.9737460660,19764.7808497982,57491.7834389534,50802.0445641840,42244.5642270931,55640.1276718318,38703.4237561059,22509.6064022079
6118469303,9178,-2,0,4487.2519051518,45857.2385877023,-684.4086108968,19780.4771786998,57496.0421328415,50798.0535596261,42246.6205678561,55646.1141786687,38705.0542274802,22511.9182646043
6118504335,9179,-2,0,4491.5592698272,45851.2520808654,-688.6673047849,19781.7304514725,57492.3188176137,50792.3225744225,42244.8805872105,55640.7117212793,38701.1118937095,22513.8894314896
6118504335,9179,-2,0,4481.1680567404,45852.3836766699,-696.5519723261,19763.2720553921,57491.6130911979,50801.5578563111,42247.9468468098,55642.2326833821,38702.3529987855,22520.2409692312
6118504335,9179,-2,0,4484.7088565158,45854.0871542252,-692.3054461349,19773.8214485376,57499.9357958248,50795.7903680171,42251.3781373139,55647.8663270112,38704.8473766342,22522.3216453879
6118504335,9179,-2,0,4492.5935240571,45849.9866403958,-692.2324399540,19788.9580633854,57499.9722989153,50785.2044717811,42246.7787479148,55646.3575326051,38701.5499307952,22521.0318695246
6118504335,9179,-2,0,4474.8165189988,45841.1528925024,-705.5195648846,19766.3261472947,57485.7847644197,50788.3315698646,42240.3298685987,55637.3047661689,38696.8775352151,22515.4103935925
6118504335,9179,-2,0,4461.5902325523,45837.4174095777,-710.2041281615,19757.2490454648,57483.0226972409,50789.1346378549,42240.5610548383,55639.2150945701,38697.1208891516,22509.9592654158
6118504335,9179,-2,0,4470.4604835362,45832.9762002374,-707.1743716526,19774.6610196184,57488.0722914225,50778.2202138047,42239.0765958259,55638.4485296702,38694.0911326427,22506.7713288482
6118504335,9179,-2,0,4470.5334897171,45824.7630048819,-714.0734557512,19763.9656141110,57480.4796486049,50777.4049781176,42234.8787404220,55630.3570112830,38689.3213954881,22505.5423914690
6118549332,9180,-2,0,4459.5095563955,45823.5705705932,-718.8918636931,19751.1895324470,57475.7464145408,50778.4392323475,42237.1906028184,55628.3736767008,38687.0582038790,22505.5302237722
6118549332,9180,-2,0,4459.0836870067,45817.8639207833,-720.8630305784,19768.9787052021,57478.2286246927,50765.8821692263,42238.6872295276,55632.2186688969,38686.8148499426,22507.3067075084
6118549332,9180,-2,0,4449.8727405118,45807.4362046060,-727.9446301293,19764.8051851918,57469.3340383151,50762.3657048444,42234.2825232777,55626.0253112140,38681.0595293453,22507.8420861686
6118549332,9180,-2,0,4432.3999278740,45804.1387587670,-732.7265349807,19742.3314491599,57461.0356690819,50769.3012920335,42233.5159583778,55620.8297046706,38681.7409203674,22509.3387128778
6118549332,9180,-2,0,4439.1043288235,45803.5547093195,-723.8806193905,19750.7393276645,57466.6084742268,50764.3733748202,42233.8444861920,55623.9811381477,38681.2298771008,22511.0543581298
6118549332,9180,-2,0,4447.2323503012,45796.9598176414,-727.0320528676,19755.6185740905,57461.7170601040,50757.5472969026,42226.6047065824,55617.6904388903,38676.3749660685,22509.3873836651
6118549332,9180,-2,0,4430.8789657712,45793.8083841643,-737.5084398322,19733.6072105378,57452.8468091200,50771.1751173442,42224.9377321177,55613.3587388213,38675.5232272909,22510.6528241347
6118549332,9180,-2,0,4421.1204729192,45794.5749490641,-738.4088493971,19732.6216270951,57455.4628639370,50772.2823777551,42228.6123765582,55621.4867602990,38682.4344790863,22510.4946440760
6118569435,9181,-2,0,4427.4476752671,45789.5496902763,-736.0848193039,19748.1841113317,57460.0865887297,50761.6964815192,42228.3203518344,55621.0973940007,38679.7940888757,22508.3531294351
6118569435,9181,-2,0,4424.6126019073,45785.2909963882,-742.3390154709,19737.4156996434,57458.4074465681,50767.8411684148,42227.3591037854,55618.5786807583,38678.4434745284,22512.0764446630
6118569435,9181,-2,0,4419.4291630608,45786.6051076451,-743.0690772802,19729.7865537354,57460.5611289058,50769.1431119748,42229.6953015754,55621.3407479372,38682.7143361132,22518.2332992554
6118569435,9181,-2,0,4429.0781466414,45785.1084809359,-740.8545564585,19746.6509815320,57463.2258545100,50755.3692791712,42228.3933580154,55624.3096659620,38682.1911251499,22519.4135658472
6118569435,9181,-2,0,4421.0596344350,45775.4838327489,-750.6860554914,19735.8338990564,57452.7859706359,50749.5652877867,42217.8683002635,55615.2812349193,38672.2501168455,22515.1062011719
6118569435,9181,-2,0,4407.0424476950,45775.1431372379,-756.2466929395,19717.4241737633,57447.7607118480,50758.9100789467,42216.7853752463,55613.4560803959,38671.2767010997,22515.6050767416
6118569435,9181,-2,0,4417.6770147183,45778.5744277420,-745.1862565274,19737.7685628513,57460.4881227248,50757.6203030835,42219.9368087234,55621.1582324848,38674.4281345768,22516.9921941794
6118569435,9181,-2,0,4425.9388808610,45774.9971248760,-742.7648848597,19747.1863601922,57461.2060168374,50753.5562923446,42217.6249463271,55617.0090478682,38671.4105457647,22516.5054863065
6118595720,9182,-2,0,4410.2182165658,45771.9795360639,-750.4792046454,19725.0533196713,57451.8977287678,50759.2872775482,42215.4834316862,55609.1730511142,38669.9504221460,22516.6393309716
6118595720,9182,-2,0,4401.3966363692,45773.2449765335,-749.8708198043,19729.2511750752,57450.5227790269,50755.9046578315,42219.7299578774,55613.2613972467,38675.3528795354,22517.0408649667
6118595720,9182,-2,0,4406.4340628539,45766.1877123762,-751.9271605673,19743.1831879375,57449.7318787334,50744.5521966957,42216.8218783367,55610.0734606791,38671.4105457647,22514.5099840276
6118595720,9182,-2,0,4401.4453071565,45760.4932302631,-760.9434239131,19726.1119092949,57443.3073348108,50747.1317484221,42213.9381341897,55602.4808178616,38668.1617707130,22513.2688789516
6118595720,9182,-2,0,4402.9784369561,45761.8560123073,-763.6568203047,19720.7702903896,57444.3050859503,50749.9668217819,42217.5276047525,55606.3866485418,38669.4393788794,22511.5167306091
6118595720,9182,-2,0,4418.2002256816,45761.5761552803,-759.2764494484,19738.7663139907,57448.9288107430,50743.0677376833,42219.1824115204,55610.7670193980,38666.9936718180,22509.3022097873
6118595720,9182,-2,0,4409.2934716073,45756.5022257052,-764.8979253806,19726.7689649233,57439.0121378323,50747.3872700554,42216.2134934956,55606.6665055687,38663.2216858029,22508.9371788826
6118595720,9182,-2,0,4394.1446890627,45760.1160316616,-766.7352476009,19713.7251939291,57436.9314616756,50758.8249050690,42221.9079756087,55612.2271430168,38668.1861061067,22513.6947483404
6118630385,9183,-2,0,4406.8355968490,45763.2187943514,-756.4170406950,19734.6049616773,57446.3249236229,50754.3836957286,42225.0715767827,55618.7125254234,38671.6660673980,22515.6659152257
6118630385,9183,-2,0,4413.5643331921,45758.4855602873,-757.1836055949,19738.3891153892,57445.3515078771,50752.5098704179,42221.3239261612,55615.7071043081,38669.4880496667,22516.1647907955
6118630385,9183,-2,0,4395.9941789798,45758.0231878080,-764.1678635712,19716.2074040810,57440.2775783019,50760.4067056559,42217.5032693588,55610.9738702440,38669.4758819699,22515.9336045558
6118630385,9183,-2,0,4388.0608406512,45760.3837209917,-761.0651008814,19721.0623151134,57444.7674584296,50756.1723471616,42218.3793435301,55614.7215208655,38672.8950047771,22513.5365682817
6118630385,9183,-2,0,4389.5818027541,45755.2246175387,-761.0529331846,19728.7036287182,57444.8404646105,50748.8108905837,42211.7357810648,55610.4141561902,38670.8508317109,22512.2346247217
6118630385,9183,-2,0,4384.0820037901,45750.9050851666,-768.9862715131,19709.5273385252,57436.1405613821,50755.5152915331,42208.3044905607,55604.2938046882,38670.3032853538,22514.7411702672
6118630385,9183,-2,0,4389.2411072430,45754.1173571279,-766.9907692341,19709.4665000411,57440.2410752115,50757.5351292057,42212.2833274218,55608.6620078476,38674.8053331783,22517.2233804191
6118630385,9183,-2,0,4401.4696425501,45749.7734893621,-763.1579447349,19728.2412562389,57441.1779878668,50742.3255081770,42213.3297493486,55609.9882868014,38672.8219985962,22516.3959770351
6118666273,9184,-2,0,4391.5408019426,45740.7328906226,-773.8776856359,19713.6765231418,57426.3212300460,50740.7072044996,42205.0922185994,55598.5384840910,38664.9981695390,22511.9182646043
6118666273,9184,-2,0,4376.4406901853,45737.0825815757,-777.1507960813,19701.7035094681,57420.9066049598,50746.7545498206,42205.1773924772,55596.7133295675,38665.5943866834,22510.6528241347
6118666273,9184,-2,0,4386.3695307928,45736.3646874632,-768.9741038163,19723.1186558764,57423.8146845005,50741.9118064851,42205.0557155090,55600.6921664286,38665.3510327469,22511.8087553329
6118666273,9184,-2,0,4389.8129889937,45732.5318629640,-767.4531417134,19723.3255067224,57419.3248043728,50739.2349131840,42201.0038724669,55594.9368458314,38660.8246495288,22514.6559963894
6118666273,9184,-2,0,4375.5402806204,45733.4809433162,-769.7285010193,19700.9491122650,57413.2166205677,50745.8906433462,42200.9065308923,55591.8705862320,38658.6953025848,22517.7100882920
6118666273,9184,-2,0,4375.2604235935,45734.4421913652,-763.7298264856,19708.6999351412,57415.7840045973,50739.1375716094,42200.9430339828,55594.9733489218,38659.9972461448,22517.4545666587
6118666273,9184,-2,0,4376.8057210900,45727.6647842348,-767.1611169897,19712.0582194644,57411.1116090173,50733.0172201075,42196.3436445837,55587.8917493709,38654.8624780855,22514.5586548148
6118666273,9184,-2,0,4367.4000914459,45724.0631459752,-773.2084623107,19695.6683318439,57404.3220341901,50742.7027067786,42196.0759552536,55584.4969619573,38656.8214772740,22514.8141764481
6118691406,9185,-2,0,4372.1333255100,45728.4921876188,-768.9497684226,19706.7166005591,57413.4721422010,50743.1164084705,42200.1521336893,55593.1968651857,38661.9562453333,22515.3738905020
6118691406,9185,-2,0,4383.4736189490,45728.5165230124,-763.0727708572,19726.0754062044,57420.2252139377,50733.6864434328,42202.3423191175,55598.5141486973,38662.5524624776,22515.3617228052
6118691406,9185,-2,0,4370.7583757690,45724.3186676085,-772.8069283155,19707.1911407352,57410.0651870906,50734.5381822104,42199.3125626085,55591.7489092638,38659.5227059687,22514.1692885165
6118691406,9185,-2,0,4361.3649138217,45727.5187718729,-774.9362752595,19696.2767166850,57412.9976020249,50740.3421735949,42204.3378213964,55595.4235537043,38665.6187220770,22515.0088595973
6118691406,9185,-2,0,4377.0977458137,45727.9933120490,-770.0448611367,19716.0127209318,57420.8944372630,50733.0050524107,42206.1264728294,55601.9089361109,38664.7426479058,22511.3220474599
6118691406,9185,-2,0,4381.3686073986,45724.7445369973,-775.9218587022,19711.4741700169,57418.6190779571,50733.1145616821,42201.6365927017,55595.5452306725,38661.1045065557,22509.5090606333
6118691406,9185,-2,0,4369.6511153581,45724.1118167625,-780.9714528837,19693.1252832079,57414.4577256437,50739.4660994237,42201.7704373668,55593.4037160317,38660.7029725605,22509.1196943350
6118691406,9185,-2,0,4376.4771932758,45727.1172378778,-776.5545789370,19707.8846994541,57419.5559906125,50732.4088352664,42202.9750393522,55596.9445158072,38660.3014385654,22507.1606951465
6118722631,9186,1,0,4378.3266831929,45722.6030223564,-777.9173609812,19714.4187526480,57415.6501599323,50727.1767256325,42201.3080648875,55591.4325491464,38654.0837454889,22506.2237824911
6118722631,9186,1,0,4367.5461038077,45726.5575238239,-781.0809621551,19698.6372498687,57413.3382975359,50738.9063853698,42204.6298461202,55591.3473752686,38655.8602292250,22509.9836008094
6118722631,9186,1,0,4373.0580704685,45731.8748073355,-772.8921021933,19707.0572960701,57422.1963808230,50736.2173243719,42208.3166582575,55598.4046394259,38659.3036874259,22510.6771595283
6118722631,9186,1,0,4385.8219844358,45728.2975044696,-770.1543704081,19719.4926822232,57424.1067092242,50729.2817371829,42205.8587834993,55598.5019810005,38657.0648312105,22508.8276696112
6118722631,9186,1,0,4374.7372126301,45723.0410594421,-779.9615340474,19697.7246726069,57413.7154961375,50733.9297973692,42201.0403755574,55592.7953311905,38654.8381426919,22507.5500614448
6118722631,9186,1,0,4364.9908874749,45725.4380957162,-781.5433346344,19691.2757932908,57411.7443292521,50735.7427841958,42202.4153252984,55595.0706904964,38658.0017438658,22509.4117190587
6118722631,9186,1,0,4370.9165558277,45722.8585439897,-776.2138834259,19709.1501399237,57412.4865587583,50726.5196700040,42199.7627673910,55594.5839826235,38656.5537879439,22509.9349300221
6118722631,9186,1,0,4367.3392529617,45719.0378871873,-778.3675657636,19700.2068827588,57404.6505620044,50729.5859296034,42191.9997768179,55586.5654704172,38650.4091010483,22509.3387128778
6118779505,9187,1,0,4360.0386348680,45722.5178484787,-776.6275851179,19689.5114772515,57405.0399283027,50737.2515786019,42193.7884282509,55586.3464518744,38652.2707586622,22510.2269547459
6118779505,9187,1,0,4371.0625681896,45725.0000586306,-770.1665381049,19707.3614884907,57410.8804227777,50727.0428809674,42196.1611291314,55591.1648598163,38652.0882432099,22508.7181603398
6118779505,9187,1,0,4371.1720774610,45720.5953523807,-774.9362752595,19706.3150665639,57406.8164120388,50722.4921623557,42193.3747265589,55584.5699681382,38646.1504071603,22509.4725575429
6118779505,9187,1,0,4357.3495738701,45719.1108933683,-781.8231916613,19684.6078954318,57400.1606818767,50731.4354195205,42191.7199197910,55579.9949141328,38644.3374203337,22512.1616185407
6118779505,9187,1,0,4367.2905821745,45725.3650895353,-771.5536555428,19701.2411369888,57411.7443292521,50731.4232518237,42196.5869985202,55586.6506442949,38648.2310833170,22514.4004747561
6118779505,9187,1,0,4378.1563354373,45724.2456614275,-765.9930180947,19718.6652788392,57416.0760293211,50726.3128191581,42196.4531538551,55585.4460423095,38644.4104265146,22512.1372831471
6118779505,9187,1,0,4363.4334222816,45721.5322650360,-771.9673572347,19699.5984979177,57408.4103803226,50731.7274442443,42194.4698192730,55580.7249759422,38644.7146189352,22510.8718426775
6118779505,9187,1,0,4353.5410847645,45721.2280726154,-772.3567235331,19695.5953256629,57408.8970881956,50731.7152765474,42196.5018246424,55583.8399063289,38651.5893676402,22509.0588558509
6118785521,9188,1,0,4358.8948713666,45715.7769444388,-770.5194013128,19709.7463570680,57408.0210140243,50724.5120000283,42194.5184900603,55582.5379627688,38652.6844603542,22506.6618195768
6118785521,9188,1,0,4352.5676690187,45709.8147729955,-778.0512056462,19698.1140389053,57402.4482088794,50729.2208986987,42190.7465040452,55579.2770200203,38650.0562378405,22507.2945398115
6118785521,9188,1,0,4349.9637818986,45714.7791932993,-776.7249266925,19692.6507430318,57406.2688656818,50738.5778575556,42195.2485518697,55583.9615832971,38652.4532741146,22511.9669353916
6118785521,9188,1,0,4365.8182908589,45719.8287874808,-765.7253287646,19712.4840888532,57417.9741900255,50731.3502456428,42197.9497805644,55592.5276418604,38653.3536836795,22514.6803317831
6118785521,9188,1,0,4361.8272863010,45719.8896259649,-766.2120366375,19708.1523887842,57415.8083399910,50729.8901220240,42192.0727829989,55588.1351033074,38648.7786296741,22514.0232761546
6118785521,9188,1,0,4345.5469079519,45724.7080339068,-769.7893395034,19692.2248736430,57413.1192789931,50740.5976952282,42195.7230920458,55590.0575994054,38653.1955036208,22514.6073256021
6118785521,9188,1,0,4357.5320893225,45731.1447455262,-761.6126472384,19712.9464613324,57424.7272617622,50736.5945229734,42203.3644056506,55599.8404276510,38657.6123775675,22514.7411702672
6118785521,9188,1,0,4373.3987659796,45731.0839070420,-759.8848342896,19726.0754062044,57425.6763421144,50731.0703886158,42203.6199272839,55596.8471742326,38653.9377331270,22514.2666300911
6118817962,9189,1,0,4367.9233024093,45731.8991427292,-765.1656147107,19707.4709977621,57420.0670338790,50738.6508637365,42202.6221761444,55592.5276418604,38653.4753606477,22515.3130520179
6118817962,9189,1,0,4365.5262661351,45734.7220483921,-763.0727708572,19707.9698733319,57422.3667285786,50736.6066906703,42206.8930377292,55598.1369500958,38656.1522539488,22515.4347289861
6118817962,9189,1,0,4367.7164515633,45730.4633545041,-762.3427090478,19719.8090423406,57424.5082432194,50729.6832711780,42203.8511135235,55596.6524910834,38654.4366086967,22513.3905559198
6118817962,9189,1,0,4357.0088783591,45726.3628406747,-769.1079484813,19704.5629182214,57417.7065006954,50741.0357323138,42200.4806615035,55592.8440019778,38654.5704533618,22510.8961780711
6118817962,9189,1,0,4357.1670584178,45733.6999618590,-763.9975158157,19706.0960480211,57427.8056890584,50752.2543487846,42208.0611366242,55603.0283642186,38666.2514423118,22514.4734809371
6118817962,9189,1,0,4372.3036732655,45738.5183698009,-755.7599850666,19727.7302129723,57439.6326903703,50744.1263273068,42212.2224889377,55611.5579196915,38670.4736331094,22515.3495551083
6118817962,9189,1,0,4368.7750411869,45736.3646874632,-761.5761441479,19720.5999426341,57436.2257352599,50746.3895189159,42209.7159433921,55609.7327651681,38668.7701555542,22516.8583495144
6118817962,9189,1,0,4353.8209417915,45740.0271642069,-764.4598882950,19709.7463570680,57435.2766549077,50756.2696887361,42213.4514263168,55612.8841986452,38670.7291547427,22518.4523177982
6118845508,9190,1,0,4364.6258565702,45742.8135667794,-755.2124387095,19732.7189686697,57443.4168440823,50748.1294995616,42221.0562368311,55619.7467796534,38672.4569676915,22517.9412745316
6118845508,9190,1,0,4377.3289320534,45738.7373883437,-756.2466929395,19737.2453518879,57440.9954724145,50742.4106820548,42218.4888528015,55615.6949366113,38667.2248580576,22516.9556910890
6118845508,9190,1,0,4370.6366988008,45736.9852400012,-764.7032422314,19714.3944172544,57432.9404571177,50749.6869647549,42217.4911016620,55611.2293918773,38665.8012375294,22516.1404554018
6118845508,9190,1,0,4372.8755550162,45741.3047723733,-760.9677593068,19721.7923769227,57438.4889268690,50746.7910529111,42220.9223921661,55617.7391096776,38667.9184167765,22516.1404554018
6118845508,9190,1,0,4377.1585842979,45741.5846294002,-759.2277786611,19735.3471911835,57441.3118325319,50741.1574092821,42218.9998960681,55617.9094574331,38666.2514423118,22515.4225612893
6118845508,9190,1,0,4367.9233024093,45745.1375968725,-763.2552863095,19719.9915577929,57438.9147962578,50754.5297080905,42217.3815923906,55616.4493338143,38667.5168827814,22517.9412745316
6118845508,9190,1,0,4369.4199291185,45751.9515070934,-759.1426047834,19724.6396179793,57451.2528408362,50762.0980155143,42222.9665652323,55625.3195847983,38676.2532891003,22522.0296206641
6118845508,9190,1,0,4386.2600215214,45752.1705256362,-753.2899426115,19744.8744977958,57457.0568322208,50755.6248008045,42225.3514338096,55631.4886070875,38678.1514498046,22521.2995588548
6118899279,9191,1,0,4380.1396700195,45745.3322800217,-760.3715421625,19731.0033234177,57447.4686871243,50755.5761300172,42221.5064416136,55624.3583367492,38676.7156615795,22521.7132605467
6118899279,9191,1,0,4365.1125644432,45744.6387213028,-763.3404601873,19716.9618012840,57446.5196067721,50760.5283826242,42226.8115574284,55626.3051682409,38680.8770138930,22524.8646940239
6118899279,9191,1,0,4373.0945735590,45742.5945482365,-756.9159162648,19735.4445327581,57451.8855610710,50747.8861456251,42227.1644206362,55628.7143722119,38680.9865231644,22524.8525263271
6118899279,9191,1,0,4377.7426337454,45736.3403520695,-758.3030337026,19733.2908504204,57444.6944522487,50746.5111958841,42221.8471371246,55620.4038352818,38676.9346801224,22524.7186816620
6118899279,9191,1,0,4368.1544886489,45734.7585514826,-763.1701124317,19710.6711020266,57434.2789037682,50750.4778650484,42220.1801626599,55614.0157944497,38674.4159668800,22524.9498679016
6118899279,9191,1,0,4372.7417103511,45735.5737871697,-758.7532384850,19719.0546451376,57432.7214385749,50743.0920730769,42219.7542932711,55612.3974907723,38672.9436755644,22523.5262473734
6118899279,9191,1,0,4373.0702381654,45731.1204101325,-759.5684741722,19726.1605800822,57428.6330924424,50734.7815361468,42217.9169710508,55607.0193687766,38666.8963302434,22522.8083532608
6118899279,9191,1,0,4355.5730901340,45730.8648884992,-766.7960860850,19706.1690542021,57421.9651945834,50741.0600677075,42215.5686055640,55599.9134338320,38663.5867167076,22525.4244080777
6118907949,9192,1,0,4354.9647052928,45734.3205143969,-764.7519130187,19709.2109784078,57430.9814579292,50739.8676334188,42215.4834316862,55602.3713085902,38662.8566548982,22526.0206252221
6118907949,9192,1,0,4370.6853695881,45734.0041542795,-759.2277786611,19726.9271449820,57440.9468016272,50737.3854232669,42212.7335322042,55606.6300024782,38661.3965312795,22525.3879049873
6118907949,9192,1,0,4365.1247321400,45731.5949503086,-766.1998689407,19715.1609821542,57436.8827908883,50745.1119107495,42208.8033661304,55604.5249909279,38661.3721958858,22525.5582527428
6118907949,9192,1,0,4353.9791218502,45735.2330916587,-766.6987445104,19710.2208972441,57436.5542630741,50750.5387035325,42214.2909973976,55610.9738702440,38666.5069639451,22527.0670471488
6118907949,9192,1,0,4368.4708487663,45735.4642778983,-759.9091696832,19729.7500506449,57441.9323850699,50741.9483095755,42216.7853752463,55617.9946313108,38667.4682119941,22526.6411777600
6118907949,9192,1,0,4376.5867025472,45731.4611056435,-763.7419941824,19723.4228482970,57435.2036487268,50741.2547508566,42213.4757617104,55609.9517837109,38663.4042012552,22526.5560038823
6118907949,9192,1,0,4370.3933448643,45732.5683660544,-769.2539608432,19704.2952288913,57430.3852407849,50746.3651835223,42215.1670715688,55605.5227420673,38664.1342630646,22526.5438361854
6118907949,9192,1,0,4376.8665595741,45732.6048691449,-766.4188874835,19717.7892046680,57432.5024200321,50740.7315398932,42216.3351704638,55604.8900218325,38664.1951015487,22526.0571283125
6118959328,9193,1,0,4378.4970309484,45725.7787912272,-769.7650041098,19719.4318437391,57421.4419836200,50732.5913507187,42209.5942664239,55594.2554548093,38658.6101287070,22524.3414830605
6118959328,9193,1,0,4360.6348520123,45721.9824698185,-779.3653169031,19697.2866355213,57411.6591553744,50736.1443181910,42206.0291312548,55587.4902153757,38657.7097191421,22524.9985386889
6118959328,9193,1,0,4357.8119463494,45721.8486251534,-777.5036592892,19702.5187451552,57413.4964775946,50728.4178307084,42205.4815848978,55589.5100530483,38654.5826210586,22522.6501732021
6118959328,9193,1,0,4364.9057135972,45716.6043478227,-778.5987520032,19714.1632310147,57417.0616127638,50719.3163934849,42200.2616429607,55589.1450221437,38646.7952950919,22519.2553857885
6118959328,9193,1,0,4355.4757485594,45715.6430997737,-786.6294319064,19698.3087220544,57415.3459675117,50731.5449287919,42199.3734010926,55587.2103583488,38645.2865006859,22519.5230751186
6118959328,9193,1,0,4350.1584650478,45723.3452518626,-781.5433346344,19697.6029956387,57421.9895299771,50738.7603730079,42206.4550006436,55596.0562739391,38651.8692246671,22523.8061044003
6118959328,9193,1,0,4363.2387391324,45726.9955609095,-772.1863757775,19718.1542355727,57431.3099857434,50731.1433947968,42208.2436520766,55601.1058681206,38653.7552176746,22523.5992535543
6118959328,9193,1,0,4366.5605203651,45726.8008777604,-774.1818780565,19711.8270332247,57427.0877949459,50733.7594496137,42205.2990694454,55595.9345969709,38651.8205538798,22524.4631600287
6118966762,9194,1,0,4360.3549949854,45727.5066041761,-778.4162365509,19698.4182313259,57424.6420878845,50738.2249943477,42205.3234048391,55593.0386851270,38653.4510252541,22522.4433223561
6118966762,9194,1,0,4370.2473325024,45727.8959704744,-773.9141887264,19715.6233546335,57432.5145877289,50729.8779543272,42207.4649194799,55597.7475837975,38655.5560368044,22521.5429127912
6118966762,9194,1,0,4371.3059221260,45723.7832889483,-774.7172567167,19717.2903290982,57429.2658126772,50729.3912464543,42206.3454913722,55592.9413435524,38653.5361991318,22520.5573293486
6118966762,9194,1,0,4356.2423134592,45724.7323693005,-775.9340263990,19701.9590311013,57424.1188769211,50740.2569997172,42207.4162486926,55590.8850027893,38657.0404958168,22522.5284962339
6118966762,9194,1,0,4361.7542801200,45727.7621258094,-768.7185821830,19716.9374658904,57432.1495568242,50735.3169148070,42210.3121605365,55597.8692607657,38659.7903952988,22520.0706214756
6118966762,9194,1,0,4376.4041870948,45727.7742935062,-765.1534470139,19735.4688681517,57435.3861641791,50727.4809180531,42208.1463105020,55598.9643534798,38657.4055267215,22520.3504785026
6118966762,9194,1,0,4370.0039785660,45727.3605918142,-772.0403634157,19715.6841931176,57431.0544641101,50736.5093490957,42204.7758584820,55595.8129200026,38657.0039927264,22521.7619313340
6118966762,9194,1,0,4373.0580704685,45733.7729680399,-769.8136748971,19712.5935981246,57436.5907661646,50738.8577145825,42209.9349619350,55605.6322513387,38662.2604377539,22523.7452659162
6119018490,9195,1,0,4381.4659489732,45730.0009820248,-767.2827939579,19723.8487176858,57437.0531386439,50730.4376683810,42206.9660439102,55604.6466678961,38659.2793520323,22520.6790063168
6119018490,9195,1,0,4379.4217759069,45729.5751126360,-770.3125504668,19713.2506537530,57432.4172461543,50740.2204966267,42207.1850624530,55599.6579121987,38658.4154455578,22519.5960812995
6119018490,9195,1,0,4374.0558216080,45733.4931110130,-766.2363720311,19708.3714073270,57434.7899470348,50749.0664122170,42215.0575622974,55603.0161965218,38662.6254686586,22522.7353470799
6119018490,9195,1,0,4382.9382402888,45736.5106998251,-754.8474078049,19730.8208079653,57443.9765581361,50743.1407438642,42219.9733118139,55609.2825603856,38665.8012375294,22522.6136701116
6119018490,9195,1,0,4378.5457017357,45731.7166272768,-757.1957732917,19724.9559780967,57438.5132622626,50741.0722354043,42217.2355800287,55604.3546431723,38664.4262877884,22521.7619313340
6119018490,9195,1,0,4360.9998829170,45733.2862601670,-761.4179640892,19703.4191547201,57432.9039540272,50745.4769416542,42216.9678906986,55601.3857251475,38665.9107468008,22524.1711353050
6119018490,9195,1,0,4371.3180898229,45737.5327863582,-753.5576319416,19717.6918630934,57441.3361679255,50738.8577145825,42219.6204486060,55605.9729468498,38667.3343673290,22526.7385193346
6119018490,9195,1,0,4384.6782209344,45734.5395329398,-753.0222532814,19726.1849154758,57441.6403603461,50731.3989164301,42214.0354757643,55602.0427807760,38662.4429532062,22527.1278856329
6119045488,9196,1,0,4375.3334297744,45734.2110051255,-758.8505800596,19704.7454336738,57435.4713380569,50739.6729502696,42210.5190113825,55596.8106711421,38660.1432585067,22528.0891336820
6119045488,9196,1,0,4370.6366988008,45739.2727670039,-755.7356496729,19708.3227365397,57439.5718518862,50741.8022972137,42211.7844518521,55603.3568920328,38664.2681077297,22528.4054937994
6119045488,9196,1,0,4376.0269884933,45737.4232770868,-753.2899426115,19723.3985129034,57443.3438379013,50734.0271389438,42210.5676821698,55604.3789785660,38663.2825242870,22525.8502774665
6119045488,9196,1,0,4367.1567375094,45735.1722531745,-764.2652051458,19706.7896067400,57435.8485366584,50739.2592485777,42206.7591930642,55596.7498326580,38659.2428489418,22523.4897442829
6119045488,9196,1,0,4363.6524408244,45736.7540537615,-767.0394400214,19700.9612799619,57438.2090698420,50743.3597624070,42210.4703405952,55597.3825528928,38661.1166742525,22522.7353470799
6119045488,9196,1,0,4381.5754582446,45738.9320714928,-759.9456727737,19721.5611906831,57445.5218556326,50738.2614974382,42212.6970291138,55599.2198751130,38661.5425436413,22524.0372906399
6119045488,9196,1,0,4380.3951916528,45734.7463837857,-761.6613180257,19714.9419636114,57438.1725667516,50741.3277570376,42208.7425276463,55590.4713010974,38659.2185135481,22523.2585580432
6119045488,9196,1,0,4369.7849600232,45736.4863644314,-762.0141812336,19698.0897035116,57434.3275745555,50751.5121192784,42212.5266813582,55593.2212005793,38664.6574740280,22525.4609111682
6119066802,9197,1,0,4376.6110379408,45738.4210282263,-752.4382038339,19716.9739689808,57442.1635713095,50748.7378844027,42215.9336364687,55601.1667066047,38669.9139190555,22525.1567187476
6119066802,9197,1,0,4387.1482633895,45742.1321757573,-748.3498577014,19727.9127284247,57449.5128601905,50753.2520999241,42218.8538837062,55606.5934993878,38672.7854955057,22525.6920974078
6119066802,9197,1,0,4379.7138006307,45747.4129561784,-749.9073228947,19714.9784667019,57451.4840270759,50763.9718408251,42223.4532731053,55613.1883910658,38678.6746607680,22527.6389288995
6119066802,9197,1,0,4381.0035764939,45752.0001778807,-744.2250084784,19725.0046488840,57462.0090848277,50759.0439236118,42227.3712714822,55623.0320577955,38684.2352982161,22527.8214443519
6119066802,9197,1,0,4384.7147240249,45746.3056957675,-746.3178523320,19730.2854293051,57459.5025392822,50748.8960644614,42222.1756649388,55621.1460647880,38677.2632079366,22524.2684768796
6119066802,9197,1,0,4379.4339436038,45743.2272684713,-753.6306381226,19710.1600587600,57450.0604065476,50755.9776640124,42218.6592005570,55615.2812349193,38674.7444946942,22525.4609111682
6119066802,9197,1,0,4383.5344574331,45745.2836092344,-752.4747069244,19711.0239652344,57454.1487526801,50758.6058865262,42220.6668705328,55618.5908484552,38677.6769096285,22526.7993578187
6119066802,9197,1,0,4401.4331394596,45743.2759392586,-748.2281807332,19732.0740807381,57457.2028445826,50750.8063928626,42218.4645174078,55620.2091521326,38675.4380534131,22524.8768617207
6119094320,9198,1,0,4396.8215823637,45739.4187793657,-753.8131535749,19717.9230493330,57448.7584629875,50751.1957591610,42214.8020406641,55610.0734606791,38670.7291547427,22527.7241027773
6119094320,9198,1,0,4381.0644149780,45742.0104987890,-757.2079409885,19702.8107698789,57447.3105070656,50758.4963772547,42217.2720831192,55610.3411500092,38674.5498115451,22530.0237974768
6119094320,9198,1,0,4386.1870153405,45742.3268589064,-750.0776706503,19721.8775508005,57452.5182813058,50747.6427916887,42217.8439648699,55613.9427882688,38675.5718980782,22527.5172519313
6119094320,9198,1,0,4392.3438699329,45736.9244015170,-753.8618243622,19724.3962640428,57447.3348424592,50741.6441171550,42211.3342470696,55605.8391021847,38667.6263920528,22524.8038555398
6119094320,9198,1,0,4386.0044998881,45736.4133582505,-759.2764494484,19710.1843941536,57444.2807505567,50749.6017908772,42210.9448807713,55603.5394074852,38663.9030768250,22525.3392342000
6119094320,9198,1,0,4392.9400870772,45740.3556920211,-752.0975083229,19725.5035244537,57451.5813686504,50751.2322622514,42216.2013257988,55613.0180433103,38669.8895836619,22527.7971089582
6119094320,9198,1,0,4395.9698435861,45737.7639725978,-750.3818630708,19734.8726510074,57451.0946607775,50746.6207051555,42215.0940653879,55610.0734606791,38668.1739384098,22525.5582527428
6119094320,9198,1,0,4380.1396700195,45738.5183698009,-753.9104951495,19713.7616970196,57444.4632660090,50755.2719375967,42216.3473381607,55608.6376724540,38669.9017513587,22527.5294196281
6119142376,9199,1,0,4378.4848632516,45743.2029330777,-751.2822726357,19712.9464613324,57450.9973192029,50754.0795033080,42221.8714725183,55614.9162040146,38673.0775202295,22526.8966993933
6119142376,9199,1,0,4395.1302725053,45742.4485358747,-748.8974040584,19729.4945290116,57458.6751358982,50748.6527105250,42223.5749500735,55618.3231591251,38673.7102404643,22527.0913825425
6119142376,9199,1,0,4388.4745423432,45737.7883079915,-757.8163258297,19712.9099582420,57448.9409784399,50750.8672313468,42218.2698342587,55609.8179390458,38670.9481732855,22529.8169466308
6119142376,9199,1,0,4375.9783177060,45740.8423998940,-758.2786983089,19702.6769252139,57446.6169483467,50755.9168255283,42218.6470328602,55609.6840943808,38673.7467435547,22533.1022247730
6119142376,9199,1,0,4379.6772975402,45739.8081456641,-751.7568128118,19717.7161984870,57448.1987489337,50746.0244880112,42215.2035746593,55610.9008640631,38674.4889730609,22531.8124489098
6119142376,9199,1,0,4376.7205472122,45735.4886132919,-755.1881033159,19708.8094444126,57440.5452676320,50744.7225444512,42205.1895601740,55601.4830667221,38668.1130999257,22528.1256367724
6119142376,9199,1,0,4367.9963085902,45735.6224579570,-757.8163258297,19692.2005382493,57437.7101942723,50752.3395226623,42203.2183932887,55598.7331672401,38668.5633047082,22526.0936314030
6119142376,9199,1,0,4381.6484644255,45741.6819709748,-752.2435206847,19710.9752944471,57448.0892396623,50748.0564933807,42207.7691119005,55605.1212080722,38669.3785403953,22528.0039598042
6119157896,9200,1,0,4389.0342563971,45739.5891271213,-755.1881033159,19718.3975895091,57447.4443517306,50744.9902337813,42209.0832231574,55602.0184453823,38665.0955111136,22526.9575378774
6119157896,9200,1,0,4374.4208525127,45740.0880026910,-763.7784972729,19701.9833664950,57445.4245140580,50754.6635527555,42214.5465190309,55604.2451339009,38666.9206656371,22526.4708300045
6119157896,9200,1,0,4377.0125719360,45741.6454678844,-762.0871874145,19711.4985054105,57453.5647032326,50753.8483170684,42223.2829253497,55613.5169188800,38672.8219985962,22525.6190912269
6119157896,9200,1,0,4392.0518452091,45741.6576355812,-756.7455685092,19728.9591503514,57459.1740114680,50747.8374748378,42226.1301664063,55618.4205006996,38672.7854955057,22526.8845316965
6119157896,9200,1,0,4383.9116560346,45738.4210282263,-763.5108079428,19711.3524930486,57451.4353562886,50754.3228572445,42221.8958079119,55612.4461615596,38671.3132041901,22526.1301344935
6119157896,9200,1,0,4376.3798517012,45743.0204176253,-759.3494556293,19706.0352095370,57453.4795293548,50759.9930039640,42226.2153402841,55620.3064937072,38675.8517551051,22529.4640834229
6119157896,9200,1,0,4382.4515324158,45742.9595791412,-754.2998614478,19722.7901280622,57458.0059125730,50745.1727492336,42223.6722916481,55621.4867602990,38673.9779297944,22526.8966993933
6119157896,9200,1,0,4377.7791368358,45739.2605993071,-760.6027284021,19715.3800006970,57451.5570332568,50745.7202955907,42218.5131881951,55612.3001491977,38668.0765968352,22523.6114212511
6119189419,9201,1,0,4373.8002999747,45742.5337097524,-758.5828907295,19707.5318362462,57450.3645989682,50754.7852297237,42220.3383427186,55612.2879815009,38671.2036949187,22526.8115255155
6119189419,9201,1,0,4386.1018414627,45746.8654098214,-751.3187757262,19728.3629332071,57459.6242162504,50750.9889083150,42223.0274037164,55618.6395192425,38674.6106500292,22530.7660269830
6119189419,9201,1,0,4386.8562386657,45742.2781881191,-754.6648923525,19728.1804177548,57454.8179760053,50749.5409523931,42218.7078713443,55613.3100680340,38670.1937760824,22532.6885230810
6119189419,9201,1,0,4369.6146122676,45741.3169400701,-762.3670444414,19703.2974777519,57449.8778910952,50760.1876871131,42221.1414107089,55613.4560803959,38671.5078873393,22533.7471127046
6119189419,9201,1,0,4376.0026530997,45745.6608078359,-754.0200044209,19713.7738647164,57460.3664457566,50757.1944336947,42229.3911091549,55623.4822625780,38677.9080958682,22532.2991567827
6119189419,9201,1,0,4392.2951991456,45743.9451625839,-748.5080377601,19729.0443242292,57463.3110283878,50748.7743874932,42229.2207613993,55623.2997471257,38677.6282388413,22530.1941452323
6119189419,9201,1,0,4385.8341521326,45741.1344246178,-756.1980221522,19711.3768284423,57454.8058083085,50756.0141671029,42227.1157498490,55619.0532209344,38676.7399969732,22531.8246166066
6119189419,9201,1,0,4377.3654351439,45743.8843240998,-754.3850353256,19709.3204876792,57456.1564226559,50758.9100789467,42226.6777127633,55623.4944302748,38681.2298771008,22534.4650068172
6119216759,9202,1,0,4377.2315904788,45740.3070212338,-750.6860554914,19724.3597609524,57455.3776900592,50748.8108905837,42221.8471371246,55621.4137541181,38678.1514498046,22533.8322865824
6119216759,9202,1,0,4369.3834260280,45737.4354447836,-755.4314572524,19709.5881770093,57446.1545758674,50754.1525094890,42216.9435553050,55615.2812349193,38672.1041044836,22533.9174604601
6119216759,9202,1,0,4370.2351648056,45743.0690884126,-752.2435206847,19699.6836717954,57447.4808548211,50758.6910604039,42220.2531688408,55618.2014821568,38674.7201593006,22535.9738012232
6119216759,9202,1,0,4390.2996968666,45742.1443434541,-747.3764419556,19718.3610864187,57454.9761560640,50747.2534253903,42221.2509199803,55618.9072085726,38672.0189306059,22536.6065214580
6119216759,9202,1,0,4394.1325213659,45734.0771604605,-754.5432153843,19714.7716158559,57447.9310596036,50743.1529115610,42217.5397724493,55609.4894112316,38666.4461254610,22534.2216528807
6119216759,9202,1,0,4378.8985649435,45734.0163219764,-762.3548767446,19696.2158782009,57440.1437336369,50751.8041440021,42218.3428404396,55604.6101648056,38668.2347768939,22533.1995663476
6119216759,9202,1,0,4383.0842526506,45737.9586557470,-756.1371836681,19713.5913492641,57449.1965000732,50749.5287846962,42224.3050118829,55612.7016831929,38673.1626941072,22533.1508955603
6119216759,9202,1,0,4392.5628884757,45737.3746062995,-753.2412718242,19729.2146719847,57452.2505919757,50739.7337887538,42222.4433542690,55613.2370618531,38670.2181114761,22532.1409767240
6119255583,9203,1,0,4383.5101220394,45737.6301279328,-758.9722570278,19711.1943129899,57446.9819792514,50747.0830776348,42221.0197337407,55609.9152806204,38667.6872305369,22530.9607101322
6119255583,9203,1,0,4382.5123709000,45745.0159199043,-752.5477131053,19713.7982001101,57454.1365849833,50749.4679462121,42228.0404948075,55620.2091521326,38673.2843710755,22531.6177657606
6119255583,9203,1,0,4388.6570577955,45743.2029330777,-749.1042549044,19724.1407424096,57455.1708392132,50742.8365514436,42227.1279175458,55620.8662077611,38672.0189306059,22530.9972132226
6119255583,9203,1,0,4380.0179930513,45741.1465923146,-755.0055878636,19706.1568865052,57448.8801399558,50748.2998473171,42224.0251548559,55613.7359374228,38670.3032853538,22530.4861699561
6119255583,9203,1,0,4377.7548014422,45745.4174538995,-752.2678560784,19699.0509515606,57452.4452751249,50751.9744917576,42222.1391618484,55615.4759180685,38673.6494019802,22532.0192997558
6119255583,9203,1,0,4393.7066519771,45745.5878016550,-745.4661135544,19722.1695755242,57458.6386328077,50740.8532168615,42220.7520444106,55615.8652843668,38672.5543092661,22529.4884188166
6119255583,9203,1,0,4394.0108443976,45742.0591695763,-749.0190810267,19719.2858313772,57451.6543748314,50740.9748938297,42216.6271951876,55609.0513741460,38666.8111563657,22530.4374991688
6119255583,9203,1,0,4378.6552110071,45742.7162252048,-754.4215384160,19702.5795836393,57445.9112219310,50746.1339972826,42217.3815923906,55607.1288780480,38666.1175976467,22531.8854550907
6119285694,9204,1,0,4384.0698360933,45744.3101934886,-749.1164226012,19716.2925779588,57452.2992627630,50741.4737693994,42217.5762755398,55611.1563856964,38667.3952058132,22532.4208337509
6119285694,9204,1,0,4392.5263853852,45741.4994555225,-749.1894287822,19720.8311288737,57450.6079529046,50738.4196774969,42215.1184007815,55609.0757095396,38665.2415234755,22533.4794233745
6119285694,9204,1,0,4378.4118570706,45739.5282886372,-755.6261404015,19698.7832622305,57443.0396454807,50748.0808287743,42210.3486636269,55603.8679352994,38666.3974546737,22531.9341258780
6119285694,9204,1,0,4377.1829196915,45741.8279833367,-751.2822726357,19705.1956384562,57445.1568247279,50747.0465745444,42212.8308737788,55606.7151763560,38670.8873348013,22533.0413862889
6119285694,9204,1,0,4379.5799559656,45734.4421913652,-753.0709240687,19710.1113879727,57442.0540620381,50737.1907401178,42206.9782116070,55601.4830667221,38666.7989886688,22530.7660269830
6119285694,9204,1,0,4366.7430358174,45730.9500623770,-760.6148960989,19686.9319255250,57434.2789037682,50744.7468798448,42204.1796413377,55594.5353118362,38665.7160636516,22533.1265601667
6119285694,9204,1,0,4365.3072475923,45733.9311480986,-756.3683699077,19686.3478760775,57440.7521184780,50746.6085374587,42209.0223846732,55599.7065829860,38668.9283356129,22531.5569272765
6119285694,9204,1,0,4385.8584875263,45734.8437253603,-746.4151939066,19714.1753987116,57449.0018169240,50736.1929889783,42212.9160476566,55603.2595504583,38666.2271069182,22530.6686854084
6119314437,9205,1,0,4386.3330277024,45731.0595716484,-750.4548692518,19708.1523887842,57442.4799314269,50733.8932942788,42210.2148189619,55596.8593419294,38659.1941781545,22530.0846359609
6119314437,9205,1,0,4368.7142027027,45731.6436210959,-755.0177555604,19694.5367360393,57439.9003797004,50737.4827648415,42212.8430414756,55599.8039245605,38658.0382469563,22530.8877039512
6119314437,9205,1,0,4370.6975372849,45731.0230685579,-751.9636636578,19712.7517781833,57446.0207312024,50729.9996312954,42216.0918165274,55604.3059723850,38657.0283281200,22531.4474180051
6119314437,9205,1,0,4376.0756592806,45725.9491389828,-755.0177555604,19711.4376669264,57443.1248193585,50729.1235571242,42211.6384394902,55600.2176262525,38651.3460137037,22531.3257410369
6119314437,9205,1,0,4367.5217684141,45728.1758275013,-759.1304370865,19690.4362222100,57439.9612181845,50739.8798011156,42208.5721798908,55597.0053542913,38654.2784286380,22528.8922016723
6119314437,9205,1,0,4374.4816909968,45735.4277748078,-752.0001667483,19702.1902173410,57448.9653138335,50739.5756086951,42210.9692161649,55604.0869538422,38661.2626866144,22529.8412820245
6119314437,9205,1,0,4380.3221854718,45732.6900430227,-751.5621296627,19710.5980958456,57447.6146994862,50729.8657866304,42205.0070447217,55599.9012661351,38658.0504146531,22530.0359651736
6119314437,9205,1,0,4364.6380242671,45731.8139688514,-757.5729718932,19693.5024818094,57442.0297266444,50737.8599634430,42205.9074542866,55597.8570930689,38656.8458126677,22532.0679705431
6119368125,9206,1,0,4365.9886386144,45739.0780838547,-750.3818630708,19701.5331617125,57449.6467048556,50739.0402300349,42212.0764765758,55606.7030086592,38662.2482700571,22533.6254357364
6119368125,9206,1,0,4385.7489782549,45740.1853442656,-744.1885053880,19726.5864494710,57458.9063221379,50729.9996312954,42216.2256611924,55611.0225410313,38660.9219911034,22532.0314674526
6119368125,9206,1,0,4382.4758678095,45734.6368745143,-752.8032347386,19713.7860324132,57448.0770719654,50731.8977919998,42211.9669673044,55601.7264206586,38655.7385522568,22530.1454744450
6119368125,9206,1,0,4374.9805665666,45736.8513953361,-755.6261404015,19701.9711987982,57446.2032466547,50737.8477957462,42216.5055182194,55602.7363394949,38657.9652407754,22531.2040640686
6119368125,9206,1,0,4381.8674829683,45737.0095753948,-753.3386133988,19717.6675276997,57447.7850472417,50729.9752959018,42215.6902825322,55603.2838858519,38658.5006194356,22529.6952696626
6119368125,9206,1,0,4382.2568492667,45732.7995522941,-757.8041581328,19711.4254992296,57442.2244097936,50731.7274442443,42210.3973344142,55597.0540250786,38654.5704533618,22529.1842263960
6119368125,9206,1,0,4372.2671701750,45733.7486326463,-760.5783930085,19692.9184323619,57438.0508897833,50739.3200870618,42208.6451860717,55595.0220197091,38656.8458126677,22529.6222634816
6119368125,9206,1,0,4376.3068455203,45733.8459742208,-751.5377942690,19709.2961522856,57445.2054955152,50735.8522934672,42211.5289302188,55599.8890984383,38661.5425436413,22530.8146977703
6119375534,9207,1,0,4376.4406901853,45726.8495485477,-752.3651976530,19714.2605725893,57438.6227715340,50729.8657866304,42207.1728947562,55595.3262121297,38656.7363033963,22529.4640834229
6119375534,9207,1,0,4358.1769772541,45724.8418785719,-760.2620328911,19692.3952213985,57429.8376944278,50739.2835839713,42207.2093978466,55592.2356171367,38658.0869177436,22530.2184806260
6119375534,9207,1,0,4359.6127654792,45726.9955609095,-755.7843204602,19697.0067784944,57434.6926054602,50737.7869572621,42210.2391543555,55599.1712043258,38660.7029725605,22530.9363747385
6119375534,9207,1,0,4376.0999946743,45725.1339032956,-753.4359549734,19709.5516739188,57435.9823813234,50726.3858253390,42206.1143051326,55596.8593419294,38656.2860986138,22529.7439404499
6119375534,9207,1,0,4371.5371083657,45725.8152943177,-762.0263489304,19692.5534014572,57429.8133590342,50732.3358290854,42201.9529528191,55591.3960460559,38652.0152370290,22530.8512008608
6119375534,9207,1,0,4365.3802537733,45731.8626396387,-760.0916851355,19688.5623968993,57433.0012956018,50740.6950368028,42204.1674736409,55597.3703851960,38656.2739309170,22535.5357641376
6119375534,9207,1,0,4374.3478463318,45730.3051744454,-754.0565075114,19705.9378679624,57437.9170451183,50733.2849094376,42204.0214612790,55601.3492220571,38655.4951983203,22535.3775840789
6119375534,9207,1,0,4370.4906864389,45727.0442316968,-757.1592702012,19698.8319330178,57433.9503759540,50736.1199827974,42201.7095988827,55598.0639439149,38653.6457084032,22535.2802425043
6119413427,9208,1,0,4360.8903736456,45728.2001628950,-759.0695986024,19687.6863227280,57433.4636680811,50742.5201913262,42202.3058160270,55599.1225335385,38655.7628876504,22537.7989557467
6119413427,9208,1,0,4370.5636926198,45729.8914727534,-753.7279796971,19708.5782581730,57442.4920991237,50734.1974866993,42207.1607270593,55605.5349097642,38659.7903952988,22538.7967068861
6119413427,9208,1,0,4375.2847589871,45725.5354372908,-756.9159162648,19711.1578098995,57436.7367785265,50730.3281591096,42205.7371065311,55600.4609801890,38653.7795530683,22538.8818807639
6119413427,9208,1,0,4359.9899640807,45726.0586482542,-765.0074346520,19689.0612724690,57428.3045646282,50738.9672238539,42205.2869017486,55596.1292801200,38654.1567516698,22538.1031481672
6119413427,9208,1,0,4360.6470197091,45729.5751126360,-757.3782887440,19699.8175164605,57434.6561023697,50738.0059758049,42210.2026512651,55601.0450296365,38658.4641163451,22537.3365832674
6119413427,9208,1,0,4371.0138974023,45727.3605918142,-754.0930106018,19711.8513686184,57436.9923001597,50729.8536189335,42205.5667587755,55598.2099562767,38654.7408011173,22533.4915910713
6119413427,9208,1,0,4363.1779006483,45724.9878909337,-761.5761441479,19694.0135250760,57430.2878992103,50740.5003536536,42201.8312758509,55593.3185421539,38653.9864039143,22531.9706289685
6119413427,9208,1,0,4361.7177770296,45731.7409626705,-760.4567160402,19696.4227290469,57437.3086602771,50746.6693759428,42209.7402787858,55601.3978928444,38660.7029725605,22534.4650068172
6119436800,9209,1,0,4376.1486654616,45733.9189804018,-755.6018050079,19717.2051552205,57445.2419986057,50737.2029078146,42212.7578675979,55607.8224367669,38661.4938728540,22535.3654163821
6119436800,9209,1,0,4376.1364977647,45732.3615152084,-761.3206225147,19704.2100550136,57441.4213418033,50741.3642601280,42211.8817934266,55605.7295929133,38660.1675939003,22536.8133723040
6119436800,9209,1,0,4375.2969266840,45736.7783891552,-759.6536480499,19696.0455304454,57445.8017126596,50749.1880891852,42217.6614494175,55611.7160997502,38665.4118712310,22538.3343344069
6119436800,9209,1,0,4393.0982671359,45739.2727670039,-750.6738877946,19719.6021914946,57455.8522302353,50742.1429927247,42220.8858890756,55616.5345076921,38670.1694406888,22537.4582602356
6119436800,9209,1,0,4391.8449943632,45734.9775700254,-753.8131535749,19714.3944172544,57447.9797303909,50740.2448320203,42213.0012215343,55610.8643609726,38666.2514423118,22533.5280941618
6119436800,9209,1,0,4369.4685999058,45734.9775700254,-758.8505800596,19691.4218056527,57439.4501749180,50750.7212189849,42211.9182965171,55606.8490210210,38668.0765968352,22535.8399565582
6119436800,9209,1,0,4367.0593959348,45737.8734818692,-752.7667316481,19701.0586215364,57446.0815696865,50746.7545498206,42214.5221836372,55613.3830742150,38672.4326322979,22536.6186891548
6119436800,9209,1,0,4377.3289320534,45735.7563026220,-751.1240925770,19709.7463570680,57447.8093826353,50740.9383907392,42213.2810785613,55612.2636461072,38670.0234283269,22535.2194040202
6119490618,9210,1,0,4372.3523440528,45736.8878984266,-755.2854448905,19690.4727253005,57444.2077443757,50749.2002568820,42215.7511210163,55609.9882868014,38671.6295643075,22535.2559071107
6119490618,9210,1,0,4371.3302575197,45742.3268589064,-752.7058931640,19694.4758975552,57452.2262565821,50747.2534253903,42219.6326163028,55616.3641599366,38676.3871337653,22535.2315717170
6119490618,9210,1,0,4376.8178887868,45739.4552824562,-752.4017007434,19710.0505494886,57453.6863802008,50737.8356280494,42218.4401820142,55615.1595579511,38672.1284398773,22534.1851497902
6119490618,9210,1,0,4364.8692105067,45732.0938258783,-765.6644902804,19689.9373466403,57439.4501749180,50737.3854232669,42212.4536751773,55603.8679352994,38665.1563495977,22531.9584612716
6119490618,9210,1,0,4361.4987584867,45734.2231728224,-766.3702166962,19683.5249704146,57443.3073348108,50745.3309292923,42215.5929409576,55607.1045426543,38666.7016470943,22532.6885230810
6119490618,9210,1,0,4377.7304660485,45735.4034394142,-759.7266542309,19705.8040232974,57452.6642936677,50738.9428884603,42217.9048033540,55610.9860379408,38669.1108510652,22531.7394427288
6119490618,9210,1,0,4379.3366020292,45735.0384085095,-761.3692933019,19704.3195642850,57452.8224737264,50742.8730545341,42218.5740266793,55607.5790828304,38667.4560442973,22534.0756405188
6119490618,9210,1,0,4363.8471239736,45737.6544633264,-764.5207267791,19689.5601480388,57450.8634745379,50752.7775597480,42222.0783233643,55610.2316407378,38670.6196454712,22533.5645972523
6119502214,9211,1,0,4369.9066369914,45743.1664299872,-753.3507810956,19707.7995255763,57458.5047881427,50750.7090512881,42226.2883464650,55620.2213198294,38676.5331461272,22533.1265601667
6119502214,9211,1,0,4379.1175834864,45745.9528325597,-750.0289998630,19712.7517781833,57458.9184898347,50751.7433055180,42224.8525582399,55622.4845114385,38676.5453138240,22531.9219581812
6119502214,9211,1,0,4375.9661500092,45748.4228750147,-752.9735824941,19691.3609671685,57456.6918013161,50761.0150904971,42226.9697374871,55622.4845114385,38679.1248655505,22532.6155169001
6119502214,9211,1,0,4380.9427380098,45752.5598919345,-747.6806343761,19700.0730380938,57462.3862834292,50756.6347196408,42232.3235240892,55628.2641674294,38680.9743554676,22534.8543731155
6119502214,9211,1,0,4389.1559333653,45750.0533463890,-744.3953562339,19717.7770369712,57462.8121528180,50750.0154925692,42231.6786361576,55628.3006705199,38679.8062565726,22537.3365832674
6119502214,9211,1,0,4376.7813856964,45747.2791115134,-749.3111057504,19707.3979915812,57456.5822920447,50756.6347196408,42230.0359970865,55620.8175369738,38679.3438840933,22537.2392416928
6119502214,9211,1,0,4377.5236152026,45753.1196059884,-744.2980146594,19709.9167048235,57462.8486559085,50762.7307357491,42234.1243432190,55627.0839008376,38684.9045215414,22537.8354588371
6119502214,9211,1,0,4400.6422391661,45756.3927164338,-737.7152906782,19731.6117082588,57471.1956959290,50756.1845148584,42233.6132999524,55630.7585452781,38686.3646451601,22537.5799372038
6119529748,9212,1,0,4403.6598279782,45754.3607110643,-743.2880958231,19718.9816389566,57465.3673691508,50756.4278687948,42228.4541964995,55624.4921814143,38681.6922495801,22537.7259495657
6119529748,9212,1,0,4388.7057285828,45755.7964992894,-750.0655029534,19698.8441007147,57462.6418050625,50758.4233710738,42229.5857923040,55623.6526103335,38683.5174041036,22538.8210422798
6119529748,9212,1,0,4386.6615555166,45754.8352512404,-746.6220447525,19712.1312256453,57466.2921141094,50750.6603805008,42227.9431532329,55626.7310376297,38684.1987951256,22538.2248251355
6119529748,9212,1,0,4386.0653383723,45749.3111168828,-747.3399388651,19709.4299969506,57460.4272842407,50746.8397236984,42222.6258697213,55619.2357363868,38678.8693439172,22536.0346397073
6119529748,9212,1,0,4378.3510185865,45749.4084584574,-749.8221490170,19689.9373466403,57455.0248268513,50753.6658016160,42223.9521486750,55615.2934026162,38678.9545177950,22536.1441489787
6119529748,9212,1,0,4383.4127804649,45751.7689916410,-742.6553755883,19701.9590311013,57461.5102092580,50747.1925869062,42226.6290419760,55619.2235686900,38679.3925548806,22535.4749256535
6119529748,9212,1,0,4386.1383445532,45744.6143859091,-747.4737835301,19709.5516739188,57453.9175664405,50734.0149712470,42220.1801626599,55612.4096584691,38670.8264963172,22532.0192997558
6119529748,9212,1,0,4366.6578619397,45737.6544633264,-761.5761441479,19683.8413305320,57442.8327946347,50735.8644611641,42214.1449850357,55603.2717181551,38663.5867167076,22530.9607101322
6119564211,9213,1,0,4355.4027423784,45737.4354447836,-765.3846332535,19681.7606543752,57443.5993595346,50731.9707981807,42210.6285206539,55604.9995311039,38660.5204571082,22525.7407681951
6119564211,9213,1,0,4365.0395582622,45733.6634587685,-768.0371911609,19700.3407274239,57448.6489537161,50719.2190519103,42204.8123615725,55605.4254004927,38654.1202485793,22518.9998641552
6119564211,9213,1,0,4364.5771857829,45728.8937216139,-776.9926160226,19687.5646457598,57440.1802367273,50722.6138393239,42200.7726862273,55596.3239632692,38649.6425361485,22513.9867730642
6119564211,9213,1,0,4359.3085730586,45729.9279758439,-778.6960935778,19672.6592171517,57436.6516046487,50728.9410416718,42202.9020331713,55596.9323481103,38652.9278142907,22512.2102893280
6119564211,9213,1,0,4366.6943650301,45728.0419828363,-771.7118356015,19688.8665893198,57440.1802367273,50723.9279505808,42205.4815848978,55599.6579121987,38653.2928451954,22510.8231718902
6119564211,9213,1,0,4366.9863897539,45724.9635555401,-772.8069283155,19687.7593289090,57436.7002754360,50726.5926761850,42206.1751436167,55598.5749871814,38653.3171805890,22511.4802275186
6119564211,9213,1,0,4360.4766719536,45729.7454603915,-772.9894437679,19679.4001211916,57440.7156153876,50743.8708056736,42213.8407926151,55604.6101648056,38659.7538922084,22517.2112127222
6119564211,9213,1,0,4374.6520387523,45740.4408658989,-762.7929138302,19704.7576013706,57455.9860749003,50744.3575135465,42225.7164647143,55617.8242835553,38670.7048193490,22524.5605016033
6119627987,9214,1,0,4383.7899790664,45739.9784934196,-760.1646913165,19714.8324543400,57456.3876088955,50738.5778575556,42225.5096138683,55616.5101722984,38669.8530805714,22527.6510965963
6119627987,9214,1,0,4367.8867993188,45741.5116232193,-764.8370868965,19694.0013573791,57449.3668478287,50748.7378844027,42224.0251548559,55614.6850177750,38671.3010364933,22533.0292185921
6119627987,9214,1,0,4365.5384338320,45745.3079446281,-756.5265499664,19697.9315234529,57455.5845409052,50748.3120150139,42223.5384469830,55620.4646737659,38674.8418362688,22534.1121436093
6119627987,9214,1,0,4377.9616522882,45744.1885165203,-750.3453599804,19712.8612874547,57459.1861791648,50741.2425831598,42217.6979525080,55619.5399288074,38672.1649429678,22530.9607101322
6119627987,9214,1,0,4374.6520387523,45743.9938333712,-752.9979178878,19700.7665968127,57458.1275895412,50748.2755119235,42217.4180954811,55615.8287812764,38671.1063533442,22532.3234921763
6119627987,9214,1,0,4366.8038743015,45747.5589685403,-752.1948498975,19696.6539152865,57458.6142974141,50752.7897274448,42222.6623728118,55621.0365555166,38675.6935750464,22530.9242070417
6119627987,9214,1,0,4372.5348595051,45745.7216463200,-745.5999582194,19716.1587332937,57460.9018244168,50742.4228497516,42224.3415149733,55621.7909527196,38674.6106500292,22530.8755362544
6119627987,9214,1,0,4368.3370041012,45740.7572260163,-750.1628445280,19708.0793826033,57452.0924119170,50743.7369610085,42220.4600196868,55615.1473902543,38669.4150434858,22531.0823871004
6119633019,9215,1,0,4364.0783102132,45743.7504794347,-748.0700006745,19694.8652638536,57453.2240077215,50755.8559870442,42223.3194284402,55618.2379852473,38674.3186253054,22532.8832062302
6119633019,9215,1,0,4381.7823090906,45750.9294205603,-735.9874777293,19716.4507580175,57467.9225854837,50754.1768448826,42229.5614569104,55628.8968876642,38679.7940888757,22535.1950686266
6119633019,9215,1,0,4387.5132942942,45746.6585589754,-737.4962721353,19718.8842973820,57464.5764688573,50748.8230582805,42226.7993897316,55625.7697895807,38678.3096298633,22533.9782989443
6119633019,9215,1,0,4365.5140984383,45741.7671448526,-747.9726590999,19693.4294756285,57455.5115347243,50755.4057822617,42223.0760745037,55621.3164125435,38676.0951090416,22533.3090756190
6119633019,9215,1,0,4362.4478388389,45741.0127476496,-744.9429025910,19700.1095411842,57460.3056072725,50750.7455543785,42225.2905953255,55624.8815477126,38679.1857040346,22532.1531444208
6119633019,9215,1,0,4373.9949831239,45736.6323767933,-744.3588531435,19715.2096529415,57460.3786134534,50742.9825638055,42221.6889570659,55623.2267409447,38675.6935750464,22529.6465988753
6119633019,9215,1,0,4372.9607288939,45736.3525197664,-749.1042549044,19699.9756965192,57453.5282001421,50750.9524052245,42218.6835359507,55615.8287812764,38674.7444946942,22530.0968036577
6119633019,9215,1,0,4374.1774985762,45740.0880026910,-743.9816545420,19699.1482931352,57454.8058083085,50755.4909561395,42223.5262792862,55621.5962695704,38679.7819211789,22533.2117340444
6119657940,9216,1,0,4383.2302650125,45740.2218473561,-735.6224468246,19719.0911482280,57460.7923151454,50746.2313388572,42225.6069554429,55626.0861496981,38679.5872380298,22535.0003854774
6119657940,9216,1,0,4370.5515249230,45735.9144826807,-744.1520022975,19708.8946182904,57454.8301437022,50746.8153883047,42226.1179987095,55620.8418723674,38676.3749660685,22534.2338205775
6119657940,9216,1,0,4360.2819888044,45738.6400467691,-747.7293051634,19701.8373541331,57454.7571375212,50751.9136532735,42230.4740341721,55623.3970887002,38678.4069714379,22531.0702194036
6119657940,9216,1,0,4380.8818995257,45743.3367777427,-740.1123269523,19724.1407424096,57466.0122570825,50743.2015823483,42237.5191306326,55631.2452531510,38679.8792627535,22530.3401575942
6119657940,9216,1,0,4388.4745423432,45739.1754254293,-744.8455610164,19721.4881845022,57462.7026435466,50740.6828691060,42235.5722991409,55626.4755159964,38676.3262952812,22531.3987472178
6119657940,9216,1,0,4372.5226918083,45737.3259355122,-755.4192895555,19698.1140389053,57455.1343361227,50747.0952453316,42233.7836477079,55624.7720384412,38675.0121840243,22535.3775840789
6119657940,9216,1,0,4369.1035690011,45738.6887175564,-751.1605956675,19708.6999351412,57460.4394519375,50744.0898242164,42233.7958154048,55628.9577261483,38677.0685247874,22535.7304472868
6119657940,9216,1,0,4376.3555163075,45736.0361596490,-747.2304295937,19717.8135400616,57459.3443592235,50741.1695769789,42231.4352822211,55627.8139626470,38673.5398927087,22536.2049874629
6119689233,9217,1,0,4368.6290288250,45736.9487369107,-749.6031304742,19701.5940001966,57455.7670563575,50753.2764353177,42230.0846678738,55625.1979078300,38675.9855997702,22536.3388321279
6119689233,9217,1,0,4369.1400720915,45742.9717468380,-741.0492396076,19709.9897110045,57464.9171643684,50757.4377876311,42236.3875348280,55635.0902453471,38684.0771181574,22537.7381172626
6119689233,9217,1,0,4374.6642064492,45741.1222569210,-736.2186639689,19726.3795986250,57466.5233003490,50747.9348164124,42234.9760819966,55635.4431085549,38683.7972611305,22535.6574411058
6119689233,9217,1,0,4363.2265714356,45739.1632577325,-742.6067048010,19706.6435943782,57457.3245215509,50753.7509754938,42232.0436670623,55628.6535337277,38681.4002248564,22536.0589751010
6119689233,9217,1,0,4359.9656286870,45743.3611131364,-743.9938222388,19695.1086177900,57459.4782038885,50759.1534328832,42235.8399884710,55630.2840051020,38684.1136212479,22538.1639866514
6119689233,9217,1,0,4380.3830239559,45742.3998650874,-741.4994443901,19714.7107773718,57465.3673691508,50744.9537306908,42235.4749575663,55632.0969919286,38682.4709821768,22535.7547826804
6119689233,9217,1,0,4382.4271970222,45732.1911674529,-750.2236830121,19705.4876631800,57453.2848462057,50742.6297005976,42227.3469360886,55620.2456552231,38673.6737373738,22531.4352503083
6119689233,9217,1,0,4366.2441602477,45729.5872803328,-756.6238915410,19687.7958319994,57443.4533471727,50750.5995420167,42228.2716810471,55616.7170231444,38673.0653525326,22531.0702194036
6119730550,9218,1,0,4367.7894577442,45733.3470986511,-748.6783855156,19704.6967628865,57451.1311638680,50744.9415629940,42233.0657535954,55625.9523050331,38676.2776244939,22531.5325918828
6119730550,9218,1,0,4373.0945735590,45734.5760360302,-747.5346220143,19714.4674234353,57457.1541737954,50744.6008674829,42232.5547103288,55626.4633482996,38676.6913261859,22533.1265601667
6119730550,9218,1,0,4370.1499909278,45739.9176549355,-750.1020060439,19698.2843866608,57458.5412912332,50757.1822659979,42233.6619707397,55627.5584410137,38679.3317163965,22535.8399565582
6119730550,9218,1,0,4378.3996893738,45745.7459817137,-742.5823694073,19706.7531036496,57467.3993745203,50755.1745960221,42239.7579868480,55634.6278728678,38685.1722108715,22537.7502849594
6119730550,9218,1,0,4385.2866057756,45740.1488411751,-740.7207117934,19714.5282619194,57466.2677787157,50742.1308250279,42235.7061438060,55629.8946388037,38680.4633122010,22534.5988514822
6119730550,9218,1,0,4368.3248364044,45733.1280801083,-749.1164226012,19691.0324393543,57453.9419018341,50746.0001526176,42231.5691268862,55619.4790903232,38675.5962334718,22534.0148020347
6119730550,9218,1,0,4360.7078581932,45735.2939301428,-747.9848267967,19689.7548311879,57456.0955841718,50747.2777607840,42234.8787404220,55622.8008715559,38677.1658663620,22532.9805478048
6119730550,9218,1,0,4376.1364977647,45734.1379989446,-744.5535362926,19712.1068902517,57461.6805570135,50735.7549518927,42236.1076778011,55624.9423861968,38675.9490966797,22531.0823871004
6119753327,9219,1,0,4375.5646160141,45729.9401435407,-753.2899426115,19704.1735519231,57453.2726785088,50734.0514743375,42231.7881454290,55616.5710107826,38668.7093170700,22530.2184806260
6119753327,9219,1,0,4368.1544886489,45732.1668320593,-757.8406612233,19692.7115815159,57448.9531461367,50746.4990281873,42235.6209699282,55618.3839976092,38672.2014460582,22533.6497711300
6119753327,9219,1,0,4375.5524483172,45733.4201048320,-749.6152981710,19712.1433933421,57453.9175664405,50740.9383907392,42236.0711747106,55625.2952494046,38674.3551283959,22534.2703236680
6119753327,9219,1,0,4374.8467219015,45730.3903483231,-750.2480184058,19713.1533121784,57450.9851515061,50734.0758097311,42230.0846678738,55619.2357363868,38669.0743479747,22532.9440447143
6119753327,9219,1,0,4357.8241140462,45728.9788954917,-754.8352401080,19692.0910289779,57446.8724699800,50740.4638505631,42226.0328248317,55616.7413585381,38666.8476594561,22531.3865795210
6119753327,9219,1,0,4363.2144037388,45732.5440306608,-748.9339071489,19704.4412412532,57454.1852557706,50737.1420693305,42229.2207613993,55622.7278653750,38669.8895836619,22530.6443500148
6119753327,9219,1,0,4373.3257597986,45727.8959704744,-747.2669326842,19715.4165037875,57451.3623501076,50730.1699790509,42226.7142158538,55618.4570037901,38666.6894793974,22527.9187859264
6119753327,9219,1,0,4361.4987584867,45723.5642704055,-755.0664263477,19694.1960405283,57441.0441432018,50740.4273474727,42224.7673843621,55613.4925834864,38664.9008279645,22526.7385193346
6119790509,9220,1,0,4358.2134803445,45725.4989342003,-753.5697996384,19692.1275320684,57440.8007892653,50741.8996387883,42227.6389608123,55615.8044458827,38668.4051246495,22527.7971089582
6119790509,9220,1,0,4374.2018339699,45725.0122263274,-748.7148886061,19712.0703871612,57445.8990542341,50737.0568954527,42228.1865071694,55618.5421776679,38667.9062490797,22528.7096862199
6119790509,9220,1,0,4372.8268842289,45720.9482155885,-755.6504757952,19699.6350010082,57438.3672499007,50738.2006589541,42225.1689183573,55610.0856283759,38664.9373310549,22526.0327929189
6119790509,9220,1,0,4363.0805590737,45724.0996490657,-758.6558969104,19687.9296766645,57436.6151015582,50739.7702918442,42225.7286324111,55611.2415595741,38667.3952058132,22524.1467999113
6119790509,9220,1,0,4368.3005010108,45725.1217355988,-752.7667316481,19702.8959437567,57445.0716508502,50732.9442139266,42226.9210666998,55617.7269419807,38669.3542050017,22523.1125456814
6119790509,9220,1,0,4362.7155281690,45721.6174389138,-755.5531342206,19696.2402135945,57441.8228757984,50732.3479967822,42222.4920250562,55611.6309258725,38665.8864114071,22523.3193965274
6119790509,9220,1,0,4351.8862779966,45724.0753136720,-757.8406612233,19685.7759943268,57440.4844291479,50742.7392098690,42225.0959121764,55614.3078191735,38667.7359013242,22525.7894389824
6119790509,9220,1,0,4365.1003967463,45726.9712255159,-752.0001667483,19706.9842898892,57449.3060093446,50736.0591443132,42231.9828285781,55618.8585377853,38668.1009322289,22524.9377002048
6119843467,9221,1,0,4375.1265789284,45719.9382967522,-755.1881033159,19717.6431923061,57441.7255342239,50725.9842913438,42229.6101276977,55610.9008640631,38661.8224006683,22519.4379012408
6119843467,9221,1,0,4363.4090868879,45718.7823655540,-761.4544671797,19700.0852057906,57433.7800281985,50738.0668142890,42233.6984738302,55607.0437041702,38661.7493944873,22519.7420936614
6119843467,9221,1,0,4362.5573481103,45723.8441274324,-756.5995561474,19706.7652713464,57437.3938341549,50736.9838892718,42240.4880486574,55612.8111924643,38666.2027715245,22520.0584537788
6119843467,9221,1,0,4377.8034722295,45726.0829836478,-754.1903521764,19725.6130337251,57443.6845334124,50729.8414512367,42238.8332418894,55614.6850177750,38665.0833434168,22521.2873911579
6119843467,9221,1,0,4375.8444730410,45725.0000586306,-761.9046719622,19709.9045371267,57437.0896417343,50733.1267293789,42234.6232187887,55609.2217219015,38661.2261835239,22521.5672481849
6119843467,9221,1,0,4372.3645117496,45727.4701010856,-762.1115228081,19702.5917513361,57437.8440389373,50734.4895114231,42233.8931569793,55611.8256090216,38663.4650397393,22519.6934228741
6119843467,9221,1,0,4379.1662542736,45725.2312448702,-758.8140769691,19718.9208004725,57439.4380072211,50724.3538199696,42231.2405990719,55612.6286770119,38661.4086989763,22517.4789020523
6119843467,9221,1,0,4370.4785187421,45720.2303214760,-762.9024231016,19707.0086252829,57431.6750166481,50726.4588315199,42227.0792467585,55606.3379777545,38655.7872230441,22516.3594739446
6119846684,9222,1,0,4359.0287160317,45721.8729605471,-761.1989455464,19692.7115815159,57434.6317669761,50738.2128266509,42227.7241346901,55606.4839901163,38658.4276132547,22516.8826849080
6119846684,9222,1,0,4372.6930395638,45729.1979140345,-751.1849310611,19713.8955416846,57446.7507930117,50735.6089395308,42231.8124808226,55616.4980046016,38665.1806849914,22518.4644854950
6119846684,9222,1,0,4379.2757635451,45729.2344171249,-751.7811482055,19719.9672223993,57445.3150047866,50733.8324557946,42230.2671833261,55614.5146700195,38663.7083936758,22519.5717459059
6119846684,9222,1,0,4365.0760613527,45731.5341118245,-757.9988412820,19700.3528951207,57437.0531386439,50741.0235646170,42230.4618664753,55609.1243803269,38665.0468403263,22523.0030364100
6119846684,9222,1,0,4364.4676765115,45729.5994480296,-756.6117238442,19705.9865387497,57438.9756347419,50734.1731513057,42230.2550156293,55612.6043416183,38666.3609515832,22522.8691917449
6119846684,9222,1,0,4376.4893609726,45722.6273577501,-754.6162215652,19717.8865462426,57438.8417900768,50723.4412427078,42226.3126818586,55609.7571005617,38658.9386565212,22520.2774723216
6119846684,9222,1,0,4371.4154313974,45719.2569057301,-760.3837098593,19697.9558588466,57430.4704146626,50729.2695694860,42222.7718820832,55602.9066872504,38656.1644216456,22520.1922984439
6119846684,9222,1,0,4370.1743263215,45725.1704063861,-755.6748111888,19696.1307043231,57435.4226672696,50738.9793915507,42227.8701470520,55611.1928887868,38663.3433627711,22522.1026268451
6119878140,9223,1,0,4380.0909992322,45725.6327788654,-751.6108004500,19713.2993245403,57438.9026285609,50730.0483020827,42226.1666694968,55612.6530124056,38663.8300706440,22521.7375959404
6119878140,9223,1,0,4368.0328116807,45720.7657001362,-760.8825854290,19701.0707892333,57430.4217438753,50730.9243762540,42221.2265845867,55604.7075063802,38658.8778180371,22524.3049799700
6119878140,9223,1,0,4355.0498791706,45722.6760285374,-764.3260436299,19691.3487994717,57430.3000669071,50738.5778575556,42221.7011247628,55604.3181400819,38659.9485753575,22525.7042651047
6119878140,9223,1,0,4369.0427305170,45723.0410594421,-756.0641774871,19713.5183430831,57439.5596841894,50731.3624133396,42220.5938643519,55608.2361384589,38661.7615621841,22524.0981291240
6119878140,9223,1,0,4379.7381360243,45721.3375818869,-754.2390229637,19717.6188569125,57440.0707274559,50734.4530083326,42221.2752553739,55606.5204932068,38662.1509284825,22525.9841221316
6119878140,9223,1,0,4367.8259608347,45726.6426977017,-755.0420909540,19705.8283586910,57438.2455729325,50746.1096618890,42227.1400852426,55609.0392064492,38666.8963302434,22528.8800339754
6119878140,9223,1,0,4365.9399678271,45730.9500623770,-747.4251127429,19719.7238684628,57445.6313649040,50739.0767331253,42233.8931569793,55618.1041405823,38670.6926516522,22530.2914868069
6119878140,9223,1,0,4374.6033679650,45729.4412679709,-744.6995486545,19729.2511750752,57446.7629607086,50729.6102649971,42235.2924421140,55615.9747936382,38665.9107468008,22529.0260463373
6119908478,9224,1,0,4371.1234066737,45728.0298151395,-749.7491428360,19708.6147612635,57443.2464963267,50737.6044418098,42234.8422373315,55609.8301067427,38662.0657546047,22528.9895432469
6119908478,9224,1,0,4375.5402806204,45735.0019054190,-744.9915733783,19709.7706924617,57451.2771762299,50742.3741789643,42240.9504211366,55616.7656939317,38667.4073735100,22530.5835115307
6119908478,9224,1,0,4388.1581822258,45735.1114146904,-741.4021028155,19724.7369595539,57454.5989574625,50734.4165052421,42238.8454095863,55619.1748979027,38666.2149392213,22532.6276845969
6119908478,9224,1,0,4378.6917140976,45733.0185708369,-750.3453599804,19709.5760093125,57447.6268671830,50740.1231550521,42236.8620750041,55614.9040363178,38664.7426479058,22533.9296281570
6119908478,9224,1,0,4375.9904854029,45739.7229717863,-747.7779759507,19706.6679297718,57452.4452751249,50748.2876796203,42241.7899922174,55620.9027108515,38671.7512412758,22537.1053970278
6119908478,9224,1,0,4400.1311958996,45745.1862676598,-736.6445333577,19736.3692777166,57465.9270832047,50741.4859370963,42246.4867231911,55628.8482168769,38674.3551283959,22539.8431288129
6119908478,9224,1,0,4404.9861069319,45742.8379021730,-737.2650858957,19735.5662097263,57461.9969171309,50741.8874710914,42243.2501158362,55625.1979078300,38670.8995024982,22539.9039672970
6119908478,9224,1,0,4387.0509218149,45742.8013990825,-740.9518980331,19714.6621065845,57458.7116389887,50750.2710142024,42243.4082958949,55624.0784797223,38672.9071724740,22542.0211465442
6119964702,9225,1,0,4383.0599172570,45742.7283929016,-738.3723463066,19723.4836867811,57460.0622533360,50740.5490244409,42242.2280293030,55627.8504657374,38673.9900974912,22541.1085692825
6119964702,9225,1,0,4385.3474442597,45739.4552824562,-742.5580340137,19730.2610939115,57455.9982425972,50736.3024982497,42238.9670865545,55626.4755159964,38670.9238378918,22539.1374023972
6119964702,9225,1,0,4381.1617565526,45739.1024192484,-750.1020060439,19713.6643554450,57452.0802442202,50746.0488234049,42239.9770053908,55622.8617100400,38672.3596261169,22537.7624526562
6119964702,9225,1,0,4390.0441752334,45743.2029330777,-746.1961753637,19723.8973884731,57459.9649117615,50747.7401332633,42245.8174998658,55630.8558868527,38676.2411214034,22538.9670546417
6119964702,9225,1,0,4397.3812964176,45742.0104987890,-745.3201011925,19735.3715265771,57462.3376126419,50740.5246890473,42242.4227124522,55629.9189741973,38674.6593208165,22539.9039672970
6119964702,9225,1,0,4379.2149250609,45739.0172453706,-751.1605956675,19712.3989149754,57452.5061136090,50745.0024014781,42236.1441808916,55623.2510763384,38670.9481732855,22542.3740097521
6119964702,9225,1,0,4371.2572513387,45742.1686788477,-747.0235787477,19705.1591353658,57454.2947650420,50748.2876796203,42239.1861050973,55626.0739820013,38675.5718980782,22544.2965058501
6119964702,9225,1,0,4386.3208600055,45743.0934238063,-740.0758238618,19725.9293938425,57461.8752401627,50738.0424788954,42238.9670865545,55626.7918761138,38672.6881539311,22542.8120468377
6119974273,9226,1,0,4385.0554195360,45737.5814571455,-747.3277711683,19717.8135400616,57455.3776900592,50734.5016791199,42232.2991886955,55615.9382905478,38665.0346726295,22540.1108181430
6119974273,9226,1,0,4374.3721817254,45739.4917855467,-753.8983274527,19704.9401168230,57451.9220641615,50744.3210104560,42234.6840572728,55616.5101722984,38667.6872305369,22539.2225762749
6119974273,9226,1,0,4382.8043956237,45741.9131572145,-747.9604914031,19725.1993320331,57456.3267704114,50738.8212114920,42240.8774149557,55623.7256165145,38669.9869252365,22539.0522285194
6119974273,9226,1,0,4387.4889589005,45738.3601897422,-747.2791003810,19726.8419711042,57451.0094868998,50735.7062811054,42241.6074767651,55620.3551644945,38666.5434670356,22537.9814711990
6119974273,9226,1,0,4376.7327149091,45738.8955684024,-751.5986327531,19707.5683393367,57445.2054955152,50742.3863466612,42240.9504211366,55617.3254079856,38664.6209709375,22538.2491605291
6119974273,9226,1,0,4383.8264821568,45742.3998650874,-743.4462758818,19719.6386945851,57455.4263608465,50740.6828691060,42244.3330408534,55623.6526103335,38668.0644291384,22539.5632717860
6119974273,9226,1,0,4389.2167718494,45739.8446487546,-743.5314497595,19732.4877824301,57463.0433390577,50735.9374673450,42239.8431607258,55622.1316482307,38665.4118712310,22537.2514093896
6119974273,9226,1,0,4374.7858834174,45740.1610088719,-751.6594712372,19711.9852132834,57460.5732966026,50745.5256124415,42239.3077820655,55618.5665130615,38665.3632004437,22537.7746203530
6120003185,9227,1,0,4371.7682946053,45744.2250196108,-752.2678560784,19710.9022882662,57467.1681882806,50746.7545498206,42243.6394821345,55624.5773552921,38667.3952058132,22537.4704279324
6120003185,9227,1,0,4391.9423359377,45747.2304407261,-747.0357464445,19733.7410552029,57476.8536749517,50745.3430969891,42248.5917347415,55631.9023087795,38670.1937760824,22539.4172594241
6120003185,9227,1,0,4396.9310916351,45747.4251238752,-748.0821683713,19727.4625236422,57471.1591928386,50751.3296038260,42247.2654557877,55630.8315514591,38669.5975589381,22540.6340291064
6120003185,9227,1,0,4391.3582864902,45751.2701160713,-744.6508778672,19718.3489187218,57471.0618512640,50758.4842095579,42250.2587092062,55636.9884060515,38677.0076863033,22542.3131712680
6120003185,9227,1,0,4392.5020499916,45746.3543665548,-741.4264382091,19729.8838953100,57471.0861866576,50745.1970846273,42247.0221018513,55638.7162190003,38675.8760904988,22537.8111234435
6120003185,9227,1,0,4383.9846622155,45739.6621333022,-747.9848267967,19721.6220291672,57461.4493707739,50740.4516828663,42238.7480680117,55630.1014896497,38670.3154530507,22536.5943537612
6120003185,9227,1,0,4369.0305628201,45738.5305374977,-756.0276743967,19702.0685403727,57457.0203291303,50744.6982090575,42238.5047140752,55624.9058831063,38668.5754724050,22537.1053970278
6120003185,9227,1,0,4379.2879312419,45740.1488411751,-749.3354411441,19718.5801049615,57464.6251396446,50738.3588390128,42242.7025694791,55628.9455584515,38669.0986833684,22537.0567262405
6120087458,9228,1,0,4392.2951991456,45736.5593706124,-749.4206150218,19729.0686596228,57463.3353637814,50732.3236613886,42239.3564528528,55623.1172316733,38665.7038959548,22535.6696088026
6120087458,9228,1,0,4381.6849675160,45736.6080413997,-754.2755260542,19709.8558663394,57457.9694094825,50743.2867562261,42242.7025694791,55621.5232633895,38667.2491934513,22539.5024333019
6120087458,9228,1,0,4373.8246353684,45736.9122338202,-751.6959743277,19710.2452326378,57459.1740114680,50741.3520924312,42245.5619782325,55625.6237772188,38668.7701555542,22537.4704279324
6120087458,9228,1,0,4380.5290363178,45732.7387138100,-746.1475045764,19728.3994362976,57461.6683893167,50733.3944187090,42241.7899922174,55625.9158019426,38665.7769021357,22534.4406714235
6120087458,9228,1,0,4374.5546971778,45729.2709202154,-749.2259318727,19717.3511675824,57454.0757464991,50738.0059758049,42236.7647334296,55619.2722394773,38662.7471456268,22534.0878082157
6120087458,9228,1,0,4372.6930395638,45733.1280801083,-745.1254180433,19711.4863377137,57454.1974234674,50743.8221348863,42239.5633036988,55620.7688661865,38667.7967398083,22535.5357641376
6120087458,9228,1,0,4385.0675872328,45733.8338065240,-739.0415696319,19726.0510708108,57457.5557077905,50736.8378769099,42238.8940803736,55621.7544496291,38668.9526710065,22535.7061118931
6120087458,9228,1,0,4383.7778113695,45732.1668320593,-740.0271530745,19718.1420678758,57450.9486484157,50739.9406395998,42236.3631994344,55617.6661034966,38665.4970451088,22538.2491605291
6120092186,9229,1,0,4376.2825101266,45737.1799231503,-738.7860479986,19704.5142474341,57452.0194057361,50748.6040397377,42238.6750618308,55619.6129349883,38668.1739384098,22539.5024333019
6120092186,9229,1,0,4394.0108443976,45743.2029330777,-730.1591509511,19726.3795986250,57467.5940576694,50742.8487191404,42244.5885624867,55630.1014896497,38671.8242474567,22540.5731906223
6120092186,9229,1,0,4404.2560451226,45741.0127476496,-734.4300125360,19734.3007692567,57468.3849579629,50739.8189626315,42244.3330408534,55628.1059873707,38667.4317089036,22540.2446628081
6120092186,9229,1,0,4393.0982671359,45741.1465923146,-745.8311444591,19713.5305107800,57464.0532578940,50748.5188658599,42248.5187285605,55625.0518954682,38667.7237336274,22540.9382215270
6120092186,9229,1,0,4389.6548089350,45744.7603982710,-743.1907542485,19719.4196760423,57469.5043860706,50745.2457554146,42255.3934772655,55632.4255197429,38671.9580921218,22540.1108181430
6120092186,9229,1,0,4397.1014393907,45742.3633619969,-739.6621221698,19731.5873728652,57469.8207461880,50737.0812308464,42253.5683227420,55630.4543528575,38668.7336524637,22540.5366875318
6120092186,9229,1,0,4391.2487772188,45739.8933195418,-744.6265424736,19711.5836792883,57462.4106188229,50738.7603730079,42247.9225114162,55622.3628344703,38664.4262877884,22540.6096937128
6120092186,9229,1,0,4391.0540940697,45742.7405605984,-741.6819598424,19710.0505494886,57464.8198227938,50742.7757129595,42250.7940878664,55625.0032246809,38667.2126903608,22541.3762586126
6120107339,9230,1,0,4403.0879462276,45744.3345288822,-737.3624274703,19731.9159006794,57470.5143049069,50736.9352184845,42250.6724108982,55629.1767446911,38666.9815041212,22540.6948675905
6120107339,9230,1,0,4396.4565514590,45743.2637715618,-742.9839034025,19722.9118050304,57464.7346489160,50745.6837925002,42247.8860083257,55627.3394224709,38666.5799701260,22541.5952771554
6120107339,9230,1,0,4384.6295501471,45748.1795210783,-742.7283817692,19712.2163995231,57463.9924194098,50752.3395226623,42249.7598336365,55630.6368683099,38670.7413224395,22542.6782021727
6120107339,9230,1,0,4394.4853845737,45748.5567196798,-736.3890117244,19729.4945290116,57469.5652245548,50739.1375716094,42250.3803861744,55634.0924942076,38668.1496030162,22538.9913900353
6120107339,9230,1,0,4400.8612577090,45742.1686788477,-742.1078292312,19728.6549579309,57463.7612331702,50731.2285686745,42242.9702588093,55627.6192794978,38661.1531773430,22536.1563166756
6120107339,9230,1,0,4388.0243375608,45740.7450583195,-751.0510863961,19709.1866430142,57456.5457889542,50737.0203923622,42245.5741459294,55624.4313429302,38660.8733203161,22538.8332099766
6120107339,9230,1,0,4385.5421274089,45740.8789029845,-747.0357464445,19721.4273460180,57461.0478367787,50735.7671195895,42247.2897911814,55626.2930005441,38663.2703565902,22540.5853583191
6120107339,9230,1,0,4389.2046041526,45735.8658118934,-746.3786908161,19733.7653905965,57460.9261598105,50729.9144574177,42243.4447989853,55621.5719341768,38662.0414192111,22538.6263591306
6120132082,9231,1,0,4379.3609374228,45732.4953598735,-754.8230724112,19715.9883855382,57451.1554992616,50736.1199827974,42240.1595208432,55614.9162040146,38658.7926441593,22536.1076458883
6120132082,9231,1,0,4384.1793453647,45737.8613141724,-751.6473035404,19719.3588375581,57459.6972224314,50738.1884912572,42245.5254751421,55623.1659024606,38663.7935675536,22535.5600995312
6120132082,9231,1,0,4397.0162655129,45737.9099849597,-744.9794056814,19736.2232653547,57467.0100082219,50732.8833754424,42246.0851891959,55628.0694842802,38663.3676981648,22535.5966026217
6120132082,9231,1,0,4387.1969341768,45738.3115189549,-747.4129450460,19719.9915577929,57460.2447687884,50740.0379811743,42245.1726119342,55622.4723437417,38663.5745490108,22537.1175647246
6120132082,9231,1,0,4375.9539823124,45743.3489454396,-745.9163183368,19709.3569907697,57462.3741157324,50743.7247933117,42249.3339642476,55627.0108946566,38665.6308897738,22537.2879124801
6120132082,9231,1,0,4387.6836420497,45745.3201123249,-739.1389112064,19731.2831804446,57471.4025467750,50735.3412502007,42250.5750693236,55631.6346194494,38665.2658588691,22535.4140871694
6120132082,9231,1,0,4390.0076721429,45741.7184740653,-741.0979103949,19731.1371680827,57466.8639958601,50735.0127223865,42245.0631026628,55626.2078266663,38660.2040969908,22532.2991567827
6120132082,9231,1,0,4380.8940672225,45742.4242004810,-744.6873809577,19717.0956459491,57463.6030531115,50744.7103767543,42244.9170903009,55625.5751064315,38663.0148349569,22534.3189944553
6120161593,9232,1,0,4388.7909024606,45744.1520134299,-737.6057814067,19732.5607886110,57469.6747338262,50741.5589432772,42248.6769086192,55631.9631472636,38667.4925473877,22535.8034534677
6120161593,9232,1,0,4393.4998011311,45740.8545675909,-738.7008741208,19737.1845134038,57467.7279023345,50738.1763235604,42245.6228167167,55628.5075213659,38665.6187220770,22534.5258453013
6120161593,9232,1,0,4387.7079774434,45742.3268589064,-741.3290966346,19718.7869558075,57463.1163452386,50747.8861456251,42246.8274187021,55628.7752106960,38668.8309940383,22538.6750299179
6120161593,9232,1,0,4392.5750561725,45747.8144901736,-738.0559861892,19723.2646682383,57469.5530568579,50746.1705003731,42249.6868274555,55635.5161147359,38672.4569676915,22540.5001844414
6120161593,9232,1,0,4403.1974554990,45746.2570249802,-737.4962721353,19735.1768434280,57470.6481495720,50735.5602687435,42246.1581953769,55636.9032321737,38671.0455148600,22537.5799372038
6120161593,9232,1,0,4386.6858909102,45740.8789029845,-747.5711251047,19716.9252981935,57461.8265693754,50740.0988196585,42241.7413214301,55627.9843104025,38666.5191316419,22536.6065214580
6120161593,9232,1,0,4371.7196238180,45740.9032383782,-748.8487332711,19713.0194675134,57462.3011095515,50739.9406395998,42244.4668855185,55628.8238814833,38669.3785403953,22535.8642919518
6120161593,9232,1,0,4380.8210610416,45739.3214377912,-741.5846182678,19736.5274577753,57467.0100082219,50731.6179349729,42242.7634079633,55628.0573165834,38667.0545103021,22534.5258453013
6120202505,9233,1,0,4387.5132942942,45737.0582461821,-741.8401399011,19732.7311363666,57463.3353637814,50735.8157903768,42238.8089064958,55621.1460647880,38663.0391703505,22536.1806520692
6120202505,9233,1,0,4384.1428422742,45741.7671448526,-742.5458663169,19717.3998383696,57463.8950778353,50741.0600677075,42239.6119744861,55620.7445307928,38665.3145296564,22537.2270739960
6120202505,9233,1,0,4389.6183058446,45742.0835049700,-739.6256190794,19727.6328713977,57468.2267779042,50731.8977919998,42239.1130989164,55625.0032246809,38663.0270026537,22534.6475222695
6120202505,9233,1,0,4389.6426412382,45737.2285939376,-739.8689730158,19726.5377786837,57463.1528483291,50730.3646622001,42236.4240379185,55621.7544496291,38660.2284323845,22535.1829009297
6120202505,9233,1,0,4375.8931438283,45738.0803327152,-741.7184629329,19708.4687489016,57458.1762603285,50741.7292910327,42235.3776159917,55622.3141636830,38662.2847731475,22537.3244155706
6120202505,9233,1,0,4382.7435571396,45744.0181687648,-732.7873734649,19719.7117007660,57468.4701318407,50737.4340940542,42240.4028747796,55629.8824711069,38667.6020566592,22536.6673599421
6120202505,9233,1,0,4392.4655469011,45740.8058968036,-731.7044484476,19730.6747956035,57469.9789262467,50728.8680354909,42238.1518508674,55628.8968876642,38663.9152445218,22533.1143924698
6120202505,9233,1,0,4379.7868068116,45739.2727670039,-741.6576244488,19710.8049466916,57462.3011095515,50738.3831744064,42237.1175966374,55624.8328769253,38662.8809902919,22533.0657216825
