steady_timestamp,sequence,battery,flags,EEG-ch1,EEG-ch2,EEG-ch3,EEG-ch4,EEG-ch5,EEG-ch6,EEG-ch7,EEG-ch8,EEG-ch9,EEG-ch10
6131261748,9383,-2,0,4523.6089832588,45654.0258830623,-606.1094818412,19938.9249267281,57493.8276120197,50523.4773131196,42442.9950268816,55677.4825010782,38605.6806475272,22557.4132830252
6131261748,9383,-2,0,4533.5134884727,45653.2958212530,-599.1860623490,19958.6122601876,57499.1205601377,50511.5164671427,42446.0126156937,55683.1648154945,38605.2547781384,22555.3326068685
6131261748,9383,-2,0,4530.7149182034,45645.8005200100,-606.9003821347,19954.0615415759,57490.7856878140,50510.2023558858,42440.9751892090,55677.5555072592,38601.5192952138,22553.2884338023
6131261748,9383,-2,0,4514.2520244020,45644.3890671786,-614.8580558569,19932.7680721357,57484.5558270406,50513.9986772945,42440.9265184217,55674.7204338994,38605.7658214050,22553.7021354942
6131261748,9383,-2,0,4519.9951773024,45649.6090091156,-605.8052894206,19947.4788175947,57492.5986746406,50507.0144193182,42443.3357223926,55680.5122575871,38606.6540632730,22554.0915017926
6131261748,9383,-2,0,4536.4702388006,45652.6509333213,-597.5312555810,19962.3964138996,57497.0277162841,50501.9891605303,42443.8345979624,55678.5654260955,38600.8987426758,22555.8436501351
6131261748,9383,-2,0,4530.5810735383,45655.1939819573,-603.1405638164,19944.2178748461,57492.8663639707,50511.9910073188,42443.3965608768,55675.6695142516,38600.2538547442,22558.9707482186
6131261748,9383,-2,0,4527.0037706724,45659.4040050581,-600.1959811853,19944.7775889000,57497.8064488808,50518.0870234271,42449.2492230486,55682.0210519932,38605.9118337668,22557.2429352697
6131307806,9384,-2,0,4535.2778045120,45659.4405081486,-592.4816613995,19960.2062284715,57500.7266961183,50514.3637081992,42452.9847059732,55685.8660441892,38607.8586652585,22554.7850605115
6131307806,9384,-2,0,4528.7924221054,45657.0069687840,-597.4095786128,19948.7442580642,57494.9713755211,50520.9707675741,42453.1428860319,55679.2833202080,38605.1087657765,22554.8945697829
6131307806,9384,-2,0,4528.5977389562,45664.2224130000,-596.6308460161,19947.1137866900,57502.1868197371,50526.4340634476,42459.3849145021,55685.7565349178,38609.5256397233,22558.7273942821
6131307806,9384,-2,0,4543.6370122294,45666.5342753963,-593.6010895072,19968.2125729809,57511.9939833764,50515.9576764830,42459.0928897783,55690.2220796518,38610.0488506866,22558.9585805218
6131307806,9384,-2,0,4541.4103237108,45661.7888736354,-600.5731797868,19962.4450846869,57507.3580908868,50519.4863085617,42454.3474880174,55684.1260635435,38606.6297278794,22558.2771894997
6131307806,9384,-2,0,4526.8577583105,45665.2323318363,-600.2689873662,19945.9091847045,57505.7032841189,50537.7621891898,42454.2623141396,55684.7101129910,38611.6793220609,22561.3921198863
6131307806,9384,-2,0,4535.9226924436,45671.0119878272,-592.0801274044,19962.0557183885,57516.5203665945,50534.0510416587,42458.6548526927,55692.9963145275,38617.9578536215,22560.7715673484
6131307806,9384,-2,0,4547.2508181858,45666.9479770883,-592.6885122455,19965.5478473767,57516.3621865358,50517.4543031923,42454.1041340809,55690.8913029771,38610.8154155865,22559.3844499106
6131335381,9385,-2,0,4538.2467225368,45665.9380582520,-598.8210314443,19941.9546832370,57509.6334501927,50514.3637081992,42452.3276503448,55685.5253486782,38605.2426104416,22558.3988664679
6131335381,9385,-2,0,4539.6216722778,45664.5874439047,-598.5411744173,19948.0993701326,57511.3125923543,50504.3740291076,42453.4592461493,55686.8029568446,38602.2858601136,22557.3281091475
6131335381,9385,-2,0,4545.3648251782,45658.6131047646,-603.7124455671,19960.5955947698,57510.4243504862,50497.8034728232,42450.0036202516,55682.6051014407,38597.2240982353,22555.1379237194
6131335381,9385,-2,0,4533.0997867807,45654.2692369988,-614.3226771967,19942.0398571148,57500.3373298200,50507.5741333720,42445.9031064223,55674.0025397869,38593.1844228900,22553.8481478561
6131335381,9385,-2,0,4532.7590912696,45657.2624904172,-613.4831061159,19942.0398571148,57504.0728127446,50513.4024601502,42451.0257067847,55678.1517244035,38599.0005819714,22554.5173711814
6131335381,9385,-2,0,4549.0638050124,45656.2160684905,-605.6227739683,19966.4360892448,57511.3490954447,50503.9481597188,42453.1063829415,55681.2301516997,38599.7671468713,22552.6678812643
6131335381,9385,-2,0,4544.1480554959,45651.2881512772,-612.3880134018,19957.3224843244,57503.2210739670,50498.7768885690,42448.9206952344,55673.2603102807,38592.2353425378,22548.2266719239
6131335381,9385,-2,0,4525.2029515426,45652.3589085976,-620.7593888160,19942.1737017799,57497.1858963428,50507.4402887070,42447.9716148822,55673.0534594347,38589.1569152416,22546.7787160020
6131352220,9386,-2,0,4531.2016260763,45656.4472547301,-615.9409808741,19962.0922214790,57507.6379479137,50503.6926380855,42451.2447253276,55681.0841393378,38590.6413742540,22547.8251379288
6131352220,9386,-2,0,4536.6770896466,45653.0281319229,-612.1446594654,19965.2679903498,57510.5095243640,50501.2956018114,42448.1054595472,55679.9647112301,38588.6458719751,22544.6615367548
6131352220,9386,-2,0,4526.0060195329,45652.6144302309,-613.9819816857,19942.1737017799,57506.8227122266,50520.9220967868,42446.8886898649,55679.6848542032,38595.7518069197,22547.0464053321
6131352220,9386,-2,0,4534.6815873677,45658.5522662805,-609.4921015580,19950.8249342210,57516.7758882278,50520.9099290900,42453.0090413669,55690.1369057741,38607.6518144125,22551.0374098900
6131352220,9386,-2,0,4543.9777077404,45656.1673977032,-607.7764563060,19962.1773953568,57514.9020629170,50505.0919232201,42453.0333767605,55692.2540850213,38606.2890323683,22549.5894539681
6131352220,9386,-2,0,4534.4625688249,45654.3057400893,-610.1734925801,19944.3152164207,57505.0827315809,50506.7588976849,42450.9161975133,55687.1923231429,38602.2371893263,22550.9765714059
6131352220,9386,-2,0,4534.6694196708,45655.8267021921,-611.2320822037,19944.8384273841,57508.3558420263,50505.4204510344,42452.2303087702,55690.2220796518,38602.4805432628,22552.3880242374
6131352220,9386,-2,0,4548.3337432030,45652.2493993262,-615.4421053044,19963.7348605501,57511.0814061146,50497.0977464075,42448.6408382074,55689.8813841408,38598.7207249445,22552.1933410882
6131381212,9387,-2,0,4542.5905903026,45647.1511343574,-626.2348523864,19952.7109272285,57503.3427509352,50508.5353814210,42446.5236589603,55681.0841393378,38596.4210302449,22553.9576571275
6131381212,9387,-2,0,4529.9483533035,45650.3512386218,-623.4606175107,19943.0132728606,57501.3959194436,50512.4290444044,42450.4659927309,55683.7366972452,38601.4341213360,22555.2839360812
6131381212,9387,-2,0,4535.6793385072,45651.3854928518,-615.5881176663,19962.0192152981,57507.6622833074,50503.6439672982,42452.5223334940,55687.5695217444,38603.2957789499,22551.0495775868
6131381212,9387,-2,0,4543.0164596914,45653.1741442847,-612.6313673383,19966.1197291274,57508.1003203930,50508.1095120322,42452.7900228241,55686.5352675145,38603.4539590086,22545.8418033466
6131381212,9387,-2,0,4539.8163554270,45657.9073783489,-612.1689948590,19955.8501930088,57511.0814061146,50525.2902999462,42455.3330714601,55690.5627751629,38610.3773785009,22544.9048906913
6131381212,9387,-2,0,4543.2111428406,45666.4491015186,-600.8530368137,19970.3175845313,57525.2202698229,50530.7535958197,42463.0960620331,55701.5988761813,38618.0795305898,22549.3095969412
6131381212,9387,-2,0,4542.0308762487,45665.5365242568,-599.1130561680,19974.9413093240,57527.7268153684,50518.5128928159,42460.6990257590,55702.4506149589,38615.1106125650,22553.3249368927
6131381212,9387,-2,0,4526.8334229169,45662.6771155035,-607.4844315822,19949.4743198736,57522.5068734314,50518.0140172461,42458.4601695436,55699.8953986261,38609.8663352343,22555.4056130495
6131420380,9388,-2,0,4533.2579668394,45664.0277298508,-601.8264525595,19951.5914991208,57527.2279397987,50519.9243456473,42461.3074106001,55705.4073652869,38610.9370925547,22554.8580666924
6131420380,9388,-2,0,4558.4329315661,45663.1638233764,-590.0481220349,19973.1039871038,57532.8250803372,50516.6147321115,42460.8085350304,55708.1085939816,38610.6085647405,22553.6169616165
6131420380,9388,-2,0,4558.3477576883,45661.2169918847,-589.0260355018,19960.4495824079,57527.4834614320,50531.7635146560,42457.5354245850,55701.9395716923,38611.6306512736,22553.0329121690
6131420380,9388,-2,0,4549.1003081029,45666.4369338217,-587.2252163720,19955.9597022802,57530.0751808552,50537.3971582851,42462.8527080966,55705.9670793407,38619.4423126339,22553.3249368927
6131420380,9388,-2,0,4552.0083876435,45664.6604500856,-590.2306374873,19975.4280171970,57532.8129126404,50517.2352846494,42463.3150805759,55706.3199425486,38616.7410839393,22552.3393534501
6131420380,9388,-2,0,4550.6942763867,45661.7523705449,-596.1076350528,19973.4568503116,57525.7434807863,50513.9743419009,42460.7476965463,55699.5547031150,38611.4238004276,22552.0594964231
6131420380,9388,-2,0,4545.0971358481,45667.3495110835,-593.4915802358,19963.3576619486,57524.4172018326,50524.8644305574,42462.4390064047,55700.0657463816,38614.8185878412,22554.0793340958
6131420380,9388,-2,0,4555.4031750571,45672.6546268983,-581.0926971732,19983.0328277113,57532.9710926991,50528.4295657266,42467.1357373783,55709.6173883876,38619.1867910007,22553.9941602180
6131447935,9389,-2,0,4559.6862043388,45670.0264043845,-573.7069052017,19991.2946938541,57532.9710926991,50533.9537000842,42467.1844081656,55709.2158543924,38620.1480390497,22553.7508062815
6131447935,9389,-2,0,4542.7487703613,45669.3815164529,-579.2918780434,19969.5145165410,57526.8142381067,50544.4544224424,42466.7950418673,55705.8088992820,38622.7275907761,22554.8337312988
6131447935,9389,-2,0,4544.8902850021,45674.3337690598,-581.1170325669,19976.6204514856,57533.2874528165,50537.9568723389,42471.3457604791,55710.2987794097,38627.8380234418,22557.6931400522
6131447935,9389,-2,0,4556.2184107443,45671.8515589080,-581.4820634716,19987.8025648659,57536.6335694428,50518.9022591142,42465.7364522437,55707.4758737468,38620.6225792258,22558.4840403457
6131447935,9389,-2,0,4546.6789364351,45669.2355040910,-582.5893238825,19968.6871131570,57527.1427659209,50523.8666794180,42459.8594546782,55700.4794480736,38613.2124518606,22560.4795426246
6131447935,9389,-2,0,4540.1813863316,45670.6226215288,-575.4712212410,19966.9106294209,57529.4424606205,50528.1253733060,42461.0275535732,55705.4195329837,38613.4801411907,22559.5669653629
6131447935,9389,-2,0,4546.5329240732,45667.3860141739,-575.4712212410,19983.3248524350,57530.4280440631,50520.4110535202,42458.4723372404,55706.9526627834,38611.8983406037,22554.5660419687
6131447935,9389,-2,0,4547.0317996430,45664.6361146920,-584.2197952567,19974.7709615685,57523.8818231724,50523.0636114276,42459.5065914703,55699.4208584500,38608.5765593711,22554.2861849417
6131477128,9390,-2,0,4545.5108375401,45670.1967521400,-586.9696947387,19965.7790336164,57527.8119892462,50531.7878500497,42463.5584345124,55701.4163607289,38612.7257439877,22556.4885380667
6131477128,9390,-2,0,4560.9394771116,45674.4797814217,-579.3892196180,19983.7872249143,57536.1711969635,50532.0433716830,42467.7562899163,55708.0720908911,38618.8704308833,22559.5182945756
6131477128,9390,-2,0,4560.4406015418,45671.1336647954,-577.0773572217,19978.6767922487,57533.8471668704,50530.1817140691,42464.7873718915,55703.6795523380,38618.1768721644,22560.8567412261
6131477128,9390,-2,0,4541.4224914076,45671.4865280033,-579.5839027672,19955.5460005883,57526.8994119845,50537.9568723389,42462.3051617396,55700.9904913401,38619.1867910007,22562.9130819892
6131477128,9390,-2,0,4547.3968305476,45675.2098432311,-566.2846101397,19967.4946788684,57534.2121977750,50538.9546234784,42461.7211122921,55707.1960167198,38619.0772817293,22564.0446777938
6131477128,9390,-2,0,4559.2359995564,45670.3549321987,-562.3301086723,19979.6380402977,57535.5384767287,50528.3930626361,42457.6692692501,55703.2536829492,38614.3197122715,22561.7693184879
6131477128,9390,-2,0,4545.3283220877,45665.3540088045,-579.4987288894,19957.3468197181,57526.4370395052,50523.1244499118,42454.4813326825,55696.2207541855,38608.9172548821,22562.3046971481
6131477128,9390,-2,0,4541.6901807377,45668.9678147609,-585.4000618486,19957.7605214100,57530.1846901267,50523.8910148116,42459.9202931623,55702.5601242303,38611.4116327308,22561.8788277593
6131510392,9391,-2,0,4552.8722941180,45668.8583054895,-580.8736786304,19976.9854823903,57535.4776382446,50524.2438780195,42462.4755094951,55706.9891658738,38612.7622470781,22561.8544923656
6131510392,9391,-2,0,4547.5063398191,45665.4513503791,-586.1422913548,19964.4770900563,57528.5055479651,50527.8698516727,42458.3871633626,55700.6376281323,38607.9681745299,22559.9684993581
6131510392,9391,-2,0,4549.9033760932,45672.7641361697,-577.9290959993,19963.1143080121,57533.1657758483,50537.8108599770,42463.6192729965,55704.3731110569,38613.6748243399,22562.1586847862
6131510392,9391,-2,0,4571.1116716556,45678.5194567669,-558.0105763001,19991.7935694238,57545.1509572189,50538.9059526911,42469.1799104446,55713.5110513709,38620.1845421401,22563.3511190748
6131510392,9391,-2,0,4572.8151492108,45676.1954266737,-557.0249928575,19989.9927502940,57541.7561698053,50536.4480779329,42470.1654938872,55712.5376356251,38621.9123550890,22564.9329196618
6131510392,9391,-2,0,4552.0448907340,45673.9200673678,-571.8817506783,19967.7745358953,57533.2387820292,50538.8086111165,42471.1024065426,55711.5398844856,38623.4941556760,22567.7436576279
6131510392,9391,-2,0,4551.8745429785,45673.4698625854,-575.1305257300,19976.8881408157,57534.8570857067,50530.6197511547,42472.9518964597,55716.7963295131,38624.0903728203,22568.2060301072
6131510392,9391,-2,0,4559.8808874880,45668.2620883452,-576.3107923218,19981.1711700974,57532.7155710658,50528.5269073011,42466.1988247229,55710.5786364366,38619.1381202134,22564.6165595444
6131541427,9392,-2,0,4553.8700452574,45669.1138271228,-571.8452475878,19960.2548992587,57526.9845858622,50547.7762036750,42464.7387011042,55708.0112524070,38624.2850559695,22563.7891561605
6131541427,9392,-2,0,4554.9164671842,45671.3648510350,-567.6838952744,19966.3387476702,57528.7854049920,50542.1790631365,42468.4255132415,55711.3086982460,38628.4585759797,22563.3876221653
6131541427,9392,-2,0,4562.2170852780,45668.0674051960,-570.6406456023,19985.1378392617,57526.1936855687,50529.5246584406,42469.3624258969,55708.8751588814,38623.6523357347,22564.8720811777
6131541427,9392,-2,0,4552.9818033894,45666.2544183694,-579.7664182195,19970.3784230154,57519.5744584970,50530.5224095801,42467.1844081656,55701.9517393892,38621.7785104240,22566.0158446791
6131541427,9392,-2,0,4551.4365058929,45669.2476717878,-578.9998533197,19966.8619586336,57523.9791647470,50539.1979774149,42470.5061893983,55706.0644209153,38625.5018256518,22565.6994845617
6131541427,9392,-2,0,4569.0674985893,45670.9511493431,-570.0444284580,19989.5303778147,57534.0540177163,50529.5854969247,42472.3313439217,55711.9900892681,38625.1002916566,22565.0545966301
6131541427,9392,-2,0,4567.9602381784,45668.0674051960,-573.5000543557,19981.6700456671,57528.8705788698,50530.4372357023,42469.8856368603,55706.3321102454,38622.2165475096,22568.0356823517
6131541427,9392,-2,0,4552.0570584308,45669.4301872402,-576.9435125566,19967.2756603256,57523.4559537836,50538.0907170040,42473.1100765184,55706.9404950866,38624.7230930551,22569.4593028800
6131578279,9393,-2,0,4549.7938668218,45666.6437846677,-575.9214260235,19983.8602310953,57528.2256909382,50527.8820193695,42475.1420818878,55709.5078791162,38624.5527452996,22566.0401800727
6131578279,9393,-2,0,4553.6388590178,45659.2336573026,-579.1945364689,19984.2739327872,57525.3784498816,50525.9595232715,42469.3259228064,55702.9859936191,38620.5860761353,22563.5092991335
6131578279,9393,-2,0,4556.3765908030,45662.6649478066,-583.5384042347,19967.0688094796,57523.7601462041,50536.0708793314,42473.1587473057,55702.3532733843,38621.6446657589,22566.6972357012
6131578279,9393,-2,0,4570.3694421494,45671.4500249128,-575.4712212410,19979.5528664199,57532.7885772468,50535.1461343728,42480.5202038835,55710.6273072239,38625.7573472851,22568.8265826452
6131578279,9393,-2,0,4576.7088121941,45669.3936841497,-570.0200930644,19990.1752657464,57532.6669002785,50530.1330432818,42477.4661119810,55708.9846681528,38624.3337267568,22566.6729003075
6131578279,9393,-2,0,4557.7880436344,45664.1372391222,-580.1801199115,19968.0787283159,57523.1760967566,50531.6296699910,42471.4431020536,55701.4406961226,38619.9898589910,22567.7436576279
6131578279,9393,-2,0,4549.6356867631,45665.0376486871,-581.5185665620,19968.4680946142,57524.8552389182,50528.9162735995,42473.7184613595,55704.5434588124,38620.6834177099,22568.7535764642
6131578279,9393,-2,0,4567.6682134547,45662.7622893812,-577.8074190310,19991.7083955461,57529.9900069775,50523.6354931783,42473.3655981517,55706.0035824312,38615.6946620125,22566.8919188503
6131606802,9394,-2,0,4570.9413239000,45660.2435761389,-582.2729637651,19982.8381445621,57522.7015565805,50532.8829427638,42472.1123253789,55697.7538839852,38612.6162347163,22566.4903848552
6131606802,9394,-2,0,4562.2292529748,45662.4946000511,-581.0440263859,19970.9016339788,57519.0877506241,50529.9018570421,42472.9518964597,55696.5371143029,38616.8992639980,22566.4782171583
6131606802,9394,-2,0,4568.0210766625,45660.2192407452,-580.0097721560,19987.4740370517,57520.1828433382,50510.2145235826,42470.5913632760,55696.9508159949,38614.9159294158,22562.7183988400
6131606802,9394,-2,0,4562.4604392144,45649.7915245680,-595.5479209989,19982.7164675939,57508.9277237770,50500.1640060069,42460.5651810939,55685.6348579496,38603.8676607006,22557.3402768443
6131606802,9394,-2,0,4548.1268923570,45647.6135068366,-604.8197059780,19964.3067423008,57501.2377393849,50512.0275104092,42457.8882877929,55681.3883317584,38600.6310533457,22557.1212583015
6131606802,9394,-2,0,4556.6442801331,45650.7892757074,-591.3013948077,19975.8782219794,57511.1544122956,50515.5196393974,42460.7720319399,55687.7885402872,38605.1574365638,22558.9464128249
6131606802,9394,-2,0,4560.7447939624,45648.4774133111,-584.2319629536,19982.1567535400,57509.9619780069,50509.6791449224,42458.7765296610,55686.7664537541,38603.7581514292,22560.7472319547
6131606802,9394,-2,0,4541.6293422536,45645.6058368609,-595.3532378497,19958.9772910923,57499.8627896439,50514.0960188691,42455.1383883109,55680.3419098316,38601.7748168470,22562.9617527765
6131644122,9395,-2,0,4539.8650262142,45650.3755740155,-590.7538484507,19962.4694200805,57507.4797678550,50512.9157522773,42457.6327661596,55686.9124661160,38604.8775795369,22561.2582752213
6131644122,9395,-2,0,4557.7272051503,45646.5549172131,-591.1432147490,19980.8913130705,57510.8015490877,50500.6993846671,42453.8486124477,55683.8097034261,38598.7207249445,22554.6025450591
6131644122,9395,-2,0,4551.4365058929,45638.7554235495,-608.2753318757,19962.1652276599,57503.0628939083,50501.0035770876,42447.6552547648,55672.6275900459,38590.8238897064,22548.5186966477
6131644122,9395,-2,0,4537.2733067910,45638.1470387084,-611.4997715338,19951.7010083922,57500.8362053897,50501.6849681097,42450.3078126722,55674.6474277185,38592.6855473203,22547.2410884813
6131644122,9395,-2,0,4538.7455981065,45636.1758718231,-606.1946557190,19967.2269895383,57503.0142231210,50486.8890487730,42448.6773412979,55677.2878179290,38590.0086540192,22545.0874061436
6131644122,9395,-2,0,4529.9848563940,45627.7558256216,-613.3127583604,19957.1886396594,57491.9537867090,50485.1003973401,42441.8755987739,55667.8213498008,38582.8053775001,22541.7169541237
6131644122,9395,-2,0,4517.4521286664,45626.6120621203,-613.3005906636,19938.4503865520,57486.4783231386,50497.6209573709,42441.0603630867,55665.9718598837,38582.7080359255,22539.3564209400
6131644122,9395,-2,0,4525.9573487456,45628.5102228246,-605.6957801492,19955.2783112582,57491.8564451344,50500.2248444910,42446.2072988428,55672.4207391999,38589.7287969923,22539.2590793654
6131675432,9396,-2,0,4532.4548988491,45627.4759685947,-606.4015065650,19962.6397678360,57490.9560355695,50500.2491798846,42445.7084232731,55670.7050939478,38591.3349329730,22542.3618420553
6131675432,9396,-2,0,4519.7274879723,45630.5300604972,-609.1879091374,19947.0286128122,57485.9794475689,50503.2546009999,42447.1320438014,55668.9651133022,38592.7585535012,22548.5065289509
6131675432,9396,-2,0,4521.4431332243,45637.1857906594,-603.3717500560,19961.2283150046,57495.4824187876,50497.5114480995,42452.2059733766,55677.4581656846,38595.8248131006,22556.0261655874
6131675432,9396,-2,0,4536.5554126784,45640.1790440778,-598.5655098110,19979.9544004151,57502.9655523337,50491.6952890181,42453.3619045747,55680.0742205015,38591.8946470268,22557.7053077490
6131675432,9396,-2,0,4534.1462087075,45642.2232171441,-601.1815646279,19964.9881333229,57503.0507262115,50509.2654432304,42454.4083265015,55680.8894561886,38593.5372860979,22560.0901763263
6131675432,9396,-2,0,4531.5909923746,45648.6599287634,-598.0544665444,19961.5203397283,57510.6068659385,50521.5061462343,42461.1005597541,55691.4631847278,38601.4097859423,22561.1731013435
6131675432,9396,-2,0,4542.3594040629,45649.7185183870,-593.6984310818,19979.9787358087,57519.8421478271,50511.3704547808,42464.3128317154,55697.7417162884,38605.2061073511,22559.2871083360
6131675432,9396,-2,0,4537.6626730893,45647.8203576826,-594.9517038546,19974.2842536956,57514.3666842568,50520.2042026742,42464.2641609281,55693.8845563955,38604.2083562116,22556.9144074555
6131697875,9397,-2,0,4533.1119544775,45653.3688274339,-589.2693894383,19967.7623681985,57516.7272174405,50527.0059451983,42470.4210155205,55696.7439651489,38609.6473166915,22556.9144074555
6131697875,9397,-2,0,4549.5748482790,45655.7293606176,-577.0043510407,19990.3091104114,57525.2324375197,50517.2961231336,42473.0614057311,55700.7106343132,38609.6351489947,22554.3956942132
6131697875,9397,-2,0,4558.9439748326,45654.9749634145,-572.3684585512,19993.0590098934,57522.6650534901,50515.7021548498,42469.3867612906,55697.5957039265,38608.0655161045,22556.3181903112
6131697875,9397,-2,0,4547.0317996430,45656.5202609110,-582.5893238825,19971.5951926977,57515.7294663010,50524.4872319559,42469.5206059556,55696.8048036330,38610.8154155865,22561.0757597690
6131697875,9397,-2,0,4548.1633954475,45660.3652531071,-585.5460742104,19979.6745433882,57524.8795743118,50522.6499097357,42470.9077233934,55702.4384472621,38611.8009990291,22562.1708524830
6131697875,9397,-2,0,4555.7803736587,45659.4770112390,-586.6168315309,19987.9242418341,57529.8683300093,50516.1645273290,42466.6611972022,55702.9008197413,38607.1529388428,22560.8080704388
6131697875,9397,-2,0,4547.0317996430,45660.5964393467,-591.8367734679,19969.1129825458,57528.3717033000,50528.3443918488,42464.1789870503,55700.4551126799,38606.3377031556,22561.2582752213
6131697875,9397,-2,0,4544.4279125228,45665.1836610490,-586.4951545626,19972.0575651770,57532.1436893151,50531.7878500497,42467.5372713735,55705.7723961916,38611.7158251514,22561.5868030355
6131755837,9398,-2,0,4558.2382484169,45669.2598394847,-576.1526122631,19994.3974565439,57537.4609728268,50530.0965401913,42471.6499528996,55712.1604370236,38616.4368915187,22562.7427342337
6131755837,9398,-2,0,4553.0304741767,45665.9745613425,-576.7975001947,19981.4510271243,57529.5519698919,50537.4579967692,42470.8833879998,55705.7602284947,38618.2985491326,22562.2316909671
6131755837,9398,-2,0,4547.4576690318,45669.6735411766,-568.5964725361,19973.4081795243,57532.1680247088,50538.2002262754,42474.3998523816,55708.7899850036,38624.7839315392,22564.9085842682
6131755837,9398,-2,0,4556.7659571013,45665.2566672299,-566.6253056508,19990.9418306462,57537.0837742253,50525.8013432128,42473.4021012421,55710.1892701383,38622.8492677444,22563.8013238573
6131755837,9398,-2,0,4554.6366101573,45655.7658637080,-577.6979097596,19984.3712743618,57531.8273291978,50521.1897861169,42469.1677427477,55701.9274039955,38615.8650097680,22563.2781128939
6131755837,9398,-2,0,4539.3661506445,45652.6631010182,-588.2229675115,19963.0413018312,57527.4956291288,50524.3777226845,42471.1145742394,55700.2725972276,38614.3805507556,22565.9915092854
6131755837,9398,-2,0,4545.5595083274,45656.4472547301,-582.5163177015,19977.0219854808,57534.2608685623,50521.9563510167,42477.0767456827,55708.2667740403,38617.2034564185,22567.9505084739
6131755837,9398,-2,0,4556.6686155267,45656.0700561286,-576.9070094661,19984.9918268998,57534.8084149194,50523.1609530022,42474.7770509831,55705.6020484360,38614.5508985111,22566.8554157598
6131785955,9399,-2,0,4553.4563435655,45661.1926564911,-578.8781763515,19969.1616533331,57534.7232410416,50534.8784450427,42475.4584420052,55706.6484703628,38616.5585684869,22568.0356823517
6131785955,9399,-2,0,4554.4297593113,45666.9844801788,-574.3152900429,19978.3360967376,57542.6322439765,50534.0875447492,42477.6851305238,55714.3506224517,38620.7199208004,22567.2082789677
6131785955,9399,-2,0,4559.9295582753,45667.6293681104,-569.0466773185,19993.9229163678,57547.3533103438,50525.6309954573,42476.4196900542,55716.2609508529,38617.5076488391,22567.4394652073
6131785955,9399,-2,0,4546.7154395256,45664.4657669364,-576.3959661996,19975.6348680429,57536.2563708413,50530.7292604261,42474.2781754134,55709.7634007495,38615.2931280173,22568.4372163468
6131785955,9399,-2,0,4541.0087897156,45666.0597352202,-580.4721446353,19969.6483612061,57535.7453275747,50528.0036963377,42475.2029203719,55708.8143203973,38615.7798358902,22569.0699365816
6131785955,9399,-2,0,4556.0967337760,45661.1196503101,-578.4401392658,19988.8854898831,57539.1157795947,50510.1780204921,42471.0537357553,55705.5412099519,38610.1583599580,22568.8144149483
6131785955,9399,-2,0,4555.9628891110,45654.6342679035,-578.1237791484,19980.5871206499,57531.1459381757,50518.0261849429,42462.9013788839,55694.9066429287,38602.9550834389,22568.4980548309
6131785955,9399,-2,0,4541.9091992805,45653.3566597371,-581.1900387478,19963.3089911613,57520.0489986731,50521.1897861169,42460.8937089081,55693.0693207084,38603.5999713705,22569.2402843371
6131790760,9400,-2,0,4540.6072557204,45651.5436729105,-578.4644746595,19977.0463208744,57520.0368309763,50510.3362005508,42460.9545473923,55695.3081769238,38602.8820772579,22568.6805702833
6131790760,9400,-2,0,4538.3805672018,45644.4377379659,-584.8160124011,19976.2067497936,57509.8646364323,50499.4704472880,42454.2258110492,55685.5983548591,38593.6589630661,22567.4881359946
6131790760,9400,-2,0,4527.1254476406,45642.9289435598,-591.9827858298,19957.4198258990,57502.0164719815,50508.1825182132,42453.4105753620,55677.5920103496,38590.0816602002,22568.4128809532
6131790760,9400,-2,0,4534.2313825852,45645.4354891053,-586.6533346213,19968.2490760714,57509.0615684420,50508.4502075433,42454.9923759490,55683.1648154945,38591.8703116332,22568.3398747722
6131790760,9400,-2,0,4547.5550106063,45644.2308871199,-581.1170325669,19977.8858919552,57514.1111626235,50508.8639092353,42455.5885930933,55684.7831191720,38593.0019074377,22568.7292410706
6131790760,9400,-2,0,4537.9303624194,45645.5571660736,-583.5140688410,19954.6942618107,57511.5072755034,50524.9617721320,42457.1825613771,55685.6591933432,38597.3092721130,22571.7589975795
6131790760,9400,-2,0,4534.8032643359,45656.2525715809,-574.7411594317,19955.2904789550,57521.7646439252,50535.2191405538,42463.1569005172,55697.6322070170,38609.9028383248,22575.2267911740
6131790760,9400,-2,0,4550.3292454820,45658.9416325788,-565.8222376604,19979.2365063025,57533.8715022640,50523.1852883959,42465.4687629136,55704.0202478490,38612.1903653275,22575.2267911740
6131823285,9401,-2,0,4543.3206521120,45652.3224055071,-575.8605875394,19965.0246364133,57524.4902080135,50513.8648326295,42460.5895164876,55695.2595061365,38605.3034489257,22574.4480585774
6131823285,9401,-2,0,4530.3498872987,45648.6477610666,-586.1422913548,19947.9411900739,57513.8069702030,50514.9234222531,42457.6571015532,55689.9178872313,38601.5192952138,22571.4913082494
6131823285,9401,-2,0,4535.9470278373,45646.3480663671,-579.7420828259,19964.3919161785,57514.9872367948,50509.4479586828,42457.6084307659,55691.5361909087,38600.2051839569,22570.4813894131
6131823285,9401,-2,0,4539.9136970015,45643.4156514327,-580.8006724495,19965.0489718070,57509.7429594641,50506.3208605993,42457.3285737390,55685.3184978322,38595.9464900688,22572.2700408461
6131823285,9401,-2,0,4531.8221786143,45644.6567565087,-585.4122295454,19951.4333190621,57507.4189293709,50520.2407057647,42460.6260195780,55684.5397652355,38598.6355510667,22573.7544998585
6131823285,9401,-2,0,4542.5662549089,45647.7351838049,-575.6659043902,19970.6947831328,57516.3743542326,50515.8238318180,42467.7927930068,55692.8503021656,38604.6342256004,22574.7765863916
6131823285,9401,-2,0,4544.5860925815,45640.5562426793,-578.6469901118,19973.2865025561,57510.7893813909,50507.3794502229,42462.2686586491,55688.1779065856,38602.2250216295,22573.0487734427
6131823285,9401,-2,0,4523.9375110730,45636.6869150897,-588.8435200495,19948.0750347390,57499.3760817710,50513.5606402089,42459.6769392259,55684.2477405118,38600.2781901378,22572.8054195063
6131859406,9402,-2,0,4520.1290219674,45641.4931553347,-588.6001661130,19951.7983499668,57505.2774147301,50515.7143225466,42462.3660002237,55690.6966198279,38603.9771699720,22571.3452958875
6131859406,9402,-2,0,4536.6405865562,45643.4521545232,-582.2607960682,19973.0796517101,57512.7727159730,50509.5209648637,42461.6237707175,55694.6024505081,38601.4827921233,22568.2060301072
6131859406,9402,-2,0,4539.0984613144,45643.8293531247,-583.9277705330,19964.9759656260,57511.8844741049,50519.1942838379,42460.9180443018,55691.4996878182,38600.2538547442,22565.5656398966
6131859406,9402,-2,0,4537.7113438766,45650.1322200790,-579.3405488307,19962.3112400218,57518.1021671815,50533.6130045731,42467.8657991877,55699.3600199659,38608.3697085251,22568.4493840437
6131859406,9402,-2,0,4546.6424333446,45651.0204619471,-572.2467815830,19982.0350765718,57525.7556484831,50523.4773131196,42470.5061893983,55705.4560360742,38611.4724712149,22570.5787309877
6131859406,9402,-2,0,4544.0020431340,45646.1777186115,-577.7344128501,19974.7952969622,57519.2580983797,50513.5728079057,42468.7783764494,55698.8976474866,38605.6928152240,22571.8320037604
6131859406,9402,-2,0,4534.2800533725,45647.9298669541,-578.0872760580,19957.6753475323,57515.7903047851,50522.4795619801,42471.9541453202,55699.4330261468,38604.4760455417,22574.5819032424
6131859406,9402,-2,0,4540.3273986935,45649.5846737220,-571.4802166831,19971.1814910057,57525.0985928547,50515.9455087862,42477.1497518636,55706.9161596929,38604.5733871163,22572.5620655698
6131902402,9403,-2,0,4542.8339442390,45643.7928500342,-575.0088487618,19976.7907992411,57523.7358108105,50512.8670814900,42473.9374799023,55705.2491852282,38600.3633640156,22569.3376259117
6131902402,9403,-2,0,4527.4661431517,45642.9654466503,-583.1490379363,19958.3445708575,57516.4473604135,50521.5913201121,42474.2295046261,55704.3001048760,38601.7748168470,22570.6760725623
6131902402,9403,-2,0,4526.9307644915,45645.5936691640,-579.8029213100,19966.1805676115,57522.0566686489,50517.9045079747,42476.8942302303,55709.7755684463,38605.7171506177,22571.4183020685
6131902402,9403,-2,0,4539.7920200333,45642.9532789535,-572.9646756955,19983.2640139509,57525.7191453926,50511.1514362380,42477.3931058001,55711.6615614539,38604.0380084561,22568.4615517405
6131902402,9403,-2,0,4534.4260657344,45640.7874289190,-577.3085434613,19970.8407954947,57520.0976694604,50523.0271083372,42477.0280748954,55708.4127864021,38603.7094806419,22566.0888508600
6131902402,9403,-2,0,4536.6527542530,45646.6522587876,-572.9768433923,19972.8362977737,57527.1914367082,50527.2371314379,42484.9005747398,55714.9468395961,38610.6450678310,22568.5588933151
6131902402,9403,-2,0,4550.2805746947,45646.2507247925,-568.9980065312,19991.5623831842,57532.9224219118,50513.8283295390,42485.8983258793,55719.6314028729,38608.1871930727,22567.2569497550
6131902402,9403,-2,0,4545.1579743322,45641.7243415744,-576.0187675981,19979.5772018136,57525.6948099990,50518.8900914174,42481.6152965976,55714.9468395961,38605.1939396543,22566.0280123759
6131912769,9404,-2,0,4533.7568424091,45641.2254660046,-580.5086477257,19963.2116495867,57521.0467498126,50523.4773131196,42480.5445392772,55712.2942816886,38604.4760455417,22563.3024482875
6131912769,9404,-2,0,4541.3494852266,45638.8405974273,-571.3342043212,19980.0274065960,57525.0012512801,50513.4876340280,42479.4981173504,55712.4889648378,38603.7216483387,22559.4331206979
6131912769,9404,-2,0,4541.0696281997,45632.3430473239,-578.3184622976,19979.8935619310,57517.6762977927,50505.8706558168,42474.2660077166,55706.5754641819,38599.0005819714,22558.9220774313
6131912769,9404,-2,0,4522.4652197574,45631.7833332700,-592.1409658885,19959.9872099286,57508.0759849994,50509.7278157097,42474.4485231689,55702.6939688953,38596.7373903623,22560.8324058325
6131912769,9404,-2,0,4518.7662399233,45636.2853810945,-590.7173453602,19970.0742305949,57514.1354980172,50507.2942763451,42478.1231676094,55707.8530723483,38597.6377999272,22563.5458022240
6131912769,9404,-2,0,4528.1718695674,45635.5431515883,-587.6997565481,19984.2374296968,57518.0534963942,50504.5200414695,42475.0447403132,55705.0910051695,38595.0825835944,22561.1731013435
6131912769,9404,-2,0,4526.0060195329,45639.0961190606,-583.1977087236,19972.5564407467,57518.3090180275,50521.8346740485,42475.3124296433,55704.7381419616,38597.2484336289,22562.6818957496
6131912769,9404,-2,0,4531.7248370397,45647.7108484112,-571.1881919594,19977.4600225664,57527.3252813733,50522.6864128261,42480.8122286073,55712.9756727107,38605.5224674685,22563.5579699208
6131951859,9405,-2,0,4543.8316953785,45649.1953074236,-563.8632384720,19996.0279279182,57533.1171050610,50516.1645273290,42483.5864634829,55717.4655528384,38606.4593801239,22562.0978463021
6131951859,9405,-2,0,4536.9691143704,45647.1024635701,-568.4747955679,19982.3271012956,57527.4834614320,50525.0591137066,42483.7324758448,55713.5353867646,38607.2137773269,22562.6575603559
6131951859,9405,-2,0,4528.9627698609,45651.3733251549,-566.9903365555,19972.2644160230,57531.3649567185,50532.4327379813,42488.0885113074,55718.3172916160,38614.3440476651,22565.3222859602
6131951859,9405,-2,0,4540.8384419601,45653.2349827689,-558.8014765936,19991.9882525730,57540.1987046119,50522.1632018627,42485.5819657619,55723.9265998514,38614.0155198509,22563.3511190748
6131951859,9405,-2,0,4544.7686080339,45648.4530779174,-559.1300044078,19985.1378392617,57532.1193539215,50517.8801725811,42477.8433105825,55712.1969401141,38607.2259450237,22560.0536732358
6131951859,9405,-2,0,4534.5234073090,45648.9884565776,-563.2548536308,19966.5942693035,57526.2058532656,50525.8135109096,42476.9185656240,55707.1473459325,38607.5788082316,22561.0635920721
6131951859,9405,-2,0,4539.0011197398,45651.3733251549,-556.1245832926,19981.2928470656,57530.4523794568,50527.3344730125,42478.9019002061,55710.8219903731,38607.5788082316,22563.2659451971
6131951859,9405,-2,0,4547.8713707237,45651.2638158835,-554.9321490039,19994.0689287297,57530.3672055790,50521.8590094422,42478.4395277268,55707.1595136294,38605.1209334733,22565.8454969235
6131979197,9406,-2,0,4538.5509149574,45651.4098282454,-560.3224386965,19976.5717806983,57523.4559537836,50524.2195426258,42475.8599760004,55700.5281188609,38603.5269651895,22567.4638006010
6131979197,9406,-2,0,4540.7776034760,45655.4373358938,-555.1024967594,19981.2685116720,57526.8020704099,50514.5948944389,42478.1596706999,55703.1076705873,38604.0380084561,22569.3497936086
6131979197,9406,-2,0,4551.9110460690,45653.5756782799,-550.1015733652,19997.2690329941,57526.2666917497,50507.2577732546,42477.0159071985,55703.5578753698,38600.9352457663,22569.8973399656
6131979197,9406,-2,0,4543.1381366596,45648.7207672475,-553.7762178057,19976.5961160920,57516.8002236214,50515.8846703021,42473.1222442152,55696.3545988506,38599.0492527587,22572.8662579904
6131979197,9406,-2,0,4533.5864946536,45650.6310956487,-552.4012680647,19966.5577662130,57519.2580983797,50520.7152459408,42474.3146785038,55698.4352750073,38601.5679660010,22572.2943762397
6131979197,9406,-2,0,4543.7343538039,45648.3192332524,-547.6923693943,19984.5902929046,57522.6042150060,50512.0883488933,42472.0879899853,55697.9363994376,38599.8401530522,22567.9991792612
6131979197,9406,-2,0,4541.0817958965,45642.5882480488,-554.2994287691,19976.4014329428,57514.8655598266,50510.6890637587,42467.7684576131,55688.6646144585,38596.1533409148,22567.8166638089
6131979197,9406,-2,0,4524.6675728824,45643.7441792470,-557.8158931510,19960.4252470143,57507.3945939773,50517.2596200431,42468.9730595986,55684.5519329323,38596.5305395163,22567.5003036915
6132006340,9407,-2,0,4526.6630751614,45643.4886576137,-554.5062796151,19976.8881408157,57512.0183187700,50509.1559339590,42472.4773562836,55690.5384397692,38597.7716445923,22563.4119575590
6132006340,9407,-2,0,4526.7604167359,45634.0465248791,-564.9826665797,19976.9733146935,57507.4067616741,50497.8278082169,42468.2551654860,55683.3108278564,38589.7653000828,22562.8279081115
6132006340,9407,-2,0,4519.1921093121,45633.9126802140,-574.2666192556,19957.6388444418,57506.1778242950,50505.1284263106,42468.8392149335,55683.2378216755,38588.2321702831,22566.7702418821
6132006340,9407,-2,0,4526.2493734694,45639.5828269335,-568.8154910789,19966.8984617241,57513.0039022127,50505.5177926090,42472.9762318533,55690.9643091580,38590.9455666746,22568.0721854421
6132006340,9407,-2,0,4537.5044930306,45637.5751569577,-564.2039339830,19981.5240333052,57512.5171943397,50499.1662548674,42470.1776615840,55690.5506074661,38586.0298171581,22567.0987696963
6132006340,9407,-2,0,4531.7370047365,45637.2101260530,-566.9903365555,19967.7136974112,57505.4234270920,50507.3307794356,42471.8568037456,55686.6569444827,38585.8107986153,22569.5566444545
6132006340,9407,-2,0,4534.2557179789,45644.9731166261,-560.1520909410,19971.3883418517,57510.9475614496,50514.0595157787,42478.7558878442,55691.6091970896,38594.2916833009,22574.5575678488
6132006340,9407,-2,0,4551.8745429785,45644.6932595991,-552.1457464315,19991.6962278492,57512.9552314254,50501.3807756892,42473.9009768119,55692.3757619895,38593.7563046407,22571.5034759462
6132045663,9408,-2,0,4549.2706558584,45639.6071623272,-555.1024967594,19979.2121709089,57506.6766998647,50510.7499022428,42466.3813401753,55682.4347536851,38591.5782869094,22570.1528615989
6132045663,9408,-2,0,4532.1993772158,45638.8405974273,-554.0317394390,19962.7006063202,57503.0507262115,50517.6246509478,42467.5372713735,55682.2522382328,38595.8856515847,22572.2335377556
6132045663,9408,-2,0,4531.4936508001,45636.8207597547,-548.3007542354,19974.8804708399,57509.5482763149,50498.9594040214,42468.5715256034,55686.5352675145,38594.4011925723,22573.9126799172
6132045663,9408,-2,0,4528.3787204134,45629.7148248101,-555.0051551849,19970.7191185265,57503.5617694781,50492.5348600989,42465.0063904343,55680.7434438268,38587.7454624102,22572.8175872031
6132045663,9408,-2,0,4520.6644006276,45628.6318997929,-564.1187601052,19953.6600075807,57494.9835432179,50498.9715717182,42464.8238749820,55677.7745258020,38585.3727615297,22572.5377301762
6132045663,9408,-2,0,4534.9736120914,45631.6008178177,-564.0579216211,19967.4703434747,57498.4513368124,50495.6741258792,42468.1213208210,55684.4545913578,38585.8473017058,22572.1605315747
6132045663,9408,-2,0,4543.3693228993,45627.0744345995,-567.5378829125,19975.7200419207,57496.0908036288,50492.5105247052,42466.2961662975,55681.6803564821,38581.9414710256,22569.9216753592
6132045663,9408,-2,0,4525.2272869362,45626.6485652107,-569.6185590692,19956.0083730675,57492.2579791295,50508.0973443354,42465.9919738770,55681.1328101251,38584.8982213536,22575.4944805041
6132073233,9409,-2,0,4517.3061163045,45633.0731091332,-559.9695754886,19960.0237130191,57504.7663714635,50512.9400876709,42471.9419776234,55690.7087875248,38594.7783911738,22581.1037887395
6132073233,9409,-2,0,4527.4296400612,45634.4237234806,-549.6635362796,19979.2365063025,57516.4351927167,50505.7611465454,42470.6522017601,55695.9408971586,38596.5913780005,22577.2709642403
6132073233,9409,-2,0,4524.1443619190,45633.5233139157,-553.4476899915,19968.8939640030,57513.9286471712,50509.5818033478,42468.4863517257,55692.2419173244,38594.2673479073,22572.4038855111
6132073233,9409,-2,0,4517.2087747299,45638.1713741021,-553.1069944805,19961.1918119141,57512.1156603446,50512.7575722186,42473.0614057311,55696.0382387332,38598.9640788809,22570.1285262052
6132073233,9409,-2,0,4526.6387397677,45637.8185108942,-547.3760092769,19979.2973447866,57511.1179092051,50498.3753545739,42474.6310386212,55698.3987719169,38599.0614204555,22568.5832287087
6132073233,9409,-2,0,4525.0691068775,45630.9802652797,-552.3160941870,19971.9480559056,57500.1183112772,50500.3343537624,42470.5305247919,55689.2729992996,38592.7342181076,22567.0866019995
6132073233,9409,-2,0,4520.2872020261,45639.5584915399,-550.4301011794,19960.5834270730,57502.0773104657,50514.1933604437,42474.1564984451,55689.2364962092,38593.1479197996,22568.7657441610
6132073233,9409,-2,0,4537.3341452751,45646.5670849099,-541.5598501955,19979.1391647279,57517.1409191325,50509.1559339590,42477.4782796778,55694.7362951731,38595.7396392229,22570.5300602004
6132138313,9410,-2,0,4549.8912083963,45646.6765941813,-540.5620990560,19987.4740370517,57519.3676076511,50502.4028622223,42473.6819582691,55693.1909976766,38591.8824793300,22572.0631900001
6132138313,9410,-2,0,4534.7910966391,45644.8757750515,-549.6148654923,19969.3806718760,57510.5825305449,50510.1780204921,42471.7716298678,55689.2364962092,38590.2398402589,22571.7955006700
6132138313,9410,-2,0,4532.1142033380,45652.3832439912,-547.3151707928,19979.0539908502,57518.1630056656,50513.8161618422,42477.8068074920,55697.3766853837,38597.1997628416,22572.4038855111
6132138313,9410,-2,0,4548.0903892666,45658.6252724614,-539.9172111244,19999.2523675763,57525.6826423022,50515.0572669181,42481.3597749643,55701.5623730908,38600.6188856489,22570.3475447480
6132138313,9410,-2,0,4552.2395738832,45666.3152568535,-537.4228332757,19987.7538940786,57526.9602504686,50529.8896893453,42483.3309418497,55703.8377323967,38605.2669458352,22572.4160532079
6132138313,9410,-2,0,4558.1652422359,45679.1765123954,-528.4795761108,19986.2816027630,57535.4289674573,50539.4778344418,42489.4756287452,55713.1946912535,38614.9037617190,22576.6869147928
6132138313,9410,-2,0,4572.5961306680,45684.4572928165,-518.3925554446,20007.6967491714,57542.0603622258,50537.8960338548,42490.9114169703,55716.3461247307,38616.7654193329,22574.4480585774
6132138313,9410,-2,0,4571.0751685651,45684.0922619118,-520.8747655965,20001.6737392440,57531.9976769533,50531.5809992037,42486.5067107204,55708.6926434291,38612.5797316258,22573.9735184013
6132141586,9411,-2,0,4565.5753696011,45688.5699743427,-522.8824355723,19990.5646320447,57530.2211932171,50536.6549287789,42488.0641759138,55707.9869170133,38611.8861729069,22572.5012270857
6132141586,9411,-2,0,4586.4064665620,45695.2500398985,-512.9900980552,20012.9896972894,57538.1180284552,50529.8653539517,42488.9645854787,55712.8783311361,38611.2534526721,22570.4935571099
6132141586,9411,-2,0,4599.4380698594,45698.7056657962,-510.5200556002,20018.0879622582,57540.3447169738,50525.8256786064,42489.0497593564,55713.6935668233,38608.7104040361,22571.3696312812
6132141586,9411,-2,0,4587.7692486062,45704.0472847015,-512.0045146126,19997.6218962020,57537.9841837902,50534.3795694730,42491.5076341147,55713.4502128868,38609.8176644470,22571.9415130318
6132141586,9411,-2,0,4592.6849981226,45711.6764306094,-498.9607436184,20014.6080009668,57550.3465637623,50545.3791674009,42500.5238974605,55725.0460279591,38618.3958907072,22573.7666675553
6132141586,9411,-2,0,4607.6147621244,45717.6264343559,-488.9588968299,20034.7942099961,57559.3993301985,50546.3404154499,42503.4684800916,55730.1807960184,38624.2728882727,22577.6724982354
6132141586,9411,-2,0,4600.8738580845,45721.5444327329,-489.6646232457,20019.2317257595,57557.5620079783,50557.8753920381,42504.9164360135,55727.9297721061,38626.8889430896,22581.3836457664
6132141586,9411,-2,0,4601.1780505050,45728.9910631885,-481.0133908045,20018.8180240676,57564.5827690451,50560.2845960090,42506.9484413830,55732.4926584147,38630.7339352856,22584.2552222167
6132167749,9412,-2,0,4613.6986105359,45732.6413722354,-472.8975370236,20035.2079116881,57569.7905432853,50551.6942020520,42505.3301377055,55734.0014528208,38629.6631779652,22584.6567562118
6132167749,9412,-2,0,4605.9112845692,45730.4025160200,-480.0764781492,20017.9054468058,57558.9977962034,50548.7131163304,42500.3048789177,55725.8612636462,38623.5914972506,22580.1912114778
6132167749,9412,-2,0,4602.6016710333,45735.6954641379,-481.8772972790,20008.6579972204,57559.7643611032,50557.7172119794,42506.8632675052,55728.4286476759,38626.0128689183,22580.9091055903
6132167749,9412,-2,0,4623.1650786641,45741.5481263098,-472.4594999380,20033.2489124996,57573.4408523322,50552.6432824042,42511.4748246011,55735.3155640777,38628.1787189528,22578.4999016194
6132167749,9412,-2,0,4628.2390082393,45736.2065074045,-480.3685028729,20030.7180315604,57568.3669227570,50537.3971582851,42507.5203231337,55727.1388718126,38616.7775870297,22571.2236189193
6132167749,9412,-2,0,4616.3024976560,45739.2240962166,-487.1215746097,20013.5007405559,57566.6999482923,50550.6356124284,42508.4207326986,55725.8977667367,38615.9380159489,22571.8928422445
6132167749,9412,-2,0,4616.9838886780,45742.1443434541,-478.8597084669,20027.5300949928,57574.4751065622,50551.5116865997,42510.2458872220,55730.4241499548,38620.0020266878,22572.1726992715
6132167749,9412,-2,0,4618.5900246587,45736.9730723043,-477.8619573274,20031.0100562842,57570.4110958233,50541.7775291413,42504.6974174707,55727.7107535633,38619.0164432451,22569.6661537259
6132202730,9413,-2,0,4609.2574011955,45735.6832964411,-483.1914085358,20009.9356053868,57562.0397204091,50551.7428728393,42502.0448595633,55725.2163757146,38623.5793295537,22571.7589975795
6132202730,9413,-2,0,4616.6188577734,45741.1344246178,-477.9592989020,20015.8491060428,57568.5007674221,50554.7604616514,42506.9971121703,55733.2957264050,38631.6586802442,22573.1704504110
6132202730,9413,-2,0,4635.6369679076,45743.4827901046,-471.9971274587,20035.9501411943,57575.3633484302,50550.4165938856,42509.5888315936,55737.1285509043,38634.4815859071,22575.4093066264
6132202730,9413,-2,0,4628.3606852075,45741.5846294002,-477.9592989020,20021.7261036082,57567.9045502778,50559.1530002045,42509.7835147427,55732.0424536323,38633.4473316772,22577.3318027244
6132202730,9413,-2,0,4618.6751985364,45746.4395404326,-474.5280083979,20016.3236462189,57572.4552688895,50566.6117983569,42514.0422086308,55737.1528862979,38638.4482550714,22580.4954038984
6132202730,9413,-2,0,4631.5121186846,45749.1651045209,-466.3999869202,20039.4301024856,57585.1826797664,50560.4671114614,42516.6582634477,55745.5485971057,38639.3730000299,22581.9190244267
6132202730,9413,-2,0,4632.2665158877,45744.1033426426,-470.1233021480,20031.3750871888,57579.8897316484,50555.2958403116,42510.7447627917,55738.8685315500,38634.2138965770,22578.0010260497
6132202730,9413,-2,0,4617.2272426145,45737.5449540550,-480.2346582079,20010.5318225311,57570.5936112756,50553.4463503945,42508.7005897255,55734.8653592952,38631.1841400681,22575.6526605628
6132249311,9414,1,0,4615.5237650593,45729.4899387582,-482.2909989710,20022.7968609287,57569.1334876569,50540.0740515861,42507.6663354955,55735.1938871094,38628.0692096814,22571.4669728557
6132249311,9414,1,0,4615.9861375386,45719.3420796079,-485.3207554799,20025.8509528312,57561.0784723601,50537.4458290724,42501.6433255682,55726.8468470889,38621.6568334557,22572.3795501175
6132249311,9414,1,0,4607.6269298212,45719.0743902778,-486.5253574653,20009.1812081838,57557.3186540418,50550.4044261888,42501.8745118078,55725.4232265606,38624.1025405171,22576.0420268612
6132249311,9414,1,0,4612.0073006775,45722.6273577501,-474.6740207598,20018.2826454074,57568.0383949428,50554.8456355292,42506.4739012069,55734.0136205176,38629.1277993050,22578.2930507734
6132249311,9414,1,0,4617.0447271622,45716.7381924878,-475.1728963295,20027.6031011737,57567.1623207716,50545.8658752738,42502.2273750157,55730.9351932214,38622.6180815047,22578.2930507734
6132249311,9414,1,0,4594.6439973111,45706.9796996358,-493.2905968989,20001.3573791266,57555.0432947359,50535.2799790379,42495.2552847361,55720.8481725552,38614.1006937287,22578.9987771891
6132249311,9414,1,0,4578.4852959303,45703.8769369459,-501.2117675306,19994.6043073899,57552.4272399190,50529.7315092866,42496.6545698708,55721.2618742472,38611.9591790878,22582.2597199377
6132249311,9414,1,0,4585.9927648700,45701.9544408479,-496.4541980729,20017.1997203901,57557.9392065798,50521.4696431438,42498.5040597879,55723.9509352450,38608.9537579726,22582.8802724757
6132269153,9415,1,0,4581.0891830504,45695.2987106858,-499.6908054278,20007.9644385015,57552.0865444079,50528.0401994282,42491.6901495670,55717.8914222272,38604.0866792434,22579.6314974239
6132269153,9415,1,0,4574.5551298565,45695.9801017078,-498.4131972614,19993.2658607394,57551.8553581683,50531.9825331989,42492.9799254302,55720.3006261981,38608.0168453172,22580.0451991159
6132269153,9415,1,0,4577.6943956368,45692.2202833896,-496.3933595887,20003.7300800071,57553.5588357235,50518.9630975983,42493.7708257237,55721.3105450345,38606.9460879968,22578.5972431940
6132269153,9415,1,0,4574.5672975533,45685.1630192322,-501.8809908559,20000.4082987745,57545.6741681823,50516.0793534513,42491.2764478750,55714.7156533564,38601.3124443678,22578.1227030179
6132269153,9415,1,0,4560.3675953609,45684.0557588214,-507.2347774580,19982.4366105670,57539.2617919566,50529.1352921423,42491.5684725988,55712.3916232632,38603.6121390673,22580.3372238397
6132269153,9415,1,0,4566.0012389899,45688.0589310761,-498.3766941709,19997.6340638988,57547.0491179232,50528.2105471837,42494.2453658998,55719.5583966919,38609.0267641535,22580.6900870475
6132269153,9415,1,0,4576.0639242625,45686.4406273987,-488.6547044094,20007.8914323206,57548.1198752437,50527.5291561617,42491.8726650194,55719.5340612983,38609.6594843883,22579.6923359081
6132269153,9415,1,0,4564.6992954299,45684.0314234277,-489.1900830696,19985.9287395552,57541.9995237417,50538.9181203879,42488.7333992390,55716.0541000069,38612.3120422957,22581.5418258251
6132287632,9416,1,0,4558.0800683582,45684.0192557309,-493.7164662877,19981.6822133639,57543.2892996050,50533.7225138445,42486.6770584760,55719.3028750587,38617.5684873232,22580.6049131698
6132287632,9416,1,0,4567.2423440659,45676.8159792117,-496.9044028553,19998.3032872241,57540.7219155753,50513.8404972358,42481.7369735658,55717.3560435670,38610.1948630485,22579.9965283286
6132287632,9416,1,0,4562.1440790971,45667.7997158659,-509.4249628861,19987.9850803182,57531.8394968946,50520.0216872219,42477.1010810763,55706.7944827247,38605.6441444367,22579.1569572478
6132287632,9416,1,0,4552.0448907340,45669.2598394847,-510.0698508177,19981.5483686989,57531.6569814422,50522.1266987723,42481.2867687834,55709.1063451210,38608.7347394298,22582.5517446614
6132287632,9416,1,0,4552.5194309101,45666.3030891567,-507.2591128516,19995.6263939230,57534.7475764353,50507.3794502229,42482.3575261038,55712.2577785982,38608.0411807108,22577.7941752037
6132287632,9416,1,0,4543.8925338626,45661.0223087355,-511.5299744365,19984.5781252078,57528.7489019015,50510.5065483064,42479.9361544360,55706.2226009740,38602.8820772579,22577.4291442990
6132287632,9416,1,0,4530.4228934796,45664.3440899682,-514.6570725200,19967.1296479637,57529.2234420776,50523.8180086307,42479.6319620155,55709.0455066369,38606.4837155175,22581.4566519474
6132287632,9416,1,0,4541.7388515250,45669.9168951131,-506.8697465533,19985.2595162299,57542.4010577369,50519.8148363759,42483.6351342702,55716.4312986084,38609.3552919677,22581.7000058838
6132320565,9417,1,0,4551.9475491594,45668.0917405897,-506.3222001963,19993.3632023140,57544.7372555269,50514.5705590452,42480.2281791598,55713.1460204663,38602.7360648960,22578.8162617368
6132320565,9417,1,0,4539.0497905271,45665.2323318363,-515.7399975372,19970.9259693725,57534.0783531100,50522.0780279850,42476.0303237559,55707.1473459325,38601.0204196440,22577.9888583528
6132320565,9417,1,0,4539.3904860381,45668.4932745848,-515.0586065151,19973.7123719449,57537.3392958585,50517.6976571287,42481.6396319913,55713.4745482805,38605.4616289844,22580.8117640158
6132320565,9417,1,0,4549.1611465870,45663.1273202859,-510.9824280794,19984.4321128459,57537.2054511935,50509.4966294701,42479.0479125680,55713.1703558599,38603.3444497372,22580.6292485634
6132320565,9417,1,0,4541.0452928061,45657.5545151410,-518.3925554446,19968.2004052841,57527.6659768843,50512.1126842870,42474.7283801958,55707.5002091404,38600.9230780694,22580.7874286221
6132320565,9417,1,0,4534.7180904581,45659.2579926962,-520.8504302029,19966.2170707020,57529.8683300093,50516.7120736861,42478.1596706999,55711.4912136983,38604.6220579036,22584.0483713707
6132320565,9417,1,0,4544.1602231927,45658.5766016741,-518.2952138700,19987.1211738438,57538.1058607584,50511.0905977539,42477.7094659174,55715.5795598308,38605.7171506177,22582.3813969059
6132320565,9417,1,0,4538.9524489525,45654.0015476687,-523.6976712594,19976.6326191824,57531.4136275058,50516.8702537448,42473.3169273644,55709.9337485050,38604.3665362703,22575.3484681423
6132373151,9418,1,0,4528.3300496261,45655.7658637080,-525.0847886972,19961.7028551807,57529.6493114664,50522.1875372564,42473.8766414182,55710.5908041334,38606.7149017572,22574.0221891886
6132373151,9418,1,0,4544.8172788212,45661.5090166085,-513.7201598646,19984.8214791443,57539.4321397121,50517.5516447668,42480.4715330963,55719.3272104523,38610.2922046231,22578.3417215607
6132373151,9418,1,0,4556.5712739521,45661.5455196989,-516.4335562561,19993.2171899521,57539.2739596534,50518.2330357889,42480.0091606170,55717.9400930145,38608.6373978552,22580.7022547444
6132373151,9418,1,0,4548.2120662348,45665.5243565600,-523.5029881103,19975.1968309573,57535.4776382446,50524.1587041417,42481.1529241183,55717.0031803591,38609.2092796058,22585.7761843195
6132373151,9418,1,0,4544.6225956720,45668.6514546435,-518.5872385938,19982.5947906257,57540.6610770912,50523.6111577847,42484.4016991701,55722.3813023549,38610.7667447992,22587.2119725446
6132373151,9418,1,0,4547.9808799951,45663.3950096160,-520.1447037871,19991.9760848762,57538.3370469980,50504.3618614108,42477.6242920397,55717.0883542369,38603.6486421578,22582.7950985979
6132373151,9418,1,0,4537.0299528545,45654.8046156590,-531.2294755928,19968.8452932157,57526.6195549575,50502.4393653127,42470.6765371538,55707.1230105389,38595.2650990468,22580.5075715952
6132373151,9418,1,0,4536.8474374022,45654.2692369988,-530.4994137834,19966.6186046971,57528.7732372952,50504.4348675917,42473.8158029341,55709.0698420306,38596.3358563672,22581.1159564363
6132412191,9419,1,0,4545.9732100194,45648.3922394333,-529.3069794948,19980.7696361022,57529.2964482586,50498.4240253612,42470.5670278824,55709.8850777177,38594.9730743230,22580.8969378935
6132412191,9419,1,0,4532.6617496951,45641.8460185426,-538.7856153199,19963.7956990342,57520.0855017636,50502.1473405890,42466.7585387768,55700.5646219513,38592.3813548997,22582.7707632043
6132412191,9419,1,0,4516.6977314634,45642.6490865329,-542.3020797017,19950.5937479813,57518.8930674750,50507.4889594943,42467.4155944052,55700.1387525625,38596.0803347339,22584.2917253071
6132412191,9419,1,0,4527.7094970881,45645.9100292814,-531.8986989181,19974.1747444242,57528.8219080825,50502.9260731857,42470.6522017601,55704.6529680838,38596.5305395163,22588.1732205936
6132412191,9419,1,0,4533.5864946536,45642.9046081662,-531.6796803753,19975.5983649525,57525.4514560625,50498.6430439040,42467.4642651925,55699.2626783913,38590.9577343714,22588.0758790191
6132412191,9419,1,0,4522.5382259384,45645.2043028657,-536.2669020775,19959.3788250875,57521.9836624680,50507.7809842180,42469.0217303859,55700.0779140784,38591.6999638776,22589.4751641537
6132412191,9419,1,0,4526.3467150440,45651.6775175755,-529.9762028201,19975.0629862923,57529.5884729823,50507.5863010689,42473.9618152960,55709.4835437225,38595.1799251690,22588.6355930729
6132412191,9419,1,0,4531.9316878857,45650.3269032282,-527.6156696364,19984.9918268998,57529.8926654029,50498.4118576644,42474.2538400197,55710.7976549794,38592.7098827139,22589.3656548823
6132431469,9420,1,0,4522.7450767844,45647.5039975652,-534.2713997986,19963.8443698215,57523.9426616565,50502.4880361000,42471.9663130170,55706.4172841232,38590.7143804350,22586.8956124272
6132431469,9420,1,0,4528.6585774403,45653.1133058006,-527.6400050301,19970.2567460472,57530.2211932171,50502.5002037969,42476.8333917462,55713.8030760947,38596.3115209735,22585.7153458354
6132431469,9420,1,0,4541.3373175298,45648.9276180935,-525.7905151130,19986.5127890027,57533.1292727578,50493.5812820256,42474.4606908657,55713.1216850726,38594.1335032422,22583.7928497374
6132431469,9420,1,0,4526.0790257139,45641.7851800585,-534.5147537350,19966.1440645210,57519.6109615875,50501.6971358065,42469.2407489287,55703.9594093649,38587.9644809530,22583.3548126518
6132431469,9420,1,0,4509.8959889393,45641.2863044887,-535.5490079650,19953.5991690966,57517.6032916117,50507.9756673672,42470.0438169190,55704.0202478490,38590.5683680731,22586.3115629797
6132431469,9420,1,0,4521.9298410972,45640.9942797650,-528.6864269568,19974.1139059401,57524.9039097055,50496.5988708377,42469.8978045571,55707.6827245928,38591.5417838189,22588.0272082318
6132431469,9420,1,0,4525.4219700854,45635.7256670406,-532.2880652164,19968.4072561301,57517.9683225164,50494.7372132238,42462.2808263460,55698.0094056185,38585.2267491678,22586.9321155177
6132431469,9420,1,0,4517.8779980552,45639.4124791780,-533.8942011970,19953.9276969108,57517.2990991912,50506.5642145357,42463.0717266394,55697.8025547725,38587.9888163466,22589.1709717331
6132450591,9421,1,0,4522.6477352098,45640.8360997063,-528.3944022331,19967.6771943207,57521.5699607760,50498.0711621533,42466.4300109626,55704.2027633014,38589.9721509288,22585.9708674687
6132450591,9421,1,0,4522.5990644225,45634.0830279695,-530.9617862627,19966.9714679050,57513.2229207555,50493.8368036589,42463.6801114806,55698.1675856772,38585.3605938329,22583.0627879280
6132450591,9421,1,0,4509.3241071887,45634.1438664537,-538.4327521120,19948.0872024358,57506.9930599821,50499.4217765007,42463.7896207520,55694.0792395447,38585.2754199551,22586.1777183147
6132450591,9421,1,0,4515.2132724510,45638.1835417989,-535.8166972951,19963.3941650391,57515.6077893328,50497.2072556789,42470.3236739459,55702.4506149589,38588.6580396719,22590.7527723201
6132450591,9421,1,0,4527.7581678754,45635.2146237741,-534.7946107619,19976.6812899697,57518.5280365703,50491.9021398641,42468.9973949922,55701.2460129734,38585.2389168647,22588.0393759286
6132450591,9421,1,0,4515.9920050476,45630.8464206146,-543.6283586554,19953.0151196491,57507.5162709455,50493.4839404511,42462.6823603411,55692.4852712609,38581.3574215781,22587.5526680557
6132450591,9421,1,0,4508.8252316189,45635.3971392264,-539.9902173053,19948.8415996388,57508.7452083246,50496.1243306616,42465.6391106691,55696.7683005426,38584.3020042093,22587.4066556938
6132450591,9421,1,0,4518.4377121090,45636.0176917644,-532.6895992116,19970.8894662820,57517.5911239149,50488.8480479615,42465.7607876373,55700.9539882497,38584.0829856665,22584.2430545198
6132488203,9422,1,0,4518.1821904758,45635.1294498963,-538.3840813247,19964.7691147801,57516.3500188390,50493.5204435415,42462.7188634316,55697.3158468996,38583.0365637397,22582.6369185392
6132488203,9422,1,0,4513.0230870228,45638.7432558527,-540.1727327577,19952.4919086857,57515.2305907313,50501.6362973224,42465.9676384833,55699.1531691199,38586.7477112707,22585.3259795371
6132488203,9422,1,0,4522.5138905447,45641.9311924203,-534.6851014905,19969.2346595141,57523.9669970501,50491.3059227198,42468.6688671780,55706.1252593994,38589.1569152416,22588.1732205936
6132488203,9422,1,0,4519.8735003341,45636.9789398134,-543.5066816872,19965.2071518657,57516.9219005896,50487.0228934381,42464.5561856518,55700.4186095895,38582.3916758081,22590.7162692296
6132488203,9422,1,0,4502.4858615742,45635.4579777105,-553.0948267837,19946.2377125187,57510.2053319434,50496.2946784172,42464.7143657105,55699.2991814817,38582.6958682287,22588.6355930729
6132488203,9422,1,0,4509.4579518537,45638.0618648306,-544.9303022155,19965.2679903498,57518.7105520226,50494.1531637763,42470.4453509142,55703.6795523380,38583.8761348205,22591.0934678311
6132488203,9422,1,0,4518.2430289599,45630.5422281941,-544.0785634379,19978.1049104980,57516.7515528341,50486.4145085969,42465.2862474612,55697.4375238678,38577.9991372550,22587.3823203002
6132488203,9422,1,0,4507.0609155796,45626.5633913330,-550.7464612968,19956.1300500358,57506.8592153171,50491.9873137418,42460.7598642431,55689.3946762679,38575.7724487364,22589.6576796060
6132509396,9423,1,0,4502.5953708456,45629.3619616022,-550.7829643873,19953.0394550427,57508.0151465153,50494.9440640698,42462.8527080966,55692.3757619895,38579.3375839055,22588.1245498064
6132509396,9423,1,0,4516.6490606761,45628.7900798516,-547.3030030959,19971.5343542136,57515.7538016946,50482.8737088215,42461.6724415048,55694.9188106255,38578.3763358565,22584.8271039673
6132509396,9423,1,0,4516.7220668570,45627.4151301106,-550.9654798396,19962.3599108091,57511.3734308384,50483.9201307482,42460.5530133971,55691.0859861263,38575.1032254111,22585.5449980799
6132509396,9423,1,0,4514.1911859178,45629.6174832355,-550.9533121428,19953.6965106712,57511.6532878653,50490.4420162453,42464.9212165565,55695.3568477111,38578.0113049518,22588.0758790191
6132509396,9423,1,0,4524.7405790633,45626.9284222377,-548.6536174433,19970.7434539201,57516.2405095676,50480.3184924886,42467.1844081656,55698.0580764058,38576.2713243062,22584.6445885150
6132509396,9423,1,0,4518.6567306519,45620.4430398310,-556.2949310481,19963.0534695280,57506.9200538012,50480.1359770363,42463.0595589426,55689.9543903217,38570.5646744962,22580.5562423825
6132509396,9423,1,0,4504.9680717260,45622.3533682322,-561.3080221391,19946.4323956679,57502.9412169401,50494.5181946810,42464.4953471677,55689.9057195344,38574.4461697827,22582.1380429695
6132509396,9423,1,0,4518.1943581726,45630.0190172307,-550.2840888176,19965.6938597386,57515.4617769709,50490.9043887246,42469.8856368603,55699.1166660294,38581.3939246686,22584.8514393610
6132552028,9424,1,0,4532.9537744188,45632.1483641747,-542.7887875746,19976.4987745174,57517.9439871228,50487.3514212523,42469.1677427477,55698.5447842787,38578.2789942819,22583.5008250136
6132552028,9424,1,0,4523.2561200509,45633.0244383459,-550.6491197222,19957.3954905054,57511.3490954447,50496.3311815076,42468.7297056621,55693.2518361607,38577.9504664677,22581.2619687982
6132552028,9424,1,0,4518.1213519916,45636.0541948549,-552.6932927885,19961.3013211855,57517.0557452547,50497.3654357376,42473.3412627580,55699.8223924451,38584.1924949379,22582.1867137568
6132552028,9424,1,0,4527.1132799438,45634.7765866885,-551.9875663728,19974.9048062336,57519.8056447367,50483.5064290563,42472.6963748264,55701.5380376972,38579.9216333530,22582.5639123583
6132552028,9424,1,0,4523.5238093810,45631.9415133287,-557.7672223637,19958.9894587892,57513.1985853618,50490.1743269152,42469.8856368603,55697.2428407187,38576.3078273966,22582.7342601138
6132552028,9424,1,0,4524.2660388872,45635.7743378279,-553.1191621773,19956.7019317864,57519.9516570986,50498.9229009309,42474.7162124990,55703.3996953111,38581.1262353385,22584.2065514294
6132552028,9424,1,0,4537.4436545465,45639.9600255350,-541.4746763177,19985.7462241028,57532.2288631929,50495.2482564904,42479.4737819568,55708.9968358496,38586.5408604247,22586.7861031558
6132552028,9424,1,0,4530.8244274748,45639.8383485668,-541.8640426161,19982.9841569240,57526.9359150749,50500.8453970289,42479.9361544360,55703.8864031840,38586.2610033978,22590.2660644472
6132598324,9425,1,0,4512.7675653896,45641.9190247235,-547.2299969150,19966.4117538512,57522.3243579790,50506.3330282961,42481.0920856342,55703.6673846412,38588.4755242196,22590.9231200756
6132598324,9425,1,0,4522.8910891462,45643.6103345819,-542.1682350366,19983.0328277113,57528.3838709969,50495.7227966665,42480.5445392772,55708.2181032530,38589.8626416574,22592.1642251516
6132598324,9425,1,0,4531.7613401302,45637.9280201656,-543.9325510760,19985.6123794378,57520.9859113285,50490.6610347881,42474.6918771054,55704.4826203283,38584.5696935394,22591.6045110977
6132598324,9425,1,0,4520.9564253514,45635.3363007423,-548.6292820496,19964.5500962372,57514.9872367948,50503.6926380855,42472.2096669535,55700.6497958291,38586.0784879454,22590.9596231661
6132598324,9425,1,0,4522.4773874543,45638.5364050067,-539.4426709483,19972.3009191135,57520.0976694604,50505.3961156407,42475.1420818878,55709.5930529940,38591.3592683666,22592.8942869609
6132598324,9425,1,0,4530.7757566875,45635.8716794025,-534.9892939111,19984.8944853252,57521.8619854998,50496.6840447155,42472.6355363423,55707.0743397516,38589.0109028798,22590.6797661392
6132598324,9425,1,0,4522.7085736939,45633.3286307665,-544.6139420981,19968.3950884333,57513.6731255379,50501.0400801781,42468.7418733589,55699.5547031150,38584.3750103902,22587.2484756351
6132598324,9425,1,0,4523.2926231414,45637.7455047132,-543.5675201713,19970.3175845313,57520.6695512111,50499.8233104958,42475.0082372228,55702.4506149589,38586.8207174516,22585.4233211117
6132605329,9426,1,0,4538.1615486590,45638.8405974273,-538.4327521120,19993.0225068029,57528.4325417841,50498.0954975470,42480.0578314043,55708.8386557909,38588.4268534323,22588.0150405349
6132605329,9426,1,0,4531.4449800128,45638.5485727036,-542.1195642494,19981.7552195449,57522.8719043361,50503.4736195427,42480.1551729789,55705.4195329837,38589.5706169336,22588.6964315570
6132605329,9426,1,0,4519.1556062216,45642.7707635011,-542.9713030270,19966.9349648145,57523.2977737249,50511.2609455094,42481.4814519326,55711.7467353316,38596.1898440053,22589.3291517918
6132605329,9426,1,0,4528.7802544085,45642.6004157456,-538.7612799262,19983.0936661954,57530.9512550265,50499.1419194737,42481.0799179374,55716.1636092783,38595.8004777070,22588.2340590778
6132605329,9426,1,0,4532.0777002476,45637.2587968403,-541.9492164938,19982.5096167479,57527.8363246398,50492.5226924021,42475.0082372228,55708.6439726418,38589.0109028798,22587.0659601828
6132605329,9426,1,0,4520.0195126960,45636.4313934564,-548.7144559274,19965.3653319244,57521.5577930792,50498.5457023294,42472.2218346503,55702.5479565335,38586.3705126692,22586.5305815225
6132605329,9426,1,0,4524.4850574300,45639.9965286255,-544.9059668218,19977.2531717204,57526.0476732068,50491.6101151403,42475.3367650370,55707.5488799277,38589.3272629972,22586.9929540018
6132605329,9426,1,0,4528.3665527166,45634.2047049378,-549.8703871256,19983.3978586160,57520.4748680619,50486.0981484795,42471.1754127235,55700.8688143719,38583.5841100967,22585.0096194197
6132641719,9427,1,0,4520.9442576546,45632.5255627762,-559.7018861585,19963.5523450978,57510.5825305449,50493.3500957860,42467.2939174370,55694.3590965716,38580.6638628592,22582.2110491504
6132641719,9427,1,0,4527.8920125405,45637.0641136912,-555.3945214832,19968.0787283159,57514.7803859488,50495.2969272777,42472.4651885868,55698.6299581565,38583.0730668302,22580.2642176587
6132641719,9427,1,0,4548.7839479855,45636.6990827865,-550.0285671843,19985.0404976871,57519.9881601890,50490.0404822502,42475.5679512766,55702.3532733843,38582.4525142922,22577.1006164848
6132641719,9427,1,0,4541.1791374711,45633.9248479108,-554.3967703437,19967.4581757779,57515.7172986042,50498.8742301436,42474.9839018291,55699.5547031150,38583.6936193681,22577.1979580594
6132641719,9427,1,0,4525.6044855378,45637.7211693196,-551.1114922015,19956.8722795420,57519.1242537146,50512.7697399154,42481.3476072675,55706.5997995755,38592.8072242885,22580.3615592333
6132641719,9427,1,0,4532.3088864872,45640.3372241365,-540.1849004545,19976.5596130015,57530.3185347917,50504.5200414695,42484.6937238938,55712.6958156838,38597.9298246510,22583.5251604073
6132641719,9427,1,0,4532.5035696364,45638.9622743955,-542.8496260587,19974.5519430257,57528.6393926301,50496.9517340456,42479.2304280203,55709.3375313607,38593.6711307630,22588.1853882905
6132641719,9427,1,0,4525.0204360903,45642.9532789535,-545.8063763867,19962.3964138996,57529.2477774713,50506.9049100468,42481.0555825438,55709.7025622654,38595.5692914673,22592.9429577482
6132672851,9428,1,0,4532.8807682379,45647.3579852034,-541.0609746258,19979.3581832708,57536.6092340492,50504.8729046773,42484.7788977716,55716.4434663053,38598.7328926413,22595.7536957143
6132672851,9428,1,0,4540.2787279062,45644.4742410563,-542.8861291492,19986.4276151249,57534.8814211003,50501.5997942320,42483.5134573020,55714.5939763882,38596.9685766020,22596.3255774650
6132672851,9428,1,0,4532.9416067220,45644.2308871199,-549.3106730717,19966.9349648145,57525.6826423022,50510.0928466144,42484.2921898987,55710.6638103144,38596.6765518782,22595.2669878414
6132672851,9428,1,0,4539.0376228303,45645.6666753450,-542.9469676333,19973.7245396417,57533.2387820292,50507.2942763451,42486.5067107204,55715.7012367991,38598.9397434873,22592.6144299340
6132672851,9428,1,0,4549.6478544599,45639.8991870509,-544.0420603474,19985.0648330807,57533.8106637799,50495.6862935760,42481.4449488421,55713.2798651313,38593.6346276725,22588.2583944714
6132672851,9428,1,0,4536.9326112799,45634.1925372409,-553.1069944805,19966.8254555431,57522.0323332553,50498.3145160898,42478.2570122745,55703.9350739713,38588.8162197306,22586.7617677622
6132672851,9428,1,0,4528.8289251958,45636.9667721166,-553.4233545979,19964.3432453913,57521.3874453237,50496.9395663488,42483.2214325782,55707.2933582944,38591.4809453348,22589.5116672442
6132672851,9428,1,0,4536.1052078960,45634.5454004488,-549.7730455510,19983.4221940096,57521.6673023506,50482.2774916771,42478.8288940252,55706.3564456391,38585.5917800725,22587.6865127207
6132718564,9429,1,0,4532.8077620569,45629.1672784531,-553.6910439280,19972.2035775389,57515.2427584281,50485.3315835797,42472.6477040391,55695.8800586745,38577.4394232012,22586.9807863050
6132718564,9429,1,0,4523.7914987111,45629.9216756561,-553.0948267837,19956.6289256055,57514.2450072886,50497.0855787107,42472.9032256724,55695.1134937747,38580.0798134117,22586.5914200067
6132718564,9429,1,0,4534.4504011280,45633.7788355490,-544.8207929441,19974.9656447177,57525.3297790943,50492.0968230132,42478.8897325093,55703.5335399761,38585.0077306250,22590.3512383250
6132718564,9429,1,0,4530.7635889907,45630.6760728591,-547.3273384896,19975.0994893827,57522.5920473091,50489.4929358931,42476.4318577510,55699.6642123864,38580.0676457149,22590.2173936599
6132718564,9429,1,0,4514.0573412528,45635.5796546788,-548.5806112623,19959.2449804224,57520.4992034556,50498.5213669358,42479.7171358932,55702.1464225383,38582.4768496859,22592.9186223546
6132718564,9429,1,0,4522.6112321193,45641.3714783665,-539.6251864007,19971.3031679740,57532.7520741563,50493.8976421430,42480.3498561280,55710.0675931701,38584.9225567473,22589.1831394299
6132718564,9429,1,0,4539.8650262142,45639.7410069922,-535.9992127474,19982.0594119655,57534.9544272812,50487.8989676093,42477.0889133795,55709.3618667543,38579.1063976659,22583.8415205247
6132718564,9429,1,0,4533.6716685314,45639.2908022098,-541.2799931686,19962.3599108091,57527.8484923366,50500.6993846671,42475.1055787973,55705.0423343822,38578.7657021549,22584.9974517229
6132724639,9430,1,0,4534.4625688249,45646.4940787289,-534.6485984001,19964.1485622421,57532.9710926991,50506.3816990834,42482.1993460451,55712.0144246617,38588.2686733736,22589.3534871855
6132724639,9430,1,0,4546.5329240732,45646.5305818194,-528.0415390252,19980.6722945276,57536.6700725333,50494.7250455270,42481.7613089595,55713.9977592439,38587.7211270165,22585.0704579038
6132724639,9430,1,0,4548.7109418045,45645.1556320784,-530.7914385072,19969.7578704775,57534.2365331687,50495.8688090284,42481.9559921087,55710.2987794097,38587.9523132562,22588.0272082318
6132724639,9430,1,0,4545.5108375401,45647.5283329589,-533.8942011970,19962.3112400218,57536.5240601714,50498.9107332341,42482.6617185244,55711.5642198793,38587.7941331975,22589.8158596647
6132724639,9430,1,0,4556.4982677712,45647.2119728415,-533.7238534415,19982.2419274178,57543.9341875366,50488.3978431791,42485.4967918841,55716.8815033909,38585.9324755836,22589.2561456109
6132724639,9430,1,0,4551.8745429785,45639.8018454763,-545.6481963280,19974.9048062336,57537.3636312522,50486.5970240493,42481.8221474436,55710.9680027349,38579.2159069373,22587.7473512048
6132724639,9430,1,0,4529.7293347607,45636.9181013293,-553.8613916835,19953.8060199426,57525.3054437007,50492.4131831306,42479.6562974091,55704.1419248173,38578.0721434359,22586.9199478209
6132724639,9430,1,0,4532.7347558760,45635.7621701311,-546.0618980200,19965.8277044037,57523.4559537836,50484.0418077165,42477.3322673159,55705.8819054630,38578.2181557978,22586.2750598893
6132760589,9431,1,0,4543.3936582929,45632.0145195096,-541.3651670463,19972.3860929912,57517.6276270054,50479.5884306793,42471.2849219949,55696.8778098140,38574.5800144478,22589.6941826965
6132760589,9431,1,0,4531.3233030445,45628.4007135532,-544.9789730027,19948.0993701326,57504.8272099476,50485.4897636384,42466.7828741704,55685.3428332258,38573.2902385845,22588.7451023443
6132760589,9431,1,0,4525.2637900267,45628.4980551278,-538.5909321707,19949.6081645387,57505.9588057522,50489.1279049885,42467.3790913148,55688.1292357983,38575.5534301936,22587.9785374445
6132760589,9431,1,0,4531.4206446191,45626.3565404870,-535.1596416666,19966.8011201495,57509.7064563736,50481.6934422296,42466.5030171435,55689.8692164440,38574.7990329906,22586.4697430384
6132760589,9431,1,0,4526.5657335868,45624.4218766921,-541.2799931686,19951.1534620352,57504.3039989843,50481.3284113249,42463.6436083901,55686.9854722969,38571.8057795721,22586.7252646717
6132760589,9431,1,0,4523.4873062906,45627.7558256216,-542.2899120049,19943.7068315795,57507.7352894883,50482.5451810072,42466.6855325959,55690.9278060676,38574.7260268096,22587.2849787256
6132760589,9431,1,0,4536.3363941356,45627.6341486534,-537.7391933931,19962.2138984472,57514.9507337043,50476.7290219259,42466.6368618086,55694.3104257843,38573.1198908290,22591.4828341295
6132760589,9431,1,0,4531.0677814113,45622.8279084083,-544.5531036139,19951.6766729986,57507.4189293709,50478.5906795398,42461.3804167811,55687.3505032016,38567.2428932635,22593.5270071957
6132797838,9432,1,0,4513.6071364703,45625.0667646237,-549.5418593114,19935.9316733097,57504.9853900063,50487.5704397951,42462.0131370159,55686.1459012161,38570.0292958360,22595.0114662081
6132797838,9432,1,0,4526.6022366772,45629.3011231181,-539.6251864007,19958.4054093417,57515.0602429757,50481.9854669534,42466.2596632071,55692.6069482291,38574.3609959049,22595.0114662081
6132797838,9432,1,0,4539.4026537350,45625.9915095823,-539.4183355547,19964.7934501737,57514.1963365013,50469.9151117050,42463.6314406933,55687.7155341063,38567.1212162953,22589.9983751171
6132797838,9432,1,0,4528.8654282863,45622.3412005354,-548.5319404750,19941.7234969974,57504.5595206175,50475.4514137595,42461.1492305414,55682.1792320519,38564.4199876006,22586.6279230971
6132797838,9432,1,0,4531.8465140079,45624.2028581493,-543.3119985380,19951.6401699081,57511.3125923543,50478.8218657794,42466.3326693880,55690.8182967962,38571.9639596308,22585.1312963879
6132797838,9432,1,0,4536.5067418911,45620.6377229802,-538.1163919946,19966.4360892448,57514.3301811664,50476.6316803513,42464.8725457692,55694.0062333638,38571.2217301246,22582.8437693852
6132797838,9432,1,0,4523.5603124715,45619.9928350486,-539.8685403371,19950.7154249496,57508.9520591706,50488.2031600299,42463.0473912458,55691.2319984881,38570.7593576454,22582.6004154487
6132797838,9432,1,0,4523.3412939287,45630.6882405559,-532.1663882482,19954.7429325980,57517.9683225164,50494.7493809206,42469.4232643810,55699.8710632324,38578.3763358565,22585.5449980799
6132844286,9433,1,0,4538.5752503510,45637.4778153831,-521.8968521296,19978.0927428012,57525.6218038181,50487.2662473745,42472.6842071296,55705.4925391646,38581.3452538813,22585.1434640847
6132844286,9433,1,0,4532.3940603650,45635.8960147962,-530.6210907517,19966.4969277289,57515.5469508486,50487.5704397951,42469.2407489287,55696.1599157014,38578.4371743406,22582.9167755661
6132844286,9433,1,0,4520.1168542706,45637.9401878624,-535.7680265078,19953.2584735856,57513.2229207555,50495.7714674538,42472.3921824058,55697.9363994376,38582.8783836810,22583.3791480454
6132844286,9433,1,0,4532.7712589665,45640.2155471683,-525.9121920812,19972.5321053531,57522.3486933727,50493.6056174193,42476.3223484796,55706.3807810327,38588.7918843370,22581.5174904315
6132844286,9433,1,0,4542.9556212073,45637.2344614467,-523.0649510246,19976.3770975491,57524.1981832898,50493.6542882066,42476.0303237559,55706.6119672723,38586.6382019993,22579.7896774826
6132844286,9433,1,0,4538.4414056860,45638.7432558527,-526.1068752304,19963.5645127946,57523.3464445122,50499.2149256547,42480.1795083725,55707.9260785292,38588.6580396719,22584.7175946959
6132844286,9433,1,0,4541.8726961900,45637.7211693196,-527.6278373332,19975.3185079255,57524.2833571675,50487.2662473745,42482.1020044705,55711.0166735222,38588.6093688846,22583.6711727692
6132844286,9433,1,0,4540.0475416666,45628.6318997929,-535.4881694809,19978.3969352218,57513.6731255379,50473.8331100820,42474.3268462007,55701.0148267338,38579.8121240816,22583.2696387740
6132847389,9434,1,0,4522.3557104860,45623.0834300416,-544.6017744012,19950.8736050083,57501.2377393849,50479.7101076475,42467.3547559211,55688.5186020966,38576.4051689712,22583.9266944024
6132847389,9434,1,0,4523.6333186524,45627.5124716851,-537.4471686693,19952.2242193556,57504.3526697715,50482.8372057310,42469.1555750509,55691.0008122485,38577.1230630838,22583.6833404660
6132847389,9434,1,0,4542.7487703613,45627.6463163502,-531.7770219499,19973.2378317688,57509.9498103101,50475.4757491531,42470.1654938872,55693.5560285813,38576.6241875140,22580.9821117713
6132847389,9434,1,0,4541.0939635934,45624.8842491714,-536.6075975886,19961.9218737235,57503.1480677861,50480.5131756378,42470.2628354618,55690.0152288058,38572.3776613228,22579.2299634288
6132847389,9434,1,0,4527.7946709659,45626.0158449759,-539.2358201023,19953.4653244315,57502.1259812529,50482.3504978581,42473.9009768119,55692.9111406497,38573.9107911225,22579.3273050034
6132847389,9434,1,0,4533.9271901646,45625.0545969269,-534.9649585175,19971.3396710644,57504.7785391603,50473.0178743949,42474.5336970467,55696.3302634569,38572.2924874450,22578.4999016194
6132847389,9434,1,0,4534.8762705168,45620.6012198897,-536.1087220188,19967.6893620176,57499.0597216536,50474.3806564390,42471.1875804204,55690.3802597105,38566.3546513954,22578.4512308321
6132847389,9434,1,0,4526.3710504376,45622.7914053179,-536.7657776473,19952.9786165586,57497.7334426999,50484.7718695258,42472.9032256724,55690.9764768549,38569.8711157773,22581.1402918300
6132896973,9435,1,0,4531.3719738318,45626.1496896410,-531.0834632309,19966.0953937338,57504.9853900063,50480.6348526060,42474.8378894672,55697.3766853837,38572.8522014989,22581.9555275171
6132896973,9435,1,0,4530.9339367462,45618.0581712537,-536.1695605029,19966.8619586336,57497.0033808905,50469.8421055241,42469.4475997747,55689.8083779599,38567.1212162953,22579.1569572478
6132896973,9435,1,0,4515.7729865048,45617.2794386571,-543.1659861761,19949.1822951499,57488.2669745716,50477.0697174369,42468.0604823369,55686.4987644240,38566.9508685398,22578.9744417955
6132896973,9435,1,0,4522.1610273369,45622.3533682322,-537.2889886106,19961.9462091171,57495.6040957559,50476.1571401752,42473.1709150025,55693.6290347623,38569.7129357186,22577.9401875655
6132896973,9435,1,0,4540.2057217253,45622.3168651418,-531.7040157689,19981.0373254323,57501.7609503483,50470.6451735144,42469.8734691635,55692.9354760433,38566.2694775177,22573.2921273792
6132896973,9435,1,0,4535.5454938421,45621.4772940610,-533.2249778718,19967.0444740859,57496.1394744161,50478.7366919017,42468.7418733589,55688.9566391822,38565.2838940750,22572.0510223032
6132896973,9435,1,0,4530.1308687559,45626.4660497584,-533.5048348987,19964.6839409023,57499.7532803725,50484.1391492910,42476.4318577510,55694.8336367477,38568.8368615473,22571.4304697653
6132896973,9435,1,0,4537.8086854512,45626.3808758806,-528.4309053235,19986.3911120344,57506.5185198060,50478.8462011731,42481.0069117565,55700.2725972276,38571.5502579388,22571.7589975795
6132919281,9436,1,0,4532.6374143014,45623.3876224622,-533.0546301163,19975.8538865858,57501.3594163531,50481.7056099265,42480.7878932137,55695.1986676524,38571.3677424865,22572.0023515160
6132919281,9436,1,0,4523.0371015081,45624.0690134843,-534.5025860382,19960.8632840999,57497.5265918539,50487.4974336142,42480.7148870327,55695.1986676524,38576.3443304871,22573.5719844061
6132919281,9436,1,0,4535.5211584485,45625.3709570443,-526.5692477096,19974.1990798178,57503.1845708765,50482.3139947676,42480.4593653994,55700.1752556530,38579.7147825070,22571.4304697653
6132919281,9436,1,0,4536.6405865562,45622.4872128973,-527.3723157000,19971.0719817343,57498.3904983283,50481.5474298678,42475.7748021226,55694.0062333638,38577.6706094408,22572.9879349586
6132919281,9436,1,0,4518.4377121090,45623.9108334256,-531.3389848642,19949.9366923529,57492.6473454279,50490.1013207343,42475.6287897607,55691.5361909087,38577.0865599933,22577.0762810911
6132919281,9436,1,0,4523.3899647160,45628.5832290056,-527.7860173919,19963.7470282469,57500.7631992088,50481.2310697504,42478.6707139665,55697.5470331392,38577.5124293821,22576.9667718197
6132919281,9436,1,0,4540.1448832412,45624.4218766921,-530.0492090010,19978.6524568550,57501.7244472578,50471.9957878617,42476.2858453892,55693.6655378527,38570.4064944375,22573.2069535014
6132919281,9436,1,0,4533.8176808932,45622.5845544719,-538.3110751438,19959.4031604811,57493.3774072373,50477.2887359797,42474.0713245674,55687.1923231429,38565.9409497035,22571.3209604939
6132961173,9437,1,0,4525.3854669949,45625.3222862570,-536.4494175299,19956.8114410579,57495.2268971543,50480.8782065425,42479.1209187489,55689.8813841408,38567.9729550729,22571.8076683668
6132961173,9437,1,0,4530.2768811178,45624.5922244476,-529.7936873677,19973.9800612750,57500.8118699961,50471.5942538666,42479.0114094775,55691.4996878182,38568.2893151903,22572.4038855111
6132961173,9437,1,0,4528.3300496261,45621.9761696307,-531.5701711039,19961.9705445108,57499.2787401964,50478.3959963906,42477.5999566460,55688.0805650110,38566.8170238747,22575.9325175898
6132961173,9437,1,0,4526.6995782518,45625.2736154697,-531.3146494706,19951.7861822700,57504.8637130381,50484.7475341322,42482.0533336832,55692.0594018721,38571.3069040024,22578.8162617368
6132961173,9437,1,0,4541.0817958965,45625.3831247411,-526.2772229859,19967.8718774699,57514.2206718950,50481.7056099265,42482.9294078545,55698.6056227628,38572.1708104768,22578.0740322306
6132961173,9437,1,0,4540.9966220188,45623.0955977384,-525.9000243844,19965.2071518657,57511.2274184765,50483.9201307482,42483.0267494291,55696.5006112125,38571.0757177628,22579.9478575413
6132961173,9437,1,0,4520.0195126960,45623.5214671272,-530.5237491771,19947.1016189931,57502.9412169401,50490.3081715803,42482.2115137419,55695.8313878872,38574.2758220272,22583.0992910185
6132961173,9437,1,0,4523.9740141635,45626.1861927315,-527.0194524921,19965.1098102911,57509.5482763149,50485.3072481861,42483.6107988766,55703.8742354872,38578.4615097343,22585.1799671752
6132978245,9438,1,0,4536.6162511625,45625.5291371030,-528.4674084140,19979.1391647279,57508.2219973612,50482.6060194914,42479.4251111695,55700.9174851592,38576.9892184187,22582.6490862360
6132978245,9438,1,0,4528.7559190149,45625.2614477729,-535.9992127474,19959.5248374494,57500.6293545437,50487.5704397951,42475.7382990321,55694.9188106255,38577.0743922965,22583.4764896200
6132978245,9438,1,0,4526.5779012836,45628.3033719786,-531.8256927371,19959.5735082367,57504.8637130381,50485.6601113939,42475.4949450957,55700.2239264403,38579.6174409325,22584.0483713707
6132978245,9438,1,0,4535.7158415976,45625.0789323206,-526.9464463111,19973.9922289718,57507.9299726375,50478.0674685764,42474.5093616530,55702.8034781668,38578.2789942819,22583.8415205247
6132978245,9438,1,0,4526.9916029756,45621.9640019339,-532.7504376957,19960.3157377429,57503.1724031797,50484.9908880686,42473.9618152960,55697.7295485916,38575.3100762571,22584.5715823341
6132978245,9438,1,0,4522.7815798748,45628.5953967024,-530.3047306343,19959.9750422318,57506.9565568917,50491.8534690768,42483.3917803338,55704.8841543235,38580.0798134117,22585.5206626862
6132978245,9438,1,0,4537.5896669084,45632.3917181112,-522.0063614010,19986.5371243963,57516.5933727754,50485.8182914526,42488.9889208723,55709.8729100209,38582.4890173827,22586.1898860115
6132978245,9438,1,0,4534.0366994361,45630.8707560083,-525.6323350543,19982.0229088750,57509.9984810974,50486.0859807827,42487.3097787107,55702.9373228318,38578.6683605803,22584.7297623928
6133035296,9439,1,0,4518.2916997472,45633.6084877934,-530.8766123850,19963.1508111026,57504.0971481383,50489.8701344947,42489.8041565595,55702.3046025970,38578.4736774311,22583.9145267056
6133035296,9439,1,0,4527.9041802373,45633.7788355490,-524.8901055481,19976.6326191824,57509.3414254690,50483.2265720293,42490.4612121879,55706.4172841232,38580.2258257736,22583.1601295026
6133035296,9439,1,0,4538.8916104684,45629.4228000864,-526.3137260764,19982.8016414717,57510.3513443053,50479.0408843222,42484.1826806273,55701.6718823622,38575.7359456459,22581.4444842506
6133035296,9439,1,0,4533.2579668394,45631.9536810255,-530.6089230549,19965.7668659195,57512.5293620366,50489.5781097709,42485.8861581825,55702.7669750763,38578.4128389470,22583.6346696787
6133035296,9439,1,0,4532.7225881792,45636.0906979453,-524.6954223989,19975.4645202874,57523.9061585660,50489.1765757757,42492.0673481685,55712.2699462950,38583.1704084048,22585.5328303831
6133035296,9439,1,0,4537.8330208448,45634.1925372409,-523.8315159245,19988.3622789197,57523.3829476026,50479.2599028650,42490.6193922466,55710.3231148033,38580.2014903800,22585.1069609943
6133035296,9439,1,0,4527.4174723644,45631.1749484289,-531.4849972261,19968.0908960127,57508.8547175960,50481.6569391392,42488.6968961486,55702.3289379907,38575.3344116508,22585.8370228036
6133035296,9439,1,0,4526.1763672884,45631.1506130352,-532.8599469671,19961.6785197870,57504.0119742605,50482.7398641564,42488.7577346327,55702.1342548415,38575.0545546239,22583.4156511359
6133045665,9440,1,0,4544.2088939800,45631.2236192162,-523.0041125405,19982.2540951146,57512.7240451857,50480.7078587870,42488.3318652439,55703.7768939126,38574.8720391715,22582.3570615123
6133045665,9440,1,0,4543.6005091389,45628.4980551278,-528.3457314458,19971.9115528151,57508.7573760215,50483.5550998435,42485.5819657619,55699.1044983326,38572.9860461640,22583.0506202312
6133045665,9440,1,0,4532.4305634554,45634.2898788155,-532.3610713974,19962.3355754155,57512.6510390048,50489.0427311107,42488.4778776058,55703.2901860397,38578.2059881010,22587.4553264811
6133045665,9440,1,0,4539.3904860381,45634.9469344440,-528.6620915632,19983.8602310953,57522.2878548886,50482.0584731343,42489.2322748088,55708.1450970720,38579.6174409325,22586.7739354590
6133045665,9440,1,0,4546.5815948605,45630.9194267956,-530.5237491771,19989.5060424211,57520.4505326683,50481.1458958726,42486.4337045395,55707.6462215023,38576.0401380665,22583.2088002899
6133045665,9440,1,0,4538.4414056860,45631.4426377590,-533.3709902337,19974.0408997591,57516.5812050786,50491.3059227198,42488.4778776058,55707.2933582944,38578.0599757391,22583.4886573168
6133045665,9440,1,0,4545.7663591734,45636.7477535738,-524.9144409417,19985.6367148314,57525.0377543705,50493.6056174193,42495.5594771567,55717.2708696892,38586.0176494613,22587.3336495129
6133045665,9440,1,0,4550.7794502644,45634.0586925759,-524.3790622815,19991.1486814922,57523.6506369327,50486.8038748953,42492.9677577334,55715.2023612293,38584.1803272411,22585.9221966814
6133083285,9441,1,0,4536.3972326197,45633.0609414364,-533.2128101750,19970.4027584091,57515.6807955137,50493.5691143288,42491.8361619289,55708.8264880941,38582.3065019303,22586.6887615812
6133083285,9441,1,0,4534.5842457931,45635.1902883804,-533.0789655099,19974.2599183020,57516.6298758659,50488.1909923331,42491.3372863591,55709.3253636638,38581.5399370305,22584.4377376690
6133083285,9441,1,0,4548.2364016284,45633.3894692506,-530.2803952406,19993.9959225488,57518.7348874163,50482.1558147089,42488.4900453026,55707.0865074484,38578.8508760326,22581.6635027934
6133083285,9441,1,0,4539.8041877301,45629.7878309910,-540.0632234863,19978.8836430947,57508.1854942708,50486.9742226508,42484.5598792288,55698.4839457946,38575.7359456459,22580.2763853556
6133083285,9441,1,0,4523.9983495571,45629.7999986879,-546.4877674088,19966.3387476702,57503.4644279035,50487.7529552475,42485.7279781238,55699.7250508705,38578.7413667612,22581.5661612188
6133083285,9441,1,0,4523.5968155620,45623.2659454939,-545.1736561519,19978.3239290408,57505.3747563047,50471.9106139840,42482.6495508276,55700.7106343132,38575.0423869270,22580.2033791746
6133083285,9441,1,0,4522.4287166670,45612.2663475660,-550.4057657858,19968.3464176460,57492.2093083423,50469.5987515876,42474.5945355308,55690.6114459502,38568.6543460950,22579.6923359081
6133083285,9441,1,0,4516.6490606761,45611.9743228423,-553.6302054439,19949.5838291450,57485.0668703072,50478.8705365667,42471.0537357553,55686.5352675145,38568.6908491855,22579.7896774826
6133099305,9442,1,0,4530.8244274748,45617.1577616888,-544.2732465870,19966.9714679050,57493.9614566848,50477.5442576130,42474.4363554721,55692.6556190164,38572.1099719927,22581.4688196442
6133099305,9442,1,0,4536.9082758863,45616.7805630873,-542.7279490905,19974.3815952702,57493.3774072373,50473.1638867568,42470.8103818188,55688.4577636125,38568.2163090094,22582.5152415710
6133099305,9442,1,0,4520.5183882658,45619.4452886915,-549.5418593114,19954.8402741725,57492.6351777311,50483.8714599609,42471.0902388458,55688.3604220379,38568.9098677283,22585.0582902070
6133099305,9442,1,0,4523.0857722954,45628.8752537293,-544.0542280442,19965.0489718070,57507.9908111216,50484.8813787972,42477.2227580445,55700.5767896482,38574.0203003939,22585.7518489259
6133099305,9442,1,0,4539.9988708793,45630.9924329765,-539.1263108309,19983.9940757603,57519.1729245019,50479.7101076475,42480.2768499471,55706.8431535120,38573.1198908290,22585.9465320750
6133099305,9442,1,0,4534.9614443946,45629.0334337880,-544.2124081029,19968.5654361888,57512.9673991222,50488.2639985140,42481.1164210279,55704.0080801522,38572.2073135673,22587.5283326620
6133099305,9442,1,0,4525.9816841393,45631.4669731526,-542.5697690318,19962.9439602566,57513.0282376063,50491.5857797467,42485.8496550920,55708.6318049449,38578.8630437294,22589.8645304520
6133099305,9442,1,0,4533.7081716218,45627.1109376900,-538.3840813247,19979.7840526596,57514.0624918363,50481.3162436281,42484.8762393462,55709.0698420306,38579.5566024483,22590.2538967504
6133141857,9443,1,0,4531.0312783208,45620.2848597723,-547.5950278197,19966.1075614306,57504.2066574097,50479.6979399507,42477.5999566460,55699.6155415991,38575.0058838366,22588.9154500998
6133141857,9443,1,0,4525.3124608140,45619.5182948725,-553.1556652678,19947.3936437169,57500.1548143676,50489.0427311107,42475.8964790908,55697.8268901662,38577.7557833185,22588.9032824030
6133141857,9443,1,0,4536.8231020085,45621.2826109118,-547.9357233307,19962.3112400218,57506.4211782314,50481.3649144154,42475.8599760004,55703.8377323967,38579.5566024483,22589.8401950584
6133141857,9443,1,0,4538.8672750748,45617.1942647793,-547.1083199468,19963.3698296454,57499.8141188566,50477.2278974956,42471.8568037456,55698.3744365232,38575.8332872205,22589.8645304520
6133141857,9443,1,0,4521.9663441877,45618.0825066474,-551.5860323776,19942.5630680782,57490.6396754521,50483.3847520880,42470.5061893983,55694.2982580875,38573.3267416750,22589.1101332490
6133141857,9443,1,0,4524.5215605205,45624.5557213572,-548.2399157513,19955.6433421628,57500.5198452723,50479.9412938871,42477.4296088905,55699.7737216578,38574.7260268096,22586.7617677622
6133141857,9443,1,0,4536.5310772848,45621.7571510879,-549.6148654923,19971.5951926977,57505.9101349649,50472.4338249474,42477.3079319223,55698.8854797898,38569.5547556599,22581.2863041919
6133141857,9443,1,0,4531.2624645604,45620.4917106183,-558.6919673222,19957.6266767450,57500.4955098787,50479.1382258968,42476.9672364112,55694.9066429287,38567.8391104078,22580.6900870475
6133189430,9444,1,0,4526.9550998851,45624.2880320271,-556.6964650432,19958.5149186131,57504.5351852239,50483.5550998435,42484.8397362557,55701.5258700003,38576.2834920030,22581.7000058838
6133189430,9444,1,0,4533.8055131964,45622.2681943545,-550.4301011794,19972.1305713579,57507.7596248820,50475.0985505516,42483.1970971846,55703.2901860397,38575.1883992889,22579.4976527589
6133189430,9444,1,0,4530.7757566875,45619.4696240852,-551.8902247982,19961.5811782124,57501.7366149546,50481.3040759313,42481.2746010866,55698.9098151834,38574.2028158462,22580.4589008079
6133189430,9444,1,0,4530.3620549955,45624.1055165747,-546.0984011105,19957.5536705641,57505.6059425443,50489.9066375851,42486.7135615664,55703.5457076730,38579.7634532943,22583.7685143437
6133189430,9444,1,0,4548.6014325331,45625.6629817681,-537.3254917011,19977.7885503806,57510.6677044227,50478.6636857207,42489.2201071119,55708.9116619719,38578.0843111328,22583.2209679867
6133189430,9444,1,0,4550.9497980199,45619.6886426280,-544.0663957410,19974.2964213924,57502.6126891259,50473.0908805758,42484.8275685589,55701.5137023035,38571.4042455770,22582.2840553313
6133189430,9444,1,0,4532.4670665459,45619.8103195962,-555.7473846911,19952.7595980158,57497.0398839810,50480.1359770363,42485.6184688524,55697.7660516821,38571.9517919340,22584.2065514294
6133189430,9444,1,0,4531.4449800128,45621.0392569753,-554.8591428230,19967.5190142620,57505.3747563047,50472.6163403997,42485.5332949746,55701.0026590370,38574.1298096653,22580.9699440745
6133204410,9445,1,0,4539.6946784587,45618.4232021584,-556.6842973464,19975.4523525906,57509.1467423198,50468.4184849958,42482.0168305928,55699.1044983326,38572.0247981149,22580.0573668127
6133204410,9445,1,0,4534.6815873677,45618.9829162123,-562.3057732786,19956.6775963928,57503.0020554242,50476.8750342877,42480.2038437662,55695.7948847967,38571.3555747897,22581.7973474584
6133204410,9445,1,0,4535.4846553580,45625.3587893475,-555.2971799086,19958.9286203050,57509.3900962562,50478.7488595985,42483.2336002751,55704.8598189298,38576.6728583013,22583.4886573168
6133204410,9445,1,0,4543.3206521120,45627.4881362915,-551.9145601918,19972.9336393483,57511.7871325304,50471.9349493776,42481.6639673849,55708.6318049449,38572.7426922275,22585.0461225101
6133204410,9445,1,0,4532.9172713283,45625.6994848585,-559.2030105888,19959.2571481193,57504.7663714635,50476.0597986006,42479.3277695949,55705.2735206218,38568.9585385156,22585.6788427449
6133204410,9445,1,0,4528.3665527166,45631.8320040573,-560.0304139727,19957.5658382609,57507.2972524027,50479.0287166254,42484.1826806273,55708.4857925831,38571.3555747897,22587.2484756351
6133204410,9445,1,0,4542.9799566009,45629.3862969959,-557.5360361240,19977.0341531776,57509.4387670435,50464.9993621886,42482.1141721674,55708.6318049449,38567.8877811951,22584.6567562118
6133204410,9445,1,0,4542.7000995740,45622.4020390195,-563.6077168387,19966.1197291274,57499.2179017123,50467.6397523991,42474.6432063181,55696.7439651489,38563.5195780357,22584.9609486324
6133237780,9446,1,0,4526.5413981931,45619.2992763297,-569.7767391279,19943.5121484304,57489.3377318920,50473.9547870502,42472.7328779169,55692.2054142340,38564.5416645688,22587.5161649652
6133237780,9446,1,0,4529.9848563940,45619.3357794201,-562.6829718801,19958.6609309749,57493.3895749341,50467.5910816118,42473.4507720294,55695.1986676524,38566.3789867891,22586.0195382560
6133237780,9446,1,0,4536.5189095879,45615.7828119478,-562.0745870390,19966.8132878463,57492.5256684596,50463.6122447507,42469.8734691635,55689.4311793583,38561.7674296932,22583.0262848375
6133237780,9446,1,0,4525.6288209314,45615.9531597034,-564.0944247116,19951.6401699081,57490.7005139362,50478.5663441461,42471.6864559901,55688.7984591236,38562.9233608914,22585.4963272926
6133237780,9446,1,0,4527.3201307898,45623.9108334256,-556.7938066178,19963.5401774009,57501.5297641086,50478.3716609970,42478.9019002061,55699.2261753008,38568.5448368236,22588.7085992539
6133237780,9446,1,0,4534.6937550645,45624.1055165747,-554.1777518009,19978.7011276423,57505.5816071507,50469.3675653480,42479.0965833553,55701.6962177559,38567.5470856841,22590.3999091122
6133237780,9446,1,0,4520.0073449992,45621.1244308531,-562.9628289071,19959.0259618796,57496.0421328415,50471.9714524681,42475.3002619465,55694.5659474176,38564.0306213023,22585.6910104418
6133237780,9446,1,0,4517.3304516982,45626.0401803696,-562.2571024913,19957.1156334784,57500.0209697026,50476.4856679894,42477.8433105825,55698.0945794963,38567.3402348381,22585.4963272926
6133271198,9447,1,0,4537.6748407861,45629.2524523308,-553.3625161138,19977.0828239649,57507.3459231900,50467.7249262769,42479.8144774678,55698.9219828802,38565.8314404321,22587.6013388430
6133271198,9447,1,0,4541.9091992805,45624.0933488779,-558.6554642317,19967.3486665065,57495.6284311495,50465.9606102376,42475.6774605480,55687.3991739889,38559.8936043825,22586.3480660702
6133271198,9447,1,0,4531.2746322572,45623.2294424035,-563.4495367800,19952.0417039033,57489.3498995889,50471.8011047126,42479.3764403822,55687.4235093826,38561.2198833362,22585.9343643782
6133271198,9447,1,0,4532.7469235728,45619.2627732392,-563.0114996943,19965.7425305259,57491.3210664742,50460.5338174545,42480.0456637075,55689.4068439647,38562.1689636884,22579.3881434875
6133271198,9447,1,0,4533.4526499886,45615.5272903146,-568.7303172011,19968.0178898318,57490.8343586013,50461.9209348924,42478.0258260348,55688.4212605220,38561.6944235123,22577.2344611498
6133271198,9447,1,0,4525.7991686869,45618.0581712537,-572.1616077052,19953.9520323045,57492.0632959804,50474.3441533486,42479.7658066805,55691.6943709674,38564.2253044514,22579.9600252382
6133271198,9447,1,0,4535.7523446881,45626.1861927315,-562.8776550293,19970.1715721694,57503.4279248130,50474.3928241359,42484.3043575955,55703.1320059810,38570.0049604423,22581.7851797616
6133271198,9447,1,0,4544.3184032514,45625.5048017094,-560.5901280266,19978.6037860677,57503.3062478448,50466.9948644675,42481.5666258103,55703.0955028905,38566.3059806082,22580.7752609253
6133312762,9448,1,0,4526.6752428582,45625.8089941299,-566.8686595872,19956.1908885199,57493.0367117262,50472.3121479791,42476.6022055066,55697.4983623520,38564.2009690578,22580.9942794681
6133312762,9448,1,0,4521.4674686180,45627.8896702867,-563.0236673912,19955.5703359819,57495.7014373304,50472.7745204584,42476.3588515701,55699.8345601420,38564.1036274832,22581.8216828521
6133312762,9448,1,0,4537.8938593289,45627.0866022964,-557.3048498844,19976.0120666445,57501.2742424753,50464.2327972887,42475.2759265529,55699.1288337262,38564.1401305737,22580.8239317126
6133312762,9448,1,0,4532.4427311522,45621.9274988434,-567.2336904919,19963.0534695280,57494.8618662497,50470.7546827858,42474.5093616530,55693.1544945862,38562.5948330772,22579.1569572478
6133312762,9448,1,0,4520.9929284419,45624.6652306286,-567.9880876949,19955.9475345834,57495.9934620542,50481.8394545915,42481.4814519326,55698.3987719169,38570.5890098898,22581.6391673997
6133312762,9448,1,0,4528.3057142324,45627.6584840470,-562.3422763691,19977.0584885712,57500.9578823579,50477.3739098575,42485.7279781238,55706.1860978835,38572.9738784671,22582.0163660012
6133312762,9448,1,0,4531.4449800128,45623.1686039194,-565.1895174257,19973.5176887957,57495.4945864844,50472.5433342188,42481.7978120500,55700.6619635259,38570.7958607358,22580.0817022064
6133312762,9448,1,0,4525.8721748679,45624.8720814746,-565.0556727606,19957.7605214100,57494.9835432179,50479.5762629824,42481.5301227199,55697.1941699314,38570.1144697137,22582.6855893265
6133335494,9449,1,0,4535.8253508690,45627.4759685947,-557.7307192732,19974.3937629670,57504.5960237080,50471.6550923507,42482.5035384657,55701.0269944306,38569.6520972345,22581.2254657077
6133335494,9449,1,0,4541.7388515250,45624.6043921445,-557.8037254541,19985.4663670759,57504.3648374684,50468.2238018466,42481.2624333897,55699.2383429976,38566.0382912781,22582.4300676932
6133335494,9449,1,0,4526.3953858312,45625.9671741886,-565.1286789415,19966.6429400908,57496.9547101032,50478.3959963906,42480.9460732724,55696.7561328458,38566.6101730287,22586.1412152242
6133335494,9449,1,0,4525.1421130585,45629.6418186292,-561.2471836550,19970.2445783504,57501.9556334974,50478.6028472366,42483.7446435416,55705.4682037710,38572.4384998069,22587.5039972684
6133335494,9449,1,0,4539.6338399746,45628.6805705802,-554.8104720357,19983.1301692859,57505.0705638841,50471.4969122920,42480.8122286073,55705.0545020790,38572.3168228387,22586.8712770336
6133335494,9449,1,0,4536.1295432896,45624.7139014159,-559.3976937379,19965.4748411958,57497.2345671301,50480.4523371537,42476.9307333208,55698.8246413057,38570.2726497724,22587.3458172097
6133335494,9449,1,0,4530.8365951716,45631.0776068543,-557.7793900605,19960.5834270730,57501.2985778690,50488.6411971155,42483.0145817322,55703.7160554285,38576.2713243062,22588.3557360460
6133335494,9449,1,0,4537.7113438766,45633.4746431284,-555.1389998499,19979.7597172659,57507.4676001582,50479.1990643809,42486.3363629649,55708.0234201038,38576.2104858220,22586.3480660702
6133350357,9450,1,0,4533.3188053235,45631.3452961844,-562.7438103642,19975.8417188889,57503.4887632971,50480.3184924886,42487.3097787107,55705.8697377661,38571.6597672103,22581.7730120648
6133350357,9450,1,0,4528.0136895087,45636.4192257595,-564.9948342765,19966.7402816654,57505.4599301824,50485.4410928511,42491.0330939386,55709.2401897861,38572.9252076798,22583.8658559183
6133350357,9450,1,0,4547.5185075159,45640.0573671096,-559.8722339140,19985.4176962886,57514.5735351028,50475.2567306103,42496.2043650883,55715.9445907355,38573.1198908290,22584.6810916055
6133350357,9450,1,0,4554.3689208272,45632.5742335635,-564.8366542178,19985.9044041615,57508.6965375373,50468.8078512941,42491.4589633274,55710.7976549794,38565.7827696448,22582.5639123583
6133350357,9450,1,0,4537.3584806687,45629.2767877245,-571.8939183751,19962.8101155916,57500.5563483628,50476.4735002926,42490.0596781927,55706.4051164263,38565.0892109259,22583.3548126518
6133350357,9450,1,0,4535.7280092944,45631.0897745511,-568.5599694456,19970.1715721694,57505.3017501237,50472.2878125855,42489.6581441976,55711.9414184808,38567.5105825936,22583.4521542263
6133350357,9450,1,0,4546.9101226747,45628.5467259151,-569.0466773185,19980.2950959261,57504.0484773510,50465.2548838218,42480.4837007931,55704.8233158394,38562.9355285882,22583.1236264121
6133350357,9450,1,0,4538.8186042875,45624.7504045063,-576.4811400773,19960.9484579777,57494.2169783180,50472.3486510696,42473.8766414182,55693.4951900972,38559.7597597174,22585.4476565053
6133387582,9451,1,0,4532.0411971571,45627.2691177487,-576.2986246250,19957.5293351704,57493.8032766261,50475.4270783658,42472.5990332518,55693.2761715544,38562.5583299867,22585.0217871165
6133387582,9451,1,0,4539.2444736763,45625.0424292301,-570.6041425119,19972.7754592896,57495.9691266605,50467.9804479102,42472.6477040391,55692.8624698624,38560.8183493410,22582.6490862360
6133387582,9451,1,0,4534.1218733138,45623.1686039194,-571.9182537687,19960.4617501047,57491.1142156282,50476.3518233244,42471.7837975647,55691.0494830358,38561.1225417616,22581.7973474584
6133387582,9451,1,0,4534.0732025265,45631.6738239986,-564.5811325845,19955.2904789550,57498.9258769885,50490.8922210278,42481.2624333897,55701.4650315162,38570.7836930390,22585.9465320750
6133387582,9451,1,0,4552.3612508514,45638.2443802830,-551.9388955855,19978.6889599455,57513.2594238459,50485.0152234623,42488.2710267598,55714.4357963295,38575.0180515334,22585.2408056593
6133387582,9451,1,0,4554.9286348810,45636.7964243611,-553.9222301676,19976.2919236714,57513.6244547506,50482.5695164009,42487.5044618599,55714.2532808771,38572.1951458705,22584.4742407595
6133387582,9451,1,0,4535.6063323262,45638.5729080972,-559.5680414935,19958.3689062512,57512.5780328239,50495.7592997570,42489.9745043150,55716.2974539434,38575.0180515334,22584.3890668817
6133387582,9451,1,0,4539.8406908206,45645.2043028657,-553.5815346566,19976.9003085125,57525.5731330308,50494.0314868081,42498.4432213037,55727.7472566538,38583.1582407079,22585.5815011704
6133430268,9452,1,0,4557.3256711552,45644.0727070612,-555.1389998499,19992.0612587539,57528.7489019015,50486.4753470810,42497.7009917975,55726.5791577588,38581.1018999449,22583.7320112533
6133430268,9452,1,0,4554.4662624018,45641.0551182491,-565.7735668732,19974.0165643655,57517.5911239149,50485.2464097019,42492.1403543495,55715.7255721927,38578.0478080423,22582.6004154487
6133430268,9452,1,0,4556.1332368665,45641.2132983078,-566.6861441349,19975.2820048351,57516.8002236214,50483.6767768118,42493.8073288142,55715.7985783737,38579.5687701452,22581.2863041919
6133430268,9452,1,0,4564.6141215521,45639.5463238430,-563.9727477434,19993.1806868616,57516.9949067706,50479.1138905032,42491.1061001195,55716.7719941195,38578.1694850105,22581.9676952139
6133430268,9452,1,0,4553.7483682892,45635.9446855835,-570.6163102087,19973.9070550941,57508.2585004517,50480.7200264838,42487.0299216838,55708.8873265782,38572.2194812641,22580.9091055903
6133430268,9452,1,0,4545.2918189973,45638.1592064052,-571.7235706196,19963.8200344279,57509.3292577721,50481.9489638629,42491.1547709068,55710.6881457080,38572.5723444720,22580.6049131698
6133430268,9452,1,0,4560.0634029403,45637.5994923514,-567.1971874014,19983.4830324937,57516.2648449612,50471.3874030206,42494.8415830442,55715.4335474690,38571.3920778801,22578.3173861671
6133430268,9452,1,0,4562.0710729161,45631.4183023653,-571.4558812895,19980.0152388992,57508.1489911803,50472.4581603410,42491.9943419876,55708.9481650623,38567.8634458015,22576.6260763087
6133451604,9453,1,0,4546.7519426160,45635.2997976518,-574.5343085857,19967.4946788684,57507.6257802169,50486.1103161764,42496.0218496360,55712.8053249552,38570.7715253422,22578.4755662258
6133451604,9453,1,0,4549.7208606408,45642.5882480488,-565.2990266971,19986.3059381567,57518.5767073576,50480.9147096330,42499.9155126193,55721.9676006629,38573.6796048829,22579.9843606318
6133451604,9453,1,0,4556.6686155267,45642.1502109632,-564.9948342765,19991.6232216683,57517.7128008831,50475.1958921262,42496.9709299882,55718.2929562224,38569.1653893616,22576.6260763087
6133451604,9453,1,0,4550.5969348121,45642.8316019852,-570.0687638517,19972.7146208054,57513.8313055966,50479.4302506206,42493.8194965110,55714.0585977280,38567.1455516889,22576.9424364261
6133451604,9453,1,0,4555.4761812381,45643.1236267090,-565.2260205161,19976.9246439062,57515.9606525406,50473.5410853583,42494.0263473570,55715.3240381976,38565.0527078354,22576.0420268612
6133451604,9453,1,0,4564.5411153712,45636.3097164881,-563.6442199291,19987.4131985676,57513.2959269364,50464.3788096506,42488.3075298502,55709.8607423241,38560.1126229253,22574.3507170028
6133451604,9453,1,0,4551.9475491594,45633.0487737396,-572.2346138861,19969.7213673870,57501.5784348959,50472.7380173679,42485.4359534000,55702.5722919271,38558.0441144654,22577.4899827831
6133451604,9453,1,0,4541.3494852266,45633.2312891919,-571.3950428054,19966.5334308194,57500.2643236390,50476.5951772608,42486.8717416251,55705.6020484360,38563.1423794342,22578.4390631353
6133474793,9454,1,0,4549.5140097948,45629.1672784531,-567.3553674601,19986.5006213058,57503.6956141431,50467.6884231864,42484.8884070430,55707.3541967785,38564.1279628769,22577.8793490814
6133474793,9454,1,0,4545.5230052369,45622.5358836846,-572.9038372114,19977.7642149870,57495.0565493988,50473.6262592360,42481.6274642944,55703.1685090714,38564.3104783292,22579.8505159668
6133474793,9454,1,0,4535.0222828787,45622.9617530734,-576.8948417693,19965.7303628291,57492.5865069438,50483.0927273643,42485.2412702509,55706.9039919961,38571.1730593373,22583.7320112533
6133474793,9454,1,0,4542.9191181168,45627.3421239296,-569.7524037343,19982.6556291098,57502.8195399719,50481.8029515010,42487.3706171949,55714.6061440850,38576.8675414505,22585.1069609943
6133474793,9454,1,0,4547.1656443080,45626.8432483599,-568.6816464138,19981.7187164544,57502.9533846369,50481.2554051440,42483.8541528130,55710.4569594684,38576.1983181252,22584.9487809356
6133474793,9454,1,0,4539.8285231238,45631.8198363605,-567.7569014553,19962.3720785059,57502.6370245195,50489.2617496535,42483.7203081480,55709.6660591749,38576.1253119443,22586.8469416399
6133474793,9454,1,0,4550.3170777852,45638.1470387084,-557.8402285446,19975.5861972557,57510.8137167845,50484.0783108069,42487.2732756203,55715.9810938260,38578.0478080423,22584.8271039673
6133474793,9454,1,0,4556.3157523189,45635.5309838915,-557.5238684272,19989.1045084259,57509.3900962562,50475.4149106690,42484.8640716493,55713.3893744027,38571.5745933325,22582.8924401725
6133505580,9455,1,0,4537.4436545465,45633.0974445269,-566.7348149222,19972.3495899008,57502.9047138496,50483.7497829927,42485.7523135174,55710.5299656493,38569.9441219582,22582.2718876345
6133505580,9455,1,0,4535.5211584485,45637.4413122927,-561.1133389900,19977.0098177839,57510.2905058211,50485.4654282447,42492.8095776747,55716.6868202417,38575.1275608048,22580.7995963189
6133505580,9455,1,0,4555.1719888175,45638.6580819750,-555.9542355370,19998.0842686813,57520.8642343603,50478.5663441461,42495.4256324916,55722.8193394405,38573.9229588193,22577.7820075069
6133505580,9455,1,0,4557.5325220012,45638.9257713051,-562.5369595183,19989.2261853942,57518.2360118465,50483.9322984451,42497.2386193183,55719.1568626968,38572.6210152593,22576.3827223722
6133505580,9455,1,0,4545.6690175988,45641.2498013983,-567.0755104332,19979.1878355152,57517.0922483452,50488.9818926266,42503.2981323361,55724.4619785116,38578.9482176072,22579.7288389985
6133505580,9455,1,0,4545.7663591734,45639.4003114812,-565.9317469319,19993.7525686123,57517.5789562181,50477.6415991876,42504.6122435930,55727.6377473824,38581.2600800036,22579.8870190572
6133505580,9455,1,0,4539.6825107619,45631.9171779351,-575.5928982093,19984.1887589095,57507.0538984662,50473.8331100820,42497.1047746532,55717.0031803591,38577.9748018614,22578.1227030179
6133505580,9455,1,0,4531.5544892842,45631.5156439399,-581.5063988652,19966.5334308194,57500.9578823579,50481.4379205963,42493.2841178508,55711.2356920650,38579.3619192992,22580.6535839571
6133550213,9456,1,0,4546.1192223812,45636.5165673341,-573.8529175636,19982.4731136574,57510.1201580656,50475.9259539356,42493.9898442665,55716.5286401830,38581.3087507908,22582.4665707837
6133550213,9456,1,0,4554.7704548223,45632.5012273826,-574.0962715000,19989.8710733258,57508.1611588771,50469.3919007416,42485.6914750333,55711.1140150968,38575.8576226142,22583.2696387740
6133550213,9456,1,0,4535.2413014215,45628.5102228246,-583.9156028362,19964.6474378118,57496.2976544748,50469.2823914702,42477.2592611350,55703.4605337952,38572.3533259292,22582.4057322996
6133550213,9456,1,0,4522.8545860558,45626.0401803696,-585.7650927533,19962.3112400218,57494.5455061323,50462.2737981002,42473.6089520881,55702.4141118684,38569.7859418995,22578.8527648273
6133550213,9456,1,0,4530.8244274748,45619.0194193027,-586.2031298389,19971.4735157295,57493.0732148167,50453.0628516053,42464.7995395883,55693.5803639750,38562.8016839231,22572.6229040539
6133550213,9456,1,0,4528.7437513181,45615.2717686813,-590.8633577221,19953.0637904364,57482.8401817886,50457.6135702170,42456.7688596852,55681.6438533917,38556.8760155704,22570.3353770512
6133550213,9456,1,0,4524.2417034936,45616.2330167303,-588.7340107780,19946.9312712376,57478.5814879006,50460.6068236355,42457.6692692501,55679.9403758364,38556.4988169689,22567.5854775692
6133550213,9456,1,0,4535.3021399056,45615.6367995860,-581.4212249875,19967.6163558366,57484.0082806836,50452.0894358594,42460.5408457003,55682.3374121106,38552.8241725283,22563.9716716128
6133574289,9457,1,0,4532.1385387317,45613.2032602214,-583.3558887823,19963.0291341344,57480.0294438225,50454.6689875859,42461.6602738080,55678.3342398558,38550.0864407432,22564.1663547620
6133574289,9457,1,0,4523.6698217429,45616.0870043684,-586.3734775944,19950.2530524703,57479.7860898860,50462.4684812494,42468.4255132415,55679.1373078461,38553.8462590615,22568.8509180388
6133574289,9457,1,0,4538.2953933241,45621.0270892785,-578.7321639896,19971.6316957882,57491.3940726551,50456.6158190776,42477.0159071985,55689.9057195344,38558.4334807637,22573.9491830076
6133574289,9457,1,0,4547.7861968460,45619.6643072344,-578.3549653881,19980.9399838577,57493.6815996578,50456.6158190776,42478.9505709934,55689.9787257154,38558.7620085779,22577.9766906560
6133574289,9457,1,0,4535.3386429961,45621.3434493959,-581.1535356574,19965.2071518657,57491.4549111392,50471.5455830793,42484.7667300748,55696.1599157014,38562.0594544170,22583.5494958009
6133574289,9457,1,0,4539.0254551335,45628.3398750691,-572.6604832749,19977.8250534711,57503.4765956003,50471.9471170745,42493.2111116699,55707.8530723483,38569.9562896550,22584.6324208182
6133574289,9457,1,0,4556.6077770426,45629.2889554213,-567.6960629712,19993.4362084949,57509.8768041292,50462.2007919193,42494.0750181443,55712.1604370236,38567.3889056254,22582.3570615123
6133574289,9457,1,0,4558.1774099328,45631.3209607907,-573.2080296320,19979.3338478771,57505.6789487252,50468.7835159005,42494.8902538314,55708.6926434291,38565.5029126178,22580.7387578348
6133629363,9458,1,0,4558.3355899915,45635.7865055248,-574.8750040967,19977.6303703219,57508.6965375373,50467.8222678515,42495.8271664868,55710.1284316542,38565.9287820066,22579.2177957320
6133629363,9458,1,0,4564.4194384029,45632.0510226001,-577.4058850359,19992.6209728078,57508.9155560802,50454.3282920748,42491.1547709068,55706.7701473310,38560.7210077664,22573.9491830076
6133629363,9458,1,0,4550.8281210517,45625.9550064918,-590.0967928222,19979.6137049040,57497.3927471888,50459.8524264325,42484.0731713558,55696.5492819998,38554.3451346312,22571.5156436430
6133629363,9458,1,0,4537.6140023020,45627.3542916265,-591.4717425632,19968.5532684920,57496.6991884699,50469.6230869813,42485.1804317667,55698.3135980391,38557.1072018100,22574.6427417265
6133629363,9458,1,0,4550.4265870566,45630.6152343750,-581.3725542002,19986.8169814232,57507.7109540947,50462.8213444573,42486.1173444221,55704.7746450521,38561.0738709743,22575.3119650518
6133629363,9458,1,0,4555.0259764556,45626.9649253281,-586.4586514722,19981.1468347037,57500.7023607247,50460.8623452688,42480.2038437662,55698.9219828802,38558.6403316097,22574.7522509979
6133629363,9458,1,0,4543.3084844151,45629.6904894165,-592.6155060646,19960.5712593761,57497.0763870714,50472.4459926442,42482.6617185244,55701.4771992131,38563.0328701628,22574.1073630663
6133629363,9458,1,0,4547.5671783032,45634.0586925759,-587.2738871593,19975.9755635540,57508.8547175960,50471.3022291428,42490.3517029165,55714.0829331216,38571.0513823691,22575.3728035359
6133636554,9459,1,0,4557.1309880060,45632.6229043508,-585.2418817899,19991.1851845827,57512.2373373128,50469.9759501891,42491.7144849607,55717.7089067749,38571.4772517579,22577.3561381180
6133636554,9459,1,0,4553.5293497464,45632.9027613777,-586.4829868658,19975.8417188889,57508.8790529897,50479.9047907967,42495.4256324916,55717.0153480560,38573.6674371860,22582.5030738742
6133636554,9459,1,0,4555.4761812381,45637.9523555592,-580.8980140241,19977.5938672314,57514.4761935282,50478.3108225129,42498.4797243942,55722.2474576898,38579.4835962674,22585.7883520163
6133636554,9459,1,0,4561.5478619527,45631.2236192162,-578.8051701705,19986.3911120344,57510.8258844814,50464.6464989807,42493.4666333032,55717.6359005939,38576.9770507219,22582.0285336981
6133636554,9459,1,0,4545.0849681513,45623.3754547654,-587.1278747974,19962.3477431123,57495.6040957559,50467.7005908833,42484.4868730478,55704.8111481425,38570.4916683152,22579.7410066953
6133636554,9459,1,0,4534.0366994361,45625.6508140712,-585.6190803914,19952.0782069937,57492.6351777311,50475.1958921262,42487.3219464076,55704.2514340887,38572.6575183497,22581.0916210427
6133636554,9459,1,0,4549.1003081029,45627.6463163502,-575.4103827569,19975.9147250699,57499.8749573407,50465.0602006727,42485.7279781238,55703.3388568270,38570.9783761882,22581.9311921235
6133636554,9459,1,0,4554.5271008859,45624.1785227557,-578.0021021802,19975.3793464097,57494.9105370369,50464.3179711665,42480.3741915217,55693.6898732464,38566.8900300557,22582.5639123583
6133662603,9460,1,0,4544.7199372466,45625.5899755871,-584.8281800979,19958.0647138306,57490.9925386600,50472.5920050061,42479.9483221329,55691.6578678769,38568.1676382221,22583.6833404660
6133662603,9460,1,0,4552.2030707927,45629.3497939054,-579.5352319799,19974.3572598765,57498.9988831694,50468.0777894848,42483.3917803338,55699.2991814817,38571.0027115818,22584.3038930039
6133662603,9460,1,0,4560.9273094148,45627.6463163502,-580.7398339654,19984.9796592030,57504.6933652826,50464.5248220125,42483.2092648814,55702.4141118684,38568.0581289507,22583.3669803486
6133662603,9460,1,0,4551.5216797706,45628.5710613088,-587.5172410958,19971.8872174215,57501.7487826514,50473.2977314218,42486.1903506030,55704.2270986950,38569.8954511709,22582.4787384805
6133662603,9460,1,0,4556.5591062553,45632.3917181112,-580.9101817209,19981.3415178529,57511.7871325304,50474.0034578375,42492.7244037970,55716.4069632148,38575.3100762571,22582.8437693852
6133662603,9460,1,0,4567.2058409754,45631.3817992748,-574.2787869524,19994.6408104804,57515.7051309074,50467.9317771229,42494.6347321982,55717.9522607113,38573.9837973034,22580.2398822651
6133662603,9460,1,0,4557.4108450329,45632.5377304730,-575.3252088792,19976.6082837888,57510.4851889703,50479.0165489286,42494.4643844426,55717.0518511464,38575.9306287951,22585.1191286911
6133662603,9460,1,0,4549.5870159758,45635.9568532803,-571.8695829815,19971.6316957882,57514.5613674060,50482.4843425231,42498.0660227022,55721.3227127313,38577.9382987709,22590.1200520853
6133699340,9461,1,0,4563.4825257476,45637.7090016228,-564.3499463449,19993.9472517615,57522.3121902822,50472.5798373092,42499.4896432305,55725.5449035288,38578.9603853040,22588.8546116157
6133699340,9461,1,0,4562.7037931509,45631.9658487223,-570.4094593627,19983.1058338922,57511.3734308384,50472.0444586490,42492.0308450781,55713.7787407010,38572.4141644133,22587.7960219921
6133699340,9461,1,0,4550.0250530614,45631.2236192162,-574.0962715000,19969.1859887268,57505.8371287839,50478.3229902097,42491.2156093909,55713.0486788917,38573.6065987019,22588.4895807110
6133699340,9461,1,0,4552.0813938245,45629.2524523308,-570.1296023358,19983.8358957016,57507.1634077376,50465.3887284869,42492.4202113764,55713.2555297377,38573.7161079733,22588.0028728381
6133699340,9461,1,0,4551.6311890420,45623.6431440955,-570.8839995388,19987.3036892961,57504.6568621921,50461.4463947163,42490.7410692148,55706.4537872136,38566.9630362366,22589.9983751171
6133699340,9461,1,0,4543.1868074469,45624.2271935430,-575.3130411823,19970.4270938027,57500.8362053897,50469.5379131035,42490.9965908481,55701.6597146654,38564.3104783292,22591.7383557628
6133699340,9461,1,0,4553.8700452574,45628.7170736706,-567.8542430299,19984.3104358777,57511.0327353273,50465.0723683695,42494.9510923156,55707.1838490230,38565.6975957670,22590.8136108042
6133699340,9461,1,0,4565.8065558408,45625.5169694062,-570.8109933579,19995.4438784707,57510.9110583591,50457.0903592536,42489.6581441976,55703.1320059810,38559.1148717858,22585.2894764466
