steady_timestamp,sequence,battery,flags,EEG-ch1,EEG-ch2,EEG-ch3,EEG-ch4,EEG-ch5,EEG-ch6,EEG-ch7,EEG-ch8,EEG-ch9,EEG-ch10
5484796355,5937,-2,0,-6718.9535148413,-80258.3229272746,-35793.8232533199,-12641.3730925623,-80537.3160477278,-46803.4230280479,-80474.0561919454,-80462.3752029953,-80504.3780924281,-2417.3684955107
5484796355,5937,-2,0,-6717.6880743717,-80257.5563623748,-35783.6632264727,-12640.8742169926,-80536.4521412534,-46961.1528819637,-80472.6812422044,-80461.3044456749,-80503.0761488681,-2416.2855704935
5484796355,5937,-2,0,-6718.5398131493,-80258.5419458174,-35763.2823342943,-12641.0445647481,-80540.1389533907,-47114.3928557518,-80474.6889121802,-80462.0588428779,-80504.0739000076,-2417.3198247234
5484796355,5937,-2,0,-6717.7610805526,-80258.5419458174,-35757.3931690320,-12640.3753414228,-80542.0371140951,-47055.6228800970,-80474.7984214516,-80462.8132400810,-80504.8526326042,-2417.5145078726
5484796355,5937,-2,0,-6718.3207946065,-80258.7609643602,-35775.9124035965,-12639.8764658531,-80540.7108351414,-46868.0578335714,-80475.1756200531,-80461.9615013033,-80504.9013033915,-2418.1107250169
5484796355,5937,-2,0,-6718.5519808461,-80259.4058522918,-35794.4803089483,-12641.3122540782,-80539.1046991608,-46802.1454198815,-80475.8570110752,-80463.8961650982,-80504.1347384917,-2417.1859800584
5484796355,5937,-2,0,-6718.4789746652,-80259.6492062283,-35789.2968701018,-12640.5456891783,-80538.5936558942,-46943.1933614530,-80476.3193835544,-80463.0687617142,-80504.9256387852,-2417.8795387773
5484796355,5937,-2,0,-6718.3207946065,-80259.4788584728,-35767.9182267838,-12640.3388383324,-80541.4043938603,-47110.8642236732,-80475.4433093832,-80462.9714201397,-80504.3902601250,-2417.5631786599
5484820951,5938,-2,0,-6718.4546392715,-80259.7952185902,-35759.8632114871,-12641.0932355354,-80543.4363992298,-47086.9912025066,-80475.7231664101,-80463.7744881300,-80505.0229803597,-2417.5631786599
5484820951,5938,-2,0,-6719.5862350761,-80260.4644419154,-35778.0782536310,-12642.1031543717,-80542.3048034252,-46901.4703290472,-80475.7109987133,-80463.7744881300,-80505.2541665994,-2418.1593958042
5484820951,5938,-2,0,-6718.1017760637,-80260.0750756171,-35798.2036241761,-12641.5556080147,-80539.2263761290,-46803.2648479892,-80476.4045574322,-80463.2269417729,-80505.0108126629,-2416.4680859458
5484820951,5938,-2,0,-6718.9048440540,-80260.2089202822,-35796.8530098288,-12640.9228877799,-80538.4476435324,-46926.8886477103,-80476.2463773735,-80463.6041403744,-80505.1203219343,-2417.0399676965
5484820951,5938,-2,0,-6717.9679313986,-80259.1259952649,-35775.3040187554,-12640.2901675451,-80540.1267856939,-47105.1210707728,-80475.1877877499,-80462.4725445699,-80503.8183783743,-2417.2833216329
5484820951,5938,-2,0,-6718.4303038779,-80259.1259952649,-35763.9028868323,-12641.4582664401,-80541.6720831905,-47102.5536867431,-80475.1756200531,-80461.9006628192,-80504.5727755773,-2418.2324019851
5484820951,5938,-2,0,-6717.2622049829,-80258.2377533968,-35776.1070867457,-12640.2171613641,-80540.1511210876,-46925.4406917884,-80474.0805273390,-80462.3995383890,-80503.4046766823,-2416.7479429727
5484820951,5938,-2,0,-6718.2721238192,-80258.7609643602,-35799.7367539758,-12640.8863846894,-80538.5449851070,-46810.0057520291,-80475.8570110752,-80462.4603768731,-80504.5362724868,-2416.8331168505
5484886880,5939,-2,0,-6719.2942103523,-80260.1602494949,-35801.3793930469,-12641.9693097066,-80539.9807733321,-46908.3450777521,-80476.5870728845,-80463.4702957094,-80505.5948621104,-2418.0620542296
5484886880,5939,-2,0,-6718.8561732667,-80260.0020694362,-35779.9277435481,-12641.6286141956,-80541.2340461048,-47095.0340501065,-80476.2828804640,-80464.7722392695,-80504.9134710883,-2417.8430356868
5484886880,5939,-2,0,-6719.2577072619,-80260.3062618567,-35767.4436866078,-12641.7746265575,-80543.9961132836,-47124.3460317530,-80476.8304268210,-80463.7501527363,-80506.3857624039,-2419.1328115500
5484886880,5939,-2,0,-6717.4812235257,-80258.9069767221,-35777.7010550295,-12640.3753414228,-80540.4674812050,-46952.7693388527,-80474.6037383024,-80461.8641597288,-80503.9157199489,-2416.6871044886
5484886880,5939,-2,0,-6718.6614901175,-80259.4545230791,-35800.0166110028,-12640.9593908703,-80539.6279101242,-46813.8385765284,-80475.3824708991,-80463.1904386825,-80505.4366820517,-2417.3806632075
5484886880,5939,-2,0,-6718.0896083669,-80258.7244612698,-35803.5939138687,-12640.1441551832,-80537.7662525103,-46890.5437373002,-80473.6181548597,-80462.1075136652,-80502.9666395967,-2416.1030550411
5484886880,5939,-2,0,-6717.1405280147,-80257.4590208002,-35784.5271329472,-12640.1076520927,-80539.1533699481,-47079.0821995717,-80473.5451486788,-80462.2535260271,-80503.6236952251,-2416.4315828553
5484886880,5939,-2,0,-6717.7245774622,-80258.3837657587,-35768.5509470186,-12640.6917015402,-80540.7716736256,-47132.7782456513,-80474.8105891484,-80462.0953459684,-80503.6601983156,-2416.9912969092
5484891896,5940,-2,0,-6717.9435960050,-80258.9678152062,-35776.2774345012,-12640.8620492957,-80540.9663567747,-46983.3589286656,-80474.0075211581,-80462.2048552398,-80504.1104030980,-2417.9403772614
5484891896,5940,-2,0,-6717.5177266162,-80258.8096351475,-35799.1648722252,-12640.3996768165,-80539.4088915814,-46827.7827570874,-80474.8714276325,-80462.7402339000,-80505.1081542375,-2417.3563278139
5484891896,5940,-2,0,-6717.9679313986,-80259.9290632552,-35805.9787824460,-12640.2293290610,-80538.6423266815,-46872.0610058261,-80475.5041478673,-80463.0687617142,-80504.4754340027,-2417.3319924202
5484891896,5940,-2,0,-6719.6592412570,-80260.3427649472,-35789.3698762827,-12641.5069372274,-80540.9785244715,-47060.2831079802,-80475.8205079847,-80464.4558791521,-80505.6191975041,-2418.2445696820
5484891896,5940,-2,0,-6718.8926763572,-80260.0142371330,-35771.1548341387,-12641.6286141956,-80543.4485669266,-47140.9671056131,-80476.2342096767,-80463.0930971079,-80505.6800359882,-2418.4392528311
5484891896,5940,-2,0,-6718.4789746652,-80259.4058522918,-35774.9876586380,-12640.6430307529,-80542.6454989363,-47005.7596585166,-80474.5307321214,-80462.3143645112,-80504.4389309122,-2417.8065325963
5484891896,5940,-2,0,-6717.5542297066,-80258.3229272746,-35797.3518853985,-12640.0224782150,-80539.8104255765,-46834.3289779782,-80475.3094647181,-80462.4603768731,-80503.7940429806,-2416.6262660045
5484891896,5940,-2,0,-6718.1626145478,-80258.2012503064,-35808.3514833265,-12640.2171613641,-80537.9366002658,-46856.7662109197,-80474.9809369039,-80463.4702957094,-80504.4632663059,-2416.8209491537
5484912582,5941,-2,0,-6717.4082173448,-80258.1769149127,-35792.3387943075,-12640.9593908703,-80540.2727980558,-47039.0504770242,-80473.8128380089,-80462.0345074843,-80503.9522230393,-2416.2125643125
5484912582,5941,-2,0,-6718.6493224207,-80260.8173051233,-35773.3815226573,-12641.4947695305,-80542.4508157871,-47141.5268196670,-80476.2098742830,-80463.7136496459,-80504.8161295138,-2417.9890480487
5484912582,5941,-2,0,-6717.6515712812,-80259.9899017393,-35774.0385782858,-12640.7525400243,-80543.7162562567,-47026.7732709298,-80475.6379925323,-80464.6140592108,-80506.1424084675,-2417.5631786599
5484912582,5941,-2,0,-6718.1017760637,-80259.5640323505,-35795.3320477259,-12640.8985523862,-80541.6477477968,-46845.8517868695,-80476.4167251290,-80463.7744881300,-80505.4853528390,-2416.9304584251
5484912582,5941,-2,0,-6718.2356207287,-80260.5009450059,-35808.3393156297,-12640.6917015402,-80539.7617547892,-46836.7746850396,-80476.7817560337,-80463.9448358855,-80506.0815699833,-2417.1129738774
5484912582,5941,-2,0,-6718.2356207287,-80259.9168955584,-35795.0400230022,-12640.9228877799,-80540.8690152001,-47010.0913585856,-80476.2828804640,-80464.3950406679,-80505.8260483501,-2417.4536693885
5484912582,5941,-2,0,-6718.2112853351,-80259.2598399300,-35773.1016656304,-12640.4240122101,-80542.2317972443,-47137.5844858964,-80475.7840048942,-80463.9205004918,-80505.3515081740,-2417.8795387773
5484912582,5941,-2,0,-6718.3572976970,-80259.4423553823,-35772.0674114005,-12640.9715585672,-80542.4264803935,-47044.5502759882,-80475.5649863514,-80463.1052648047,-80505.2176635089,-2416.9912969092
5484944456,5942,-2,0,-6718.8926763572,-80258.6514550888,-35791.7182417695,-12640.7403723275,-80540.1754564812,-46859.9663151841,-80475.5406509578,-80462.3995383890,-80504.6579494551,-2417.8187002932
5484944456,5942,-2,0,-6718.8075024794,-80259.8803924679,-35809.1423836200,-12640.9228877799,-80539.8469286670,-46828.4641481095,-80475.7353341069,-80463.6649788586,-80505.8747191374,-2418.4149174375
5484944456,5942,-2,0,-6718.0896083669,-80259.3815168982,-35798.3861396285,-12640.8620492957,-80539.6522455178,-46989.7226341040,-80475.0417753880,-80463.1052648047,-80505.1933281153,-2417.0521353933
5484944456,5942,-2,0,-6717.5177266162,-80258.1647472159,-35777.2873533375,-12640.3145029387,-80541.1367045302,-47132.4618855339,-80474.1413658231,-80462.5698861445,-80503.5506890442,-2416.2855704935
5484944456,5942,-2,0,-6717.3717142543,-80258.0917410350,-35772.1647529750,-12640.0589813054,-80541.2097107112,-47067.6080614676,-80474.2873781850,-80461.8276566383,-80503.3925089855,-2417.7456941122
5484944456,5942,-2,0,-6718.3816330906,-80257.7753809176,-35791.5113909235,-12640.8498815989,-80539.1655376449,-46878.9722576216,-80474.0196888549,-80461.8398243351,-80503.0518134744,-2416.8817876378
5484944456,5942,-2,0,-6717.3108757702,-80255.9745617878,-35808.7530173216,-12640.4240122101,-80536.7806690676,-46817.4402147879,-80472.9976023218,-80459.6983096943,-80503.3560058950,-2416.7966137600
5484944456,5942,-2,0,-6717.7367451590,-80256.9114744431,-35802.5474919419,-12640.0103105181,-80537.9731033563,-46966.8716994705,-80473.1436146836,-80461.9858366970,-80502.8327949316,-2416.2855704935
5485009453,5943,-2,0,-6717.7002420685,-80257.1061575923,-35780.1710974845,-12639.9008012467,-80539.5062331560,-47129.2861166631,-80473.0949438963,-80461.0610917385,-80503.1734904427,-2417.5753463567
5485009453,5943,-2,0,-6719.1725333841,-80259.5518646537,-35775.0850002126,-12641.7259557702,-80542.0492817920,-47089.8992820473,-80474.2143720041,-80463.7014819490,-80504.6336140614,-2419.1206438532
5485009453,5943,-2,0,-6719.3428811396,-80259.0164859935,-35792.4604712757,-12641.8111296479,-80541.5747416159,-46902.3099001280,-80475.3581355054,-80462.5212153572,-80505.0594834502,-2418.1228927137
5485009453,5943,-2,0,-6718.6736578144,-80259.6857093188,-35811.5759229846,-12641.8598004352,-80539.7009163051,-46816.9900100055,-80475.2486262340,-80463.3972895285,-80504.7917941201,-2417.3441601171
5485009453,5943,-2,0,-6717.6515712812,-80259.2720076268,-35807.8891108472,-12640.2658321514,-80539.1898730386,-46941.6845670470,-80474.7132475738,-80463.3242833475,-80504.6579494551,-2417.0886384838
5485009453,5943,-2,0,-6718.0774406700,-80259.4301876855,-35786.0724304437,-12640.7647077212,-80541.4165615572,-47116.6073765736,-80475.1391169626,-80463.4459603158,-80504.5241047900,-2417.2954893298
5485009453,5943,-2,0,-6718.5763162398,-80259.5031938664,-35776.2165960171,-12641.3000863814,-80542.8401820854,-47107.8101317706,-80475.6988310165,-80464.0421774601,-80505.8868868342,-2417.7943648995
5485009453,5943,-2,0,-6717.9314283082,-80259.2720076268,-35791.0003476570,-12640.3996768165,-80541.2948845889,-46926.2559274755,-80475.2729616276,-80463.2147740761,-80504.1104030980,-2417.2711539361
5485015694,5944,-2,0,-6717.1283603178,-80259.8925601647,-35812.0991339479,-12639.6209442198,-80538.9951898894,-46813.7168995601,-80475.0417753880,-80462.3143645112,-80504.7674587265,-2416.4802536426
5485015694,5944,-2,0,-6718.7953347826,-80260.1115787076,-35812.0504631607,-12641.9206389193,-80539.4453946718,-46923.6033695681,-80476.1977065862,-80463.7136496459,-80505.5461913231,-2418.4392528311
5485015694,5944,-2,0,-6718.4668069684,-80258.6879581793,-35791.6695709822,-12640.8498815989,-80540.4309781145,-47105.2427477410,-80474.2752104882,-80462.7158985064,-80504.3902601250,-2417.5388432662
5485015694,5944,-2,0,-6718.4424715747,-80258.2620887905,-35778.2851044770,-12641.5312726210,-80542.2926357284,-47120.5618780411,-80474.0805273390,-80463.3607864380,-80504.5484401837,-2417.3806632075
5485015694,5944,-2,0,-6719.0751918095,-80259.6613739251,-35789.6010625223,-12642.1274897653,-80541.7085862809,-46950.8955135420,-80475.1147815689,-80463.1904386825,-80504.7552910296,-2418.7434452517
5485015694,5944,-2,0,-6718.3329623033,-80258.4567719396,-35811.6610968623,-12640.9958939608,-80538.9708544958,-46822.8061690869,-80475.6988310165,-80462.8740785651,-80505.2176635089,-2417.0643030901
5485015694,5944,-2,0,-6717.8705898240,-80258.4811073333,-35815.3965797870,-12640.5091860879,-80539.2385438259,-46903.6118436880,-80475.2607939308,-80463.2999479539,-80503.3195028045,-2417.2346508457
5485015694,5944,-2,0,-6718.0287698827,-80258.4811073333,-35796.3784696527,-12640.1319874864,-80540.6378289605,-47091.6879334802,-80474.1657012168,-80462.3873706922,-80504.0373969171,-2416.8331168505
5485042214,5945,-2,0,-6718.2356207287,-80258.9921505999,-35781.6555564969,-12640.8498815989,-80541.2827168921,-47140.5047331339,-80473.9953534612,-80461.9736690002,-80504.1225707948,-2418.0012157455
5485042214,5945,-2,0,-6718.2721238192,-80258.5541135142,-35792.1076080679,-12640.9837262640,-80541.2705491953,-46984.6487045288,-80475.0296076912,-80462.2413583303,-80504.7796264233,-2417.7335264154
5485042214,5945,-2,0,-6718.6858255112,-80259.0164859935,-35815.1410581537,-12641.6042788019,-80539.3602207941,-46836.0324555334,-80475.3824708991,-80463.3972895285,-80505.0229803597,-2417.4780047821
5485042214,5945,-2,0,-6718.0531052764,-80259.2720076268,-35821.8211237095,-12640.2049936673,-80539.8347609702,-46892.5392395791,-80475.9178495593,-80463.5311341935,-80504.1955769758,-2417.3319924202
5485042214,5945,-2,0,-6718.0287698827,-80260.5131127027,-35805.5285776636,-12641.0080616576,-80541.6842508873,-47081.7590928727,-80475.6258248355,-80463.6893142522,-80504.9864772693,-2417.1981477552
5485042214,5945,-2,0,-6717.0188510464,-80259.3328461109,-35787.8245787862,-12640.8742169926,-80542.3169711221,-47150.4579091350,-80475.4798124736,-80463.3729541348,-80504.8891356947,-2417.7213587186
5485042214,5945,-2,0,-6719.4888935015,-80260.8659759106,-35795.2833769386,-12642.1031543717,-80543.6310823789,-47011.6731591726,-80476.8304268210,-80464.5167176362,-80507.2618365752,-2419.0719730659
5485042214,5945,-2,0,-6718.8805086603,-80259.5518646537,-35817.0757219485,-12640.9593908703,-80540.6013258700,-46847.3362458819,-80475.9665203466,-80463.4216249221,-80505.5948621104,-2417.1373092711
5485073473,5946,-2,0,-6717.4933912225,-80259.7100447124,-35825.2524142135,-12640.9958939608,-80538.9465191021,-46875.9790042031,-80475.3824708991,-80463.5067987999,-80505.7408744723,-2416.6262660045
5485073473,5946,-2,0,-6717.8340867336,-80258.7731320570,-35810.5416687546,-12641.2027448068,-80540.7960090192,-47062.9113304940,-80476.4288928258,-80464.1760221251,-80505.7287067755,-2417.3076570266
5485073473,5946,-2,0,-6718.3329623033,-80259.0529890840,-35791.4627201362,-12640.5821922688,-80542.3048034252,-47160.8126191314,-80474.8835953293,-80463.2512771666,-80505.5583590200,-2417.4049986012
5485073473,5946,-2,0,-6718.1382791541,-80259.0773244776,-35794.2977934960,-12640.3753414228,-80542.5968281490,-47038.9166323591,-80475.3094647181,-80463.0200909269,-80504.3050862472,-2417.3928309044
5485073473,5946,-2,0,-6718.2842915160,-80259.1259952649,-35816.8202003152,-12640.8742169926,-80540.5891581732,-46862.4850284265,-80474.5915706056,-80462.5942215382,-80505.0716511470,-2417.4780047821
5485073473,5946,-2,0,-6718.5641485429,-80259.1381629617,-35827.5764443067,-12640.3996768165,-80537.9731033563,-46865.1740894243,-80474.8227568452,-80463.2634448634,-80504.8769679979,-2417.0764707870
5485073473,5946,-2,0,-6718.5033100588,-80259.5640323505,-35813.4132452048,-12640.9837262640,-80539.9686056352,-47041.8977180808,-80475.5041478673,-80463.8109912204,-80504.9864772693,-2416.9912969092
5485073473,5946,-2,0,-6719.0021856286,-80259.9533986489,-35791.9859310996,-12641.5191049242,-80543.0957037187,-47156.3227390037,-80476.1733711925,-80464.1273513378,-80506.0937376802,-2417.9525449582
5485117079,5947,-2,0,-6717.9922667923,-80258.0309025508,-35789.2847024049,-12640.7768754180,-80542.8645174791,-47056.7179728111,-80474.7862537547,-80463.0809294111,-80504.0373969171,-2417.6970233249
5485117079,5947,-2,0,-6718.7953347826,-80259.0286536903,-35810.6755134197,-12641.5677757115,-80540.4918165986,-46873.4237878703,-80475.1391169626,-80463.8231589173,-80504.9499741788,-2418.6582713739
5485117079,5947,-2,0,-6718.6493224207,-80257.9700640667,-35824.4980170105,-12642.4195144891,-80538.4233081387,-46842.7003533924,-80474.7254152706,-80462.4603768731,-80503.3438381982,-2417.3928309044
5485117079,5947,-2,0,-6718.8318378731,-80257.3373438319,-35811.6367614687,-12641.1419063227,-80538.1434511118,-47006.7939127466,-80474.3847197596,-80461.9006628192,-80503.2099935331,-2418.0620542296
5485117079,5947,-2,0,-6717.2622049829,-80257.0939898955,-35788.3599574464,-12640.7525400243,-80539.8469286670,-47144.6295823569,-80473.6546579502,-80461.9128305161,-80503.1491550490,-2417.9282095646
5485117079,5947,-2,0,-6717.1405280147,-80256.6072820226,-35783.2860278712,-12640.9593908703,-80540.2119595717,-47067.7297384359,-80473.1679500773,-80460.8907439829,-80502.7354533570,-2417.4658370853
5485117079,5947,-2,0,-6718.0287698827,-80257.7145424334,-35802.1824610372,-12641.0080616576,-80540.0416118162,-46879.1061022866,-80473.7763349184,-80461.5599673082,-80503.2343289268,-2418.1837311978
5485117079,5947,-2,0,-6718.5641485429,-80258.3959334555,-35818.9495472593,-12642.1274897653,-80538.8491775275,-46831.5669107994,-80475.1026138721,-80462.9714201397,-80503.5385213473,-2417.0643030901
5485162061,5948,-2,0,-6717.8949252177,-80257.6050331620,-35809.5804207056,-12640.3875091196,-80538.1677865054,-46985.3909340350,-80473.3261301360,-80461.9615013033,-80504.3050862472,-2416.6627690950
5485162061,5948,-2,0,-6718.2599561224,-80258.7487966634,-35789.5523917350,-12641.0202293544,-80541.7329216746,-47142.2690491732,-80475.0052722976,-80462.5942215382,-80504.9256387852,-2417.8552033836
5485162061,5948,-2,0,-6719.0630241127,-80259.2233368395,-35783.0061708443,-12641.2270802004,-80542.4508157871,-47097.0173846887,-80475.5163155641,-80463.4946311031,-80505.7773775628,-2418.0498865328
5485162061,5948,-2,0,-6718.3086269097,-80258.5297781206,-35799.5785739171,-12640.6186953593,-80540.7351705351,-46908.2964069649,-80473.8615087962,-80462.1561844525,-80503.8427137679,-2417.3928309044
5485162061,5948,-2,0,-6718.4789746652,-80258.2499210937,-35817.4650882469,-12641.3000863814,-80538.8978483148,-46827.2960492145,-80474.7132475738,-80462.6672277191,-80504.0860677044,-2418.6339359803
5485162061,5948,-2,0,-6718.0774406700,-80257.5806977684,-35811.0892151116,-12640.9715585672,-80537.5594016643,-46962.3453162524,-80474.2387073977,-80462.2778614207,-80503.2829997141,-2417.1859800584
5485162061,5948,-2,0,-6718.9291794476,-80259.4666907760,-35789.9174226397,-12641.4582664401,-80541.5017354349,-47133.5204751575,-80475.5528186546,-80463.0200909269,-80505.4001789613,-2417.4293339948
5485162061,5948,-2,0,-6718.0409375796,-80258.6636227856,-35779.4167002815,-12640.7525400243,-80541.5625739190,-47110.1098264702,-80474.8349245420,-80462.4238737826,-80504.2442477631,-2417.7578618090
5485167974,5949,-2,0,-6717.4933912225,-80257.9822317636,-35794.2612904055,-12640.6673661466,-80540.7838413224,-46926.2802628692,-80474.6889121802,-80463.0565940174,-80504.6336140614,-2417.9768803519
5485167974,5949,-2,0,-6718.6128193302,-80259.1016598713,-35814.8003626426,-12642.1761605526,-80538.8005067402,-46824.8746775468,-80475.1391169626,-80462.4968799636,-80504.6822848487,-2418.6096005867
5485167974,5949,-2,0,-6718.7344962985,-80258.1039087318,-35812.9387050287,-12641.1662417163,-80539.2263761290,-46933.8729056867,-80475.3703032022,-80462.5333830540,-80503.7088691029,-2417.3441601171
5485167974,5949,-2,0,-6718.3451300001,-80258.7974674507,-35790.0877703952,-12640.8012108116,-80541.3070522858,-47110.4626896780,-80475.4676447768,-80462.9835878365,-80504.1225707948,-2417.7213587186
5485167974,5949,-2,0,-6718.4789746652,-80258.1160764286,-35776.9953286138,-12640.6186953593,-80541.9276048237,-47119.8804870190,-80473.6303225565,-80462.0710105748,-80503.9522230393,-2417.6240171440
5485167974,5949,-2,0,-6717.7732482495,-80257.9213932794,-35790.0634350016,-12640.7160369339,-80541.0880337429,-46945.0671867638,-80474.5550675151,-80462.6428923254,-80503.4655151664,-2417.5388432662
5485167974,5949,-2,0,-6717.5055589194,-80256.6924559003,-35810.0914639722,-12640.5943599656,-80537.9122648722,-46819.0463507686,-80473.4721424979,-80461.1462656162,-80503.1369873522,-2416.2490674030
5485167974,5949,-2,0,-6717.9314283082,-80257.2034991669,-35812.1964755225,-12640.3266706355,-80538.1069480213,-46911.0098033564,-80473.2409562582,-80461.4991288241,-80503.6115275283,-2416.4559182490
5485196894,5950,-2,0,-6718.5276454525,-80257.4103500129,-35792.5213097598,-12640.9593908703,-80540.3579719336,-47100.2296566499,-80474.3847197596,-80462.5455507509,-80503.5141859537,-2417.2224831488
5485196894,5950,-2,0,-6718.3938007874,-80259.1381629617,-35777.8348996945,-12641.4339310464,-80543.6310823789,-47133.0581026782,-80474.8714276325,-80463.2026063793,-80505.0108126629,-2418.8164514326
5485196894,5950,-2,0,-6719.0873595063,-80259.2841753236,-35786.8998338276,-12641.8841358289,-80541.6355801000,-46969.6337666493,-80475.2851293245,-80463.0079232301,-80505.2906696899,-2418.4879236184
5485196894,5950,-2,0,-6718.8075024794,-80259.6005354410,-35809.5925884024,-12642.0909866749,-80540.9176859874,-46827.9166017525,-80475.1877877499,-80463.1174325015,-80505.3636758708,-2418.3419112565
5485196894,5950,-2,0,-6718.4424715747,-80259.7708831965,-35814.2771516792,-12641.6042788019,-80539.3358854004,-46891.9673578285,-80475.7840048942,-80462.9227493524,-80505.3758435676,-2417.7091910218
5485196894,5950,-2,0,-6717.5663974035,-80258.2499210937,-35793.7989179262,-12640.9958939608,-80539.8834317575,-47079.5567397478,-80475.3703032022,-80462.4968799636,-80504.3780924281,-2417.0521353933
5485196894,5950,-2,0,-6718.8196701762,-80259.4180199887,-35778.2851044770,-12641.7867942543,-80543.2295483838,-47145.0311163520,-80475.2729616276,-80463.7623204331,-80505.4123466581,-2418.2932404693
5485196894,5950,-2,0,-6718.7344962985,-80259.3328461109,-35785.5613871771,-12640.9593908703,-80542.1587910634,-47000.0165056162,-80475.4919801705,-80463.2877802571,-80505.2906696899,-2418.2202342883
5485233274,5951,-2,0,-6718.0044344891,-80258.6271196952,-35807.4024029743,-12640.6795338434,-80539.5549039433,-46840.8508634753,-80474.1413658231,-80462.7158985064,-80504.6457817582,-2417.3441601171
5485233274,5951,-2,0,-6718.6371547239,-80259.7708831965,-35816.8080326184,-12641.1297386259,-80539.5427362464,-46883.7054916857,-80475.2729616276,-80463.4824634062,-80505.7530421691,-2417.8065325963
5485233274,5951,-2,0,-6718.9656825381,-80260.0142371330,-35802.2432995214,-12641.4339310464,-80541.1853753175,-47072.0736062017,-80475.9178495593,-80463.2634448634,-80505.5218559295,-2417.6848556281
5485233274,5951,-2,0,-6716.9458448655,-80258.8096351475,-35782.5559660618,-12639.9494720340,-80542.3534742125,-47156.4322482751,-80474.9444338134,-80463.6649788586,-80504.4754340027,-2417.1616446647
5485233274,5951,-2,0,-6719.1360302936,-80260.1967525853,-35787.8854172703,-12641.3974279560,-80543.8014301345,-47032.3460760747,-80476.3437189481,-80463.7501527363,-80505.7165390787,-2418.4149174375
5485233274,5951,-2,0,-6717.9314283082,-80258.3959334555,-35809.2518928914,-12640.0103105181,-80539.6887486083,-46861.5602834679,-80474.6524090897,-80462.1805198462,-80504.1712415821,-2417.0399676965
5485233274,5951,-2,0,-6717.5907327971,-80258.2985918810,-35822.1496515237,-12641.2270802004,-80538.3868050483,-46872.3895336404,-80474.5672352119,-80462.2413583303,-80505.0351480566,-2416.8087814569
5485233274,5951,-2,0,-6717.0310187433,-80258.0430702477,-35807.4145706711,-12639.6452796135,-80539.5427362464,-47052.8729806150,-80473.9101795835,-80461.7424827605,-80503.5263536505,-2416.7114398823
5485255844,5952,-2,0,-6717.8097513399,-80258.4446042428,-35788.9926776812,-12640.8012108116,-80540.6864997478,-47168.0889018315,-80475.0904461753,-80462.4482091763,-80504.2199123694,-2418.0863896233
5485255844,5952,-2,0,-6718.5641485429,-80258.2377533968,-35789.8687518524,-12640.2901675451,-80541.3922261635,-47059.1515121757,-80474.4820613342,-80462.2656937239,-80503.6115275283,-2417.3563278139
5485255844,5952,-2,0,-6718.7831670858,-80257.8727224921,-35810.4929979673,-12641.1540740195,-80539.6400778210,-46875.2976131810,-80474.7862537547,-80463.9205004918,-80504.0860677044,-2417.9525449582
5485255844,5952,-2,0,-6717.5055589194,-80257.9943994604,-35823.8896321694,-12640.5213537847,-80537.6202401484,-46856.8635524943,-80474.1900366104,-80462.4360414795,-80504.5119370932,-2416.5775952172
5485255844,5952,-2,0,-6717.8340867336,-80259.4666907760,-35811.0648797180,-12641.7867942543,-80540.5526550827,-47026.5907554775,-80474.9444338134,-80463.3364510443,-80505.1203219343,-2417.2833216329
5485255844,5952,-2,0,-6717.5542297066,-80258.2134180032,-35788.7371560479,-12640.6917015402,-80541.9762756110,-47151.1758032476,-80474.7497506643,-80463.1417678952,-80504.7187879392,-2417.2711539361
5485255844,5952,-2,0,-6718.1504468510,-80259.6248708347,-35786.2062751087,-12640.9715585672,-80543.9596101932,-47066.5251364504,-80475.7961725910,-80463.8474943109,-80505.6191975041,-2418.0742219264
5485255844,5952,-2,0,-6718.8926763572,-80258.8218028443,-35807.3415644902,-12641.8598004352,-80541.2827168921,-46880.7244059641,-80476.6600790655,-80464.6262269076,-80505.4366820517,-2418.1228927137
5485314934,5953,-2,0,-6718.1504468510,-80258.4689396365,-35822.9405518172,-12640.6917015402,-80538.6666620752,-46839.5002491279,-80474.8227568452,-80462.8862462619,-80503.8183783743,-2416.4437505522
5485314934,5953,-2,0,-6717.7854159463,-80257.6172008589,-35815.1653935473,-12640.8012108116,-80539.5549039433,-47003.6911500567,-80474.0440242485,-80462.4482091763,-80504.4754340027,-2416.7114398823
5485314934,5953,-2,0,-6718.3086269097,-80258.4202688492,-35795.8309232957,-12640.9593908703,-80541.0758660461,-47160.7639483441,-80475.4068062927,-80463.4702957094,-80505.2176635089,-2417.4049986012
5485314934,5953,-2,0,-6717.8462544304,-80257.0818221987,-35790.1729442730,-12640.0224782150,-80541.2583814985,-47102.6145252272,-80474.0196888549,-80462.3143645112,-80504.1590738853,-2418.1228927137
5485314934,5953,-2,0,-6718.6006516334,-80258.7244612698,-35808.9598681676,-12641.8232973448,-80541.1610399239,-46912.5064300656,-80475.3338001118,-80462.5577184477,-80503.9157199489,-2417.6483525376
5485314934,5953,-2,0,-6718.7709993889,-80257.6537039493,-35826.6273639545,-12640.7890431148,-80538.1556188086,-46841.8242792211,-80474.4942290310,-80461.9736690002,-80504.0130615234,-2417.5388432662
5485314934,5953,-2,0,-6717.9314283082,-80258.2255857000,-35821.3100804429,-12640.8985523862,-80539.0073575862,-46980.5968614868,-80474.7740860579,-80462.6672277191,-80503.5506890442,-2417.0764707870
5485314934,5953,-2,0,-6718.4059684842,-80258.3107595778,-35798.9945244696,-12640.5943599656,-80541.3313876794,-47144.5565761759,-80474.7375829674,-80462.5333830540,-80504.6579494551,-2417.7335264154
5485320901,5954,-2,0,-6718.0896083669,-80256.9236421400,-35790.0512673048,-12640.8255462053,-80541.1732076207,-47116.4248611213,-80473.5573163756,-80462.1075136652,-80503.4411797728,-2417.0886384838
5485320901,5954,-2,0,-6717.9800990954,-80256.9844806241,-35806.8670243141,-12640.9350554767,-80539.6279101242,-46930.2590997303,-80473.6424902534,-80461.6573088828,-80503.2708320172,-2417.5145078726
5485320901,5954,-2,0,-6718.1139437605,-80257.1791637732,-35826.3475069276,-12641.0080616576,-80537.1700353660,-46829.0360298602,-80473.4843101947,-80461.2192717971,-80502.4677640269,-2417.1008061806
5485320901,5954,-2,0,-6717.7732482495,-80256.3152572988,-35821.7481175285,-12640.5943599656,-80537.5350662706,-46942.7309889738,-80473.2896270455,-80461.2557748876,-80503.0761488681,-2416.4194151585
5485320901,5954,-2,0,-6718.2964592128,-80256.5951143257,-35800.1991264551,-12640.9593908703,-80540.2727980558,-47117.2157614148,-80473.9588503708,-80461.8641597288,-80503.9765584330,-2417.1738123615
5485320901,5954,-2,0,-6718.0774406700,-80256.9479775336,-35787.4717155783,-12639.9738074277,-80542.0857848824,-47113.5289492774,-80473.3869686201,-80462.0466751811,-80502.7476210539,-2416.8087814569
5485320901,5954,-2,0,-6717.3352111638,-80256.5464435384,-35798.8241767141,-12640.1319874864,-80539.7495870924,-46935.4303708800,-80473.2287885614,-80461.3044456749,-80502.6867825697,-2417.1373092711
5485320901,5954,-2,0,-6718.3451300001,-80256.9114744431,-35820.0203045797,-12641.1297386259,-80537.3403831215,-46821.5042255268,-80473.9466826740,-80461.8763274256,-80503.7697075870,-2417.5388432662
5485359635,5955,-2,0,-6718.4181361811,-80255.8893879100,-35820.7138632986,-12640.6551984498,-80536.5373151312,-46920.2329175482,-80472.6082360234,-80461.3531164622,-80503.1004842617,-2417.1981477552
5485359635,5955,-2,0,-6718.7709993889,-80257.7753809176,-35801.3063868660,-12641.6894526797,-80539.5305685496,-47102.6510283177,-80473.6181548597,-80461.8519920320,-80503.3560058950,-2418.8529545231
5485359635,5955,-2,0,-6718.7588316921,-80257.3981823161,-35786.7538214658,-12641.4217633496,-80541.1367045302,-47128.3005332205,-80473.4843101947,-80460.9029116798,-80503.3803412886,-2418.5122590121
5485359635,5955,-2,0,-6718.1261114573,-80257.3130084383,-35797.8629286651,-12640.8863846894,-80540.0537795130,-46961.9802853477,-80474.0683596422,-80462.1440167557,-80503.8913845552,-2418.2324019851
5485359635,5955,-2,0,-6718.0409375796,-80257.5076915875,-35817.8544545452,-12640.3510060292,-80537.6932463293,-46823.6214047740,-80473.8493410994,-80461.6816442764,-80504.0739000076,-2416.8939553346
5485359635,5955,-2,0,-6718.7223286016,-80257.3981823161,-35822.2104900078,-12641.0567324449,-80537.7419171166,-46899.4748267682,-80474.9444338134,-80463.1174325015,-80504.5606078805,-2417.3684955107
5485359635,5955,-2,0,-6717.9800990954,-80258.0187348540,-35803.2532183577,-12640.7282046307,-80540.4431458113,-47089.2908972061,-80474.7497506643,-80462.7767369905,-80505.0351480566,-2417.0521353933
5485359635,5955,-2,0,-6718.4181361811,-80259.0043182967,-35789.0170130748,-12641.2149125036,-80542.7793436013,-47142.3298876573,-80475.8205079847,-80464.2246929124,-80505.7895452596,-2417.8917064741
5485382828,5956,-2,0,-6717.8097513399,-80258.6636227856,-35796.4514758336,-12640.5091860879,-80542.9010205696,-46990.3918574292,-80476.6235759750,-80463.7866558268,-80505.4245143549,-2417.8187002932
5485382828,5956,-2,0,-6718.2964592128,-80257.6050331620,-35818.8278702910,-12641.0445647481,-80540.6013258700,-46839.4880814311,-80475.2972970213,-80463.4337926189,-80504.8161295138,-2417.1859800584
5485382828,5956,-2,0,-6718.1626145478,-80257.5563623748,-35825.4957681500,-12641.0567324449,-80538.7518359529,-46884.7032428252,-80474.7375829674,-80462.2900291176,-80503.2586643204,-2417.3928309044
5485382828,5956,-2,0,-6718.0166021859,-80256.9114744431,-35808.1689678741,-12640.7768754180,-80538.2894634737,-47069.6400668371,-80473.7641672216,-80462.0588428779,-80502.7962918412,-2417.5145078726
5485382828,5956,-2,0,-6717.3838819511,-80256.4734373575,-35790.4771366936,-12640.5700245720,-80540.2241272685,-47148.8639408512,-80472.6082360234,-80460.8420731956,-80502.7597887507,-2417.6970233249
5485382828,5956,-2,0,-6718.9413471445,-80256.9479775336,-35795.5875693592,-12641.6286141956,-80541.7329216746,-47013.5591521801,-80473.5938194661,-80462.4117060858,-80504.2077446726,-2418.1593958042
5485382828,5956,-2,0,-6717.9557637018,-80256.4369342670,-35816.8932064962,-12640.3996768165,-80538.7883390434,-46841.2402297736,-80473.7033287375,-80461.8519920320,-80503.5871921346,-2417.5388432662
5485382828,5956,-2,0,-6719.1603656873,-80257.5076915875,-35825.7269543896,-12640.5091860879,-80537.4255569992,-46862.3876868519,-80474.5915706056,-80462.3265322080,-80503.9765584330,-2417.6483525376
5485412009,5957,-2,0,-6717.9070929145,-80257.2643376510,-35810.8093580847,-12639.8886335499,-80538.6788297720,-47047.0446538369,-80474.4455582437,-80462.6185569318,-80503.3803412886,-2417.5266755694
5485412009,5957,-2,0,-6718.1261114573,-80258.4202688492,-35791.0855215347,-12641.6164464988,-80541.1732076207,-47149.3628164210,-80474.9200984198,-80463.1296001984,-80504.7431233328,-2418.0133834423
5485412009,5957,-2,0,-6719.0386887190,-80258.4446042428,-35793.3243777501,-12641.4947695305,-80542.4508157871,-47034.3172429601,-80475.4433093832,-80463.1296001984,-80505.1203219343,-2419.5586809388
5485412009,5957,-2,0,-6717.8462544304,-80257.2156668637,-35814.1433070142,-12640.3145029387,-80538.6909974688,-46853.2984173252,-80473.4843101947,-80461.6208057923,-80502.6259440856,-2417.4658370853
5485412009,5957,-2,0,-6718.3572976970,-80256.0475679687,-35826.5300223800,-12641.1054032322,-80537.2917123342,-46843.1505581748,-80472.8759253535,-80461.0610917385,-80502.9788072935,-2416.7601106696
5485412009,5957,-2,0,-6718.7344962985,-80256.4369342670,-35812.8535311510,-12640.8985523862,-80537.8514263880,-47016.4063932367,-80473.2896270455,-80460.5865515624,-80503.0031426871,-2416.9182907283
5485412009,5957,-2,0,-6718.1504468510,-80256.6316174162,-35791.3410431680,-12641.4704341369,-80541.2583814985,-47144.5200730854,-80474.3238812755,-80462.2656937239,-80503.0883165649,-2418.5122590121
5485412009,5957,-2,0,-6717.6880743717,-80256.3152572988,-35789.3942116763,-12641.0080616576,-80540.7351705351,-47053.6395455149,-80474.5185644246,-80462.9227493524,-80504.3050862472,-2417.7335264154
5485440490,5958,-2,0,-6716.5078077799,-80256.1205741496,-35809.0693774390,-12639.3654225865,-80537.9366002658,-46864.7238846419,-80473.3748009233,-80460.6230546528,-80502.8327949316,-2415.9692103761
5485440490,5958,-2,0,-6718.5763162398,-80257.9335609763,-35825.7756251769,-12641.2149125036,-80539.2993823100,-46833.5015745942,-80475.8935141656,-80462.9835878365,-80504.0130615234,-2417.4536693885
5485440490,5958,-2,0,-6717.1648634083,-80256.2544188147,-35814.7151887649,-12640.1684905768,-80538.3381342610,-46994.0421664761,-80474.4333905469,-80462.9349170492,-80504.1104030980,-2416.9912969092
5485440490,5958,-2,0,-6718.1139437605,-80257.9457286731,-35794.0057687722,-12641.1175709290,-80541.7085862809,-47136.3068777300,-80475.1877877499,-80463.1904386825,-80504.8161295138,-2417.2468185425
5485440490,5958,-2,0,-6719.9999367681,-80259.3206784141,-35790.6474844491,-12642.4560175796,-80543.4607346234,-47072.6698233460,-80477.1954577257,-80464.6870653917,-80506.8481348832,-2419.3153270024
5485440490,5958,-2,0,-6718.6979932080,-80257.1548283796,-35808.1689678741,-12640.5456891783,-80539.9686056352,-46885.4211369377,-80474.8227568452,-80463.0930971079,-80504.6092786678,-2417.5510109631
5485440490,5958,-2,0,-6718.1382791541,-80257.4225177097,-35825.3375880913,-12640.8863846894,-80539.0195252830,-46822.2464550330,-80475.3824708991,-80462.1196813620,-80504.4510986091,-2417.2711539361
5485440490,5958,-2,0,-6717.2743726797,-80257.4711884970,-35817.8544545452,-12640.2049936673,-80537.6567432389,-46967.4314135243,-80474.7254152706,-80461.7424827605,-80503.5871921346,-2417.2589862393
5485475944,5959,-2,0,-6718.1626145478,-80256.8384682622,-35797.4005561858,-12640.7647077212,-80540.8811828970,-47130.4663832549,-80474.9200984198,-80462.3386999049,-80504.3294216408,-2417.6605202345
5485475944,5959,-2,0,-6718.4181361811,-80256.4734373575,-35789.3333731922,-12640.3753414228,-80542.1587910634,-47092.3936598960,-80474.9809369039,-80462.4725445699,-80504.1225707948,-2417.7578618090
5485475944,5959,-2,0,-6718.2964592128,-80256.5464435384,-35805.0905405779,-12641.0080616576,-80539.9807733321,-46902.5532540644,-80474.2022043072,-80461.9128305161,-80503.6967014061,-2418.0620542296
5485475944,5959,-2,0,-6717.7367451590,-80256.1084064528,-35824.1694891963,-12640.4483476038,-80537.2430415469,-46817.3550409102,-80473.8858441898,-80461.6694765796,-80503.0031426871,-2416.8087814569
5485475944,5959,-2,0,-6718.3572976970,-80256.6802882035,-35819.9959691860,-12640.9472231735,-80537.7175817230,-46945.1888637320,-80473.3382978328,-80461.7789858510,-80503.5628567410,-2417.3319924202
5485475944,5959,-2,0,-6717.8949252177,-80255.9380586973,-35798.6781643522,-12640.3753414228,-80538.6788297720,-47115.7921408865,-80473.5573163756,-80461.1584333130,-80503.0883165649,-2417.5023401758
5485475944,5959,-2,0,-6717.7610805526,-80255.6703693672,-35788.2017773877,-12639.5357703420,-80541.0515306525,-47106.9583929930,-80473.5694840724,-80461.1097625258,-80502.9909749903,-2418.0012157455
5485475944,5959,-2,0,-6717.9070929145,-80255.3783446434,-35802.9611936339,-12640.1076520927,-80539.0560283735,-46927.4848648546,-80473.1071115932,-80461.2071041003,-80502.6381117824,-2417.7821972027
5485503566,5960,-2,0,-6716.9093417750,-80255.6825370640,-35822.6850301839,-12640.4726829974,-80536.0019364710,-46816.2842835898,-80472.6934099012,-80461.3652841590,-80501.8958822763,-2416.1638935252
5485503566,5960,-2,0,-6718.6249870271,-80256.9114744431,-35823.4637627806,-12641.6772849829,-80538.4719789260,-46924.3090959838,-80474.2387073977,-80462.8375754746,-80503.9035522520,-2418.2689050756
5485503566,5960,-2,0,-6718.7709993889,-80255.5608600958,-35802.3163057023,-12640.5943599656,-80539.6644132147,-47107.6519517119,-80472.7055775980,-80461.5234642177,-80503.5750244378,-2417.3684955107
5485503566,5960,-2,0,-6718.6493224207,-80256.6924559003,-35789.8930872461,-12640.7282046307,-80540.8690152001,-47124.9665842910,-80473.7154964343,-80461.5234642177,-80503.9522230393,-2418.0133834423
5485503566,5960,-2,0,-6717.7854159463,-80257.1426606828,-35801.8295978294,-12640.9228877799,-80540.9420213811,-46953.9374377477,-80473.0827761995,-80461.7546504574,-80502.8327949316,-2417.2346508457
5485503566,5960,-2,0,-6718.2842915160,-80258.0430702477,-35824.4006754359,-12640.9472231735,-80539.7495870924,-46827.1135337622,-80474.3725520627,-80461.7911535478,-80505.3758435676,-2417.2468185425
5485503566,5960,-2,0,-6718.1017760637,-80258.1769149127,-35829.1582448937,-12640.8133785085,-80539.0560283735,-46911.8493744372,-80475.0904461753,-80464.2855313965,-80505.2663342962,-2416.9182907283
5485503566,5960,-2,0,-6718.5398131493,-80257.6780393430,-35810.0306254880,-12640.5943599656,-80539.5670716401,-47097.6744403171,-80474.7254152706,-80461.9980043938,-80504.1104030980,-2417.8552033836
5485534717,5961,-2,0,-6718.0896083669,-80256.7654620813,-35794.6749920975,-12639.6939504007,-80541.1732076207,-47143.5223219460,-80473.7519995248,-80461.9249982129,-80503.8913845552,-2417.4171662980
5485534717,5961,-2,0,-6717.7975836431,-80256.7654620813,-35804.1414602257,-12640.1076520927,-80540.5404873859,-46987.8731441869,-80473.6303225565,-80462.3143645112,-80503.1491550490,-2417.8065325963
5485534717,5961,-2,0,-6718.7466639953,-80258.2377533968,-35826.9680594656,-12641.1054032322,-80540.5283196891,-46837.1275482475,-80475.4311416863,-80463.5433018903,-80505.0229803597,-2418.2324019851
5485534717,5961,-2,0,-6717.8340867336,-80257.9335609763,-35832.5408646105,-12640.7890431148,-80538.2286249896,-46892.6730842442,-80474.9200984198,-80462.8984139587,-80505.1933281153,-2417.1008061806
5485534717,5961,-2,0,-6717.8097513399,-80257.4955238906,-35815.0802196696,-12640.1441551832,-80540.0172764225,-47082.8420178900,-80474.8957630261,-80462.9470847460,-80504.7796264233,-2417.1738123615
5485534717,5961,-2,0,-6718.6736578144,-80258.5541135142,-35798.4469781126,-12640.8742169926,-80543.1078714156,-47152.9401192869,-80476.1247004053,-80465.1129347805,-80505.8138806532,-2417.9647126550
5485534717,5961,-2,0,-6717.5420620098,-80257.3616792256,-35803.6304169592,-12640.1076520927,-80541.7085862809,-47011.0769420282,-80475.1877877499,-80463.5311341935,-80505.1081542375,-2416.9182907283
5485534717,5961,-2,0,-6717.5663974035,-80257.6172008589,-35825.2645819104,-12639.7061180976,-80539.7860901829,-46848.4556739896,-80474.4212228500,-80462.3873706922,-80504.0982354012,-2416.7357752759
5485590364,5962,-2,0,-6718.6006516334,-80257.5198592843,-35834.4998637990,-12640.8498815989,-80537.7297494198,-46878.8627483502,-80474.9809369039,-80462.1805198462,-80503.9887261298,-2416.9669615156
5485590364,5962,-2,0,-6719.2212041714,-80258.1769149127,-35820.0203045797,-12641.3244217750,-80539.6400778210,-47062.2299394719,-80474.8835953293,-80462.5698861445,-80504.3780924281,-2418.1107250169
5485590364,5962,-2,0,-6718.5033100588,-80256.9723129272,-35799.7367539758,-12641.5434403178,-80541.0150275620,-47157.2718193559,-80474.0075211581,-80462.3508676017,-80503.8792168584,-2418.4027497407
5485590364,5962,-2,0,-6718.6736578144,-80256.0719033623,-35802.2798026118,-12641.0932355354,-80540.3336365399,-47035.3028264027,-80472.8272545662,-80460.5622161687,-80502.7111179634,-2417.4293339948
5485590364,5962,-2,0,-6718.6371547239,-80256.6316174162,-35822.9527195140,-12640.8498815989,-80538.8370098307,-46856.9608940689,-80473.7641672216,-80461.1584333130,-80504.0252292203,-2417.6118494472
5485590364,5962,-2,0,-6718.2234530319,-80257.3860146192,-35835.0352424592,-12641.3730925623,-80537.6324078452,-46859.9054767000,-80474.1291981263,-80461.9980043938,-80503.8792168584,-2417.2103154520
5485590364,5962,-2,0,-6717.3838819511,-80256.4004311766,-35821.4682605016,-12639.6331119166,-80537.0970291850,-47037.9675520069,-80473.4721424979,-80461.4626257336,-80503.2829997141,-2416.0300488602
5485590364,5962,-2,0,-6717.6029004939,-80255.9137233037,-35801.4037284406,-12640.1563228800,-80540.9420213811,-47153.4389948567,-80474.0075211581,-80462.2656937239,-80503.2829997141,-2417.3198247234
5485608579,5963,-2,0,-6717.5420620098,-80256.0719033623,-35799.3960584648,-12639.9738074277,-80541.8059278555,-47055.3308553733,-80474.1170304295,-80462.0588428779,-80503.5871921346,-2417.6970233249
5485608579,5963,-2,0,-6718.8805086603,-80257.7632132207,-35820.7747017827,-12640.8620492957,-80540.1632887844,-46874.2025204670,-80474.1291981263,-80461.5599673082,-80503.4655151664,-2417.0886384838
5485608579,5963,-2,0,-6717.8219190367,-80256.8993067463,-35834.6337084640,-12641.5921111051,-80538.4963143197,-46847.3362458819,-80475.1877877499,-80462.7158985064,-80503.7697075870,-2417.2711539361
5485608579,5963,-2,0,-6717.9800990954,-80257.4590208002,-35824.4615139201,-12640.8742169926,-80539.5305685496,-47011.0769420282,-80475.3703032022,-80463.4824634062,-80504.7917941201,-2417.5145078726
5485608579,5963,-2,0,-6717.8097513399,-80257.8240517049,-35803.0220321180,-12641.1054032322,-80541.7572570682,-47151.0784616730,-80475.5163155641,-80463.3851218316,-80505.0838188439,-2417.5996817503
5485608579,5963,-2,0,-6718.4181361811,-80257.9092255826,-35799.7732570663,-12640.8620492957,-80543.3390576552,-47076.9163495372,-80475.7840048942,-80463.3486187412,-80505.9112222278,-2417.8308679900
5485608579,5963,-2,0,-6718.0652729732,-80256.8871390495,-35818.3046593276,-12640.3631737260,-80540.4188104177,-46885.4576400282,-80475.4189739895,-80462.4725445699,-80504.1225707948,-2416.6749367918
5485608579,5963,-2,0,-6717.9314283082,-80257.2400022574,-35834.5607022831,-12639.5844411293,-80538.4111404419,-46833.4772392006,-80474.3603843659,-80462.4360414795,-80504.0982354012,-2416.7114398823
5485630858,5964,-2,0,-6718.2234530319,-80256.4491019639,-35826.8098794069,-12640.6917015402,-80537.9731033563,-46987.5689517663,-80474.6037383024,-80462.5577184477,-80504.0252292203,-2417.4780047821
5485630858,5964,-2,0,-6718.9900179317,-80258.0795733381,-35806.1978009888,-12641.9449743130,-80541.6842508873,-47142.1717075986,-80474.7132475738,-80462.8862462619,-80504.9013033915,-2418.6947744644
5485630858,5964,-2,0,-6718.7223286016,-80257.0939898955,-35799.3717230711,-12641.1784094131,-80541.8911017333,-47093.6591003655,-80474.4455582437,-80462.5577184477,-80504.4267632154,-2418.7069421612
5485630858,5964,-2,0,-6718.6128193302,-80257.6050331620,-35816.2118154741,-12640.2293290610,-80540.1997918749,-46905.8506999034,-80474.9687692071,-80462.5212153572,-80503.5750244378,-2417.8065325963
5485630858,5964,-2,0,-6718.5519808461,-80257.3373438319,-35836.4831983811,-12641.0080616576,-80538.0826126277,-46826.2252918941,-80474.5428998183,-80463.1782709856,-80504.5362724868,-2417.1251415743
5485630858,5964,-2,0,-6717.7975836431,-80257.6415362525,-35831.3484303218,-12640.1441551832,-80539.2872146132,-46959.8266030100,-80474.3603843659,-80462.8375754746,-80504.5362724868,-2417.3563278139
5485630858,5964,-2,0,-6717.4325527384,-80257.3860146192,-35810.2131409404,-12640.8012108116,-80540.5648227796,-47130.0040107757,-80474.7010798770,-80462.3386999049,-80504.5362724868,-2418.3905820438
5485630858,5964,-2,0,-6717.9314283082,-80256.8871390495,-35800.8440143867,-12640.6308630561,-80542.1466233665,-47110.4261865876,-80474.1535335199,-80462.3508676017,-80503.5385213473,-2417.7700295059
5485660008,5965,-2,0,-6718.7831670858,-80256.3274249956,-35816.6255171661,-12641.6529495892,-80540.7108351414,-46927.2050078277,-80475.0296076912,-80462.2778614207,-80503.9035522520,-2418.3297435597
5485660008,5965,-2,0,-6718.5033100588,-80256.6316174162,-35837.4322787333,-12641.1419063227,-80538.2286249896,-46828.8535144079,-80474.5063967278,-80461.8641597288,-80504.1347384917,-2417.6726879313
5485660008,5965,-2,0,-6718.5641485429,-80257.1426606828,-35836.8603969826,-12641.6286141956,-80539.0560283735,-46942.1956103136,-80473.9101795835,-80461.6816442764,-80503.2221612299,-2417.9038741709
5485660008,5965,-2,0,-6718.3329623033,-80256.6437851130,-35814.9220396109,-12641.0567324449,-80539.8834317575,-47119.4424499334,-80473.7398318280,-80461.9736690002,-80503.5628567410,-2417.6240171440
5485660008,5965,-2,0,-6719.1360302936,-80257.7753809176,-35803.8616031988,-12642.0058127971,-80542.7793436013,-47127.5218006238,-80475.0052722976,-80464.1395190347,-80506.1789115579,-2418.8651222199
5485660008,5965,-2,0,-6718.0044344891,-80258.1525795191,-35815.9076230535,-12640.8620492957,-80541.4043938603,-46955.1177043395,-80475.1756200531,-80463.0322586238,-80504.8161295138,-2418.1350604106
5485660008,5965,-2,0,-6717.5420620098,-80257.3373438319,-35836.4223598970,-12639.8642981563,-80539.4575623687,-46827.6732478160,-80474.3238812755,-80463.0565940174,-80504.1347384917,-2416.8574522441
5485660008,5965,-2,0,-6718.7101609048,-80258.2377533968,-35837.8338127285,-12640.8620492957,-80539.7617547892,-46917.0328132837,-80475.7718371974,-80463.7379850395,-80505.5218559295,-2417.4293339948
5485704381,5966,-2,0,-6717.7610805526,-80257.1913314701,-35818.8643733815,-12640.4483476038,-80540.1267856939,-47105.1210707728,-80474.9079307230,-80461.9371659097,-80503.8792168584,-2416.9426261219
5485704381,5966,-2,0,-6718.1991176383,-80257.1548283796,-35803.2167152672,-12640.7768754180,-80542.1222879729,-47139.5313173880,-80474.3117135786,-80462.8862462619,-80505.1689927216,-2418.1350604106
5485704381,5966,-2,0,-6718.8318378731,-80257.0818221987,-35812.8413634541,-12641.4339310464,-80541.8059278555,-46974.9267147673,-80476.0395265275,-80463.3607864380,-80505.1324896312,-2417.9160418677
5485704381,5966,-2,0,-6718.0166021859,-80257.4590208002,-35833.8184727769,-12640.9228877799,-80539.3723884909,-46833.2095498705,-80475.1999554467,-80462.5942215382,-80503.9157199489,-2417.5510109631
5485704381,5966,-2,0,-6718.2964592128,-80257.2765053478,-35839.7563088265,-12640.7038692370,-80538.6909974688,-46898.9637835017,-80474.4942290310,-80463.3121156507,-80505.8625514405,-2416.8696199410
5485704381,5966,-2,0,-6719.4037196237,-80257.4590208002,-35822.1009807364,-12641.2635832909,-80540.6743320510,-47085.5797496751,-80475.3094647181,-80462.5942215382,-80504.1712415821,-2418.4270851343
5485704381,5966,-2,0,-6718.4668069684,-80256.3030896020,-35804.8228512478,-12640.6186953593,-80541.7815924618,-47147.6228357753,-80474.3968874564,-80463.0809294111,-80503.3195028045,-2418.2689050756
5485704381,5966,-2,0,-6716.9458448655,-80255.3783446434,-35810.9432027498,-12639.6574473103,-80539.2628792195,-47002.2310264380,-80472.4865590552,-80460.4405392005,-80501.3240005256,-2416.4924213395
5485723592,5967,-2,0,-6717.7124097653,-80254.2710842326,-35832.9667339993,-12640.3875091196,-80536.1357811360,-46842.3353224877,-80471.5618140967,-80459.7348127848,-80500.9468019241,-2417.1373092711
5485723592,5967,-2,0,-6719.3672165333,-80255.5121893085,-35842.2385189784,-12641.6164464988,-80536.8050044613,-46883.6324855047,-80472.9610992313,-80460.1485144767,-80502.6502794793,-2418.1472281074
5485723592,5967,-2,0,-6717.9800990954,-80254.5996120468,-35824.5953585851,-12641.1784094131,-80536.5008120407,-47069.2141974483,-80471.7443295490,-80460.0511729022,-80501.7985407017,-2417.1008061806
5485723592,5967,-2,0,-6719.3307134428,-80255.0376491324,-35806.4168195316,-12641.2392478973,-80539.9929410289,-47153.6701810963,-80473.8006703121,-80461.1584333130,-80502.6016086920,-2417.6240171440
5485723592,5967,-2,0,-6719.2820426555,-80255.9502263941,-35809.5560853120,-12641.5921111051,-80541.0150275620,-47024.7534332572,-80474.0196888549,-80461.5112965209,-80503.7940429806,-2418.5852651930
5485723592,5967,-2,0,-6717.8097513399,-80255.4391831276,-35829.7179589476,-12640.5456891783,-80538.1799542023,-46852.7873740586,-80473.2652916519,-80461.4382903400,-80503.4776828632,-2417.2346508457
5485723592,5967,-2,0,-6717.7732482495,-80255.9867294846,-35840.4011967581,-12641.1175709290,-80537.2917123342,-46865.4661141481,-80473.9831857644,-80461.5234642177,-80503.7210367997,-2418.1472281074
5485723592,5967,-2,0,-6718.1261114573,-80256.0354002719,-35825.4592650595,-12641.4947695305,-80538.6666620752,-47043.7350403010,-80473.8250057057,-80461.8641597288,-80502.6867825697,-2417.8308679900
5485755609,5968,1,0,-6718.2356207287,-80255.7920463354,-35806.2586394729,-12641.5434403178,-80541.6599154936,-47157.8071980161,-80473.3991363169,-80462.3265322080,-80503.1856581395,-2418.3054081661
5485755609,5968,1,0,-6718.5276454525,-80256.0110648782,-35808.1811355710,-12641.2514155941,-80539.9807733321,-47054.2966011433,-80474.2022043072,-80461.5599673082,-80503.5506890442,-2418.6217682835
5485755609,5968,1,0,-6719.1847010809,-80256.8871390495,-35830.3506791824,-12641.3730925623,-80538.8248421339,-46872.2678566721,-80473.3382978328,-80462.5455507509,-80503.2464966236,-2418.6704390708
5485755609,5968,1,0,-6717.8219190367,-80255.6460339735,-35842.8712392132,-12640.4118445133,-80537.1213645787,-46855.3425903914,-80472.8759253535,-80460.6838931369,-80502.7232856602,-2416.7357752759
5485755609,5968,1,0,-6718.3938007874,-80254.7577921055,-35831.6769581361,-12640.5578568752,-80537.0605260946,-47027.4546619519,-80473.3017947423,-80460.8055701052,-80502.0175592445,-2416.9182907283
5485755609,5968,1,0,-6717.6637389780,-80254.8429659832,-35811.4907491068,-12641.0323970513,-80538.9951898894,-47160.4232528330,-80472.3283789965,-80459.3697818801,-80501.1658204669,-2416.8209491537
5485755609,5968,1,0,-6716.8850063814,-80253.9303887215,-35809.5317499183,-12640.2414967578,-80538.5206497133,-47078.6319947892,-80472.4743913584,-80460.0268375085,-80501.5308513716,-2416.6384337013
5485755609,5968,1,0,-6718.0044344891,-80254.7942951959,-35830.0951575491,-12640.0589813054,-80538.0217741436,-46896.1895486260,-80472.1701989378,-80459.9416636307,-80502.1635716064,-2417.0399676965
5485828520,5969,1,0,-6718.1261114573,-80254.9281398610,-35846.7649021965,-12640.3875091196,-80536.1844519233,-46855.6224474183,-80471.9025096077,-80459.6983096943,-80501.9932238508,-2416.6627690950
5485828520,5969,1,0,-6718.5154777557,-80254.7456244086,-35838.8680669584,-12641.5799434083,-80537.2308738501,-47011.9530161995,-80472.8637576567,-80460.6230546528,-80501.9688884572,-2417.8430356868
5485828520,5969,1,0,-6718.7101609048,-80255.0376491324,-35817.7692806674,-12641.9328066162,-80540.0172764225,-47163.2704938896,-80473.8980118867,-80461.3652841590,-80503.5020182569,-2418.5487621025
5485828520,5969,1,0,-6718.8926763572,-80255.8772202132,-35812.5858418209,-12641.2757509877,-80542.4386480903,-47105.1819092569,-80474.9687692071,-80462.6550600223,-80504.0495646139,-2417.5875140535
5485828520,5969,1,0,-6717.3108757702,-80255.5608600958,-35829.0365679255,-12639.8521304594,-80539.3480530973,-46913.8083736256,-80472.6812422044,-80461.2801102813,-80503.1126519585,-2416.7236075791
5485828520,5969,1,0,-6718.1504468510,-80256.2422511179,-35848.1641873311,-12641.0810678386,-80538.5936558942,-46846.5210101948,-80474.0318565517,-80461.7546504574,-80503.3195028045,-2417.2346508457
5485828520,5969,1,0,-6717.9314283082,-80255.6582016704,-35842.1046743133,-12640.7160369339,-80538.4598112292,-46989.4184416834,-80473.9101795835,-80460.9272470734,-80503.2343289268,-2417.3076570266
5485828520,5969,1,0,-6717.5542297066,-80255.5851954894,-35820.7990371764,-12639.5601057357,-80540.1754564812,-47153.6336780058,-80473.8980118867,-80460.9272470734,-80503.2343289268,-2417.2833216329
5485833418,5970,1,0,-6718.6858255112,-80255.9502263941,-35812.4033263685,-12640.3753414228,-80542.2683003348,-47126.2441924574,-80475.0661107817,-80462.6428923254,-80503.6723660124,-2417.9038741709
5485833418,5970,1,0,-6718.9291794476,-80256.9601452304,-35828.5498600526,-12641.8354650416,-80541.5504062222,-46943.0108460007,-80475.3216324149,-80463.1782709856,-80505.0229803597,-2417.8795387773
5485833418,5970,1,0,-6718.5763162398,-80256.6681205067,-35846.8744114679,-12641.9449743130,-80538.5693205006,-46845.6936068108,-80474.3360489723,-80462.6550600223,-80504.6457817582,-2417.7456941122
5485833418,5970,1,0,-6717.4325527384,-80255.6825370640,-35841.7153080150,-12639.7912919753,-80537.3403831215,-46960.3254785797,-80473.1801177741,-80460.4405392005,-80501.3970067065,-2416.7844460632
5485833418,5970,1,0,-6718.2599561224,-80255.4026800371,-35820.3123293034,-12640.8012108116,-80539.7860901829,-47137.4019704440,-80473.6181548597,-80462.1318490589,-80502.9909749903,-2416.7479429727
5485833418,5970,1,0,-6717.6150681908,-80254.6482828341,-35808.1446324805,-12640.6430307529,-80540.7838413224,-47134.3965493288,-80473.4234717106,-80460.8785762861,-80502.4677640269,-2417.0764707870
5485833418,5970,1,0,-6717.6515712812,-80254.2710842326,-35820.2879939098,-12640.4726829974,-80539.2263761290,-46954.3633071365,-80472.1215281505,-80460.3797007164,-80501.6768637334,-2417.4901724789
5485833418,5970,1,0,-6717.8462544304,-80253.4680162422,-35839.2209301663,-12640.5335214815,-80536.3426319820,-46837.4074052744,-80471.5009756125,-80460.0511729022,-80501.2388266478,-2416.8574522441
5485853444,5971,1,0,-6718.1504468510,-80254.5631089563,-35839.5494579805,-12641.2635832909,-80536.9753522168,-46936.2212711735,-80472.7542483853,-80461.2436071908,-80502.4555963301,-2417.2103154520
5485853444,5971,1,0,-6719.0265210222,-80255.9015556068,-35818.9008764720,-12641.2514155941,-80539.4818977623,-47118.8705681827,-80474.4455582437,-80462.1075136652,-80503.5506890442,-2417.6605202345
5485853444,5971,1,0,-6718.7831670858,-80256.2544188147,-35804.1171248321,-12641.9693097066,-80541.4043938603,-47145.2257995012,-80473.7763349184,-80462.2291906335,-80503.6723660124,-2419.0719730659
5485853444,5971,1,0,-6718.2842915160,-80255.4878539148,-35814.7395241585,-12641.4095956528,-80540.9906921684,-46980.8037123328,-80473.2044531678,-80461.6573088828,-80502.9544718999,-2418.1593958042
5485853444,5971,1,0,-6718.6614901175,-80255.5730277926,-35835.6071242099,-12640.2049936673,-80537.5715693611,-46843.8076138033,-80473.5938194661,-80461.7668181542,-80502.7841241443,-2417.1373092711
5485853444,5971,1,0,-6717.6029004939,-80255.2688353720,-35838.2231790268,-12640.3996768165,-80537.2552092437,-46917.3005026138,-80473.3991363169,-80460.7934024084,-80502.6259440856,-2417.7456941122
5485853444,5971,1,0,-6718.1139437605,-80255.8528848195,-35818.6696902323,-12640.8012108116,-80539.3115500068,-47108.0291503134,-80473.0706085027,-80461.7303150637,-80502.8449626284,-2417.6118494472
5485853444,5971,1,0,-6718.5276454525,-80255.9988971814,-35802.6448335165,-12640.8133785085,-80541.7572570682,-47160.8734576155,-80474.1535335199,-80462.5820538413,-80503.4898505601,-2418.7556129485
5485887264,5972,1,0,-6717.7975836431,-80255.3783446434,-35810.1888055467,-12640.9107200830,-80540.1267856939,-47006.7817450497,-80473.4113040137,-80461.1706010099,-80502.9058011126,-2418.2445696820
5485887264,5972,1,0,-6719.6714089538,-80256.8749713527,-35833.0519078771,-12641.6772849829,-80539.9807733321,-46856.4498508023,-80474.6402413929,-80463.4459603158,-80505.0959865407,-2419.3153270024
5485887264,5972,1,0,-6718.9170117508,-80256.3395926925,-35837.6634649729,-12641.4460987432,-80538.2042895959,-46902.5897571549,-80475.0904461753,-80462.5577184477,-80504.4876016995,-2417.2103154520
5485887264,5972,1,0,-6717.3473788607,-80255.1836614943,-35819.4119197385,-12639.8399627626,-80538.7396682561,-47084.5819985356,-80473.2896270455,-80460.6838931369,-80503.3316705014,-2416.3829120681
5485887264,5972,1,0,-6717.3595465575,-80256.1692449369,-35800.4303126947,-12640.1806582737,-80542.0127787015,-47162.4552582025,-80473.4478071042,-80461.2679425844,-80502.7111179634,-2417.0521353933
5485887264,5972,1,0,-6718.2112853351,-80255.9380586973,-35805.4555714826,-12640.7038692370,-80540.9055182906,-47028.5497546660,-80473.6059871629,-80461.7303150637,-80502.9179688094,-2417.8308679900
5485887264,5972,1,0,-6718.3451300001,-80255.6095308831,-35825.7999605706,-12640.4118445133,-80538.1312834150,-46857.3745957608,-80472.8637576567,-80460.5135453814,-80502.4069255428,-2417.3441601171
5485887264,5972,1,0,-6717.6515712812,-80254.0155625993,-35834.7310500386,-12640.4361799069,-80535.6004024758,-46876.6238921347,-80471.9876834855,-80459.9903344180,-80501.8958822763,-2416.1638935252
5485939879,5973,1,0,-6717.7732482495,-80254.8916367705,-35818.2316531467,-12640.2779998482,-80538.6544943784,-47061.1956852419,-80472.8150868694,-80460.9029116798,-80502.1757393032,-2417.3198247234
5485939879,5973,1,0,-6718.0896083669,-80255.6947047608,-35797.8142578778,-12641.4217633496,-80541.1975430144,-47161.3114947011,-80473.6668256470,-80461.4261226431,-80502.3582547555,-2418.4392528311
5485939879,5973,1,0,-6718.5398131493,-80255.2444999784,-35799.3960584648,-12640.7282046307,-80540.9298536843,-47043.6498664233,-80473.6546579502,-80461.1340979194,-80502.6867825697,-2417.4415016916
5485939879,5973,1,0,-6718.9778502349,-80255.7433755481,-35819.1077273180,-12641.1297386259,-80538.9343514053,-46865.5756234195,-80474.0318565517,-80461.1706010099,-80503.1734904427,-2417.7335264154
5485939879,5973,1,0,-6718.0774406700,-80255.1349907070,-35830.3263437887,-12640.9350554767,-80536.7928367644,-46856.5836954673,-80474.0926950358,-80460.4892099878,-80502.2852485746,-2417.3684955107
5485939879,5973,1,0,-6717.2987080734,-80254.7456244086,-35816.2361508677,-12640.0711490023,-80537.8879294785,-47027.9170344312,-80473.0706085027,-80460.6108869560,-80502.4434286333,-2416.4194151585
5485939879,5973,1,0,-6717.5420620098,-80254.6361151372,-35793.4095516279,-12640.4240122101,-80540.6013258700,-47154.7652738104,-80472.5595652361,-80460.6595577433,-80502.9909749903,-2417.0643030901
5485939879,5973,1,0,-6717.7002420685,-80255.5486923990,-35793.2635392660,-12640.7525400243,-80541.7207539777,-47066.7928257805,-80473.7763349184,-80461.9493336065,-80503.6601983156,-2417.8795387773
5485947041,5974,1,0,-6718.4668069684,-80254.9038044674,-35811.9774569797,-12640.8133785085,-80539.9564379384,-46880.5540582085,-80473.9588503708,-80462.1926875430,-80503.2586643204,-2418.0985573201
5485947041,5974,1,0,-6717.9192606113,-80255.3418415530,-35826.7490409228,-12640.3753414228,-80537.8270909944,-46845.9977992314,-80472.9367638376,-80461.8763274256,-80503.8183783743,-2417.1129738774
5485947041,5974,1,0,-6718.8805086603,-80255.7920463354,-35816.7958649216,-12641.5069372274,-80539.1412022513,-47008.0593532162,-80474.4455582437,-80462.2170229366,-80504.0130615234,-2417.5145078726
5485947041,5974,1,0,-6716.7511617163,-80254.9889783451,-35794.0422718627,-12640.6795338434,-80539.0438606767,-47150.6769276779,-80474.2752104882,-80460.6717254401,-80502.3825901492,-2417.4049986012
5485947041,5974,1,0,-6717.9192606113,-80256.1449095433,-35788.9075038034,-12640.4605153006,-80541.4287292540,-47083.9127752104,-80473.6911610407,-80461.5721350050,-80503.1978258363,-2417.2954893298
5485947041,5974,1,0,-6717.3473788607,-80254.3805935040,-35807.1347136442,-12639.8156273690,-80539.9199348479,-46896.8344365576,-80472.9245961408,-80461.6573088828,-80503.3316705014,-2417.0886384838
5485947041,5974,1,0,-6718.4181361811,-80256.5951143257,-35825.7026189960,-12641.6286141956,-80539.0925314640,-46839.0013735582,-80475.0904461753,-80462.4482091763,-80504.6457817582,-2417.9525449582
5485947041,5974,1,0,-6717.4325527384,-80255.1349907070,-35818.3046593276,-12639.4992672516,-80538.7761713466,-46984.1011581718,-80473.7885026153,-80461.7181473669,-80502.8084595380,-2416.4072474617
5485977286,5975,1,0,-6718.2356207287,-80256.2909219052,-35797.0963637653,-12641.5191049242,-80540.5039842954,-47148.7422638830,-80473.8006703121,-80462.2048552398,-80503.2586643204,-2418.4757559216
5485977286,5975,1,0,-6719.0386887190,-80255.8042140323,-35791.5843971045,-12641.0445647481,-80542.1222879729,-47113.7358001234,-80474.2630427914,-80462.5577184477,-80503.9400553425,-2418.5000913152
5485977286,5975,1,0,-6718.2234530319,-80255.5730277926,-35807.7430984853,-12641.5191049242,-80539.6035747305,-46927.0103246785,-80473.0462731091,-80461.1219302226,-80503.5263536505,-2418.0255511391
5485977286,5975,1,0,-6718.6371547239,-80255.7798786386,-35827.7711274559,-12641.5191049242,-80538.3624696546,-46841.7634407370,-80473.5816517693,-80461.4991288241,-80504.1225707948,-2417.4536693885
5485977286,5975,1,0,-6718.8926763572,-80256.3395926925,-35824.2303276804,-12641.0080616576,-80538.3016311705,-46971.8482874711,-80473.8615087962,-80462.0588428779,-80503.9643907361,-2417.4415016916
5485977286,5975,1,0,-6719.2942103523,-80257.3616792256,-35803.8251001083,-12641.2392478973,-80541.5504062222,-47145.2136318044,-80475.3946385959,-80463.1904386825,-80504.4876016995,-2418.3297435597
5485977286,5975,1,0,-6718.0531052764,-80256.8506359590,-35792.7646636963,-12641.2392478973,-80542.6576666331,-47136.8787594806,-80474.7497506643,-80462.9714201397,-80503.8670491616,-2418.0863896233
5485977286,5975,1,0,-6717.5663974035,-80255.3296738561,-35807.9986201186,-12640.8742169926,-80541.6234124032,-46958.2448024230,-80474.2387073977,-80462.5820538413,-80503.3560058950,-2417.5145078726
5486007650,5976,1,0,-6717.8219190367,-80255.2201645848,-35829.1460771969,-12639.8034596721,-80538.2651280800,-46847.2389043073,-80473.1192792900,-80460.1850175672,-80501.8472114890,-2416.3585766744
5486007650,5976,1,0,-6717.8584221272,-80255.9867294846,-35829.2677541651,-12639.9738074277,-80537.9122648722,-46949.3502160455,-80473.7276641311,-80461.8884951224,-80502.7597887507,-2416.6140983077
5486007650,5976,1,0,-6718.4668069684,-80256.4734373575,-35809.2275574977,-12640.4726829974,-80539.3602207941,-47129.6511475678,-80473.8980118867,-80461.9249982129,-80502.7232856602,-2417.5510109631
5486007650,5976,1,0,-6717.6394035844,-80256.2909219052,-35797.1206991589,-12640.1198197895,-80540.9176859874,-47145.0797871393,-80473.7398318280,-80462.1196813620,-80503.5871921346,-2417.5145078726
5486007650,5976,1,0,-6718.2842915160,-80256.0110648782,-35808.7895204121,-12640.6673661466,-80540.8933505938,-46974.7807024054,-80474.4212228500,-80461.7668181542,-80503.6236952251,-2416.9182907283
5486007650,5976,1,0,-6719.3307134428,-80256.4612696607,-35832.2366721899,-12641.3487571687,-80539.1533699481,-46852.8603802395,-80474.9322661166,-80462.8740785651,-80504.2685831567,-2417.6970233249
5486007650,5976,1,0,-6719.0143533254,-80256.6559528099,-35836.9334031636,-12641.0567324449,-80538.8735129212,-46942.4632996437,-80474.6645767865,-80462.1318490589,-80503.7697075870,-2418.0985573201
5486007650,5976,1,0,-6717.2622049829,-80255.5486923990,-35817.0878896454,-12640.2536644546,-80539.4210592782,-47130.2473647121,-80474.1900366104,-80462.0101720907,-80502.5286025110,-2417.2346508457
5486060900,5977,1,0,-6718.4059684842,-80255.6216985799,-35801.8661009199,-12641.2879186845,-80541.7815924618,-47176.5454511234,-80474.6037383024,-80462.5333830540,-80503.7088691029,-2417.6726879313
5486060900,5977,1,0,-6719.1481979904,-80256.7289589908,-35811.9166184956,-12641.2149125036,-80542.1952941538,-47019.9106899217,-80475.2486262340,-80463.0444263206,-80505.2541665994,-2418.1593958042
5486060900,5977,1,0,-6719.0265210222,-80257.0331514114,-35834.3295160435,-12641.7016203765,-80540.2241272685,-46865.1619217275,-80476.3437189481,-80463.3121156507,-80504.1225707948,-2417.2833216329
5486060900,5977,1,0,-6718.7953347826,-80257.2034991669,-35838.8558992616,-12641.0445647481,-80538.9708544958,-46918.7606262326,-80475.2486262340,-80462.8497431714,-80504.3537570345,-2418.2324019851
5486060900,5977,1,0,-6717.9557637018,-80255.6582016704,-35818.7791995037,-12640.8498815989,-80539.4332269750,-47107.4329331691,-80474.3968874564,-80461.6694765796,-80505.1446573280,-2417.0521353933
5486060900,5977,1,0,-6716.9823479560,-80256.5342758416,-35802.1094548563,-12640.6551984498,-80541.1853753175,-47179.4900337546,-80474.1291981263,-80462.2656937239,-80503.8305460711,-2417.7456941122
5486060900,5977,1,0,-6717.9557637018,-80256.8506359590,-35809.1667190136,-12641.1419063227,-80542.5481573617,-47035.1203109504,-80475.1026138721,-80462.6063892350,-80503.8670491616,-2417.5510109631
5486060900,5977,1,0,-6717.6515712812,-80255.8528848195,-35830.7643808743,-12640.4240122101,-80539.7009163051,-46868.2160136301,-80473.2531239550,-80461.3896195527,-80503.6723660124,-2417.1008061806
5486068447,5978,1,0,-6717.3230434670,-80254.7577921055,-35840.5472091200,-12640.8620492957,-80537.4863954834,-46895.5933314817,-80473.2409562582,-80460.9759178607,-80502.9544718999,-2417.0764707870
5486068447,5978,1,0,-6718.3329623033,-80256.3030896020,-35824.2303276804,-12640.3631737260,-80539.1290345545,-47079.3742242954,-80474.2873781850,-80461.4626257336,-80503.9400553425,-2417.6240171440
5486068447,5978,1,0,-6718.8561732667,-80256.4125988734,-35806.8670243141,-12641.7502911638,-80542.7185051172,-47176.8131404535,-80475.1634523563,-80463.1539355920,-80503.5871921346,-2418.7312775549
5486068447,5978,1,0,-6717.5663974035,-80256.6437851130,-35808.9233650772,-12640.9228877799,-80541.9032694301,-47058.2511026108,-80474.3603843659,-80462.0710105748,-80504.1104030980,-2418.1715635010
5486068447,5978,1,0,-6718.0409375796,-80256.1935803306,-35830.3506791824,-12640.9958939608,-80540.0902826035,-46882.7442436367,-80474.4577259405,-80463.0322586238,-80505.1933281153,-2418.0012157455
5486068447,5978,1,0,-6717.8340867336,-80256.5951143257,-35842.1776804943,-12640.7768754180,-80538.9221837085,-46884.6424043411,-80474.2143720041,-80462.2900291176,-80504.1469061885,-2416.8696199410
5486068447,5978,1,0,-6717.9070929145,-80255.7068724577,-35829.5354434952,-12640.1198197895,-80539.0316929799,-47064.8094911983,-80474.6889121802,-80461.7424827605,-80503.1369873522,-2416.6384337013
5486068447,5978,1,0,-6716.8850063814,-80254.6361151372,-35809.3492344660,-12639.4870995548,-80541.0028598652,-47184.7221433884,-80474.2387073977,-80461.0002532543,-80503.3681735918,-2416.6992721854
5486098679,5979,1,0,-6718.9291794476,-80255.4270154307,-35810.5051656641,-12640.3510060292,-80541.9154371269,-47088.6825123650,-80473.5329809820,-80461.7546504574,-80503.1248196554,-2418.1472281074
5486098679,5979,1,0,-6718.9778502349,-80256.6194497194,-35831.9689828598,-12641.5069372274,-80540.3214688431,-46908.8804564123,-80474.5550675151,-80462.4968799636,-80504.1955769758,-2417.9525449582
5486098679,5979,1,0,-6719.4402227142,-80256.6681205067,-35846.4607097759,-12641.1054032322,-80538.0096064467,-46884.5450627665,-80474.4577259405,-80461.9006628192,-80503.7453721933,-2418.0133834423
5486098679,5979,1,0,-6718.5276454525,-80255.9745617878,-35835.7896396622,-12640.8133785085,-80539.2020407354,-47047.3975170447,-80474.5185644246,-80462.1196813620,-80503.2829997141,-2417.9038741709
5486098679,5979,1,0,-6718.6006516334,-80256.0110648782,-35814.4353317380,-12641.0080616576,-80541.0758660461,-47186.2552731881,-80475.0539430848,-80461.9615013033,-80502.9301365062,-2418.0377188360
5486098679,5979,1,0,-6717.5420620098,-80255.9502263941,-35811.3325690481,-12640.7647077212,-80541.4043938603,-47114.7578866565,-80474.5915706056,-80462.3630352985,-80503.8183783743,-2417.7578618090
5486098679,5979,1,0,-6717.7975836431,-80255.9988971814,-35831.5917842583,-12641.2270802004,-80540.9298536843,-46927.3145170991,-80473.6911610407,-80461.8763274256,-80503.6723660124,-2416.6262660045
5486098679,5979,1,0,-6717.9679313986,-80256.4004311766,-35848.5170505390,-12640.8620492957,-80539.1290345545,-46874.7135637335,-80473.8858441898,-80462.3873706922,-80503.6115275283,-2416.7966137600
5486126365,5980,1,0,-6717.3230434670,-80255.6338662767,-35841.3259417167,-12640.3631737260,-80539.1290345545,-47029.0364625389,-80473.2896270455,-80462.0345074843,-80504.0617323107,-2417.1373092711
5486126365,5980,1,0,-6718.6128193302,-80256.6194497194,-35820.3853354844,-12641.7016203765,-80541.8911017333,-47183.9434107918,-80475.4798124736,-80463.6284757681,-80504.9621418756,-2419.0111345818
5486126365,5980,1,0,-6719.1238625968,-80256.8263005654,-35813.0482143001,-12640.7890431148,-80542.6576666331,-47132.4497178371,-80474.8227568452,-80462.3386999049,-80504.3294216408,-2418.5000913152
5486126365,5980,1,0,-6718.6736578144,-80254.5266058658,-35828.5498600526,-12639.8399627626,-80539.6522455178,-46943.8990878688,-80473.1071115932,-80461.1949364035,-80503.4168443791,-2417.5145078726
5486126365,5980,1,0,-6719.1116949000,-80255.5851954894,-35847.4097901281,-12640.8012108116,-80538.8370098307,-46866.2448467448,-80473.6789933438,-80462.2900291176,-80504.3415893377,-2418.1715635010
5486126365,5980,1,0,-6717.3960496479,-80254.8551336801,-35842.0560035260,-12640.0711490023,-80537.5715693611,-46997.2666061342,-80473.0341054122,-80460.9759178607,-80503.1978258363,-2416.6871044886
5486126365,5980,1,0,-6718.4181361811,-80255.6825370640,-35820.4096708780,-12640.1684905768,-80540.8690152001,-47168.8554667313,-80474.3968874564,-80462.5820538413,-80503.2586643204,-2417.7578618090
5486126365,5980,1,0,-6718.1626145478,-80255.5243570053,-35811.7097676496,-12639.9008012467,-80541.6842508873,-47151.6990142110,-80473.9953534612,-80462.5820538413,-80504.1955769758,-2417.4049986012
5486179748,5981,1,0,-6718.1991176383,-80254.6604505309,-35827.1870780084,-12640.1563228800,-80540.0537795130,-46966.4336623849,-80474.1657012168,-80461.3896195527,-80501.7985407017,-2417.4293339948
5486179748,5981,1,0,-6717.7489128558,-80254.7334567118,-35846.8257406806,-12640.6065276625,-80537.7540848135,-46864.7117169451,-80472.3770497838,-80460.9637501639,-80502.4069255428,-2417.0764707870
5486179748,5981,1,0,-6718.5033100588,-80255.3418415530,-35845.8279895411,-12641.5434403178,-80537.9000971753,-46980.3048367630,-80473.9101795835,-80461.9128305161,-80503.1613227458,-2418.2689050756
5486179748,5981,1,0,-6717.8705898240,-80253.9182210247,-35824.2303276804,-12640.5821922688,-80540.0172764225,-47158.0018811653,-80472.6082360234,-80460.3918684132,-80501.4091744033,-2417.0399676965
5486179748,5981,1,0,-6718.4789746652,-80255.7433755481,-35812.2451463098,-12641.3852602591,-80541.5504062222,-47167.2980015380,-80473.8615087962,-80461.6694765796,-80503.0518134744,-2417.8187002932
5486179748,5981,1,0,-6718.5276454525,-80255.5973631863,-35826.2745007467,-12640.8133785085,-80541.3070522858,-46996.5365443248,-80474.2022043072,-80461.5721350050,-80503.5993598315,-2417.9647126550
5486179748,5981,1,0,-6718.0409375796,-80255.5851954894,-35847.7504856392,-12640.6186953593,-80538.2529603832,-46872.8275707260,-80473.2774593487,-80461.6816442764,-80503.5993598315,-2416.6506013982
5486179748,5981,1,0,-6717.2622049829,-80254.8429659832,-35849.9528387641,-12640.3266706355,-80538.2042895959,-46962.4061547365,-80473.7154964343,-80460.7812347115,-80503.6845337092,-2416.6019306109
5486206058,5982,1,0,-6717.6272358876,-80254.6604505309,-35831.0929086886,-12640.9593908703,-80539.2628792195,-47152.5020822013,-80473.2287885614,-80462.0101720907,-80503.0761488681,-2417.2589862393
5486206058,5982,1,0,-6718.6614901175,-80255.2566676752,-35818.0248023007,-12641.6651172861,-80541.8424309460,-47191.1953580983,-80473.7519995248,-80461.5234642177,-80503.2829997141,-2418.6217682835
5486206058,5982,1,0,-6718.0774406700,-80255.0254814356,-35829.1217418032,-12640.8133785085,-80541.1245368334,-47028.5619223628,-80473.3139624392,-80461.3774518558,-80503.0031426871,-2418.0255511391
5486206058,5982,1,0,-6718.7466639953,-80255.3540092498,-35851.8388317717,-12641.4460987432,-80538.4111404419,-46885.1291122140,-80474.2143720041,-80462.1440167557,-80502.7476210539,-2417.1008061806
5486206058,5982,1,0,-6718.0166021859,-80255.2931707657,-35857.2656245547,-12640.6795338434,-80537.9000971753,-46951.1510351753,-80473.3382978328,-80460.8785762861,-80502.4069255428,-2416.7236075791
5486206058,5982,1,0,-6717.8949252177,-80255.7677109418,-35840.1213397312,-12640.7647077212,-80539.7495870924,-47140.6994162830,-80473.8493410994,-80461.5721350050,-80503.8548814647,-2417.6240171440
5486206058,5982,1,0,-6717.3595465575,-80254.5266058658,-35824.4858493137,-12640.8133785085,-80541.0636983493,-47203.8010920068,-80473.5329809820,-80460.9880855575,-80502.2000746968,-2418.0133834423
5486206058,5982,1,0,-6717.3595465575,-80253.6870347850,-35831.4701072901,-12639.4262610706,-80539.2872146132,-47059.3340276280,-80471.5374787030,-80459.9538313276,-80501.8107083985,-2417.0886384838
5486223932,5983,1,0,-6718.0044344891,-80254.6726182277,-35855.0632714298,-12641.5677757115,-80538.8978483148,-46901.3364843821,-80472.4987267520,-80461.6329734891,-80502.9301365062,-2418.1107250169
5486223932,5983,1,0,-6718.8075024794,-80255.5243570053,-35863.3616406630,-12641.0932355354,-80537.8270909944,-46936.4159543227,-80473.4356394074,-80461.3166133717,-80503.3316705014,-2417.0643030901
5486223932,5983,1,0,-6719.2212041714,-80255.5973631863,-35846.8135729838,-12642.2248313399,-80540.2849657526,-47124.2000193911,-80474.3482166691,-80462.5090476604,-80503.9400553425,-2418.5730974962
5486223932,5983,1,0,-6716.7998325036,-80254.4414319881,-35827.5764443067,-12640.1076520927,-80540.8933505938,-47210.9556977387,-80472.7542483853,-80460.8542408925,-80502.1514039095,-2417.1373092711
5486223932,5983,1,0,-6718.1747822446,-80255.3175061593,-35831.8959766789,-12640.9472231735,-80541.8059278555,-47081.2237142125,-80474.1535335199,-80462.2778614207,-80503.1126519585,-2418.0863896233
5486223932,5983,1,0,-6717.9070929145,-80254.9768106483,-35854.2115326521,-12640.3510060292,-80540.1511210876,-46909.4645058599,-80474.3847197596,-80461.4382903400,-80503.4898505601,-2417.8673710805
5486223932,5983,1,0,-6716.9701802591,-80255.3905123403,-35864.6879196167,-12640.0711490023,-80538.6544943784,-46918.1644090883,-80472.9245961408,-80461.0732594353,-80502.6867825697,-2416.7601106696
5486223932,5983,1,0,-6718.3572976970,-80255.2201645848,-35850.8289129354,-12640.9715585672,-80538.8613452243,-47093.4279141259,-80473.9223472803,-80461.6573088828,-80502.8692980221,-2416.7236075791
5486245638,5984,1,0,-6718.6249870271,-80254.4657673817,-35830.0099836713,-12640.8498815989,-80540.7838413224,-47204.1417875179,-80473.9710180676,-80461.3409487654,-80503.4046766823,-2418.7921160390
5486245638,5984,1,0,-6718.4059684842,-80254.5631089563,-35830.1924991237,-12641.1054032322,-80541.7329216746,-47098.2706574614,-80473.6789933438,-80462.0953459684,-80503.0518134744,-2418.3054081661
5486245638,5984,1,0,-6719.2455395650,-80256.5951143257,-35852.3742104319,-12641.6772849829,-80540.7960090192,-46916.1932422029,-80475.4919801705,-80463.3486187412,-80504.2077446726,-2417.6605202345
5486245638,5984,1,0,-6718.4668069684,-80256.5951143257,-35864.2985533184,-12640.9228877799,-80538.8370098307,-46895.4108160294,-80474.3117135786,-80461.6451411860,-80504.4876016995,-2417.7578618090
5486245638,5984,1,0,-6718.5154777557,-80255.1714937975,-35852.2038626764,-12641.5191049242,-80538.9586867989,-47065.1623544062,-80474.1291981263,-80461.8519920320,-80504.1104030980,-2417.7091910218
5486245638,5984,1,0,-6717.2865403765,-80254.8186305896,-35831.3240949282,-12639.6939504007,-80541.0880337429,-47196.0381014338,-80474.0805273390,-80462.8740785651,-80503.7697075870,-2416.7844460632
5486245638,5984,1,0,-6717.5785651003,-80256.3030896020,-35827.7954628495,-12640.8498815989,-80542.0857848824,-47113.1760860696,-80474.2995458818,-80462.8375754746,-80505.2541665994,-2417.8552033836
5486245638,5984,1,0,-6718.0896083669,-80255.8285494259,-35848.7117336882,-12640.0589813054,-80540.9055182906,-46927.6795480038,-80474.5185644246,-80462.4117060858,-80503.5750244378,-2417.1129738774
5486299946,5985,1,0,-6718.2599561224,-80255.9015556068,-35864.3350564088,-12640.8620492957,-80538.5084820165,-46885.4941431187,-80474.1413658231,-80461.7303150637,-80503.7818752838,-2416.8696199410
5486299946,5985,1,0,-6718.4789746652,-80255.3661769466,-35856.1583641438,-12640.8985523862,-80539.1777053417,-47039.6345264717,-80475.1877877499,-80462.5455507509,-80503.6601983156,-2417.3319924202
5486299946,5985,1,0,-6718.0652729732,-80254.8794690737,-35833.5872865373,-12641.0323970513,-80540.8081767160,-47188.0560923179,-80473.7641672216,-80462.1440167557,-80502.9301365062,-2418.0133834423
5486299946,5985,1,0,-6719.4037196237,-80256.0719033623,-35829.6814558571,-12641.5312726210,-80542.7550082077,-47133.6299844289,-80474.2995458818,-80462.9349170492,-80504.1225707948,-2418.9502960977
5486299946,5985,1,0,-6718.1869499414,-80255.2810030689,-35847.1907715853,-12640.6673661466,-80540.7716736256,-46946.4543042016,-80474.2995458818,-80462.1805198462,-80503.4168443791,-2417.6483525376
5486299946,5985,1,0,-6717.7854159463,-80254.7942951959,-35865.6369999689,-12640.4726829974,-80539.1533699481,-46875.7356502667,-80473.4599748010,-80462.1196813620,-80503.6723660124,-2417.2589862393
5486299946,5985,1,0,-6717.1770311051,-80255.7920463354,-35860.2345425795,-12640.4483476038,-80539.1777053417,-47018.8155972076,-80473.9101795835,-80462.0466751811,-80503.2586643204,-2416.1273904348
5486299946,5985,1,0,-6717.5298943130,-80255.5365247021,-35839.6589672519,-12640.6673661466,-80539.7495870924,-47185.2210189582,-80474.2143720041,-80461.9371659097,-80503.6601983156,-2417.0034646060
5486328474,5986,1,0,-6718.4303038779,-80255.6947047608,-35831.5917842583,-12640.9472231735,-80543.4850700171,-47157.4178317178,-80475.3703032022,-80463.5919726776,-80504.7674587265,-2418.9989668850
5486328474,5986,1,0,-6718.6736578144,-80257.3373438319,-35849.6608140404,-12642.2735021272,-80542.1709587602,-46975.8392920290,-80475.2242908404,-80463.5919726776,-80505.5583590200,-2418.7069421612
5486328474,5986,1,0,-6719.3915519269,-80257.1669960764,-35870.1633831870,-12642.0544835844,-80539.8712640607,-46882.0871880082,-80476.4410605227,-80463.0809294111,-80505.5096882327,-2418.8042837358
5486328474,5986,1,0,-6718.0652729732,-80256.5221081448,-35867.6081668542,-12640.4970183911,-80540.4918165986,-46998.7875682371,-80475.1634523563,-80463.1296001984,-80505.5461913231,-2417.9160418677
5486328474,5986,1,0,-6718.2112853351,-80257.3008407415,-35847.1907715853,-12640.3388383324,-80541.9276048237,-47176.8253081504,-80475.3216324149,-80462.9957555333,-80505.0108126629,-2417.7821972027
5486328474,5986,1,0,-6718.7831670858,-80257.3130084383,-35837.2740986746,-12641.4095956528,-80543.9717778900,-47177.6405438375,-80475.8691787720,-80464.1516867315,-80505.4975205358,-2418.5852651930
5486328474,5986,1,0,-6717.4447204352,-80256.7411266876,-35849.6973171308,-12639.9616397308,-80541.6112447063,-46996.5487120216,-80475.2607939308,-80463.0687617142,-80504.2564154599,-2416.9547938187
5486328474,5986,1,0,-6719.0021856286,-80258.4567719396,-35872.0493761946,-12641.2514155941,-80541.5382385254,-46879.1547730739,-80476.2707127671,-80463.6893142522,-80505.9355576215,-2418.1958988947
5486358469,5987,1,0,-6717.9800990954,-80256.8263005654,-35870.2850601553,-12640.9837262640,-80540.0537795130,-46978.2849990904,-80475.3824708991,-80462.8132400810,-80504.4145955186,-2416.4802536426
5486358469,5987,1,0,-6718.8075024794,-80256.2787542083,-35851.3399562019,-12641.0323970513,-80541.3435553762,-47163.9883880022,-80474.9200984198,-80463.3242833475,-80504.4754340027,-2417.4293339948
5486358469,5987,1,0,-6717.7489128558,-80255.6460339735,-35837.3592725524,-12641.4460987432,-80542.0979525792,-47188.8104895210,-80474.8470922389,-80463.1661032888,-80503.9157199489,-2417.7943648995
5486358469,5987,1,0,-6719.1360302936,-80256.1205741496,-35849.7824910086,-12641.4217633496,-80542.1831264570,-47025.2888119174,-80475.0296076912,-80463.3851218316,-80504.7674587265,-2418.5974328898
5486358469,5987,1,0,-6718.1504468510,-80255.3540092498,-35870.4675756076,-12641.1054032322,-80540.6743320510,-46887.3192976421,-80475.3581355054,-80462.9957555333,-80504.5362724868,-2417.5145078726
5486358469,5987,1,0,-6717.0796895305,-80254.7577921055,-35872.0128731041,-12639.8156273690,-80538.4841466228,-46956.5899956551,-80473.4721424979,-80461.4991288241,-80502.6502794793,-2416.3585766744
5486358469,5987,1,0,-6717.9435960050,-80256.4734373575,-35853.7004893856,-12641.0202293544,-80541.5139031318,-47145.9558613106,-80474.9444338134,-80463.0930971079,-80503.6236952251,-2418.0255511391
5486358469,5987,1,0,-6718.6858255112,-80255.9502263941,-35837.7486388507,-12641.3974279560,-80542.4143126967,-47200.0777767790,-80475.2607939308,-80462.6672277191,-80504.7674587265,-2418.1715635010
5486385027,5988,1,0,-6717.6150681908,-80255.9137233037,-35845.1100954286,-12640.7647077212,-80541.8059278555,-47047.0689892305,-80474.2630427914,-80462.7889046873,-80503.6358629219,-2417.7456941122
5486385027,5988,1,0,-6718.6614901175,-80255.3905123403,-35866.2697202037,-12640.5821922688,-80540.0416118162,-46892.2350471586,-80474.1900366104,-80462.1440167557,-80503.7088691029,-2417.5388432662
5486385027,5988,1,0,-6719.0751918095,-80254.7577921055,-35872.5847548548,-12640.9837262640,-80538.6179912879,-46939.7377355553,-80472.9732669281,-80462.4847122667,-80503.2099935331,-2417.8187002932
5486385027,5988,1,0,-6718.7466639953,-80255.7920463354,-35857.0101029214,-12641.5921111051,-80540.2362949653,-47124.5285472054,-80475.0174399944,-80462.8740785651,-80503.8183783743,-2418.1107250169
5486385027,5988,1,0,-6718.9291794476,-80255.3783446434,-35837.2010924937,-12641.2270802004,-80541.7207539777,-47200.7348324074,-80473.1557823805,-80462.0588428779,-80503.7940429806,-2418.2445696820
5486385027,5988,1,0,-6717.7732482495,-80255.0741522229,-35840.7540599660,-12640.3510060292,-80540.6013258700,-47067.7297384359,-80473.7398318280,-80461.4017872495,-80502.9788072935,-2418.0133834423
5486385027,5988,1,0,-6717.2743726797,-80253.7357055724,-35861.8285108633,-12639.8521304594,-80538.6301589847,-46897.9782000590,-80473.1314469868,-80461.4869611273,-80503.2708320172,-2417.1251415743
5486385027,5988,1,0,-6718.0166021859,-80254.8673013769,-35872.4509101897,-12640.3510060292,-80538.2772957768,-46916.3757576553,-80474.0683596422,-80461.0002532543,-80502.6867825697,-2417.4049986012
5486454740,5989,1,0,-6719.0873595063,-80255.2688353720,-35857.2777922515,-12641.3244217750,-80538.8248421339,-47101.4950971195,-80473.3991363169,-80461.6329734891,-80502.7597887507,-2417.2224831488
5486454740,5989,1,0,-6718.3938007874,-80255.8285494259,-35839.6954703424,-12641.7989619511,-80541.0758660461,-47208.1692951663,-80474.5063967278,-80463.2147740761,-80504.1469061885,-2418.0620542296
5486454740,5989,1,0,-6718.1991176383,-80255.1471584038,-35840.6445506946,-12640.4726829974,-80541.4774000413,-47092.2354798373,-80473.2774593487,-80461.7789858510,-80503.5871921346,-2417.9403772614
5486454740,5989,1,0,-6718.1261114573,-80255.6460339735,-35862.0596971029,-12640.5821922688,-80539.9564379384,-46911.3383311706,-80474.3968874564,-80461.5721350050,-80504.1347384917,-2416.8817876378
5486454740,5989,1,0,-6717.8462544304,-80255.4026800371,-35874.2395616227,-12641.1540740195,-80539.0316929799,-46904.1472223482,-80474.8957630261,-80462.7280662032,-80504.1104030980,-2417.5753463567
5486454740,5989,1,0,-6718.3086269097,-80256.0962387560,-35862.8140943060,-12641.0080616576,-80540.1876241781,-47077.3057158355,-80473.9953534612,-80462.1440167557,-80503.5628567410,-2417.1738123615
5486454740,5989,1,0,-6719.7930859221,-80257.1791637732,-35843.3336116924,-12641.5799434083,-80543.0348652346,-47203.0953655911,-80475.4189739895,-80463.5067987999,-80505.3636758708,-2418.9016253104
5486454740,5989,1,0,-6717.7002420685,-80255.6703693672,-35840.8270661469,-12640.0954843959,-80542.2439649411,-47115.5122838595,-80474.2265397009,-80462.2778614207,-80504.9013033915,-2417.5753463567
5486464027,5990,1,0,-6717.5785651003,-80256.6437851130,-35861.6946661983,-12640.0346459118,-80540.9663567747,-46931.7192233490,-80474.4455582437,-80462.3752029953,-80505.1203219343,-2417.7091910218
5486464027,5990,1,0,-6718.6249870271,-80256.7289589908,-35876.6852686841,-12641.0932355354,-80539.2385438259,-46894.6442511295,-80475.1877877499,-80463.3121156507,-80504.3050862472,-2418.6217682835
5486464027,5990,1,0,-6718.6371547239,-80255.3540092498,-35866.9267758321,-12640.9472231735,-80538.8491775275,-47055.2578491923,-80474.5063967278,-80462.3143645112,-80503.6358629219,-2417.2711539361
5486464027,5990,1,0,-6717.8827575209,-80255.7555432450,-35845.5846356047,-12641.2270802004,-80540.6499966573,-47200.5036461678,-80474.3238812755,-80461.9493336065,-80503.8062106774,-2418.2810727724
5486464027,5990,1,0,-6717.5785651003,-80254.5996120468,-35840.2673520931,-12641.0567324449,-80540.6256612637,-47135.9540145221,-80473.3504655296,-80461.4017872495,-80501.7498699144,-2418.0498865328
5486464027,5990,1,0,-6718.0409375796,-80254.6847859245,-35860.0276917335,-12641.1054032322,-80539.8347609702,-46952.1609540116,-80472.8029191726,-80460.7203962274,-80502.8327949316,-2417.5996817503
5486464027,5990,1,0,-6719.0386887190,-80254.2954196262,-35878.5712616917,-12640.8133785085,-80537.3403831215,-46894.3887294962,-80472.5717329330,-80460.6960608338,-80502.7962918412,-2417.6848556281
5486464027,5990,1,0,-6717.3230434670,-80253.3828423645,-35872.7672703071,-12640.1319874864,-80537.4620600897,-47039.6831972590,-80472.8272545662,-80460.9515824671,-80502.2487454841,-2417.3198247234
5486483503,5991,1,0,-6718.8196701762,-80254.4657673817,-35852.0821857081,-12641.1054032322,-80540.6621643541,-47202.4991484468,-80472.8880930504,-80461.4869611273,-80502.6624471761,-2417.7213587186
5486483503,5991,1,0,-6718.2964592128,-80255.6703693672,-35846.6188898346,-12641.6894526797,-80542.0979525792,-47167.6995355332,-80475.1026138721,-80462.7645692937,-80504.0617323107,-2418.3175758629
5486483503,5991,1,0,-6719.2942103523,-80255.9623940910,-35864.0308639883,-12642.1274897653,-80541.9519402174,-46979.8911350710,-80474.8592599357,-80462.3630352985,-80504.7674587265,-2417.6605202345
5486483503,5991,1,0,-6717.9435960050,-80255.1349907070,-35882.1972353449,-12640.8255462053,-80539.8347609702,-46890.8114266303,-80474.2387073977,-80462.1075136652,-80503.8062106774,-2417.3319924202
5486483503,5991,1,0,-6718.4911423620,-80255.5851954894,-35878.3400754520,-12641.0567324449,-80538.7518359529,-47019.7403421662,-80474.2022043072,-80462.3873706922,-80503.8183783743,-2417.1008061806
5486483503,5991,1,0,-6719.2820426555,-80256.3517603893,-35859.4801453765,-12640.7890431148,-80542.2439649411,-47193.8357483088,-80475.4433093832,-80462.8862462619,-80504.8526326042,-2418.5122590121
5486483503,5991,1,0,-6718.3451300001,-80255.0741522229,-35848.0668457566,-12640.9715585672,-80542.1101202761,-47181.6437160922,-80475.2729616276,-80462.1926875430,-80503.8062106774,-2417.5875140535
5486483503,5991,1,0,-6716.8850063814,-80254.9403075578,-35862.1570386775,-12640.6065276625,-80540.0781149066,-47000.8074059097,-80472.8637576567,-80461.7789858510,-80503.0153103840,-2416.5654275204
5486500861,5992,1,0,-6717.7975836431,-80256.3274249956,-35883.2436572717,-12640.8742169926,-80539.3358854004,-46892.6000780633,-80474.9322661166,-80462.8254077778,-80504.0252292203,-2416.8817876378
5486500861,5992,1,0,-6718.3329623033,-80255.9502263941,-35883.1219803035,-12641.1419063227,-80540.3093011463,-46996.3905319629,-80475.6379925323,-80462.5455507509,-80504.4632663059,-2417.6605202345
5486500861,5992,1,0,-6719.1238625968,-80257.1183252891,-35864.0673670787,-12641.8354650416,-80542.2074618507,-47178.7478042484,-80475.9178495593,-80463.9448358855,-80505.2176635089,-2419.0354699755
5486500861,5992,1,0,-6718.2112853351,-80256.2909219052,-35849.5391370721,-12640.2901675451,-80542.2074618507,-47195.5270581672,-80474.7254152706,-80462.9349170492,-80503.9887261298,-2417.2103154520
5486500861,5992,1,0,-6716.6659878386,-80255.9623940910,-35861.0254428730,-12640.7890431148,-80541.4530646476,-47024.8264394382,-80474.2995458818,-80462.3508676017,-80503.9887261298,-2417.6726879313
5486500861,5992,1,0,-6717.4447204352,-80254.6361151372,-35881.9782168021,-12639.5601057357,-80539.2507115227,-46890.4220603319,-80473.7276641311,-80461.5721350050,-80503.0639811712,-2416.7722783664
5486500861,5992,1,0,-6717.7610805526,-80254.9889783451,-35884.4725946508,-12640.4605153006,-80538.9343514053,-46972.6635231582,-80474.3238812755,-80462.1683521493,-80503.8183783743,-2416.8939553346
5486500861,5992,1,0,-6717.9922667923,-80255.0254814356,-35864.2742179247,-12640.8377139021,-80540.4918165986,-47157.8802041970,-80474.1170304295,-80461.8884951224,-80503.0153103840,-2417.8795387773
5486535080,5993,1,0,-6718.4424715747,-80255.1349907070,-35849.0280938056,-12640.6065276625,-80542.1466233665,-47203.4968995862,-80475.1999554467,-80462.9592524428,-80503.6601983156,-2418.5000913152
5486535080,5993,1,0,-6717.8462544304,-80255.1228230102,-35857.1317798897,-12640.6795338434,-80541.9276048237,-47047.7625479494,-80474.8470922389,-80462.6915631127,-80503.9643907361,-2417.4780047821
5486535080,5993,1,0,-6718.6858255112,-80256.9114744431,-35880.6032670611,-12641.5191049242,-80540.1267856939,-46896.4207348657,-80474.7740860579,-80462.8010723841,-80504.2077446726,-2417.6726879313
5486535080,5993,1,0,-6717.6880743717,-80255.0741522229,-35884.3387499857,-12641.0080616576,-80538.0096064467,-46945.4565530621,-80474.0683596422,-80461.7303150637,-80503.2343289268,-2417.0764707870
5486535080,5993,1,0,-6718.3207946065,-80254.3562581103,-35865.6978384530,-12641.1175709290,-80539.5914070337,-47131.6466498468,-80473.4113040137,-80460.9394147702,-80502.5164348142,-2417.5996817503
5486535080,5993,1,0,-6717.3230434670,-80253.3341715772,-35847.3124485535,-12640.3753414228,-80540.4918165986,-47203.4482287990,-80471.9876834855,-80460.9272470734,-80501.7377022175,-2417.3806632075
5486535080,5993,1,0,-6717.3108757702,-80253.7600409660,-35853.4693031459,-12639.9373043372,-80540.6256612637,-47062.5341318925,-80473.2409562582,-80460.9759178607,-80502.9058011126,-2417.3928309044
5486535080,5993,1,0,-6717.6394035844,-80253.8695502374,-35875.4198282145,-12640.5091860879,-80538.3381342610,-46898.7569326557,-80473.0584408059,-80460.7812347115,-80502.4190932396,-2417.3198247234
5486568396,5994,1,0,-6718.0287698827,-80254.7821274991,-35884.7402839809,-12641.2635832909,-80537.8757617817,-46930.2834351239,-80473.1071115932,-80461.0245886480,-80502.2609131809,-2417.6240171440
5486568396,5994,1,0,-6718.4546392715,-80255.1836614943,-35870.6379233631,-12640.5213537847,-80539.8225932734,-47114.8430605343,-80474.4212228500,-80461.5112965209,-80503.0031426871,-2418.2080665915
5486568396,5994,1,0,-6718.0166021859,-80254.5509412595,-35850.6463974830,-12640.9837262640,-80540.8446798065,-47208.2909721345,-80473.7885026153,-80461.8398243351,-80502.7841241443,-2418.0863896233
5486568396,5994,1,0,-6717.6394035844,-80254.5022704722,-35853.4693031459,-12640.7038692370,-80541.3435553762,-47088.4269907317,-80472.5717329330,-80460.8542408925,-80502.9423042030,-2417.3563278139
5486568396,5994,1,0,-6718.7831670858,-80256.0475679687,-35876.9407903174,-12641.5191049242,-80540.8203444128,-46915.6091927554,-80474.9687692071,-80463.1296001984,-80503.8183783743,-2418.5609297994
5486568396,5994,1,0,-6718.4181361811,-80255.2079968879,-35888.7069531452,-12641.1297386259,-80539.6887486083,-46913.7110320511,-80474.5063967278,-80462.4117060858,-80504.4267632154,-2418.0377188360
5486568396,5994,1,0,-6717.5298943130,-80254.4535996849,-35874.0692138672,-12640.0346459118,-80538.8370098307,-47090.4103253138,-80473.1801177741,-80461.6208057923,-80502.7354533570,-2416.8817876378
5486568396,5994,1,0,-6717.6272358876,-80254.9159721642,-35853.9195079284,-12640.1319874864,-80541.0515306525,-47210.2256359293,-80473.8128380089,-80461.2922779781,-80503.2099935331,-2417.3928309044
5486621068,5995,1,0,-6718.5763162398,-80254.9889783451,-35854.4305511950,-12640.7038692370,-80541.6599154936,-47111.4239377270,-80474.3725520627,-80461.7303150637,-80504.4145955186,-2418.0985573201
5486621068,5995,1,0,-6718.3572976970,-80255.6703693672,-35874.1543877450,-12640.9472231735,-80540.0416118162,-46926.9981569817,-80474.8227568452,-80462.3630352985,-80504.0252292203,-2418.2810727724
5486621068,5995,1,0,-6718.4546392715,-80255.9258910005,-35887.7213697025,-12640.7403723275,-80539.2020407354,-46901.0201242647,-80474.6767444833,-80462.4482091763,-80504.2077446726,-2417.5753463567
5486621068,5995,1,0,-6718.0531052764,-80255.0741522229,-35876.8069456524,-12640.7282046307,-80540.0051087257,-47065.2475282840,-80474.3725520627,-80462.1440167557,-80504.2929185504,-2417.4901724789
5486621068,5995,1,0,-6718.3572976970,-80255.1593261006,-35855.3187930630,-12640.8985523862,-80541.3070522858,-47201.8055897279,-80474.2752104882,-80461.3531164622,-80503.3925089855,-2418.1107250169
5486621068,5995,1,0,-6718.2842915160,-80254.9281398610,-35852.9825952730,-12640.7768754180,-80542.0614494888,-47130.8679172501,-80474.4942290310,-80462.8010723841,-80503.6845337092,-2417.6361848408
5486621068,5995,1,0,-6717.0310187433,-80253.8817179342,-35871.0881281456,-12640.0711490023,-80538.3624696546,-46941.8062440152,-80472.9489315345,-80460.7082285306,-80502.6624471761,-2417.1738123615
5486621068,5995,1,0,-6717.2865403765,-80253.7965440565,-35887.4293449788,-12639.9494720340,-80537.9366002658,-46884.3017088300,-80472.5108944488,-80461.2679425844,-80502.1879070000,-2416.3707443712
5486645851,5996,1,0,-6717.7489128558,-80253.8695502374,-35878.7172740536,-12640.3023352419,-80537.4498923929,-47037.4200056499,-80471.9876834855,-80460.1728498704,-80502.1879070000,-2416.2734027966
5486645851,5996,1,0,-6718.4668069684,-80255.0741522229,-35858.4823942370,-12640.6795338434,-80540.1389533907,-47194.6631516928,-80473.6789933438,-80461.0732594353,-80502.2000746968,-2417.8673710805
5486645851,5996,1,0,-6718.2356207287,-80254.9768106483,-35851.0844345686,-12640.7768754180,-80541.1732076207,-47146.2113829438,-80473.6546579502,-80461.7059796701,-80502.4799317237,-2417.4536693885
5486645851,5996,1,0,-6718.1139437605,-80255.8407171227,-35867.5716637637,-12640.7647077212,-80540.5891581732,-46959.4372367117,-80473.6181548597,-80462.3873706922,-80503.5385213473,-2417.6848556281
5486645851,5996,1,0,-6717.2865403765,-80255.3661769466,-35885.5676873649,-12640.6308630561,-80538.6909974688,-46880.3837104530,-80473.4478071042,-80461.4991288241,-80501.9080499731,-2417.1129738774
5486645851,5996,1,0,-6717.5785651003,-80254.7821274991,-35880.8344533007,-12639.9129689436,-80538.3503019578,-47009.7993338618,-80474.5915706056,-80461.6938119733,-80503.2708320172,-2416.8574522441
5486645851,5996,1,0,-6718.8196701762,-80255.3418415530,-35859.9425178558,-12640.5700245720,-80540.4674812050,-47178.3462702532,-80473.8980118867,-80461.7424827605,-80504.3415893377,-2417.4780047821
5486645851,5996,1,0,-6717.4447204352,-80254.5874443499,-35849.8676648864,-12640.6551984498,-80541.4287292540,-47161.1289792488,-80474.1900366104,-80462.5455507509,-80502.9301365062,-2417.9038741709
5486657331,5997,1,0,-6717.7732482495,-80255.1106553133,-35863.7996777486,-12640.3388383324,-80541.4287292540,-46977.8834650953,-80474.5794029087,-80462.2170229366,-80502.7719564475,-2417.0156323028
5486657331,5997,1,0,-6717.9192606113,-80255.9258910005,-35883.4140050272,-12640.0954843959,-80540.1754564812,-46871.8541549801,-80474.6767444833,-80462.2413583303,-80503.9765584330,-2416.7844460632
5486657331,5997,1,0,-6717.6637389780,-80256.3517603893,-35882.2702415259,-12640.7160369339,-80540.2362949653,-46983.2859224846,-80475.6988310165,-80463.0200909269,-80504.7431233328,-2417.2954893298
5486657331,5997,1,0,-6718.6858255112,-80256.1570772401,-35861.7068338951,-12641.2392478973,-80541.9276048237,-47162.3944197183,-80476.0760296180,-80463.5189664967,-80505.4245143549,-2417.5023401758
5486657331,5997,1,0,-6717.4933912225,-80255.5243570053,-35849.3809570134,-12640.2901675451,-80542.0371140951,-47169.4151807852,-80474.3847197596,-80462.1075136652,-80504.2685831567,-2417.2224831488
5486657331,5997,1,0,-6717.0188510464,-80256.1327418465,-35862.0596971029,-12640.6673661466,-80541.4408969508,-46995.1980976743,-80475.4311416863,-80463.1904386825,-80504.5849432741,-2417.7700295059
5486657331,5997,1,0,-6717.7854159463,-80255.6703693672,-35882.5622662496,-12640.5091860879,-80539.2750469163,-46870.6738883883,-80473.9223472803,-80461.9006628192,-80503.8913845552,-2416.7114398823
5486657331,5997,1,0,-6717.7489128558,-80255.5851954894,-35884.1075637461,-12640.6186953593,-80538.5084820165,-46956.8211818947,-80474.6767444833,-80462.3265322080,-80504.0860677044,-2416.5775952172
5486694744,5998,1,0,-6717.9557637018,-80256.4612696607,-35864.8217642818,-12640.4240122101,-80540.7960090192,-47143.2302972222,-80475.6136571387,-80463.4216249221,-80504.6944525455,-2417.2711539361
5486694744,5998,1,0,-6718.5154777557,-80256.1570772401,-35851.3886269892,-12641.4095956528,-80543.7162562567,-47181.9965793001,-80475.5284832609,-80462.8740785651,-80505.2176635089,-2418.4270851343
5486694744,5998,1,0,-6717.9557637018,-80255.4878539148,-35860.6239088778,-12640.1563228800,-80541.7815924618,-47018.0855353983,-80475.2851293245,-80463.4094572253,-80505.0473157534,-2417.3928309044
5486694744,5998,1,0,-6717.7002420685,-80257.4833561938,-35882.1850676481,-12641.1175709290,-80541.2462138016,-46871.8176518897,-80476.2707127671,-80463.7014819490,-80505.2419989026,-2418.0133834423
5486694744,5998,1,0,-6717.4568881321,-80256.4856050543,-35888.0377298199,-12640.2049936673,-80539.8834317575,-46935.4425385768,-80475.9543526497,-80463.2026063793,-80505.7530421691,-2416.2977381903
5486694744,5998,1,0,-6717.1161926210,-80256.4491019639,-35869.6158368300,-12640.3753414228,-80541.2705491953,-47121.3771137282,-80475.8448433783,-80464.4315437584,-80506.0085638024,-2416.6992721854
5486694744,5998,1,0,-6717.6029004939,-80256.4612696607,-35853.3354584809,-12640.3631737260,-80543.2538837774,-47179.2345121213,-80476.1125327084,-80463.6528111617,-80505.4366820517,-2417.1373092711
5486694744,5998,1,0,-6718.1382791541,-80255.9623940910,-35860.1737040954,-12640.7160369339,-80542.5359896649,-47029.2311456881,-80475.7718371974,-80462.3508676017,-80504.2199123694,-2417.4901724789
5486730548,5999,1,0,-6717.6515712812,-80254.6361151372,-35882.4040861909,-12640.8620492957,-80539.9077671511,-46868.9582431363,-80474.1413658231,-80462.6915631127,-80504.5362724868,-2417.6848556281
5486730548,5999,1,0,-6719.0386887190,-80255.2688353720,-35889.6682011942,-12641.1784094131,-80539.4453946718,-46904.8286133703,-80476.1368681021,-80462.6185569318,-80504.2077446726,-2417.1251415743
5486730548,5999,1,0,-6719.0508564159,-80255.8893879100,-35873.9353692021,-12641.3730925623,-80540.8690152001,-47094.3039882972,-80476.0030234370,-80463.7866558268,-80505.2541665994,-2417.7943648995
5486730548,5999,1,0,-6719.3063780491,-80256.5464435384,-35857.0709414055,-12641.4217633496,-80543.5337408044,-47189.4310420589,-80476.0516942243,-80464.3220344870,-80505.4975205358,-2418.8164514326
5486730548,5999,1,0,-6717.9922667923,-80254.5266058658,-35860.2953810636,-12640.0954843959,-80541.4287292540,-47061.9014116577,-80474.0440242485,-80462.9227493524,-80503.9765584330,-2416.9912969092
5486730548,5999,1,0,-6717.6515712812,-80256.0232325751,-35882.2702415259,-12640.6430307529,-80540.1997918749,-46887.8181732118,-80474.3360489723,-80463.2269417729,-80504.4267632154,-2418.0863896233
5486730548,5999,1,0,-6717.9314283082,-80255.2566676752,-35894.1580813219,-12641.0689001417,-80539.5549039433,-46896.5302441371,-80475.6744956228,-80462.5698861445,-80505.2663342962,-2417.0886384838
5486730548,5999,1,0,-6718.4911423620,-80254.7577921055,-35878.7902802345,-12640.7403723275,-80540.1997918749,-47073.8257545442,-80474.0440242485,-80462.3995383890,-80503.5506890442,-2417.0521353933
5486769918,6000,1,0,-6717.6637389780,-80254.4901027754,-35859.1029467750,-12641.0567324449,-80541.6599154936,-47183.8582369140,-80474.8592599357,-80463.0565940174,-80504.0860677044,-2417.1981477552
5486769918,6000,1,0,-6718.5763162398,-80253.9425564183,-35860.1372010049,-12640.5456891783,-80541.7815924618,-47082.0146145060,-80474.2022043072,-80461.3044456749,-80502.8206272348,-2417.8187002932
5486769918,6000,1,0,-6718.7588316921,-80253.6261963009,-35881.7105274720,-12641.2879186845,-80538.2042895959,-46900.2048885776,-80472.7542483853,-80460.8542408925,-80502.0905654254,-2418.0985573201
5486769918,6000,1,0,-6717.7002420685,-80252.3850912250,-35894.1459136250,-12639.8277950658,-80536.2696258011,-46874.6162221589,-80472.0485219696,-80459.7226450879,-80501.7011991271,-2416.6749367918
5486769918,6000,1,0,-6718.1261114573,-80254.1859103548,-35883.7425328414,-12640.8012108116,-80537.8149232976,-47041.7395380221,-80473.1071115932,-80460.8177378020,-80502.2730808778,-2417.2589862393
5486769918,6000,1,0,-6717.8705898240,-80254.0764010834,-35863.4103114503,-12640.3145029387,-80540.5526550827,-47172.7734651083,-80473.7154964343,-80461.8398243351,-80502.2244100905,-2416.6262660045
5486769918,6000,1,0,-6717.9435960050,-80254.1737426580,-35860.8064243302,-12640.8255462053,-80541.1123691366,-47088.5243323063,-80473.9588503708,-80461.9493336065,-80503.2586643204,-2417.9403772614
5486769918,6000,1,0,-6718.1261114573,-80253.7113701787,-35879.7150251930,-12640.9837262640,-80539.4332269750,-46899.8398576729,-80474.0075211581,-80461.7911535478,-80502.9301365062,-2418.7312775549
5486788540,6001,1,0,-6718.3207946065,-80254.5509412595,-35895.1436647645,-12640.6551984498,-80536.9388491263,-46858.9928994383,-80473.8371734025,-80461.5964703987,-80503.1491550490,-2417.4658370853
5486788540,6001,1,0,-6718.0409375796,-80254.4535996849,-35887.7578727930,-12640.9228877799,-80539.2385438259,-47016.2968839653,-80474.1778689136,-80461.7911535478,-80504.0008938266,-2417.4415016916
5486788540,6001,1,0,-6717.5420620098,-80255.2201645848,-35868.1313778176,-12641.2392478973,-80542.0127787015,-47166.7139520905,-80474.5794029087,-80462.5577184477,-80504.6457817582,-2417.8552033836
5486788540,6001,1,0,-6718.6979932080,-80255.9137233037,-35862.8140943060,-12640.9350554767,-80543.3025545647,-47114.0643279376,-80475.5406509578,-80464.0908482474,-80505.0959865407,-2417.7821972027
5486788540,6001,1,0,-6718.0652729732,-80256.9114744431,-35881.6861920783,-12640.9350554767,-80542.2804680316,-46925.7692196026,-80475.4919801705,-80463.5433018903,-80505.2176635089,-2417.7943648995
5486788540,6001,1,0,-6717.6759066749,-80256.0597356655,-35897.6745457037,-12640.2171613641,-80539.2020407354,-46853.4931004743,-80475.5406509578,-80463.1174325015,-80504.0008938266,-2417.3198247234
5486788540,6001,1,0,-6717.9314283082,-80255.2566676752,-35891.7853804414,-12640.8377139021,-80539.4088915814,-46994.5653774395,-80475.5284832609,-80463.3972895285,-80503.7818752838,-2416.3707443712
5486788540,6001,1,0,-6716.9458448655,-80255.5121893085,-35870.0538739156,-12640.1806582737,-80541.5139031318,-47161.2019854297,-80475.3703032022,-80462.7767369905,-80504.1104030980,-2416.6627690950
5486823454,6002,1,0,-6718.1261114573,-80255.8285494259,-35862.7045850346,-12640.7647077212,-80542.8036789950,-47131.4032959103,-80475.6623279260,-80463.6649788586,-80505.2419989026,-2417.6848556281
5486823454,6002,1,0,-6718.1261114573,-80256.0962387560,-35878.2914046647,-12641.4826018337,-80542.1587910634,-46944.6169819813,-80475.8935141656,-80463.9326681887,-80505.0959865407,-2418.8651222199
5486823454,6002,1,0,-6718.2964592128,-80256.1935803306,-35898.8426445987,-12641.9328066162,-80540.4066427209,-46849.1857357990,-80475.8691787720,-80464.1638544283,-80506.3979301007,-2418.5609297994
5486823454,6002,1,0,-6718.1869499414,-80255.9623940910,-35894.9124785249,-12640.2049936673,-80540.0537795130,-46965.4602466390,-80475.5406509578,-80462.6063892350,-80504.2929185504,-2417.3563278139
5486823454,6002,1,0,-6718.0652729732,-80254.9159721642,-35872.3048978279,-12640.9228877799,-80541.1853753175,-47141.1617887623,-80474.9444338134,-80462.3386999049,-80504.6944525455,-2417.5631786599
5486823454,6002,1,0,-6718.1626145478,-80255.3296738561,-35861.4391445650,-12641.1297386259,-80542.8158466918,-47143.1207879508,-80474.8835953293,-80463.2877802571,-80504.5484401837,-2417.8430356868
5486823454,6002,1,0,-6719.1238625968,-80255.3783446434,-35875.5780082732,-12641.5556080147,-80542.5724927553,-46964.3043154409,-80475.7231664101,-80463.4702957094,-80505.8017129564,-2417.6118494472
5486823454,6002,1,0,-6717.9922667923,-80255.1349907070,-35895.5817018501,-12640.1806582737,-80539.6887486083,-46840.2303109373,-80474.2630427914,-80462.2535260271,-80503.7818752838,-2416.9669615156
5486852045,6003,1,0,-6718.6128193302,-80255.1349907070,-35895.0828262804,-12641.0567324449,-80538.5693205006,-46936.7809852274,-80474.7132475738,-80462.8619108682,-80504.4997693964,-2416.6384337013
5486852045,6003,1,0,-6718.1991176383,-80254.5509412595,-35874.9087849480,-12640.6065276625,-80541.1245368334,-47122.5208772296,-80475.1634523563,-80463.1174325015,-80504.1955769758,-2417.0156323028
5486852045,6003,1,0,-6719.1603656873,-80255.1958291911,-35861.3052998999,-12640.8377139021,-80542.2804680316,-47146.2843891248,-80474.7984214516,-80463.0322586238,-80504.4632663059,-2417.9160418677
5486852045,6003,1,0,-6718.5033100588,-80255.8407171227,-35871.6478421994,-12640.8255462053,-80542.7063374204,-46980.2196628853,-80475.7596695006,-80463.6528111617,-80504.7431233328,-2418.8529545231
5486852045,6003,1,0,-6718.0409375796,-80254.1372395675,-35891.6272003827,-12641.3365894718,-80538.7883390434,-46838.8553611963,-80474.1535335199,-80462.7037308096,-80504.3415893377,-2417.1981477552
5486852045,6003,1,0,-6718.0166021859,-80255.4026800371,-35895.5086956692,-12641.6042788019,-80539.5062331560,-46906.7754448620,-80474.6889121802,-80462.8619108682,-80504.8404649074,-2417.6240171440
5486852045,6003,1,0,-6716.9823479560,-80254.5996120468,-35875.3954928209,-12640.0833166991,-80539.7982578797,-47093.3062371577,-80474.7984214516,-80462.5090476604,-80503.7088691029,-2416.8696199410
5486852045,6003,1,0,-6718.4911423620,-80256.3882634797,-35860.4292257287,-12642.1396574622,-80543.6067469853,-47151.0906293698,-80475.8935141656,-80463.7014819490,-80505.5096882327,-2418.4149174375
5486892247,6004,1,0,-6717.1283603178,-80253.8938856310,-35867.4378190987,-12639.5114349484,-80540.9176859874,-46999.8218224670,-80474.8957630261,-80462.1440167557,-80504.1225707948,-2416.1395581316
5486892247,6004,1,0,-6718.1261114573,-80256.4612696607,-35891.1039894193,-12641.2149125036,-80540.8203444128,-46843.6250983509,-80477.3536377844,-80463.9205004918,-80505.3880112644,-2417.9768803519
5486892247,6004,1,0,-6718.1991176383,-80255.5000216117,-35898.1612535766,-12640.9837262640,-80540.0902826035,-46886.9907698279,-80475.9908557402,-80463.3972895285,-80504.4632663059,-2417.3198247234
5486892247,6004,1,0,-6717.7124097653,-80255.2444999784,-35881.3819996578,-12640.9715585672,-80540.1997918749,-47073.2173697030,-80475.1512846594,-80462.8740785651,-80505.4366820517,-2417.5023401758
5486892247,6004,1,0,-6717.6880743717,-80254.3197550199,-35863.3251375725,-12640.3145029387,-80541.9641079142,-47150.9932877953,-80474.6889121802,-80461.6573088828,-80503.6967014061,-2417.3441601171
5486892247,6004,1,0,-6718.2112853351,-80254.8551336801,-35868.8736073238,-12641.4947695305,-80542.7428405109,-47019.8255160439,-80475.0904461753,-80462.7280662032,-80504.7309556360,-2417.0399676965
5486892247,6004,1,0,-6717.0066833496,-80253.4923516359,-35890.9579770574,-12639.8642981563,-80538.4476435324,-46850.6823625082,-80472.8637576567,-80460.6960608338,-80502.9666395967,-2416.1273904348
5486892247,6004,1,0,-6717.4568881321,-80254.1007364770,-35901.3248547506,-12640.4970183911,-80537.2795446374,-46868.5810445348,-80474.1413658231,-80461.6086380955,-80503.3073351077,-2416.1152227379
5486904715,6005,1,0,-6718.2477884255,-80254.3684258071,-35886.9183017122,-12639.7791242785,-80539.2993823100,-47052.4714466199,-80474.4090551532,-80461.2557748876,-80502.7597887507,-2416.6992721854
5486904715,6005,1,0,-6717.9922667923,-80254.1859103548,-35868.8006011429,-12640.6551984498,-80541.1488722271,-47159.7661972046,-80473.5086455883,-80461.9615013033,-80502.6502794793,-2417.0399676965
5486904715,6005,1,0,-6717.0066833496,-80253.6505316946,-35871.3071466884,-12640.2779998482,-80540.1754564812,-47045.6818717927,-80473.7519995248,-80461.2801102813,-80502.7354533570,-2417.4536693885
5486904715,6005,1,0,-6717.4690558289,-80253.9425564183,-35891.2865048717,-12640.4605153006,-80538.6179912879,-46864.3345183436,-80473.9345149771,-80461.4504580368,-80502.8936334157,-2417.5875140535
5486904715,6005,1,0,-6718.2721238192,-80254.0764010834,-35904.0625865357,-12640.5213537847,-80537.7540848135,-46855.8171305675,-80474.2873781850,-80461.7789858510,-80503.7332044965,-2417.1251415743
5486904715,6005,1,0,-6717.9435960050,-80255.0984876165,-35892.3572621921,-12640.7160369339,-80538.0582772340,-47028.3794069105,-80473.8736764930,-80461.9249982129,-80503.3925089855,-2416.9912969092
5486904715,6005,1,0,-6718.2477884255,-80253.9547241152,-35871.9763700136,-12641.0810678386,-80541.2948845889,-47152.0153743284,-80473.9466826740,-80462.2535260271,-80504.0860677044,-2418.2080665915
5486904715,6005,1,0,-6718.4059684842,-80254.4779350786,-35871.1489666297,-12641.3487571687,-80540.9663567747,-47064.9068327729,-80474.4090551532,-80462.2656937239,-80504.3537570345,-2417.7213587186
5486950754,6006,1,0,-6718.6614901175,-80252.8231283106,-35890.7632939083,-12641.3487571687,-80539.4697300655,-46880.2620334848,-80472.8637576567,-80461.2801102813,-80503.1004842617,-2417.5875140535
5486950754,6006,1,0,-6717.9192606113,-80253.6870347850,-35905.6808902132,-12640.8133785085,-80537.2795446374,-46840.6440126293,-80473.2409562582,-80461.4869611273,-80503.5141859537,-2417.0399676965
5486950754,6006,1,0,-6717.4812235257,-80253.8938856310,-35895.9223973612,-12640.2293290610,-80538.5693205006,-46999.3107792005,-80473.3748009233,-80461.8519920320,-80502.6989502666,-2416.3585766744
5486950754,6006,1,0,-6717.5177266162,-80254.2345811421,-35874.2395616227,-12640.6186953593,-80540.5526550827,-47145.4083149535,-80473.6668256470,-80462.1683521493,-80503.5385213473,-2417.4171662980
5486950754,6006,1,0,-6717.0431864401,-80254.9403075578,-35869.7983522823,-12640.6308630561,-80542.1344556697,-47079.9461060461,-80474.3360489723,-80462.9470847460,-80504.0008938266,-2417.7700295059
5486950754,6006,1,0,-6717.2500372861,-80254.7212890150,-35887.8187112771,-12640.8377139021,-80540.4309781145,-46888.9254336227,-80474.7740860579,-80463.5189664967,-80504.6457817582,-2417.2589862393
5486950754,6006,1,0,-6717.8219190367,-80255.3905123403,-35904.6101328928,-12639.8642981563,-80539.2142084322,-46825.2762115419,-80475.3703032022,-80463.7014819490,-80505.4488497485,-2416.2855704935
5486950754,6006,1,0,-6718.1991176383,-80255.1593261006,-35896.6159560801,-12640.8742169926,-80539.3845561877,-46966.0929668738,-80475.1999554467,-80462.7280662032,-80504.6579494551,-2416.1638935252
5486972492,6007,1,0,-6717.6394035844,-80255.6582016704,-35873.7406860530,-12640.1441551832,-80542.1101202761,-47124.2851932689,-80475.0661107817,-80463.3972895285,-80505.4488497485,-2417.6118494472
5486972492,6007,1,0,-6719.2333718682,-80256.6437851130,-35866.3913971719,-12641.8232973448,-80544.0691194646,-47088.2809783698,-80476.3072158576,-80465.2589471424,-80506.8237994895,-2419.0598053691
5486972492,6007,1,0,-6718.6371547239,-80254.7699598023,-35881.2846580832,-12641.6286141956,-80541.1853753175,-46897.0899581909,-80474.9687692071,-80463.8109912204,-80505.4731851422,-2417.5753463567
5486972492,6007,1,0,-6718.6249870271,-80255.1471584038,-35899.3415201684,-12640.5943599656,-80539.4818977623,-46802.7659724195,-80474.7984214516,-80462.0953459684,-80504.5849432741,-2417.0886384838
5486972492,6007,1,0,-6717.4325527384,-80253.5410224232,-35894.1215782314,-12639.8642981563,-80538.1069480213,-46926.7548030453,-80473.5816517693,-80461.3409487654,-80504.1712415821,-2416.3220735839
5486972492,6007,1,0,-6718.2721238192,-80254.0642333866,-35873.7041829625,-12641.1784094131,-80539.9077671511,-47102.6996991050,-80474.5550675151,-80461.2557748876,-80504.0495646139,-2418.1107250169
5486972492,6007,1,0,-6717.4325527384,-80253.3098361835,-35861.6216600173,-12640.7403723275,-80540.4674812050,-47093.0750509181,-80473.5938194661,-80461.5964703987,-80503.2829997141,-2416.6140983077
5486972492,6007,1,0,-6717.5055589194,-80253.5288547264,-35875.2859835495,-12640.0103105181,-80539.3480530973,-46911.6181881975,-80474.2265397009,-80461.3409487654,-80502.4920994206,-2417.1129738774
5487008702,6008,1,0,-6718.1382791541,-80254.8551336801,-35896.0319066326,-12641.6894526797,-80539.1290345545,-46801.3423518912,-80474.7984214516,-80462.0345074843,-80503.9887261298,-2417.8430356868
5487008702,6008,1,0,-6718.1747822446,-80254.1980780516,-35896.3726021436,-12640.8133785085,-80538.3503019578,-46904.5487563434,-80475.2729616276,-80462.9714201397,-80504.7796264233,-2417.3684955107
5487008702,6008,1,0,-6718.2112853351,-80255.8285494259,-35876.6974363809,-12641.8111296479,-80541.5869093127,-47085.7379297338,-80475.4676447768,-80463.1904386825,-80505.3028373867,-2417.7700295059
5487008702,6008,1,0,-6717.9070929145,-80255.4513508244,-35863.8361808391,-12640.7525400243,-80542.3534742125,-47105.2427477410,-80475.5041478673,-80463.8231589173,-80504.7066202423,-2417.0399676965
5487008702,6008,1,0,-6718.1504468510,-80255.3418415530,-35875.0061265226,-12640.7890431148,-80542.6698343299,-46934.9314953103,-80476.4653959163,-80464.0665128537,-80505.6435328977,-2418.4879236184
5487008702,6008,1,0,-6718.5641485429,-80254.7334567118,-35895.7885526961,-12640.8985523862,-80539.0316929799,-46798.3125953823,-80475.2486262340,-80462.5698861445,-80503.9400553425,-2416.9304584251
5487008702,6008,1,0,-6717.9922667923,-80254.5752766531,-35898.3924398162,-12640.9350554767,-80538.9830221926,-46877.1836061886,-80475.3338001118,-80462.6672277191,-80504.4145955186,-2417.2346508457
5487008702,6008,1,0,-6716.4591369926,-80253.6870347850,-35878.0723861219,-12639.3897579802,-80539.9199348479,-47063.7509015748,-80474.8227568452,-80462.5333830540,-80504.4510986091,-2416.1152227379
5487036265,6009,1,0,-6717.2013664988,-80254.4414319881,-35863.0817836361,-12640.3996768165,-80542.2561326380,-47109.3919323576,-80475.2121231435,-80463.8474943109,-80504.3537570345,-2418.2567373788
5487036265,6009,1,0,-6718.8075024794,-80257.5198592843,-35873.3513197546,-12641.2392478973,-80544.3246410978,-46954.0104439286,-80477.3171346939,-80465.5388041693,-80507.0306503355,-2419.0111345818
5487036265,6009,1,0,-6718.0774406700,-80256.4856050543,-35893.2698394538,-12641.0689001417,-80541.5017354349,-46803.7758912558,-80476.3802220385,-80464.3950406679,-80506.1789115579,-2417.0886384838
5487036265,6009,1,0,-6718.0652729732,-80257.1426606828,-35899.2320108970,-12640.7282046307,-80540.6621643541,-46854.7220378534,-80476.2950481608,-80464.0908482474,-80506.1910792547,-2417.5145078726
5487036265,6009,1,0,-6718.3207946065,-80256.6802882035,-35882.4527569782,-12641.5069372274,-80542.3899773030,-47041.8733826871,-80476.5870728845,-80464.5167176362,-80505.7895452596,-2417.9038741709
5487036265,6009,1,0,-6717.9435960050,-80256.8019651717,-35865.4058137293,-12641.0323970513,-80543.9231071027,-47117.5321215322,-80476.8912653051,-80464.6627299980,-80506.0815699833,-2417.8187002932
5487036265,6009,1,0,-6716.7389940195,-80256.2300834210,-35871.2706435979,-12640.6430307529,-80542.8036789950,-46979.0028932030,-80476.5749051877,-80464.3828729711,-80506.6777871277,-2416.8087814569
5487036265,6009,1,0,-6718.6128193302,-80257.5441946779,-35893.9147273854,-12640.2658321514,-80543.0713683251,-46813.4613779268,-80478.0958672906,-80464.6018915139,-80506.8603025800,-2417.9160418677
5487081455,6010,1,0,-6717.2500372861,-80256.4856050543,-35902.5659598265,-12640.4726829974,-80540.6256612637,-46841.6174283751,-80476.2707127671,-80464.1638544283,-80505.8503837437,-2416.9912969092
5487081455,6010,1,0,-6717.8949252177,-80256.1084064528,-35886.9548048027,-12640.9350554767,-80541.0028598652,-47028.7931086024,-80476.8912653051,-80464.4680468489,-80505.7408744723,-2417.7943648995
5487081455,6010,1,0,-6718.4546392715,-80257.1548283796,-35868.8979427174,-12641.6894526797,-80543.4972377139,-47125.3802859830,-80476.5627374909,-80464.7965746631,-80506.3370916166,-2418.8529545231
5487081455,6010,1,0,-6718.2842915160,-80255.9137233037,-35869.9930354315,-12640.9837262640,-80543.3512253520,-47005.7109877293,-80476.4653959163,-80464.6627299980,-80506.1545761643,-2417.9038741709
5487081455,6010,1,0,-6718.7588316921,-80255.9745617878,-35891.6515357763,-12640.6186953593,-80540.1389533907,-46830.4839857821,-80475.7231664101,-80464.4802145457,-80505.8990545310,-2417.6240171440
5487081455,6010,1,0,-6717.2622049829,-80254.4657673817,-35901.6047117775,-12640.2293290610,-80538.6179912879,-46828.7075020460,-80474.8105891484,-80462.4603768731,-80504.4024278218,-2416.0543842538
5487081455,6010,1,0,-6718.8926763572,-80256.7532943844,-35890.1792444608,-12642.1761605526,-80540.9055182906,-47008.5460610891,-80476.7817560337,-80463.9935066728,-80506.4344331912,-2417.6726879313
5487081455,6010,1,0,-6718.5884839366,-80255.9258910005,-35868.8979427174,-12640.4361799069,-80542.7306728140,-47131.8169976023,-80474.8957630261,-80462.8010723841,-80504.7796264233,-2417.3319924202
5487117333,6011,1,0,-6719.0386887190,-80255.0254814356,-35869.6645076173,-12640.8863846894,-80543.2052129901,-47036.3857514200,-80475.6866633196,-80463.5676372840,-80505.8138806532,-2418.0985573201
5487117333,6011,1,0,-6718.5033100588,-80255.0498168292,-35889.0963194435,-12641.5312726210,-80540.8811828970,-46849.9157976084,-80475.0417753880,-80462.9227493524,-80504.2685831567,-2417.5753463567
5487117333,6011,1,0,-6718.7709993889,-80254.3319227167,-35902.8214814598,-12642.1883282494,-80537.9731033563,-46820.9688468666,-80474.3482166691,-80462.7889046873,-80504.1104030980,-2418.0012157455
5487117333,6011,1,0,-6718.6736578144,-80254.0277302961,-35892.3085914048,-12641.3852602591,-80539.0803637672,-46986.8753930474,-80474.0196888549,-80461.7911535478,-80503.7210367997,-2417.1616446647
5487117333,6011,1,0,-6718.4059684842,-80253.8817179342,-35871.0272896615,-12641.0567324449,-80539.8225932734,-47125.5506337385,-80474.1413658231,-80462.4603768731,-80502.9788072935,-2418.0498865328
5487117333,6011,1,0,-6717.7854159463,-80253.8938856310,-35867.8636884875,-12640.6795338434,-80541.9519402174,-47055.1726753146,-80474.0318565517,-80462.6063892350,-80503.5628567410,-2418.2445696820
5487117333,6011,1,0,-6717.6394035844,-80253.4923516359,-35885.7623705140,-12640.7890431148,-80538.8005067402,-46868.7635599871,-80473.2287885614,-80462.1805198462,-80503.0396457776,-2417.1373092711
5487117333,6011,1,0,-6716.7876648068,-80253.0421468534,-35901.9575749854,-12639.9738074277,-80536.5738182216,-46810.7723169290,-80473.6911610407,-80460.7934024084,-80502.5772732983,-2416.6627690950
5487153631,6012,1,0,-6718.3694653938,-80254.7212890150,-35895.0098200995,-12640.5821922688,-80539.2263761290,-46963.5255828442,-80474.7619183611,-80463.3851218316,-80504.8648003010,-2417.1251415743
