steady_timestamp,sequence,battery,flags,EEG-ch1,EEG-ch2,EEG-ch3,EEG-ch4,EEG-ch5,EEG-ch6,EEG-ch7,EEG-ch8,EEG-ch9,EEG-ch10
4167886576,27631,-2,0,-8768.4682000008,43006.1403712410,13150.7980554484,30967.3237930476,51621.5632806028,14163.9534991075,46746.2348529801,58362.9661960824,61250.6770122840,16276.0344813306
4167886576,27631,-2,0,-8774.0775082362,43003.0862793384,13150.2748444850,30962.1403542010,51613.9584700885,14165.4257904231,46728.6646987678,58356.4686459790,61246.3453122150,16272.9195509439
4167886576,27631,-2,0,-8772.8850739475,43005.3616386443,13153.7913088669,30963.3327884897,51616.5380218150,14164.2333561344,46725.3185821415,58359.7052533339,61248.2556406162,16271.0457256332
4167886576,27631,-2,0,-8769.1739264165,43007.7343395248,13155.0932524269,30963.8925025435,51619.2270828128,14154.2558447396,46741.0514141335,58362.5038236032,61247.9636158925,16270.7171978190
4167886576,27631,-2,0,-8767.6529643137,43000.7744169421,13154.6552153413,30957.7599833448,51610.3446641321,14149.6321199469,46729.2609159121,58355.7507518664,61243.7170897013,16267.7604474910
4167886576,27631,-2,0,-8767.6651320105,42995.6883196701,13157.0035808281,30956.9204122640,51603.5429216081,14151.7858022846,46714.4893319690,58351.8570888831,61242.3421399603,16260.7518541210
4167886576,27631,-2,0,-8765.3654373110,42997.8785050982,13158.2081828136,30961.6658140249,51610.7096950368,14154.1585031650,46733.2884235605,58356.6876645218,61243.2547172220,16260.6423448496
4167886576,27631,-2,0,-8764.4406923524,42999.6549888344,13159.7048095228,30963.3449561865,51615.8322953992,14156.9814088280,46740.5282031701,58358.3059681993,61243.4007295839,16266.9087087134
4167925234,27632,-2,0,-8765.9859898489,42998.4138837584,13162.1505165842,30963.2232792183,51610.7948689145,14155.9836576885,46723.0553905324,58354.1932866731,61242.0744506302,16271.0700610268
4167925234,27632,-2,0,-8763.9904875700,42998.4260514553,13162.4912120953,30963.4788008515,51610.4055026162,14153.0999135414,46728.7863757360,58356.7971737932,61241.6729166350,16271.1065641173
4167925234,27632,-2,0,-8763.4551089098,42998.7424115726,13164.0000065013,30964.3670427196,51611.2815767875,14151.3599328958,46740.1753399623,58356.7363353091,61240.5778239209,16272.2259922250
4167925234,27632,-2,0,-8766.3388530568,42994.8852516798,13167.0297630102,30960.1083488316,51607.4000815009,14157.6506321532,46723.2865767720,58350.2387852056,61236.5138131821,16269.7924528604
4167925234,27632,-2,0,-8764.1730030223,43000.1051936168,13173.8558409279,30963.2841177024,51613.3744206410,14166.0950137483,46727.9468046552,58356.1522858616,61242.7315062586,16271.9339675013
4167925234,27632,-2,0,-8762.4938608607,43005.2156262825,13176.9707713146,30967.2872899571,51621.2590881823,14166.8007401641,46748.2181875622,58361.4695693732,61245.0555363518,16275.7059535164
4167925234,27632,-2,0,-8764.3433507778,42998.9979332059,13176.3867218671,30963.3936269738,51614.8223765629,14163.1504311172,46734.0549884603,58355.3005470840,61243.0965371633,16272.9803894280
4167925234,27632,-2,0,-8765.8764805775,42995.0799348289,13177.1532867669,30961.8483294773,51608.4586711245,14168.2365283892,46721.3275775835,58351.0053501055,61240.9185194320,16269.0988941415
4167947846,27633,-2,0,-8763.9661521763,42998.8762562377,13174.8049212801,30964.6712351402,51612.5348495602,14169.2951180128,46739.7981413607,58357.6975833581,61244.3376422392,16272.1651537409
4167947846,27633,-2,0,-8765.8278097902,42996.5643938413,13170.0595195191,30965.0971045290,51609.8944593496,14172.2275329471,46738.1798376833,58355.3370501745,61242.3664753539,16275.0610655848
4167947846,27633,-2,0,-8766.2536791790,42996.1263567557,13171.2032830205,30961.8239940836,51607.4244168946,14175.5979849671,46720.6705219551,58351.3703810102,61243.6562512171,16273.7591220247
4167947846,27633,-2,0,-8767.1905918344,42996.0898536652,13170.4123827270,30961.2034415457,51609.4807576577,14174.5028922530,46730.0883192960,58353.6335726193,61244.4714869043,16270.6320239412
4167947846,27633,-2,0,-8768.4682000008,42995.2259471908,13167.0906014943,30960.9965906997,51609.3955837799,14178.0801951189,46734.7363794824,58353.2077032305,61245.3840641660,16268.7460309337
4167947846,27633,-2,0,-8771.1937640891,42993.0235940659,13162.5763859730,30959.3174485381,51605.1368898919,14184.7115898874,46717.0688836955,58348.2311152299,61244.0456175155,16267.7604474910
4167947846,27633,-2,0,-8765.3411019173,42997.5013064967,13154.8864015809,30960.8870814283,51605.2098960728,14188.8851098977,46719.1008890649,58351.6867411276,61247.3673987481,16266.3854977500
4167947846,27633,-2,0,-8760.3036754326,43001.1029447563,13140.0904822442,30962.8217452231,51608.1788140976,14196.0153802360,46733.7751314334,58356.6998322186,61249.4845779953,16267.1277272562
4167987770,27634,-2,0,-8759.0504026599,42999.0709393869,13124.2116378903,30962.7487390422,51605.6479331584,14212.8189695484,46720.8530374074,58355.9089319251,61254.3759921182,16272.0434767727
4167987770,27634,-2,0,-8755.6556152463,43002.3562175291,13107.1890300350,30970.7794189453,51609.4077514767,14229.0385094134,46717.8476162922,58366.6651759166,61263.5017647354,16276.2656675702
4167987770,27634,-2,0,-8753.9034669037,43008.0750350358,13080.8337987165,30979.3333098118,51618.7160395463,14230.1822729148,46741.3799419477,58378.1879848079,61268.6730358851,16279.1615794141
4167987770,27634,-2,0,-8759.1477442344,43004.8992661651,13046.0950242870,30975.5613237967,51612.1698186555,14227.6757273693,46737.4254404803,58373.5642600152,61262.6378582609,16273.2724141518
4167987770,27634,-2,0,-8758.6488686647,43000.9934354849,13011.2710759797,30974.5757403541,51604.4676665666,14232.7739923381,46721.2667390994,58370.9117021078,61261.6157717278,16269.6586081954
4167987770,27634,-2,0,-8753.4289267277,43003.8163411478,12977.9559220785,30980.9881165798,51607.9476278580,14240.2571258842,46736.0626584361,58378.6746926809,61267.4319308092,16272.4936815551
4167987770,27634,-2,0,-8751.8592938375,43002.0033543212,12942.5235889301,30982.9349480714,51607.4244168946,14241.2670447205,46738.4596947102,58379.2952452188,61267.0790676013,16273.7591220247
4167987770,27634,-2,0,-8753.4775975149,42998.4747222425,12910.2913600462,30985.1373011964,51602.8858659796,14251.6825932009,46721.5344284295,58375.9004578052,61269.1962468485,16274.4161776532
4168036571,27635,-2,0,-8752.3825048009,43004.7897568937,12884.9217121703,30995.5406819800,51610.0161363179,14253.7024308735,46734.0306530667,58384.4543486718,61275.9249831916,16277.7136234922
4168036571,27635,-2,0,-8755.1810750702,43005.6171602776,12858.1162760694,30998.2905814620,51612.5470172570,14246.7546759876,46747.6463058115,58386.2795031952,61275.7059646488,16275.8032950910
4168036571,27635,-2,0,-8762.7372147972,42998.4625545457,12832.8561374649,30993.3383288551,51605.8426163076,14247.3508931320,46726.8517119411,58379.1857359474,61269.6707870246,16270.0723098874
4168036571,27635,-2,0,-8765.1829218586,42997.0511017143,12813.2783132768,30994.7132785960,51601.1945561212,14250.2346372790,46720.6340188646,58377.4822583922,61268.2715018900,16266.4950070214
4168036571,27635,-2,0,-8762.9318979464,43002.4657268005,12797.1074441991,31003.9728958783,51607.7286093152,14253.5564185117,46738.5570362848,58382.5561879674,61272.4815249907,16269.6464404986
4168036571,27635,-2,0,-8757.8579683712,43006.1282035442,12783.6378038161,31009.6065395073,51609.1278944498,14257.6569323410,46736.0139876488,58383.5417714100,61275.3652691377,16272.5545200392
4168036571,27635,-2,0,-8756.3005031779,43005.9335203950,12770.1803311300,31012.7823083781,51607.2784045327,14259.2387329280,46726.3285009778,58381.7774553707,61276.8740635438,16272.4693461615
4168036571,27635,-2,0,-8758.8557195107,43004.3152167176,12755.0802193727,31014.7413075666,51608.2518202785,14251.8164378660,46739.2262596101,58382.5075171801,61277.7501377150,16270.9118809681
4168044121,27636,-2,0,-8766.8377286265,42995.6396488828,12739.6515798012,31011.2126754880,51602.7398536177,14245.7325894545,46733.6899575556,58376.8738735511,61272.6397050494,16270.9118809681
4168044121,27636,-2,0,-8774.6615576837,42983.6179644217,12727.1796905577,31006.7836338444,51591.2657155137,14243.6640809946,46709.9994518414,58368.0279579608,61265.2295776842,16267.4440873736
4168044121,27636,-2,0,-8773.7854835124,42985.6378020943,12718.9299921117,31011.6263771799,51596.4004835730,14244.3941428040,46723.7367815545,58370.7900251396,61267.4562662028,16267.4075842831
4168044121,27636,-2,0,-8770.7922300940,42989.9938375570,12710.1205796119,31015.0698353808,51602.2774811385,14245.9394403005,46739.1654211260,58373.5399246216,61268.3810111614,16268.7460309337
4168044121,27636,-2,0,-8768.8819016928,42989.9573344665,12705.3508424573,31014.6196305984,51597.5442470744,14245.5865770926,46724.4060048797,58369.9382863620,61267.2250799632,16267.3954165863
4168044121,27636,-2,0,-8764.9639033158,42993.8144943594,12706.1174073572,31021.8472425112,51599.1017122677,14247.2535515574,46727.4965998728,58376.3141594972,61270.6320350736,16270.2913284302
4168044121,27636,-2,0,-8763.2117549733,42995.7126550637,12702.4427629167,31024.8283282328,51602.3261519258,14242.0579450140,46742.7062209014,58378.6260218936,61269.9384763547,16274.0998175358
4168044121,27636,-2,0,-8764.4406923524,42992.6098923739,12697.6851934589,31020.7399821003,51599.7587678961,14242.6663298551,46727.3384198141,58372.4204965139,61265.2539130779,16270.4981792762
4168072681,27637,-2,0,-8765.9251513648,42991.1010979678,12697.2349886764,31018.0387534056,51600.3184819500,14250.5023266091,46718.0422994413,58372.5908442694,61265.2174099874,16269.0258879606
4168072681,27637,-2,0,-8765.7669713061,42996.7104062032,12696.4440883829,31021.9445840858,51608.2396525817,14248.7866813571,46734.4808578491,58379.4169221871,61269.4030976945,16273.2845818486
4168072681,27637,-2,0,-8768.9062370864,42995.4814688241,12697.1619824955,31021.6647270589,51607.3514107136,14246.9006883495,46729.6502822104,58376.4358364654,61269.1232406676,16274.6230284991
4168072681,27637,-2,0,-8769.8918205291,42990.0911791315,12696.6509392289,31020.1194295623,51601.8394440529,14248.4094827556,46711.9462833330,58373.3695768661,61268.1863280122,16269.0623910511
4168072681,27637,-2,0,-8765.0125741031,42995.2746179781,12696.3710822020,31024.5728065995,51606.8403674471,14249.5775816506,46729.7719591786,58377.8229539033,61270.0966564134,16270.8388747872
4168072681,27637,-2,0,-8760.7417125182,42997.4648034062,12692.9762947884,31026.1911102770,51609.3469129926,14246.9493591368,46737.8513098691,58379.2952452188,61269.0624021834,16270.9727194523
4168072681,27637,-2,0,-8757.6146144347,42997.4769711031,12694.0713875025,31026.1546071865,51607.9111247675,14250.6361712741,46719.9891309330,58376.5940165241,61265.9474717968,16272.5666877361
4168072681,27637,-2,0,-8755.4852674907,43000.3242121596,12695.5315111212,31029.2452021796,51613.8489608171,14250.2346372790,46724.0166385814,58380.4146733265,61268.3323403741,16276.3630091448
4168117924,27638,-2,0,-8755.8016276081,43003.2687947908,12694.6067661627,31032.1897848107,51621.6484544806,14250.8065190297,46742.2803515126,58387.0704034887,61272.3963511129,16281.7654665342
4168117924,27638,-2,0,-8755.8502983954,43000.2025351914,12697.0038024368,31031.2772075490,51619.1784120255,14251.7312639882,46731.4267659466,58383.6391129846,61272.2138356606,16279.6969580743
4168117924,27638,-2,0,-8759.1355765376,42999.7766658026,12698.2692429064,31031.7882508155,51616.9395558101,14247.4482347065,46725.9999731635,58384.1501562512,61271.2160845211,16275.7789596973
4168117924,27638,-2,0,-8763.0170718241,42997.4404680126,12692.1853944949,31029.2330344827,51615.2360782549,14240.5856536984,46739.1654211260,58383.2254112926,61267.0790676013,16272.1164829536
4168117924,27638,-2,0,-8765.2802634332,42990.0911791315,12686.6612601373,31024.3902911472,51607.1932306549,14243.9926088088,46729.2122451248,58376.8373704606,61263.7207832782,16269.9871360096
4168117924,27638,-2,0,-8767.0810825630,42987.4386212241,12687.9145329101,31023.6602293378,51603.3360707621,14248.2026319096,46714.4284934849,58374.9513774530,61263.2705784957,16270.8997132713
4168117924,27638,-2,0,-8766.2658468759,42993.6319789070,12690.3359045778,31027.0793521451,51609.4077514767,14247.8619363985,46730.2343316579,58381.2177413169,61268.0038125599,16273.5766065724
4168117924,27638,-2,0,-8763.8809782986,42996.5522261445,12690.7252708762,31027.1645260228,51612.7173650126,14246.1097880560,46733.1545788954,58379.5142637617,61264.7793729018,16274.5256869246
4168140572,27639,-2,0,-8762.1288299561,42996.1628598462,12693.0614686662,31025.7774085850,51609.5415961418,14248.3729796651,46716.1563064338,58376.5088426464,61265.6189439826,16273.6739481470
4168140572,27639,-2,0,-8761.1919173007,42999.9835166486,12693.4264995709,31030.0117670794,51610.5150118876,14244.9416891610,46726.0729793445,58380.6823626567,61265.8136271317,16273.0168925185
4168140572,27639,-2,0,-8763.9783198731,42998.9005916313,12690.4454138492,31029.9752639889,51609.6267700195,14240.4639767302,46735.9774845583,58381.3394182851,61264.6820313272,16271.2647441760
4168140572,27639,-2,0,-8768.3830261230,42993.7779912689,12687.9145329101,31026.5804765753,51602.9467044637,14244.7835091023,46719.2225660332,58373.5277569248,61262.7351998355,16267.9672983370
4168140572,27639,-2,0,-8766.3145176631,42996.6739031128,12689.8735320986,31030.0361024730,51606.2928210900,14248.9083583253,46721.8507885469,58379.5020960648,61267.6022785647,16270.6685270317
4168140572,27639,-2,0,-8760.8998925769,43002.8794284925,12690.9807925094,31035.4020567720,51612.9242158586,14248.9205260221,46742.5967116300,58384.2718332194,61269.7802962960,16278.3706791206
4168140572,27639,-2,0,-8759.0625703567,43003.5486518177,12694.1930644707,31034.6233241753,51609.7606146846,14253.1305491229,46731.9256415163,58380.6580272630,61272.0313202082,16282.4833606468
4168140572,27639,-2,0,-8758.8922226012,43002.3805529227,12698.0745597572,31036.8500126939,51607.7772801024,14254.4081572893,46720.0864725076,58381.2542444073,61272.4815249907,16283.1404162752
4168159365,27640,-2,0,-8757.8092975839,43006.6027437203,12697.8312058208,31041.2303835501,51615.4307614041,14252.1206302865,46736.9509003042,58386.3890124666,61275.6207907710,16283.9434842655
4168159365,27640,-2,0,-8758.2838377600,43005.9943588791,12696.3954175957,31039.5755767822,51613.6177745775,14249.2733892300,46735.8801429838,58383.2132435958,61272.1164940860,16281.8993111993
4168159365,27640,-2,0,-8760.2550046453,43000.0686905264,12695.7383619672,31036.1321185813,51607.5825969533,14249.5532462569,46718.4316657397,58376.5210103432,61269.0989052739,16277.5676111303
4168159365,27640,-2,0,-8759.7682967724,43001.9303481403,12694.9231262801,31038.8333472760,51608.8602051197,14252.9480336705,46729.9301392373,58379.5872699426,61271.1917491275,16275.8032950910
4168159365,27640,-2,0,-8761.8124698387,43002.5995714655,12693.1588102407,31039.1132043030,51607.8867893738,14253.1670522133,46737.1090803629,58376.3749979813,61271.4837738512,16279.5387780156
4168159365,27640,-2,0,-8762.5546993449,42998.9127593282,12694.0227167152,31038.1519562539,51601.4379100577,14257.1580567712,46719.6849385124,58373.1383906264,61272.7370466240,16278.5896976634
4168159365,27640,-2,0,-8759.6831228946,43001.7600003847,12693.0493009693,31040.2934708948,51603.3847415494,14253.5807539053,46724.9535512368,58377.8107862064,61276.0344924630,16280.4270198837
4168159365,27640,-2,0,-8759.2450858090,43002.0885281990,12689.6180104653,31040.0014461710,51607.5825969533,14243.7005840851,46739.6521289989,58378.2974940794,61273.2724252842,16279.6361195902
4168205381,27641,-2,0,-8764.3555184747,42996.6617354159,12685.9311983279,31036.3268017305,51604.0174617842,14243.6032425105,46722.5686826595,58371.1307206506,61266.8235459680,16276.4238476289
4168205381,27641,-2,0,-8764.1486676287,42996.4548845699,12686.2718938390,31035.9982739163,51603.4820831239,14247.8984394890,46712.9440344725,58370.0599633302,61267.4684338996,16275.5964442450
4168205381,27641,-2,0,-8762.5181962544,43002.3075467418,12688.7784393845,31038.7725087919,51612.2428248365,14247.0953714987,46732.2298339369,58375.4259176291,61269.8654701738,16277.6892880985
4168205381,27641,-2,0,-8759.2572535058,43005.5319863999,12691.1998110523,31037.7260868651,51611.7682846604,14247.8132656112,46729.8936361469,58373.7589431644,61269.6829547214,16275.9614751497
4168205381,27641,-2,0,-8755.1810750702,43007.8560164930,12697.2228209796,31039.2592166648,51609.2617391148,14253.5320831180,46719.3199076077,58374.0631355850,61269.6829547214,16272.8952155503
4168205381,27641,-2,0,-8752.5163494659,43013.9276972077,12701.7127011073,31044.4791586019,51615.0048920153,14256.3184856905,46733.0450696240,58385.2939197525,61276.1561694312,16276.0588167243
4168205381,27641,-2,0,-8749.1215620523,43018.8312790273,12706.6649537142,31044.0776246067,51618.1806608861,14258.4478326345,46739.2627627005,58387.6301175426,61280.0863355050,16280.5730322456
4168205381,27641,-2,0,-8744.8628681643,43021.5568431157,12713.4423608446,31045.4525743477,51618.8498842113,14263.5826006938,46727.9954754425,58388.9442287994,61281.0597512509,16281.2544232676
4168225505,27642,-2,0,-8740.7380189413,43029.5266845347,12718.3337749674,31051.3295719132,51626.0409930337,14264.1058116571,46742.2925192095,58393.1664195970,61284.5032094518,16282.1791682262
4168225505,27642,-2,0,-8735.2990584615,43033.6515337577,12719.1490106546,31052.4976708082,51627.2090919287,14256.9633736221,46755.8351657734,58393.3489350493,61280.4878695002,16284.1381674147
4168225505,27642,-2,0,-8735.7492632439,43027.2756606225,12715.2918507617,31045.9757853111,51616.1364878198,14250.8308544233,46732.4123493892,58382.5561879674,61271.5932831226,16277.8961389445
4168225505,27642,-2,0,-8734.4108165934,43023.3819976391,12712.6514605511,31041.9239422691,51612.5105141666,14251.6704255041,46720.8530374074,58379.1857359474,61270.1818302912,16271.8974644108
4168225505,27642,-2,0,-8730.1156196149,43027.2756606225,12714.4157765904,31045.5742513159,51621.3807651505,14253.3495676657,46738.0824961087,58385.7197891414,61272.2990095384,16274.2701652913
4168225505,27642,-2,0,-8727.2440431647,43031.5343545105,12717.7253901263,31046.6815117268,51624.0819938452,14256.1238025413,46733.7629637366,58387.0704034887,61273.1385806191,16276.2291644798
4168225505,27642,-2,0,-8726.8790122600,43032.4104286817,12720.4509542146,31047.3507350521,51621.3807651505,14258.5086711186,46724.3573340924,58385.7684599286,61275.3774368346,16275.5599411545
4168225505,27642,-2,0,-8725.2363731889,43037.8493891616,12722.0935932857,31050.7941932530,51626.8075579335,14260.8327012118,46742.4263638745,58391.6089544037,61276.5577034264,16276.1683259957
4168256771,27643,-2,0,-8727.6212417662,43037.6060352251,12722.3734503126,31049.6747651453,51625.8584775813,14259.9566270405,46742.3655253904,58390.7815510197,61275.9614862821,16275.2192456435
4168256771,27643,-2,0,-8730.7240044560,43035.1724958605,12726.5469703229,31048.1294676488,51622.9260626470,14258.6911865709,46725.1725697796,58387.4597697870,61274.6960458125,16271.5080981125
4168256771,27643,-2,0,-8727.2440431647,43040.4654439785,12731.1341920252,31051.6580997274,51631.3826119390,14259.2387329280,46736.3911862503,58395.9041513822,61278.9060689132,16270.1818191588
4168256771,27643,-2,0,-8724.4941436827,43044.7363055634,12731.2923720838,31052.4611677177,51640.0095089864,14256.7200196856,46750.3353668094,58398.3011876563,61280.5487079843,16270.3034961270
4168256771,27643,-2,0,-8731.1863769353,43037.5695321347,12728.5059695114,31047.2777288712,51632.4290338657,14256.7078519888,46730.9400580736,58390.8788925943,61276.3995233677,16266.0691376326
4168256771,27643,-2,0,-8730.4806505196,43038.1657492790,12730.8665026950,31052.1569752972,51634.1446791178,14260.5893472753,46731.3902628561,58394.5292016412,61281.6803037888,16270.5103469730
4168256771,27643,-2,0,-8728.0471111550,43038.6037863646,12728.3842925432,31054.6026823586,51636.5173799982,14256.4888334460,46746.2470206769,58396.6463808883,61280.9867450699,16270.8510424840
4168256771,27643,-2,0,-8726.8790122600,43035.5375267652,12727.8124107925,31052.1934783876,51632.1491768388,14257.7421062187,46734.2253362158,58391.3899358608,61278.3950256466,16270.7415332126
4168291450,27644,-2,0,-8726.7816706854,43035.1116573764,12726.9606720149,31051.4512488814,51628.9612402712,14259.7984469818,46724.6980296035,58390.4651909023,61279.4049444830,16268.9528817797
4168291450,27644,-2,0,-8728.5824898152,43035.3671790097,12723.8944124155,31052.8748694097,51630.7620594010,14258.7763604487,46742.3046869063,58393.3976058366,61277.2877652358,16268.3079938480
4168291450,27644,-2,0,-8734.0701210824,43029.7822061680,12721.1323452367,31050.4169946515,51628.5232031856,14259.7376084977,46737.5106143580,58391.3412650735,61274.0998286681,16266.2881561754
4168291450,27644,-2,0,-8737.3553992245,43024.1607302358,12720.3657803368,31045.4039035604,51623.3275966422,14258.6790188741,46716.9350390304,58385.2209135716,61270.3035072594,16262.2971516175
4168291450,27644,-2,0,-8734.0701210824,43025.1341459816,12720.6091342733,31045.4890774382,51627.4767812588,14251.9746179247,46729.4799344549,58388.2628377773,61269.6464516309,16266.1299761167
4168291450,27644,-2,0,-8734.6906736203,43023.7713639374,12720.3536126400,31042.4714886261,51629.5209543250,14250.2954757631,46737.8391421723,58386.8027141586,61267.4562662028,16269.0988941415
4168291450,27644,-2,0,-8738.4748273323,43017.9065340688,12718.6988058721,31038.0424469825,51621.2712558791,14247.1197068923,46721.8994593342,58382.6535295420,61264.7793729018,16267.9672983370
4168291450,27644,-2,0,-8741.4802484475,43014.4874112615,12715.4378631236,31037.0325281462,51619.8963061381,14243.0556961535,46725.1725697796,58383.7486222560,61265.1444038065,16264.5725109234
4168323444,27645,-2,0,-8743.8651170248,43011.9565303224,12711.3860200815,31034.5138149039,51617.7426238004,14242.0214419235,46735.9531491647,58383.6634483783,61263.8911310337,16261.2020589034
4168323444,27645,-2,0,-8746.3108240862,43010.3138912513,12712.5541189765,31032.7129957741,51613.0215574331,14245.5257386085,46721.1572298280,58377.3727491208,61263.3679200703,16261.4454128399
4168323444,27645,-2,0,-8749.3527482920,43009.0606184785,12710.7654675435,31031.3745491236,51610.5150118876,14241.7172495029,46713.9417856120,58376.8495381574,61261.2872439136,16261.7617729573
4168323444,27645,-2,0,-8751.1292320281,43009.5959971387,12708.3319281790,31030.4619718618,51614.2018240250,14235.0250162503,46729.9058038437,58378.3096617762,61259.5229278743,16264.0614676568
4168323444,27645,-2,0,-8754.7673733782,43004.1327012652,12706.1782458413,31025.5705577390,51610.1256455893,14234.2462836536,46720.5731803805,58375.4137499323,61255.5562587100,16264.6455171043
4168323444,27645,-2,0,-8754.6578641068,43001.5896526292,12709.6947102231,31025.3150361057,51606.2563179996,14234.2341159568,46703.9886096108,58372.9802105677,61256.3836620939,16263.4165797252
4168323444,27645,-2,0,-8754.0616469624,43004.3638875048,12708.7699652646,31026.4953026976,51612.0603093841,14230.8028254528,46718.8818705221,58380.0739778155,61257.0407177224,16263.1367226983
4168323444,27645,-2,0,-8754.1224854466,43004.9114338619,12706.7379598952,31024.5728065995,51613.9097993012,14228.0407582739,46723.2257382879,58379.5751022458,61257.0772208128,16264.2074800187
4168373285,27646,-2,0,-8760.7538802151,43000.8960939103,12706.2025812349,31020.9468329463,51610.7827012177,14228.8316585674,46705.9962795866,58374.4525018833,61254.3273213309,16262.8325302777
4168373285,27646,-2,0,-8761.7151282641,43001.2611248150,12706.4581028682,31021.7133978461,51610.5758503717,14227.4323734328,46713.2238914994,58376.0099670766,61251.6990988171,16263.1853934856
4168373285,27646,-2,0,-8758.0648192172,43001.4436402673,12706.2999228095,31022.7476520761,51612.7903711935,14226.3251130219,46725.2212405669,58375.9491285925,61252.2101420837,16264.9497095249
4168373285,27646,-2,0,-8759.4519366550,42997.7568281300,12707.2855062522,31019.0608399387,51607.2540691391,14224.6946416476,46709.0138683987,58370.8021928364,61247.5134111100,16263.1002196078
4168373285,27646,-2,0,-8761.3987681467,42997.6716542522,12706.9691461348,31019.5110447212,51604.6136789285,14221.3120219309,46708.6610051908,58372.0554656092,61247.8419389242,16258.9632026880
4168373285,27646,-2,0,-8762.6155378290,42998.6572376949,12704.4382651956,31018.3794489167,51609.5172607481,14215.4836951527,46727.5939414473,58375.2068990863,61246.5764984546,16260.3989909131
4168373285,27646,-2,0,-8763.5767858780,42993.9726744181,12703.2336632101,31014.1572581191,51604.6623497158,14214.9969872798,46719.5997646347,58371.7269377950,61245.5422442247,16262.8933687618
4168373285,27646,-2,0,-8763.8566429049,42990.9550856060,12702.2359120707,31010.5921229500,51598.6271720916,14217.4183589475,46708.9043591273,58369.5367523668,61245.4935734374,16262.0416299842
4168383348,27647,-2,0,-8759.1477442344,42995.2259471908,12704.4747682861,31012.8431468622,51606.3293241805,14215.7513844828,46729.6137791199,58375.9612962894,61248.9248639415,16264.7550263757
4168383348,27647,-2,0,-8755.7651245177,42997.0024309270,12707.5896986728,31012.1860912338,51607.3270753200,14213.8045529911,46730.4533502007,58373.9657940104,61245.2015487137,16267.3102427086
4168383348,27647,-2,0,-8757.3104220142,42994.3985438069,12709.8528902818,31010.6529614341,51604.0539648746,14217.6008743999,46715.6209277736,58371.7634408854,61245.3475610755,16265.0592187963
4168383348,27647,-2,0,-8758.6732040583,42998.3287098807,12711.9213987417,31014.7048044761,51608.5925157896,14218.8663148694,46728.8228788265,58378.2731586857,61249.7644350223,16267.0303856816
4168383348,27647,-2,0,-8763.8323075113,42995.6274811860,12710.4369397293,31011.1761723975,51606.5240073297,14214.2425900767,46733.9941499762,58375.7666131402,61247.0510386307,16268.5270123909
4168383348,27647,-2,0,-8768.3586907294,42987.6576397669,12709.7920517977,31003.6565357609,51598.2743088837,14212.7459633675,46712.9805375630,58366.6651759166,61242.6828354713,16266.1543115104
4168383348,27647,-2,0,-8770.1351744656,42984.2628523533,12707.4680217045,31000.5051022838,51596.0354526683,14205.4696806674,46711.7394324870,58364.0612887965,61238.0226075881,16263.5139212998
4168383348,27647,-2,0,-8774.4668745345,42980.5638725192,12701.4328440804,30994.1657322390,51593.6627517878,14195.9058709646,46724.6250234225,58360.6178305956,61233.8977583651,16260.9830403606
4168420491,27648,-2,0,-8777.4479602561,42974.2731732617,12699.7415342220,30988.8241133337,51585.8145873370,14201.0406390238,46710.3644827461,58353.3537155923,61232.1577777195,16261.7861083509
4168420491,27648,-2,0,-8779.9058350144,42972.8617204302,12700.8001238456,30989.2743181162,51582.6753215567,14204.1799048042,46700.0219404466,58353.3293801987,61236.7936702090,16264.0736353537
4168420491,27648,-2,0,-8780.6967353079,42974.1149932030,12702.1142351024,30990.7587771286,51588.3333005794,14200.1280617621,46716.2779834020,58357.6367448740,61239.7869236274,16266.9452118039
4168420491,27648,-2,0,-8785.8801741544,42973.0320681858,12704.0732342909,30987.8141944974,51588.3333005794,14202.9022966377,46710.4009858365,58354.5339821841,61237.4385581406,16269.4030865621
4168420491,27648,-2,0,-8786.3060435432,42974.5165271982,12711.7267155926,30987.8020268006,51585.1210286181,14202.9144643346,46698.0751089549,58351.7719150053,61237.6089058961,16270.7415332126
4168420491,27648,-2,0,-8781.8161634156,42977.1204143183,12712.3716035242,30989.6150136272,51586.7880030829,14196.8062805295,46713.1265499249,58353.2928771082,61238.7891724880,16269.8897944350
4168420491,27648,-2,0,-8784.8094168340,42972.3263417700,12706.5189413523,30984.8574441695,51581.3977133903,14194.7742751600,46716.0467971624,58349.1315247948,61236.1244468837,16268.0159691243
4168420491,27648,-2,0,-8788.8855952697,42966.3641703268,12705.9470596017,30978.5667449120,51573.9024121474,14199.3614968623,46695.6780726808,58344.1792721878,61234.1776153921,16263.0393811237
4168462293,27649,-2,0,-8787.6079871033,42968.2379956375,12709.0011515042,30979.6740053229,51577.2971995610,14200.1889002462,46701.8227595763,58348.5596430441,61237.1830365073,16265.1200572804
4168462293,27649,-2,0,-8786.7684160225,42968.2014925471,12711.1304984482,30979.9660300466,51580.2174467985,14195.1514737615,46715.5600892895,58348.3771275917,61234.3844662381,16265.4729204883
4168462293,27649,-2,0,-8791.5259854803,42961.4484208103,12712.1282495877,30974.7339204128,51571.8460713843,14197.0374667691,46698.4766429500,58341.3563665249,61231.9630945703,16263.0515488205
4168462293,27649,-2,0,-8792.5115689229,42959.5380924091,12713.1381684240,30974.2107094494,51571.8460713843,14201.1744836889,46692.0520990275,58344.0575952196,61234.6764909618,16265.1565603709
4168462293,27649,-2,0,-8791.4408116025,42962.0689733483,12711.8483925608,30975.5491560999,51575.6423927931,14198.5340934783,46707.3103908435,58347.8782520220,61234.7981679300,16268.1133106989
4168462293,27649,-2,0,-8789.3601354458,42961.8012840182,12715.1336707030,30974.4905664763,51575.9465852136,14202.4764272489,46699.4378909990,58345.6515635034,61233.6665721255,16271.7271166553
4168462293,27649,-2,0,-8784.7485783499,42966.2668287522,12723.2008536966,30977.4229814106,51577.6013919816,14209.1686605016,46693.0376824702,58348.5839784377,61239.1542033927,16275.2679164308
4168462293,27649,-2,0,-8780.7332383983,42973.7499622983,12728.2261124845,30981.4018182717,51585.5712334006,14199.9090432193,46713.6132577978,58354.9963546634,61241.2835503367,16278.2490021524
4168475588,27650,-2,0,-8789.0437753284,42965.8774624539,12724.2229402297,30975.1597898016,51578.9885094194,14192.1582203431,46712.6520097488,58349.1680278852,61235.0050187760,16271.7879551394
4168475588,27650,-2,0,-8795.0181144685,42958.8445336902,12726.4982995356,30969.7329970185,51569.1083395991,14200.3835833954,46691.7844096974,58342.3541176644,61232.2186162036,16267.2980750117
4168475588,27650,-2,0,-8794.7382574415,42963.6872770258,12730.7813288173,30973.3468029750,51576.2386099374,14201.9045454983,46702.6258275667,58349.3992141249,61235.9297637346,16270.4130053984
4168475588,27650,-2,0,-8793.2051276418,42966.3154995395,12729.0656835653,30973.8335108479,51584.4274698992,14194.2632318935,46714.9517044483,58349.7399096359,61234.4696401158,16272.0313090759
4168475588,27650,-2,0,-8795.2127976176,42962.3488303752,12727.1918582545,30967.4819731063,51577.2728641673,14190.9049475703,46694.7411600254,58343.1085148674,61227.5948914109,16270.2426576429
4168475588,27650,-2,0,-8793.7648416957,42961.1442283898,12730.4893040935,30968.2363703093,51577.0416779277,14189.4569916484,46692.3076206608,58344.9823401781,61228.2154439488,16267.9186275497
4168475588,27650,-2,0,-8796.4417349968,42958.5646766633,12730.4771363967,30967.0317683238,51576.2872807247,14185.3808132127,46706.5073228532,58343.5708873467,61227.2055251125,16266.3003238723
4168475588,27650,-2,0,-8799.6175038675,42956.0094603305,12736.2932954781,30967.2751222603,51573.3670334872,14193.7400209301,46697.8682581089,58339.7745659379,61227.6192268045,16267.0425533785
4168513366,27651,-2,0,-8795.2858037986,42958.9783783553,12744.1049568384,30971.5824869356,51574.5716354726,14198.9842982608,46693.6095642209,58344.2644460656,61232.5228086242,16271.0335579364
4168513366,27651,-2,0,-8786.2330373623,42969.8197962245,12748.0594583059,30977.0579505060,51584.4396375960,14196.1248895074,46715.4627477149,58351.4433871911,61234.9076772015,16277.1174063478
4168513366,27651,-2,0,-8785.7706648830,42967.3984245567,12747.2442226187,30972.1908717768,51582.3467937425,14191.2456430814,46709.4762408780,58346.7223208238,61231.7319083307,16274.2945006849
4168513366,27651,-2,0,-8790.6255759154,42962.2393211038,12747.2685580124,30965.1579430131,51576.6888147198,14196.0397156296,46689.3873734233,58343.9115828577,61230.5029709515,16270.8145393936
4168513366,27651,-2,0,-8792.3533888642,42963.9184632654,12744.2631368971,30966.6058989350,51580.7163223682,14191.6471770765,46700.7033314686,58346.2477806477,61231.7684114211,16266.9087087134
4168513366,27651,-2,0,-8796.1618779698,42962.5800166149,12742.6204978260,30964.7685767148,51579.5360557764,14183.6286648702,46707.2982231467,58343.5465519530,61225.7088984033,16267.7239444005
4168513366,27651,-2,0,-8798.5467465471,42958.2361488491,12748.9233647803,30961.6293109345,51572.1867668953,14186.5732475014,46687.9880882887,58337.5600451161,61221.8274031168,16268.9285463860
4168513366,27651,-2,0,-8791.1366191819,42962.8355382481,12756.3943306296,30965.2431168909,51574.9123309837,14186.0257011443,46693.5852288272,58341.2833603440,61224.5529672051,16269.7316143763
4168548406,27652,-2,0,-8786.6710744479,42963.7481155099,12757.1000570453,30966.3868803922,51577.1876902896,14181.0004423565,46708.1621296211,58342.4392915421,61222.6304711071,16269.1353972320
4168548406,27652,-2,0,-8791.5624885708,42959.2095645949,12754.7638592553,30960.0231749538,51569.0475011150,14181.8400134372,46690.7988262548,58332.6199602060,61219.4547022363,16266.7505286547
4168548406,27652,-2,0,-8796.6120827523,42958.3699935141,12755.2627348250,30957.5896355892,51571.0551710908,14185.0522853985,46687.2336910856,58332.7294694774,61220.2942733171,16266.5680132024
4168548406,27652,-2,0,-8794.6409158670,42963.0180537005,12759.3632486544,30959.2931131445,51577.2850318642,14190.2843950324,46705.6555840756,58338.7281440111,61227.4367113522,16270.0358067969
4168548406,27652,-2,0,-8794.1663756909,42960.6453528200,12765.5566063373,30956.0078350023,51573.9510829347,14188.8121037168,46699.8880957815,58337.1220080305,61228.0450961933,16272.5180169488
4168548406,27652,-2,0,-8796.2348841508,42957.2870684969,12771.1172437853,30955.8253195499,51566.5166201758,14190.7345998148,46683.2670219214,58333.7515560106,61227.7774068632,16271.9583028949
4168548406,27652,-2,0,-8793.6066616370,42962.8112028545,12775.0960806464,30959.1592684794,51573.2696919126,14188.7999360200,46698.7443322801,58341.4902111900,61229.9919276850,16273.9173020834
4168548406,27652,-2,0,-8792.7792582530,42964.5025127129,12774.4268573212,30960.1935227094,51576.6401439325,14186.6097505918,46702.3946413270,58337.2923557860,61225.9522523398,16273.7104512374
4168576660,27653,-2,0,-8791.9640225659,42961.5457623849,12774.0374910228,30957.4801263178,51572.0529222303,14185.9526949634,46684.9096609925,58331.2085073746,61221.2555213661,16270.4130053984
4168576660,27653,-2,0,-8793.0226121895,42959.9031233138,12771.3727654186,30957.6869771638,51571.0065003035,14185.5633286651,46689.0223425186,58329.4928621225,61217.7025538938,16269.8776267382
4168576660,27653,-2,0,-8797.5003246203,42956.7760252303,12768.9027229636,30956.8839091735,51570.8483202448,14185.3443101222,46699.6447418450,58327.1444966357,61215.3663561038,16270.9605517554
4168576660,27653,-2,0,-8798.5345788503,42952.8336914597,12774.3660188371,30952.7712276474,51565.6162106110,14188.9824514723,46683.7780651879,58324.7352926648,61215.8652316735,16271.2769118728
4168576660,27653,-2,0,-8797.4273184394,42954.6831813768,12780.4011964612,30952.1750105030,51566.2610985426,14187.1938000393,46682.0502522391,58326.8889750024,61218.5299572778,16268.3201615449
4168576660,27653,-2,0,-8796.5269088745,42958.1509749713,12783.4431206670,30952.6982214664,51572.6369716778,14182.5822429434,46701.6402441240,58328.6167879513,61220.1847640457,16266.2881561754
4168576660,27653,-2,0,-8799.5323299898,42953.0040392152,12784.1488470827,30947.2349255929,51567.7212221613,14182.8742676672,46690.7258200738,58324.1999140046,61215.8895670672,16264.3899954711
4168576660,27653,-2,0,-8801.1019628799,42951.2640585695,12786.7405665060,30946.6022053581,51564.8861488016,14189.0189545628,46677.9497384097,58325.7452115011,61216.9603243876,16265.5459266692
4168605520,27654,-2,0,-8797.1231260188,42957.5182547365,12791.1331050591,30953.4404509726,51571.1403449686,14189.9923703086,46698.3427982850,58333.8123944947,61220.7931488868,16269.3057449875
4168605520,27654,-2,0,-8791.5989916612,42960.9617129374,12795.6594882772,30955.5941333103,51574.6933124409,14187.6926756091,46703.2950508919,58335.6132136245,61222.7399803785,16270.7537009094
4168605520,27654,-2,0,-8788.7274152110,42961.5092592944,12800.8185917301,30954.9979161660,51572.1989345922,14189.6760101912,46687.9394175014,58333.6542144360,61222.9833343150,16269.5612666208
4168605520,27654,-2,0,-8787.5714840128,42966.8265428061,12804.8582670754,30955.0222515596,51578.7938262702,14188.5200789930,46695.8970912236,58337.9007406272,61227.1690220221,16271.8609613203
4168605520,27654,-2,0,-8790.6620790059,42966.3885057204,12806.4400676623,30951.4814517841,51580.1566083144,14186.2082165967,46701.0926977670,58335.7713936832,61225.4168736796,16271.8001228362
4168605520,27654,-2,0,-8794.1420402972,42962.6165197053,12809.4698241713,30947.8919812214,51573.7198966950,14189.0432899564,46680.3224392902,58330.0769115700,61224.4677933274,16269.8167882541
4168605520,27654,-2,0,-8792.8644321308,42964.2956618669,12810.7474323377,30948.3543537006,51572.2354376826,14190.6859290275,46683.7050590070,58332.0480784554,61225.6967307065,16268.7581986305
4168605520,27654,-2,0,-8790.4065573726,42968.1893248502,12811.7816865676,30951.7613088111,51579.0250125098,14190.2722273355,46703.2098770142,58334.9683256929,61225.4168736796,16271.4715950220
4168634402,27655,-2,0,-8796.7702628110,42964.1131464146,12814.0570458735,30947.1984225025,51575.4842127344,14193.8008594142,46690.3242860787,58329.8822284209,61224.9301658066,16271.8122905330
4168634402,27655,-2,0,-8793.2903015196,42966.8265428061,12822.4649243782,30953.2944386107,51576.8226593849,14200.2497387303,46685.4937104400,58333.1066680790,61229.2862012692,16276.2291644798
4168634402,27655,-2,0,-8789.8346756219,42969.6616161658,12826.0422272441,30957.3827847433,51580.0957698303,14187.0112845870,46703.2585478015,58336.7691448227,61228.9211703646,16275.3652580053
4168634402,27655,-2,0,-8791.8666809913,42963.2735753338,12824.7524513809,30949.3642725369,51572.1259284112,14178.9684369870,46694.1571105779,58328.3856017116,61221.4988753026,16267.1398949530
4168634402,27655,-2,0,-8793.5701585465,42959.5502601059,12825.4095070093,30945.1177463457,51567.9645760978,14183.4096463274,46678.0592476811,58324.4189325474,61218.3109387350,16263.4287474220
4168634402,27655,-2,0,-8791.3434700279,42963.2127368497,12826.2247426964,30947.5999564976,51573.0020025825,14186.2203842935,46691.5045526705,58331.2450104650,61221.9125769945,16266.0082991485
4168634402,27655,-2,0,-8795.2858037986,42961.8499548055,12827.2468292296,30946.4561929963,51574.5594677758,14182.9959446354,46696.8948423631,58330.6852964112,61221.5353783930,16268.1498137893
4168634402,27655,-2,0,-8804.0100424206,42958.2118134554,12828.2445803691,30944.0348213285,51567.0763342297,14183.3001370560,46678.2539308303,58327.4243536626,61220.3429441044,16265.7527775152
4168664397,27656,-2,0,-8799.9947024691,42962.2271534070,12830.2157472544,30949.1817570846,51569.1570103864,14189.1406315310,46688.4139576775,58331.4518613110,61224.3826194496,16270.0601421905
4168664397,27656,-2,0,-8787.2794592891,42969.2479144738,12835.8615585802,30955.3021085865,51574.9366663773,14190.1870534578,46709.0138683987,58334.6032947882,61227.3028666871,16278.3950145143
4168664397,27656,-2,0,-8784.8824230150,42965.3420837937,12841.2518482728,30951.0434146985,51568.1349238533,14185.6119994523,46693.5852288272,58328.4951109831,61223.6282222466,16277.2999218002
4168664397,27656,-2,0,-8789.3236323553,42962.3488303752,12843.6245491532,30947.6364595881,51562.7324664639,14180.2947159407,46686.5036292763,58325.7208761074,61221.2433536693,16273.2845818486
4168664397,27656,-2,0,-8796.1618779698,42956.3866589320,12839.5970415049,30943.7306289079,51563.1948389432,14170.8404155093,46697.7222457470,58323.8835538872,61216.4006103338,16269.9628006160
4168664397,27656,-2,0,-8800.8829443371,42950.3271459142,12835.8737262770,30937.6467804964,51557.0623197444,14174.2230352261,46687.0633433301,58317.3251652996,61211.1198299126,16266.1543115104
4168664397,27656,-2,0,-8798.5589142439,42951.3857355378,12839.8160600477,30937.6346127996,51558.3399279108,14181.4871502294,46674.7009633580,58317.7875377789,61211.6795439664,16267.8212859751
4168664397,27656,-2,0,-8792.3168857738,42958.9540429616,12845.6808899163,30943.8036350889,51566.4801170854,14181.2194608993,46695.4833895316,58326.1224101026,61215.1351698642,16270.8875455745
4168692505,27657,-2,0,-8790.9297683360,42960.3046573090,12850.8278256724,30945.5071126441,51567.6603836772,14180.5259021804,46702.0174427255,58325.2463359313,61213.6872139422,16271.4107565379
4168692505,27657,-2,0,-8793.6796678179,42957.1288884382,12855.2568673160,30945.2272556171,51561.9537338672,14184.1640435304,46685.9925860097,58320.1845740530,61213.1883383725,16266.7505286547
4168692505,27657,-2,0,-8796.2227164539,42956.4596651129,12856.3032892428,30947.0767455342,51564.6792979556,14180.1365358820,46694.3031229398,58324.5041064251,61213.4195246121,16266.2516530850
4168692505,27657,-2,0,-8798.3763987916,42954.4641628340,12855.3907119810,30943.3169272159,51565.8108937601,14177.0702762826,46704.0981188822,58323.4211814079,61212.3365995949,16267.8091182783
4168692505,27657,-2,0,-8797.6828400727,42952.6755114010,12861.4623926957,30939.4232642326,51562.7811372512,14183.1176216036,46688.1219329537,58319.9290524197,61213.3586861280,16270.9483840586
4168692505,27657,-2,0,-8797.2448029871,42955.2915662179,12868.8360169704,30940.2141645261,51564.7888072270,14183.5799940829,46685.1895180194,58323.1413243810,61216.9359889940,16273.8686312961
4168692505,27657,-2,0,-8795.3101391922,42961.0468868152,12873.6057541250,30946.6265407518,51573.6590582109,14185.8310179952,46703.2585478015,58327.3513474817,61222.8494896499,16281.4734418105
4168692505,27657,-2,0,-8798.5345788503,42960.0126325852,12877.8157772257,30945.1055786489,51570.6414693988,14185.7823472079,46694.4734706953,58323.7983800094,61220.0752547743,16280.3418460059
4168732214,27658,-2,0,-8800.9072797308,42959.3312415631,12880.5900121013,30944.5093615046,51567.8794022200,14185.3199747286,46690.0565967486,58324.2364170950,61218.2501002508,16277.0078970764
4168732214,27658,-2,0,-8798.5710819408,42962.5800166149,12878.9960438175,30945.4706095536,51571.5297112669,14178.3113813586,46710.8146875285,58327.6677075991,61216.7656412384,16276.8497170177
4168732214,27658,-2,0,-8803.9248685429,42956.5448389907,12877.7062679543,30940.5426923403,51567.8185637359,14169.8183289762,46707.1522107848,58319.1868229135,61209.2703399955,16270.0844775842
4168732214,27658,-2,0,-8805.3606567680,42950.2054689459,12880.0059626538,30936.3691723300,51560.0190700724,14170.7674093284,46687.1728526015,58313.2368191671,61205.7903787042,16261.2263942971
4168732214,27658,-2,0,-8798.5467465471,42952.2861451027,12883.8874579404,30937.9023021297,51563.6572114225,14173.6268180817,46697.2720409646,58317.0939790600,61207.7980486799,16260.7153510305
4168732214,27658,-2,0,-8792.2925503801,42957.3235715874,12887.1727360826,30938.9608917533,51569.8992398926,14177.7638350015,46703.4167278602,58319.2963321849,61211.2171714872,16267.8091182783
4168732214,27658,-2,0,-8793.1686245514,42958.7106890252,12894.0109816971,30938.8392147851,51568.0010791883,14182.3267213102,46686.1020952811,58317.0453082727,61210.1220787731,16272.3841722837
4168732214,27658,-2,0,-8793.7405063021,42963.6994447226,12897.7221292281,30942.6355361938,51571.8947421716,14181.7791749531,46690.8109939516,58323.0196474127,61213.1396675852,16275.7911273941
4168755550,27659,-2,0,-8796.6242504491,42965.8287916666,12898.5860357025,30942.8302193430,51574.4499585044,14177.1554501604,46707.6145832641,58327.2053351198,61214.0035740596,16276.2048290861
4168755550,27659,-2,0,-8799.2159698724,42959.6719370742,12900.0096562308,30938.9852271470,51567.7577252518,14180.2582128503,46693.7799119764,58322.1557409383,61211.7282147537,16272.7127000979
4168755550,27659,-2,0,-8797.2082998966,42963.2127368497,12908.3688639481,30943.6819581206,51569.5220412911,14185.9405272666,46694.7168246318,58326.6456210660,61218.2622679477,16273.3332526359
4168755550,27659,-2,0,-8793.6188293338,42969.6859515595,12913.0655949218,30947.1375840183,51577.6135596784,14181.7426718627,46717.7624424144,58334.2382638835,61220.6349688281,16275.5599411545
4168755550,27659,-2,0,-8791.0392776074,42971.0852366941,12917.5919781399,30947.9771550991,51576.6158085389,14179.5768218282,46716.0102940719,58332.6929663870,61218.9314912729,16278.2246667587
4168755550,27659,-2,0,-8788.7152475142,42967.0090582584,12921.1206102186,30946.7603854168,51573.1966857316,14177.8003380920,46701.5185671558,58328.4829432862,61216.2545979719,16278.5288591793
4168755550,27659,-2,0,-8789.7129986537,42965.4880961555,12918.4072138271,30945.9208143360,51571.1890157559,14171.5704773187,46711.3013954014,58326.8524719120,61212.0567425680,16276.4116799321
4168755550,27659,-2,0,-8793.6675001211,42960.0004648884,12914.2580292104,30939.2772518707,51565.0321611634,14172.1910298566,46713.2360591963,58321.8028777304,61209.7692155652,16273.7347866311
4168798414,27660,-2,0,-8797.1474614125,42958.7471921156,12920.2445360473,30934.3736700511,51561.4305229039,14181.5236533198,46697.1625316932,58318.3107487423,61210.6331220397,16272.6640293107
4168798414,27660,-2,0,-8793.7770093925,42964.6120219843,12929.1634578185,30939.6787858659,51567.9524084010,14186.3055581713,46709.1355453669,58323.0074797159,61215.7678900990,16272.9803894280
4168798414,27660,-2,0,-8789.0924461157,42969.4791007135,12937.1454669344,30945.0082370743,51575.3868711598,14183.9450249876,46725.0265574177,58327.9962354133,61219.3086898744,16275.1097363721
4168798414,27660,-2,0,-8789.9198494997,42967.4227599504,12943.3023215268,30944.9352308934,51571.4932081764,14187.1329615552,46710.7903521349,58325.9520623471,61217.9702432239,16278.6870392380
4168798414,27660,-2,0,-8789.5669862918,42969.1384052024,12945.6506870136,30946.5900376613,51572.8924933111,14183.4096463274,46708.3081419830,58325.8790561661,61219.6372176887,16279.4292687442
4168798414,27660,-2,0,-8794.9816113780,42969.9536408896,12942.0977195413,30944.6067030792,51573.4278719713,14177.0459408890,46720.8895404979,58325.7817145915,61218.6029634587,16278.2368344556
4168798414,27660,-2,0,-8797.0014490506,42967.9703063074,12943.1684768617,30940.9320586386,51570.1790969196,14179.1631201362,46710.9241967999,58320.8659650751,61215.7070516148,16275.7181212132
4168798414,27660,-2,0,-8792.1100349278,42967.6661138869,12949.3374991510,30942.8423870398,51568.1835946406,14186.0743719316,46701.3968901875,58324.2485847919,61220.6471365250,16275.1097363721
4168822287,27661,-2,0,-8789.9320171965,42968.8463804787,12948.9116297622,30945.2759264044,51571.0186680003,14184.7724283716,46716.2171449179,58330.3689362938,61220.9513289455,16274.9272209197
4168822287,27661,-2,0,-8791.7693394167,42967.3740891631,12950.2987472000,30943.7184612111,51571.7487298097,14184.2735528018,46718.0544671382,58329.5537006067,61219.9292424124,16274.2336622008
4168822287,27661,-2,0,-8791.2947992406,42966.7170335347,12959.6557060568,30945.8478081551,51570.5562955211,14189.2014700151,46704.8038452980,58327.4365213595,61219.6615530823,16274.6960346801
4168822287,27661,-2,0,-8786.6102359638,42971.4624352956,12968.8058140677,30950.5202037351,51577.5527211943,14185.9283595697,46719.9769632362,58332.3887739664,61223.9689177576,16276.1804936925
4168822287,27661,-2,0,-8788.3867197000,42970.3065040974,12969.1100064883,30950.6662160970,51579.4387142018,14185.5511609682,46731.7066229735,58334.5546240009,61224.3704517528,16279.2589209887
4168822287,27661,-2,0,-8792.6089104975,42965.8409593634,12970.7769809530,30947.6607949817,51572.0042514430,14191.4403262305,46714.4893319690,58330.7583025921,61228.2641147361,16281.3517648422
4168822287,27661,-2,0,-8789.2506261744,42969.9658085864,12974.9748363569,30948.7193846053,51574.5838031695,14191.4038231401,46717.1418898764,58335.3820273848,61232.1091069322,16281.1205786026
4168822287,27661,-2,0,-8786.1235280909,42972.8738881271,12976.7269846994,30948.1840059451,51579.2440310527,14186.0500365380,46731.5971137021,58338.5334608620,61231.0018465213,16279.8308027394
4168846128,27662,2,0,-8787.8635087366,42970.2213302197,12979.0388470958,30943.1100763699,51575.8735790327,14186.3055581713,46716.8620328495,58333.5325374677,61226.8891649951,16275.8032950910
4168846128,27662,2,0,-8787.1699500177,42969.4912684103,12985.9987696785,30944.5823676855,51573.0750087634,14189.4569916484,46706.3004720072,58333.5933759519,61227.0473450538,16274.5500223182
4168846128,27662,2,0,-8783.6656533327,42976.4876940835,12992.8005122025,30950.5323714319,51581.2273656348,14189.0919607437,46725.2699113542,58340.4194538695,61228.5804748535,16277.1904125288
4168846128,27662,2,0,-8783.2276162470,42975.5629491249,12995.1123745989,30949.5467879893,51578.7329877861,14186.1960488998,46722.6903596277,58335.3455242944,61223.5917191561,16272.3111661028
4168846128,27662,2,0,-8782.0230142616,42975.2100859171,12998.9330314013,30949.8753158035,51575.7884051549,14188.7147621422,46710.3401473524,58331.5370351888,61220.6836396154,16268.8677079019
4168846128,27662,2,0,-8775.8661596692,42981.9144868665,13002.2669803308,30954.8275684104,51581.2882041189,14186.7314275601,46728.4091771345,58335.2725181134,61222.3627817770,16266.7261932611
4168846128,27662,2,0,-8771.0964225146,42982.5715424950,13004.2746503066,30954.9249099850,51583.9894328136,14188.3618989343,46733.2884235605,58334.2382638835,61220.4524533758,16264.4873370456
4168846128,27662,2,0,-8767.4096103772,42984.0073307201,13012.3905040875,30956.0808411832,51579.9497574684,14192.3042327050,46715.3775738371,58334.1895930962,61222.7399803785,16262.4188285857
4168893448,27663,2,0,-8762.8467240686,42991.0159240901,13019.8736376336,30961.9821741423,51587.1895370780,14200.0428878844,46725.3550852319,58341.5632173709,61229.9797599882,16267.9064598529
4168893448,27663,2,0,-8755.7286214272,43001.2367894214,13027.5636220257,30965.6933216733,51594.4293166877,14204.6666126771,46746.0888406182,58348.9733447361,61233.1555288589,16278.6262007539
4168893448,27663,2,0,-8751.6281075979,43005.5319863999,13036.9935870634,30965.3647938591,51593.9426088148,14206.9541396798,46734.0063176730,58346.2599483446,61232.5593117146,16281.8871435024
4168893448,27663,2,0,-8745.7389423356,43011.4819901463,13049.6601594561,30969.4896430821,51594.4901551718,14210.5192748489,46730.5141886848,58349.4965556995,61236.3069623361,16280.7068769106
4168893448,27663,2,0,-8741.1395529365,43016.7749382643,13056.2428834373,30974.0646970875,51600.6470097642,14206.7229534402,46748.5710507701,58352.0396043354,61237.2195395978,16280.1349951599
4168893448,27663,2,0,-8740.8231928191,43016.8844475357,13060.6354219904,30975.3544729507,51598.7366813630,14210.3489270934,46742.6575501141,58348.4623014695,61237.5115643216,16278.5775299666
4168893448,27663,2,0,-8741.2855652984,43018.9529559956,13066.8287796733,30976.2062117283,51599.7466001993,14215.2646766099,46728.7863757360,58348.1459413521,61239.9816067766,16278.0543190032
4168893448,27663,2,0,-8737.8299394006,43026.7159465686,13072.4259202119,30977.3013044424,51608.9088759070,14218.7081348107,46745.3952818993,58354.5461498810,61245.0677040486,16281.0475724217
4168915567,27664,2,0,-8737.6109208578,43028.2490763683,13078.5584394106,30976.2305471220,51609.3225775990,14220.5454570310,46746.0766729214,58353.3293801987,61244.9216916867,16283.1769193657
4168915567,27664,2,0,-8738.4261565450,43025.8033693069,13086.1997530154,30973.7118338796,51604.8083620777,14223.7577289923,46724.6006880289,58348.5474753473,61242.7801770459,16283.2377578498
4168915567,27664,2,0,-8736.7956851707,43030.6461126424,13091.5048688302,30977.3134721392,51606.5848458138,14222.8816548210,46733.3857651351,58353.6944111034,61245.5422442247,16284.2111735956
4168915567,27664,2,0,-8736.2116357232,43031.5465222073,13093.3421910505,30977.0701182028,51608.9697143911,14216.2137569620,46747.8409889607,58352.2829582719,61245.5544119215,16286.6203775666
4168915567,27664,2,0,-8735.5667477916,43028.7114488476,13095.8000658087,30973.7848400606,51605.6844362489,14217.1506696174,46730.7940457118,58345.7002342907,61242.7558416522,16284.5153660162
4168915567,27664,2,0,-8733.8754379332,43032.0697331707,13100.0222566063,30977.2526336551,51610.2108194670,14226.5562992615,46732.5096909638,58352.4776414211,61245.1042071391,16286.3648559333
4168915567,27664,2,0,-8733.7294255713,43036.7542964475,13105.2056954529,30982.9836188587,51617.7791268909,14228.1867706358,46752.9635893232,58359.3645578229,61250.8108569490,16289.5041217136
4168915567,27664,2,0,-8733.1697115175,43035.3550113129,13110.8758421723,30983.0809604333,51614.5911903233,14226.9213301662,46744.0446675520,58354.8381746047,61248.5720007336,16290.0395003738
4168945538,27665,2,0,-8729.4950670769,43036.8151349316,13117.1422060362,30983.3243143698,51613.6542776679,14226.8483239853,46735.5759505632,58355.7507518664,61250.0077889587,16288.2630166377
4168945538,27665,2,0,-8725.0416900397,43039.9300653183,13116.9718582806,30984.7722702917,51616.8057111451,14226.3494484156,46751.6129749758,58358.8535145563,61252.3561544455,16286.3770236301
4168945538,27665,2,0,-8727.9376018836,43038.1049107949,13117.0326967648,30980.5987502814,51614.5060164455,14230.7663223623,46749.4836280318,58357.1622046979,61253.6702657024,16286.1701727841
4168945538,27665,2,0,-8728.9718561135,43035.7687130049,13123.4450729904,30982.1318800811,51610.1743163766,14230.9001670273,46731.6822875798,58356.6511614313,61252.2953159614,16287.1557562268
4168945538,27665,2,0,-8727.2318754679,43040.8183071864,13126.7303511326,30986.9867911135,51614.4695133551,14225.7167281808,46744.9572448137,58359.5470732752,61251.7599373012,16283.6392918449
4168945538,27665,2,0,-8725.0295223429,43042.9963249177,13123.3112283254,30988.0088776466,51617.0125619911,14219.7423890407,46755.3849609909,58358.8291791626,61247.2578894767,16281.2300878740
4168945538,27665,2,0,-8726.4896459617,43040.3924377976,13121.1697136846,30984.6505933235,51613.2284082791,14220.9834941166,46739.2262596101,58352.8791754162,61245.1650456232,16276.7402077463
4168945538,27665,2,0,-8726.5018136585,43041.8768968100,13125.2458921202,30986.4270770596,51616.9273881133,14217.8198929427,46744.4340338503,58355.9210996220,61247.7689327433,16277.1782448320
4168979401,27666,2,0,-8728.5094836343,43043.4465297001,13128.9692073481,30986.8894495389,51620.2370016491,14215.0943288543,46761.5418155833,58358.8535145563,61249.7766027191,16284.0043227496
4168979401,27666,2,0,-8730.2129611895,43037.3991843791,13132.1206408252,30985.7091829471,51615.4064260104,14220.8253140579,46748.8995785843,58357.8800988105,61249.2412240589,16287.1922593172
4168979401,27666,2,0,-8729.9574395562,43036.6691225698,13132.0719700379,30987.5465051673,51615.2117428613,14221.3971958086,46743.9838290678,58360.0094457545,61250.4579937412,16284.2963474734
4168979401,27666,2,0,-8731.8312648669,43037.3748489855,13126.5235002867,30988.5199209132,51619.1175735414,14213.3786836023,46760.8482568644,58361.1288738622,61246.5034922737,16278.3341760301
4168979401,27666,2,0,-8741.4194099634,43027.7745361922,13116.9353551902,30977.8731861931,51607.0837213835,14201.1623159921,46747.0865917577,58347.6227303887,61236.1974530647,16267.7482797942
4168979401,27666,2,0,-8745.2035636753,43016.9209506261,13112.7374997863,30970.6577419771,51593.6627517878,14198.2177333609,46726.9855566062,58337.7060574780,61228.9820088487,16258.7441841452
4168979401,27666,2,0,-8743.2567321837,43012.7109275254,13108.5274766855,30968.3093764903,51589.8907657727,14193.2533130572,46738.9707379768,58335.6497167149,61225.3438674986,16256.4688248393
4168979401,27666,2,0,-8739.8376093764,43008.9997799944,13105.1570246656,30966.2652034240,51587.4207233177,14190.0653764895,46743.3997796203,58332.5834571156,61219.9292424124,16256.0794585410
4169010593,27667,2,0,-8739.9836217383,43008.3913951532,13104.6703167926,30965.5716447051,51585.9971027894,14195.0297967933,46728.0684816234,58330.4297747779,61219.2235159967,16256.1037939346
4169010593,27667,2,0,-8740.5433357922,43012.0538718969,13107.1403592477,30968.3337118839,51588.1142820366,14196.1005541137,46737.6931298104,58335.2603504166,61221.1703474883,16260.3259847322
4169010593,27667,2,0,-8744.8385327707,43012.2728904398,13106.2642850765,30967.2142837762,51587.9561019779,14187.8386879709,46751.8806643059,58336.4406170084,61221.9855831755,16265.8866221803
4169010593,27667,2,0,-8752.4676786786,43004.4125582921,13106.0087634432,30961.5928078440,51579.4873849891,14185.8553533888,46731.6336167926,58328.8601418877,61217.8485662557,16269.3057449875
4169010593,27667,2,0,-8754.7308702877,43001.9303481403,13109.0020168616,30960.4368766458,51577.4067088324,14191.2578107782,46726.6691964888,58329.0426573401,61217.6903861970,16271.3255826601
4169010593,27667,2,0,-8751.5429337201,43005.0696139206,13109.4157185536,30965.7541601574,51586.3621336941,14194.2388964998,46746.4782069165,58334.2504315803,61220.6958073123,16277.2147479224
4169010593,27667,2,0,-8751.0197227567,43001.9060127466,13109.0993584362,30965.3404584655,51585.9484320021,14194.1780580157,46737.9608191405,58330.7217995017,61221.5840491803,16277.6649527049
4169010593,27667,2,0,-8754.2198270211,42995.0677671321,13108.9533460743,30960.3395350712,51580.0957698303,14186.3542289585,46723.0188874419,58324.7231249679,61219.8197331410,16272.9560540344
4169055447,27668,2,0,-8756.5803602048,42992.8654140072,13107.8825887539,30958.6725606065,51578.3071183973,14177.0581085858,46734.9919011157,58327.3026766944,61219.7953977474,16273.8077928120
4169055447,27668,2,0,-8762.5546993449,42984.6278832580,13101.5310510123,30950.5445391288,51569.8140660149,14169.6966520079,46730.6358656531,58320.5861080481,61212.1905872330,16272.2989984060
4169055447,27668,2,0,-8768.7845601182,42979.7364691352,13100.1074304840,30945.9329820329,51562.0267400482,14170.8404155093,46714.4406611817,58313.8573717051,61205.8390494914,16270.2548253397
4169055447,27668,2,0,-8769.2591002943,42982.6202132823,13100.9226661712,30948.6828815149,51565.1051673444,14173.4808057199,46725.7566192271,58317.5685192361,61205.7417079169,16270.1939868556
4169055447,27668,2,0,-8772.3983660746,42982.4255301331,13102.4071251836,30947.5756211040,51566.9546572615,14175.6588234512,46735.0284042062,58318.7609535247,61207.8710548609,16269.9506329191
4169055447,27668,2,0,-8772.2036829255,42979.6512952574,13106.1912788955,30947.0767455342,51563.7058822098,14182.1077027673,46715.8034432259,58316.4369234315,61209.4893585383,16271.8122905330
4169055447,27668,2,0,-8766.1563376044,42984.5792124707,13111.3990531357,30951.3476071191,51569.6193828657,14185.6241671492,46717.4217469034,58322.6059457208,61213.6750462454,16276.1318229052
4169055447,27668,2,0,-8761.3500973594,42989.5192973809,13113.7839217130,30953.8176495741,51574.5594677758,14179.1631201362,46732.6922064161,58325.8182176820,61213.6263754581,16279.1737471109
4169077996,27669,2,0,-8765.3776050078,42986.2948577228,13115.9497717475,30949.0357447227,51572.5639654969,14177.3014625223,46721.9116270310,58320.1480709625,61209.4771908415,16277.4094310716
4169077996,27669,2,0,-8770.0865036783,42984.0073307201,13118.6144973517,30946.7238823264,51569.2178488705,14174.3933829816,46711.8854448489,58319.4545122436,61207.5790301371,16273.4792649978
4169077996,27669,2,0,-8772.5565461333,42983.3259396980,13114.8790144271,30945.8721435488,51571.3836989050,14170.0130121253,46727.5209352664,58323.3116721365,61207.4086823816,16273.7591220247
4169077996,27669,2,0,-8774.9414147106,42979.1645873845,13112.1412826419,30943.4872749715,51570.3007738878,14169.0639317731,46724.2113217306,58320.6956173196,61204.4397643568,16274.2214945040
4169077996,27669,2,0,-8778.5552206670,42974.3705148363,13111.8005871309,30939.3502580517,51565.2390120094,14170.4753846046,46707.9309433815,58317.7875377789,61204.8412983520,16271.0578933300
4169077996,27669,2,0,-8780.1248535572,42976.7310480199,13114.2584618891,30942.1731637146,51570.1182584354,14169.4776334651,46723.9314647036,58323.8105477062,61207.4695208657,16274.3553391690
4169077996,27669,2,0,-8782.1203558361,42976.1226631788,13115.2075422413,30942.4408530447,51569.7167244403,14166.2775292007,46731.2929212815,58321.7055361559,61206.1554096088,16276.5333569003
4169077996,27669,2,0,-8781.9621757775,42971.5354414765,13116.2539641681,30941.3944311179,51565.3971920681,14168.4068761447,46713.3820715581,58316.7654512457,61202.6024421365,16274.7812085578
4169097635,27670,2,0,-8777.7399849799,42976.2443401470,13118.1642925693,30947.6729626785,51570.3859477655,14167.8593297877,46720.5488449869,58323.1048212905,61207.0071483864,16276.6063630813
4169097635,27670,2,0,-8775.1482655566,42980.3205185827,13118.2859695375,30950.2646821018,51575.6545604899,14161.0819226573,46738.4353593166,58327.6555399023,61205.9607264597,16277.4702695557
4169097635,27670,2,0,-8778.6282268480,42974.1271608998,13120.2571364228,30943.8401381793,51569.4855382006,14152.4306902162,46721.3032421899,58320.3184187180,61200.1567350751,16270.5103469730
4169097635,27670,2,0,-8783.8725041787,42969.8928024055,13121.4617384083,30940.5426923403,51564.3629378382,14147.5392760934,46712.9562021693,58316.0962279205,61197.4676740773,16267.9794660338
4169097635,27670,2,0,-8788.6179059396,42966.5588534760,13119.6244161880,30939.3745934453,51564.0952485081,14145.1422398192,46725.2699113542,58314.8307874509,61193.9512096954,16269.5856020144
4169097635,27670,2,0,-8793.0956183704,42960.7791974851,13118.1764602661,30936.7342032347,51559.5201945027,14145.5437738144,46716.3874926734,58308.8807837045,61192.3207383211,16271.7636197458
4169097635,27670,2,0,-8794.0203633290,42958.4551673919,13116.7406720410,30934.0086391464,51556.9406427762,14147.7826300298,46701.9201011509,58307.4084923889,61191.7488565705,16269.2814095939
4169097635,27670,2,0,-8790.7472528836,42960.7791974851,13115.1588714540,30934.8603779240,51563.0001557940,14147.0038974332,46718.2856533778,58310.8397828930,61193.2698186733,16269.8289559509
4169124227,27671,2,0,-8792.4020596515,42958.7593598125,13116.4973181045,30931.6724413564,51562.5377833148,14147.2107482791,46721.9237947278,58309.1119699441,61193.5861787907,16271.4229242347
4169124227,27671,2,0,-8794.2028787813,42956.8977021985,13124.8443581251,30931.6237705691,51559.7878838328,14153.5622860207,46704.5239882710,58307.7248525063,61192.8439492845,16275.7789596973
4169124227,27671,2,0,-8795.1154560431,42958.6376828442,13128.3486548101,30934.4588439288,51560.0190700724,14152.1264977956,46713.7349347660,58311.4481677341,61194.4865883556,16274.0146436580
4169124227,27671,2,0,-8798.4250695789,42956.2041434796,13127.5942576071,30932.9135464323,51560.6639580040,14152.7835534240,46725.9147992858,58309.0876345505,61193.0994709178,16269.2449065034
4169124227,27671,2,0,-8795.7238408842,42954.1599704134,13129.2125612845,30929.5552621092,51555.4196806733,14161.7268105889,46712.1531341790,58304.1840527308,61194.5839299302,16268.4175031194
4169124227,27671,2,0,-8791.7085009326,42954.1356350197,13131.2689020476,30932.2078200166,51555.1884944337,14159.1350911656,46710.4131535333,58306.6540951859,61199.0008038769,16273.7469543279
4169124227,27671,2,0,-8791.5989916612,42953.2960639390,13127.7889407562,30931.8306214151,51557.2691705904,14151.6032868322,46722.4956764785,58305.6685117432,61198.8304561214,16277.3972633748
4169124227,27671,2,0,-8795.5291577350,42947.1148739529,13124.8808612156,30926.2943193606,51547.6323547066,14148.4031825678,46707.1887138753,58297.8811857765,61194.2919052065,16275.9006366656
4169169346,27672,2,0,-8802.7811050415,42941.0796963287,13121.2670552591,30922.0112900790,51539.8571964368,14146.3225064111,46694.4491353016,58295.2772986564,61191.1648071230,16268.6730247527
4169169346,27672,2,0,-8799.2646406597,42943.3185525441,13119.7460931563,30924.0797985389,51543.5805116646,14147.3810960347,46713.9052825215,58297.4309809941,61189.3518202964,16267.4075842831
4169169346,27672,2,0,-8796.8432689919,42943.4645649060,13118.2981372343,30925.1140527688,51543.7021886328,14159.9624945496,46718.7723612507,58297.4553163877,61190.8362793088,16269.8046205573
4169169346,27672,2,0,-8792.4020596515,42945.3748933072,13118.9916959533,30927.4745859525,51545.1136414643,14176.3645498669,46704.8525160853,58301.9330288186,61196.3117428791,16272.4206753742
4169169346,27672,2,0,-8784.8580876213,42953.6610948437,13118.5779942613,30937.2452465013,51554.5436065021,14177.6543257301,46716.7768589717,58312.3242419054,61204.2329135108,16277.1904125288
4169169346,27672,2,0,-8786.4155528146,42952.5903375232,13105.4977201766,30935.2740796160,51556.9284750794,14170.6213969665,46721.9481301215,58313.2611545607,61202.1279019604,16275.5234380640
4169169346,27672,2,0,-8794.6895866542,42946.3969798403,13086.0172375631,30926.3551578448,51547.4011684670,14178.2140397840,46700.2044558989,58304.6585929069,61196.4090844537,16269.8411236477
4169169346,27672,2,0,-8795.0059467716,42949.5362456207,13068.3132386857,30930.1393115567,51551.9275516851,14191.2699784750,46702.7110014444,58311.1196399199,61202.8092929825,16269.5004281367
4169193398,27673,2,0,-8793.0226121895,42954.0261257483,13043.4668017732,30935.4079242810,51558.5224433632,14198.8017828084,46721.0842236471,58319.7100338769,61210.7426313111,16271.9583028949
4169193398,27673,2,0,-8793.3024692164,42949.3780655620,13011.4049206448,30934.5318501098,51553.6918677245,14203.3768368138,46707.0548692102,58317.1426498473,61210.9373144603,16272.0191413790
4169193398,27673,2,0,-8792.5359043166,42949.0982085350,12977.5057172961,30935.5417689461,51551.2948314504,14209.3755113476,46697.7709165343,58318.7244504342,61211.1928360935,16269.8654590414
4169193398,27673,2,0,-8789.4453093236,42953.6975979341,12939.3356523625,30938.8757178756,51556.3079225414,14211.7360445312,46716.0833002528,58324.2242493982,61211.4605254236,16269.0137202638
4169193398,27673,2,0,-8792.3412211674,42950.3271459142,12902.3945248081,30939.1190718120,51553.5823584531,14215.7392167860,46709.6465886335,58321.0849836179,61209.9152279271,16264.7671940726
4169193398,27673,2,0,-8795.3709776763,42948.4168175130,12871.5250779683,30942.4895238320,51550.8932974552,14229.0750125039,46694.7411600254,58320.7807911973,61212.0202394775,16266.6896901706
4169193398,27673,2,0,-8786.6345713575,42955.2428954306,12843.6002137596,30954.6693883517,51558.5346110600,14237.7262449450,46712.5303327805,58331.3666874333,61220.4524533758,16274.6351961960
4169193398,27673,2,0,-8783.1181069756,42956.5570066875,12810.1025444060,30958.7212313938,51559.2525051726,14236.3512952040,46717.7989455049,58332.2184262109,61223.4578744911,16274.9028855261
4169222979,27674,2,0,-8784.2375350833,42956.5691743843,12783.7473130876,30961.6293109345,51555.9672270304,14241.3522185982,46702.1877904810,58330.4297747779,61224.4069548433,16274.8542147388
4169222979,27674,2,0,-8784.8215845308,42959.6597693774,12761.8454588063,30968.0051840697,51558.6927911187,14239.6609087399,46710.4009858365,58334.5546240009,61226.3902894254,16276.5576922940
4169222979,27674,2,0,-8786.5859005702,42959.6597693774,12736.9016803192,30970.7185804612,51560.6274549135,14235.2196993995,46722.5321795690,58334.6884686659,61225.9644200366,16276.4360153258
4169222979,27674,2,0,-8789.8590110155,42951.3248970536,12713.8438948398,30969.1732829647,51552.7792904627,14232.7131538540,46701.3238840066,58326.7064595501,61220.3307764076,16270.8997132713
4169222979,27674,2,0,-8794.3367234464,42947.9057742464,12691.6256804411,30971.0349405786,51550.0415586776,14234.0516005045,46694.9845139619,58324.4189325474,61217.4105291701,16266.0569699358
4169222979,27674,2,0,-8794.9937790748,42951.5682509901,12672.8022534560,30977.1796274742,51556.9284750794,14236.5094752627,46714.2338103357,58328.6776264354,61218.1892617667,16265.8866221803
4169222979,27674,2,0,-8795.1154560431,42952.0306234694,12660.8414074790,30982.5942525604,51557.8288846443,14244.3819751072,46709.2693900320,58328.3125955307,61221.0365028233,16265.3390758232
4169222979,27674,2,0,-8789.5669862918,42955.8877833622,12655.7796456007,30990.3207400430,51558.9969835393,14251.9989533183,46701.3603870971,58332.1697554236,61225.3560351954,16265.8136159993
4169250151,27675,2,0,-8785.8558387608,42960.7548620914,12651.9711564951,30999.1058171491,51564.9834903762,14250.7578482424,46720.5245095932,58340.0665906617,61228.9090026677,16268.9528817797
4169250151,27675,2,0,-8782.2420328044,42965.4880961555,12648.5155305974,31004.5326099322,51568.1714269438,14251.1107114502,46726.3285009778,58342.9259994151,61231.5007220910,16274.9637240102
4169250151,27675,2,0,-8780.9644246380,42967.1915737108,12643.4172656286,31007.9760681330,51566.4071109044,14252.2544749516,46710.7781844380,58342.3297822707,61232.3767962623,16273.3575880296
4169250151,27675,2,0,-8779.6381456843,42968.3231695153,12633.9629651971,31010.0324088961,51569.5828797752,14247.3995639192,46718.4560011333,58343.9967567355,61231.9874299639,16268.7216955400
4169250151,27675,2,0,-8783.0329330979,42964.4295065320,12624.6546771276,31007.9030619521,51568.7798117849,14241.0236907840,46725.0508928113,58341.5388819772,61229.6025613866,16266.7748640483
4169250151,27675,2,0,-8789.0072722379,42955.0968830688,12618.7898472589,31005.6277026462,51558.8996419647,14245.0998692197,46703.8304295521,58333.7393883137,61226.6214756650,16264.5968463170
4169250151,27675,2,0,-8792.9131029181,42954.2573119880,12617.0011958260,31008.4262729155,51556.3322579350,14246.9980299241,46703.0760323491,58335.7713936832,61229.9189215040,16270.2548253397
4169250151,27675,2,0,-8794.0690341163,42958.1631426681,12615.2490474835,31011.8332280259,51561.4791936911,14240.1476166128,46723.4447568307,58337.3775296638,61230.9653434308,16273.6496127533
4169286690,27676,2,0,-8790.9054329423,42957.3844100715,12614.0566131948,31008.7182976392,51559.8243869232,14242.8488453075,46715.4140769276,58335.1021703579,61228.3857917043,16272.1651537409
4169286690,27676,2,0,-8780.5385552492,42961.2780730548,12618.9236919240,31012.3442712925,51563.8153914812,14249.9426125552,46713.6375931914,58339.9935844807,61231.9995976608,16274.6960346801
4169286690,27676,2,0,-8773.9801666616,42966.8022074124,12620.9313618998,31017.6007163200,51571.0308356972,14245.8299310291,46731.8891384258,58346.3572899191,61234.7008263555,16276.2778352671
4169286690,27676,2,0,-8776.4258737230,42962.8112028545,12617.0498666132,31014.3762766619,51567.4413651344,14241.5225663538,46726.7787057602,58342.6218069945,61230.2231139246,16274.1484883230
4169286690,27676,2,0,-8781.9986788679,42958.0171303063,12612.4383095174,31009.9715704120,51562.2822616815,14240.7560014539,46710.4861597143,58338.0102498986,61226.3659540317,16273.8929666898
4169286690,27676,2,0,-8782.9234238265,42960.4506696708,12607.8632555119,31011.6750479672,51567.3805266503,14238.8213376591,46726.3041655841,58343.4857134689,61228.8359964868,16275.1097363721
4169286690,27676,2,0,-8782.9112561296,42960.2559865217,12605.5270577219,31012.7214698940,51570.8239848512,14241.6564110188,46735.5394474727,58344.8241601194,61230.0892692596,16277.5432757367
4169286690,27676,2,0,-8782.8382499487,42957.3479069810,12608.5324788372,31012.0279111751,51564.9834903762,14244.8686829801,46715.1828906879,58341.1738510726,61232.0117653576,16274.4891838341
4169324265,27677,2,0,-8784.3348766579,42955.3889077925,12607.4738892136,31010.6407937373,51562.5742864052,14241.3887216887,46714.1243010643,58341.4537080995,61230.8071633721,16271.6176073839
4169324265,27677,2,0,-8784.8580876213,42955.8391125750,12603.2395307192,31010.7624707055,51564.1317515986,14241.7294171998,46729.3825928803,58342.1716022120,61232.5349763210,16274.0633144453
4169324265,27677,2,0,-8784.5052244134,42953.9287841738,12601.8889163719,31010.2149243485,51562.1849201069,14246.8641852590,46718.2613179841,58338.0345852922,61231.3668774260,16275.7302889100
4169324265,27677,2,0,-8783.9333426628,42955.1577215529,12604.3346234333,31011.5168679085,51563.4868636669,14246.2558004179,46714.1243010643,58337.6452189939,61231.8049145116,16274.8177116483
4169324265,27677,2,0,-8785.3082924038,42954.8656968291,12600.3071157849,31010.0080735025,51565.7865583665,14237.1178601039,46725.2090728700,58338.1927653509,61229.4078782375,16274.3431714722
4169324265,27677,2,0,-8790.3335511916,42948.8791899922,12594.1502611925,31006.3334290619,51559.8122192264,14234.2949544409,46712.5790035678,58331.5978736729,61221.7787323295,16276.1318229052
4169324265,27677,2,0,-8790.4187250694,42945.8616011801,12590.1349212409,31007.6353726220,51554.7747927417,14239.4905609843,46699.2797109404,58329.8457253304,61222.0707570532,16276.2413321766
4169324265,27677,2,0,-8782.2785358948,42955.0360445846,12594.7586460336,31016.4812882123,51565.5797075205,14242.2282927695,46722.7025273245,58338.3752808033,61227.3272020808,16280.9502308471
4169351548,27678,2,0,-8783.3979640026,42956.6178451716,12595.6468879017,31015.3253570141,51566.5652909631,14237.6654064609,46727.6912830219,58337.3166911797,61226.5363017873,16277.3850956780
4169351548,27678,2,0,-8790.5890728249,42949.9742827063,12591.2421816518,31009.8377257470,51554.4219295338,14233.8325819617,46704.1102865791,58327.0958258484,61219.6980561728,16268.7338632368
4169351548,27678,2,0,-8798.1695479456,42945.2410486422,12583.0168185995,31008.8886453948,51552.3169179835,14233.1876940300,46706.0692857676,58325.7695468947,61216.6317965734,16261.9199530160
4169351548,27678,2,0,-8802.4282418336,42943.8174281139,12578.0645659925,31008.3167636441,51553.3998430007,14231.8127442891,46717.6894362335,58325.3923482932,61215.3663561038,16260.9465372702
4169351548,27678,2,0,-8798.4980757598,42941.9070997127,12581.9582289759,31007.2338386268,51550.4674280664,14235.6577364851,46704.1589573664,58322.2774179065,61215.8165608863,16263.4287474220
4169351548,27678,2,0,-8788.8734275729,42947.0905385593,12587.7865557541,31011.8818988132,51552.6576134945,14237.0691893166,46707.3468939340,58326.8524719120,61220.6228011313,16266.5923485960
4169351548,27678,2,0,-8785.2961247069,42951.3857355378,12587.5310341208,31016.1649280949,51556.4782702969,14231.7640735018,46723.9071293100,58330.4784455652,61222.5209618357,16268.8677079019
4169351548,27678,2,0,-8787.6566578906,42946.7255076546,12584.1119113135,31012.1982589306,51549.7982047411,14230.2796144894,46711.9827864235,58325.3315098091,61218.2135971604,16268.4053354226
4169382654,27679,2,0,-8789.9928556806,42943.6349126615,12582.6031169075,31012.6971345003,51545.4178338849,14228.1867706358,46700.1071143243,58324.2607524887,61216.6317965734,16270.0844775842
4169382654,27679,2,0,-8792.4385627420,42943.9512727789,12578.7581247114,31013.8287303049,51546.1722310879,14228.6734785087,46713.2482268931,58326.4752733104,61215.6948839180,16273.5401034819
4169382654,27679,2,0,-8796.2470518476,42941.3352179620,12575.9473867453,31011.1153339134,51544.5295920168,14228.0285905771,46711.7759355775,58321.5838591876,61215.0134928959,16272.1894891346
4169382654,27679,2,0,-8799.9703670754,42935.8719220885,12572.4552577572,31008.4384406123,51537.8860295515,14234.6478176488,46690.7744908611,58318.4932641946,61213.9427355755,16267.0425533785
4169382654,27679,2,0,-8795.1032883462,42940.7146654240,12572.4674254540,31016.8341514201,51546.1357279974,14235.0858547344,46704.8160129948,58327.0471550611,61219.1261744221,16266.0813053294
4169382654,27679,2,0,-8795.8941886397,42942.4911491602,12569.9000414243,31018.8418213959,51546.6102681735,14226.1304298727,46716.9107036368,58327.6433722054,61218.8341496983,16264.7306909821
4169382654,27679,2,0,-8799.1551313883,42936.8453378343,12568.2939054437,31012.0279111751,51535.2943101282,14226.1304298727,46699.2918786372,58317.1913206345,61213.0544937074,16260.8005249083
4169382654,27679,2,0,-8799.2038021756,42937.2590395263,12567.1258065487,31010.3244336199,51530.7070884259,14231.0826824797,46701.7740887891,58317.9213824439,61214.6119589008,16261.9686238033
4169419069,27680,2,0,-8798.0113678869,42940.6294915463,12568.1600607787,31012.5876252289,51536.0000365439,14229.7077327387,46718.2856533778,58321.2066605861,61218.0919201921,16267.1398949530
4169419069,27680,2,0,-8802.4160741368,42938.2932937563,12570.3989169941,31009.3631855709,51534.8076022553,14230.8271608464,46704.4631497869,58317.1669852409,61214.8553128372,16266.8600379261
4169419069,27680,2,0,-8802.0023724448,42939.6074050132,12574.7184493662,31009.0833285439,51539.6138425003,14233.6622342061,46698.0994443485,58321.0971513147,61217.2888522018,16265.3147404296
4169419069,27680,2,0,-8801.0411243958,42946.3483090531,12576.5436038897,31012.5389544417,51550.8567943647,14233.9785943235,46718.8940382189,58328.2882601371,61220.2090994393,16265.4485850946
4169419069,27680,2,0,-8801.1749690609,42948.6480037526,12579.5490250049,31013.0378300114,51552.8157935532,14235.2318670963,46718.8697028253,58328.1665831688,61221.5475460899,16265.6067651533
4169419069,27680,2,0,-8799.3133114470,42947.6502526131,12581.3498441347,31009.6430425978,51549.5670185015,14237.0570216197,46702.7596722317,58325.8303853788,61220.1969317425,16265.8501190898
4169419069,27680,2,0,-8795.4926546446,42949.9499473126,12581.8487197045,31009.8985642311,51548.9829690540,14233.1511909396,46711.4230723696,58330.2350916287,61221.3163598502,16269.7437820731
4169419069,27680,2,0,-8797.0866229284,42944.2067944122,12579.0379817384,31005.2505040447,51544.2740703835,14226.7388147139,46712.7371836265,58325.8303853788,61216.9968274781,16271.0700610268
4169445489,27681,2,0,-8801.7590185084,42937.9282628516,12575.7405358994,30999.0449786650,51538.9811222655,14227.1281810122,46692.5144715068,58319.9047170261,61213.3465184312,16269.0015525669
4169445489,27681,2,0,-8802.6229249828,42939.8507589496,12575.3998403883,30999.1058171491,51543.4953377868,14224.6824739508,46700.2652943830,58321.3526729480,61214.3077664802,16267.8577890656
4169445489,27681,2,0,-8804.6914334427,42940.7268331209,12576.6044423738,30997.8403766795,51547.9730502177,14221.1051710849,46714.0269594898,58322.7884611731,61213.9427355755,16269.3665834716
4169445489,27681,2,0,-8807.4413329247,42936.1274437218,12577.1398210340,30990.6371001604,51539.9423703145,14219.1826749868,46693.9867628224,58315.4391722920,61209.5380293256,16262.7838594904
4169445489,27681,2,0,-8804.8374458046,42936.7723316534,12579.8897205160,30991.6956897840,51539.5165009257,14220.2534323073,46690.9570063135,58317.1791529377,61209.9030602303,16259.6567614069
4169445489,27681,2,0,-8798.9969513296,42943.4889002997,12580.3885960857,30996.1490668211,51547.7905347653,14216.4936139890,46711.1188799491,58323.3846783174,61212.9206490424,16267.0668887721
4169445489,27681,2,0,-8802.3552356527,42940.9823547541,12579.3421741590,30990.1503922874,51543.3979962123,14213.0623234849,46701.7740887891,58317.7753700820,61205.6565340391,16270.3034961270
4169445489,27681,2,0,-8803.8396946651,42940.3618022162,12583.2480048391,30988.7511071528,51539.6990163781,14215.0699934607,46688.6086408266,58317.4103391774,61205.6565340391,16271.2160733887
4169481987,27682,2,0,-8801.8320246893,42944.1094528376,12584.8298054261,30990.5275908889,51545.0041321929,14214.4616086195,46703.3072185887,58322.4234302684,61208.1265764942,16269.6829435890
4169481987,27682,2,0,-8804.1682224793,42941.4325595366,12584.7446315483,30988.8241133337,51542.3880773760,14217.5035328253,46703.0882000459,58321.6933684590,61208.4916073988,16268.4661739067
4169481987,27682,2,0,-8802.6229249828,42942.9413539426,12589.7698903362,30989.2743181162,51542.9234560362,14226.3616161124,46687.5743865967,58322.4964364493,61212.8111397710,16272.1043152568
4169481987,27682,2,0,-8799.7026777453,42949.6700902857,12591.9479080675,30993.1923164932,51550.1754033426,14230.3161175798,46699.7785865101,58329.7362160590,61218.3596095222,16277.8474681572
4169481987,27682,2,0,-8797.5124923172,42949.4754071366,12589.7212195489,30992.4987577743,51554.1420725069,14227.2863610709,46708.5514959194,58328.9696511591,61217.3131875955,16280.6095353360
4169481987,27682,2,0,-8798.8266035740,42944.6083284074,12593.0308330848,30990.0287153192,51549.9320494062,14228.9290001420,46688.4382930711,58322.0462316669,61218.2257648572,16279.3927656537
4169481987,27682,2,0,-8800.4814103420,42947.4434017671,12597.9344149044,30993.4600058233,51552.4264272549,14228.5883046310,46690.1904414136,58326.5604471882,61220.4159502853,16281.6194541723
4169481987,27682,2,0,-8798.0478709774,42950.1811335523,12595.2453539065,30993.5573473979,51556.2349163605,14221.0808356912,46708.0891234402,58327.4851921467,61217.8972370430,16277.6162819176
4169499667,27683,2,0,-8799.6418392612,42944.5231545296,12590.4147782678,30986.7921079643,51547.6566901003,14217.4913651285,46696.2012836441,58319.2354937008,61210.5601158587,16271.1187318141
4169499667,27683,2,0,-8803.1948067335,42941.7245842603,12589.0763316173,30984.1395500569,51540.4777489748,14220.4116123660,46681.2350165519,58313.9060424923,61207.0558191737,16269.1597326256
4169499667,27683,2,0,-8805.1173028315,42941.3717210525,12586.5454506781,30985.4171582233,51543.7751948138,14219.0853334123,46696.3716313997,58318.0795625026,61209.1486630273,16269.0745587479
4169499667,27683,2,0,-8806.4314140884,42935.1296925823,12583.4305202915,30982.7524326191,51539.1027992338,14215.0578257639,46689.5090503915,58313.6383531622,61204.8412983520,16267.2372365276
4169499667,27683,2,0,-8808.7919472720,42933.0733518192,12583.8077188930,30982.0588739002,51531.2302993893,14217.0898311333,46672.9001442282,58309.5621747266,61203.9652241807,16268.0038014275
4169499667,27683,2,0,-8808.9014565434,42936.6628223820,12586.2047551671,30986.3054000914,51536.2190550867,14215.4836951527,46690.0079259613,58314.3319118811,61205.7782110073,16271.8974644108
4169499667,27683,2,0,-8808.5850964260,42939.1815356243,12590.5607906297,30987.2058096563,51542.2298973173,14212.1984170105,46703.0273615618,58315.5608492603,61206.5812789976,16271.8366259267
4169499667,27683,2,0,-8812.1258962015,42934.9715125236,12594.4787890067,30981.7060106923,51536.2555581772,14212.9528142135,46684.8123194179,58310.0853856899,61206.1189065184,16271.8366259267
4169538474,27684,2,0,-8815.2408265882,42933.6208981763,12592.5806283023,30978.3355586724,51533.6151679666,14208.5359402668,46685.0070025670,58310.3044042328,61206.9219745087,16268.5756831781
4169538474,27684,2,0,-8817.3580058354,42929.3865396819,12586.9104815828,30976.5104041489,51532.5200752525,14209.9473930982,46697.7830842311,58308.2237280760,61205.4618508899,16268.5635154813
4169538474,27684,2,0,-8817.8082106178,42926.0647584492,12585.5233641450,30972.7992566179,51526.6795807775,14214.5954532846,46683.7293944006,58304.1353819435,61202.6024421365,16269.4882604399
4169538474,27684,2,0,-8813.8902122409,42927.9507514568,12588.7478038031,30975.1597898016,51527.4339779806,14216.0920799938,46677.0249934512,58305.8388594987,61202.3469205033,16270.0236391001
4169538474,27684,2,0,-8810.1668970130,42931.2116942053,12589.5508717934,30979.4914898705,51533.8220188126,14212.5877833088,46694.8750046904,58310.8641182866,61202.8579637698,16272.6883647043
4169538474,27684,2,0,-8816.2142423340,42926.4662924444,12590.5972937202,30976.7050872981,51529.7093372864,14217.0776634365,46685.7005612860,58307.7978586872,61202.2130758382,16272.7492031884
4169538474,27684,2,0,-8822.8699724962,42923.7772314465,12591.2786847423,30975.0624482270,51525.3533018238,14216.0920799938,46671.5130267904,58306.1795550098,61202.1765727477,16268.1011430020
4169538474,27684,2,0,-8816.8834656593,42932.0147621956,12593.9555780433,30981.8033522669,51535.3308132187,14215.5445336368,46692.3684591449,58314.9402967223,61206.2527511834,16269.3179126843
4169570432,27685,2,0,-8810.0817231353,42935.9692636631,12594.7951491241,30982.2413893525,51539.8571964368,14215.8730614510,46697.8439227152,58316.2179048887,61205.0116461075,16269.1475649288
4169570432,27685,2,0,-8810.0452200448,42933.9372582937,12598.2629427186,30977.5568260757,51535.1848008568,14215.8000552701,46675.7960560721,58308.4062435284,61202.9309699508,16268.5270123909
4169570432,27685,2,0,-8812.9046287982,42934.0102644746,12602.1322703083,30977.0092797187,51536.0122042407,14212.5634479152,46679.5558743904,58311.8740371229,61202.8092929825,16270.3643346111
4169570432,27685,2,0,-8816.9686395371,42933.7547428413,12600.9033329292,30975.3058021634,51537.5575017372,14209.3755113476,46691.3220372181,58313.0421360179,61204.3910935695,16272.7978739757
4169570432,27685,2,0,-8819.7915452000,42930.2626138531,12602.9475059955,30971.8015054784,51533.8706895999,14210.7747964822,46678.9109864587,58308.3332373474,61204.3789258727,16274.5135192277
4169570432,27685,2,0,-8819.5238558699,42930.2261107627,12603.9695925286,30972.6167411656,51535.8661918789,14213.2448389372,46678.0105768939,58313.2976576512,61204.1720750267,16272.0921475600
4169570432,27685,2,0,-8814.6324417470,42934.8255001617,12606.5248088614,30977.8123477090,51542.8504498552,14217.8928991236,46698.8538415516,58319.6370276959,61207.9562287386,16277.8718035509
4169570432,27685,2,0,-8814.7662864121,42932.9881779415,12607.4617215168,30976.7294226917,51537.7521848864,14216.8221418032,46692.2224467830,58316.0840602236,61206.4717697262,16277.9569774286
4169602301,27686,2,0,-8816.2020746372,42929.9949245230,12609.0556898006,30975.3301375571,51533.7976834190,14213.6098698419,46681.8312336963,58314.7334458763,61204.9994784107,16274.2336622008
4169602301,27686,2,0,-8815.8127083389,42931.3455388704,12609.8587577909,30975.4518145253,51537.0951292580,14207.6598660955,46698.0872766517,58315.8163708935,61204.6466152028,16272.8587124598
4169602301,27686,2,0,-8816.2507454245,42930.6519801515,12611.8420923730,30972.7870889211,51537.6670110087,14210.1785793379,46698.0629412581,58311.0588014358,61202.5172682588,16270.6320239412
4169602301,27686,2,0,-8822.2250845646,42930.8101602102,12612.6451603633,30971.2782945151,51534.3208943823,14217.5765390062,46683.4008665864,58308.1142188046,61202.8336283762,16270.1696514619
4169602301,27686,2,0,-8824.3057607213,42937.0521886803,12610.0169378496,30975.8533485205,51542.4489158601,14223.2345180289,46698.8781769452,58315.7677001063,61207.0679868706,16274.3066683817
4169602301,27686,2,0,-8819.4508496889,42938.0621075166,12611.4162229842,30974.5757403541,51544.6999397723,14218.0267437887,46708.4419866480,58318.7609535247,61208.9053090908,16276.5333569003
4169602301,27686,2,0,-8815.5450190088,42933.0855195161,12614.6163272487,30964.8050798052,51537.4601601627,14212.6729571866,46688.5599700393,58312.2025649371,61206.3622604548,16273.8686312961
4169602301,27686,2,0,-8813.5130136393,42933.1098549097,12619.0940396795,30961.2764477266,51534.8441053457,14208.0127293034,46687.7203989586,58310.5477581692,61205.6321986454,16272.6761970075
4169631470,27687,2,0,-8814.3039139328,42937.4415549787,12623.2675596898,30962.0186772328,51540.5142520652,14202.8901289409,46705.0471992344,58314.3805826684,61209.2460046019,16274.4040099563
4169631470,27687,2,0,-8820.6676193712,42931.7714082592,12621.5154113473,30958.6725606065,51535.1361300695,14202.9509674250,46690.1539383231,58308.8564483108,61204.6831182933,16272.2016568314
4169631470,27687,2,0,-8824.4517730832,42930.3477877309,12623.1580504184,30958.3440327923,51533.0797893064,14206.9298042861,46681.5878797598,58310.5477581692,61203.8800503029,16270.7780363031
4169631470,27687,2,0,-8824.2449222372,42932.6474824304,12619.4469028874,30959.2201069635,51538.9811222655,14205.9198854498,46699.7542511165,58314.3197441843,61203.9043856966,16270.3521669143
4169631470,27687,2,0,-8827.0191571128,42931.5888928068,12609.2017021625,30954.9249099850,51537.2654770135,14214.7779687369,46696.8583392726,58309.7446901789,61201.7750387526,16270.5103469730
4169631470,27687,2,0,-8822.1399106868,42932.8786686701,12603.0083444796,30957.1394308068,51537.7400171896,14220.4846185469,46684.1917668799,58311.4481677341,61205.4496831931,16275.8276304846
4169631470,27687,2,0,-8822.7482955280,42934.0832706555,12611.1241982605,30960.6072244013,51540.4899166716,14204.0825632296,46696.4689729743,58316.1692341014,61207.6885394085,16275.5964442450
4169631470,27687,2,0,-8822.6631216502,42932.7813270955,12627.3559058223,30960.6193920982,51539.3339854734,14191.3429846560,46699.1458662753,58315.0011352064,61206.8002975405,16278.2003313651
4169662212,27688,2,0,-8817.1024842021,42933.8520844159,12643.7579611396,30958.3683681859,51536.9856199866,14189.9923703086,46681.8677367867,58313.4801731035,61206.3135896675,16280.3175106123
4169662212,27688,2,0,-8811.9677161428,42937.3807164946,12645.5466125726,30958.6725606065,51539.2366438988,14184.1762112272,46686.7226478191,58314.1250610352,61204.7439567774,16275.7789596973
4169662212,27688,2,0,-8817.4188443195,42936.0301021472,12636.9927217061,30952.5522091045,51537.6061725245,14178.2870459649,46697.3207117519,58310.3287396264,61200.3879213148,16270.2669930365
4169662212,27688,2,0,-8827.6032065603,42928.0237576377,12628.1103030253,30944.3025106586,51527.2514625282,14187.8143525773,46676.7086333338,58302.5657490534,61196.9322954170,16264.1101384441
4169662212,27688,2,0,-8828.4427776411,42930.2504461563,12633.5370958083,30948.4151921847,51529.1739586262,14192.3042327050,46674.5671186930,58306.2282257971,61201.4221755447,16266.2029822977
4169662212,27688,2,0,-8825.8875613083,42936.6506546852,12641.2514155941,30952.5765444982,51536.8152722310,14182.3388890070,46695.0696878396,58313.7600301305,61204.5006028409,16274.2093268072
4169662212,27688,2,0,-8827.0556602033,42933.4505504207,12641.0202293544,30944.5093615046,51532.1793797415,14171.0350986585,46686.7469832127,58306.4837474303,61196.6646060869,16275.7059535164
4169662212,27688,2,0,-8827.7857220126,42931.4550481418,12643.8187996237,30942.0028159591,51530.1717097657,14171.4366326536,46673.8492245804,58302.9429476549,61195.6060164633,16272.9073832471
4169698460,27689,2,0,-8826.1795860320,42934.9106740395,12645.1694139711,30945.3854356758,51537.9347003388,14173.6389857786,46692.6848192623,58309.8663671471,61201.1058154273,16272.7613708852
4169698460,27689,2,0,-8821.2760042124,42937.6362381278,12648.2843443577,30950.4593652510,51544.0185487502,14182.4118951879,46698.6591584024,58314.6117689081,61205.2428323471,16275.3409226117
4169698460,27689,2,0,-8817.3336704417,42938.5731507832,12655.0252483976,30953.0389169775,51544.6512689850,14185.3078070318,46686.6861447286,58315.5243461698,61208.6011166702,16274.4891838341
4169698460,27689,2,0,-8815.2408265882,42942.9413539426,12655.8039809943,30957.2976108655,51549.0924783254,14180.2947159407,46698.8660092484,58321.4256791289,61212.2027549298,16275.3652580053
4169698460,27689,2,0,-8814.9731372581,42943.3428879378,12652.1780073411,30956.4945428752,51548.6909443302,14173.6268180817,46709.1720484574,58321.1701574956,61208.1630795846,16277.5676111303
4169698460,27689,2,0,-8821.3976811806,42937.5632319469,12651.2897654730,30949.5467879893,51538.0077065197,14170.6579000570,46689.0223425186,58311.4846708246,61204.1599073299,16271.0335579364
4169698460,27689,2,0,-8823.3080095818,42936.7479962598,12654.3681927692,30948.5855399403,51534.9049438298,14171.6556511964,46688.0124236823,58312.0322171816,61204.3789258727,16267.5170935545
4169698460,27689,2,0,-8817.4553474100,42936.1882822059,12655.9986641435,30948.2813475197,51539.1636377179,14169.2099441350,46706.4951551564,58315.2931599302,61205.8512171883,16268.8798755987
4169724528,27690,2,0,-8812.9167964950,42934.7889970713,12656.5948812878,30942.9883994017,51539.6625132876,14171.3271233822,46697.5518979915,58311.9713786975,61204.3302550854,16271.4837627188
4169724528,27690,2,0,-8808.8041149689,42936.6019838979,12661.2672768678,30945.0082370743,51540.5507551557,14176.7539161652,46689.4117088169,58313.9912163701,61206.9219745087,16274.5013515309
4169724528,27690,2,0,-8807.8306992230,42940.8850131796,12663.7616547165,30948.3543537006,51548.0217210050,14169.4167949810,46706.3126397040,58320.3062510212,61209.9395633208,16275.6207796386
4169724528,27690,2,0,-8814.4864293852,42935.9570959663,12662.4475434596,30944.0104859348,51542.2785681045,14167.9810067559,46702.2729643588,58315.2931599302,61206.6421174818,16272.9195509439
4169724528,27690,2,0,-8816.3602546959,42933.2436995747,12660.5372150584,30943.0979086731,51537.9955388229,14179.4064740726,46687.7325666554,58314.5630981208,61206.9584775992,16272.2503276187
4169724528,27690,2,0,-8813.6468583044,42938.9625170815,12661.7418170439,30947.6729626785,51543.2884869409,14177.4596425810,46703.8669326426,58321.9732254860,61210.8764759761,16273.8199605088
4169724528,27690,2,0,-8814.6446094439,42940.9215162700,12666.5237218953,30946.2858452407,51547.7783670685,14168.9300871081,46712.9196990789,58320.9633066497,61208.7714644258,16272.0434767727
4169724528,27690,2,0,-8818.5261047304,42936.0057667536,12670.5268941501,30939.8247982277,51537.8860295515,14169.0517640763,46689.3143672424,58310.9127890739,61200.4730951925,16267.6387705228
4169757337,27691,2,0,-8816.3724223927,42940.8485100891,12674.5300664048,30943.6332873333,51543.6900209360,14181.1221193247,46691.6627327292,58316.6194388839,61205.5956955550,16273.2480787582
4169757337,27691,2,0,-8810.6292694923,42948.1856312733,12675.3574697888,30950.0334958622,51551.9762224724,14183.7138387480,46708.4784897385,58321.8880516082,61209.1851661177,16281.5464479914
4169757337,27691,2,0,-8813.7807029694,42947.4677371608,12676.6472456520,30946.7238823264,51549.2628260809,14181.1342870215,46696.2377867346,58317.8848793534,61209.4041846606,16277.9691451255
4169757337,27691,2,0,-8817.5161858941,42943.8904342948,12679.2267973785,30944.4728584141,51547.1821499242,14174.9287616418,46691.6870681228,58316.7046127616,61207.8953902545,16271.5567688998
4169757337,27691,2,0,-8816.4332608768,42944.7786761629,12679.8716853101,30943.2074179445,51549.3479999587,14171.2541172013,46709.8534394795,58318.5784380724,61206.2527511834,16273.7104512374
4169757337,27691,2,0,-8814.1700692678,42941.6759134731,12682.9622803031,30939.8126305309,51546.0140510292,14171.8868374361,46703.9764419140,58315.6338554412,61205.1333230757,16281.3517648422
4169757337,27691,2,0,-8814.9609695613,42937.3442134041,12685.1037949440,30937.5251035282,51540.7576060017,14171.1081048394,46687.9515851982,58311.0222983453,61201.7750387526,16282.8118884610
4169757337,27691,2,0,-8815.5450190088,42941.9314351063,12684.2155530759,30937.3182526822,51544.6634366818,14168.0783483305,46699.9367665688,58314.8186197541,61202.0792311731,16282.1304974389
4169786481,27692,2,0,-8820.2539176792,42940.7390008177,12680.6382502099,30934.3615023542,51547.4620069511,14168.0661806337,46703.1977093173,58311.6793539737,61199.4266732657,16279.3562625633
4169786481,27692,2,0,-8824.7072947164,42937.4050518882,12682.9987833936,30930.9302118502,51544.2984057772,14173.9675135928,46683.1575126500,58308.8077775235,61196.7862830552,16273.2359110613
4169786481,27692,2,0,-8823.8798913325,42940.5199822749,12686.8559432865,30933.9234652686,51546.2574049657,14175.5249787861,46690.0444290517,58312.2634034212,61201.4465109384,16273.2602464550
4169786481,27692,2,0,-8824.9019778656,42940.2401252479,12686.3327323231,30932.6945278895,51548.2164041541,14166.2166907166,46700.6303252877,58312.2877388149,61197.9178788597,16274.2093268072
4169786481,27692,2,0,-8825.5346981004,42938.2689583626,12690.4210784556,30931.2709073612,51544.4809212295,14171.4731357441,46689.9592551740,58308.3332373474,61196.8957923266,16272.4815138583
4169786481,27692,2,0,-8821.4585196647,42944.1946267154,12697.8433735176,30935.9311352444,51550.7959558806,14174.4663891625,46695.0575201428,58315.9258801650,61201.5925233002,16272.3963399805
4169786481,27692,2,0,-8817.9177198892,42949.8891088285,12702.6617814595,30937.8657990393,51555.7482084875,14177.3257979159,46716.7281881845,58320.3305864149,61205.0846522884,16278.4801883920
4169786481,27692,2,0,-8819.4995204762,42946.5064891118,12706.2025812349,30931.9888014738,51550.0780617681,14179.4794802536,46701.3238840066,58313.6383531622,61203.5150193983,16279.2467532919
4169817740,27693,2,0,-8816.3115839086,42948.8426869018,12711.9944049227,30935.0793964668,51548.1555656700,14188.4835759026,46689.3387026360,58314.6239366049,61207.7615455895,16279.7821319521
4169817740,27693,2,0,-8815.5936897961,42955.0360445846,12716.5572912313,30940.9198909418,51554.8964697099,14182.5214044593,46705.9841118898,58319.0894813389,61209.3190107828,16281.0354047248
4169817740,27693,2,0,-8821.6166997234,42953.5272501786,12719.1246752609,30935.2375765255,51553.3146691230,14176.4253883510,46702.0052750287,58313.5896823749,61204.5127705377,16279.5509457124
4169817740,27693,2,0,-8828.2237590983,42949.5119102270,12722.2761087380,30926.1969777861,51546.6346035672,14180.9274361755,46677.6577136860,58308.1385541983,61199.3171639943,16279.5874488029
4169817740,27693,2,0,-8824.9506486529,42953.3690701199,12726.8146596530,30929.4822559282,51551.1731544821,14188.3132281470,46686.8686601810,58313.4680054067,61203.5758578824,16285.5496202461
4169817740,27693,2,0,-8824.4882761736,42954.4884982276,12726.4617964451,30929.9932991948,51554.3610910497,14190.2843950324,46696.6393207298,58315.3053276270,61203.9895595744,16286.7177191411
4169817740,27693,2,0,-8823.2350034009,42953.8436102960,12731.6330675949,30930.8815410629,51552.3777564676,14193.0221268175,46685.0191702639,58314.5752658176,61205.0968199852,16287.8249795520
4169817740,27693,2,0,-8822.4319354106,42956.0094603305,12737.3153820112,30932.4146708626,51552.0857317438,14185.5633286651,46690.6163108024,58316.0110540427,61205.0846522884,16286.5717067793
4169861510,27694,2,0,-8822.7604632248,42956.5935097780,12738.8363441141,30931.0153857279,51554.4584326243,14176.3888852606,46709.4762408780,58317.9943886249,61203.3325039459,16286.8150607157
4169861510,27694,2,0,-8826.4107722717,42946.8228492292,12736.0134384512,30920.7093465189,51543.9212071756,14174.8435877640,46690.7258200738,58309.4648331520,61197.7596988010,16283.6027887545
4169861510,27694,2,0,-8824.1110775721,42947.5042402512,12735.6970783338,30922.5953395265,51542.2055619236,14191.0996307195,46683.7172267038,58312.2390680276,61201.3491693638,16285.0264092828
4169861510,27694,2,0,-8818.5139370336,42956.5326712939,12738.0089407301,30929.8959576202,51551.7450362328,14194.4335796490,46706.0449503739,58320.8416296814,61208.1509118878,16289.4554509263
4169861510,27694,2,0,-8813.5008459425,42960.2438188249,12747.2928934060,30933.2420742465,51554.8477989227,14193.5575054777,46709.3180608193,58320.6591142291,61209.7813832621,16292.2418534988
4169861510,27694,2,0,-8812.7221133458,42957.9441241253,12756.6376845660,30933.8747944813,51551.8667132010,14194.9567906124,46695.1305263237,58318.9921397643,61209.1973338146,16289.3337739581
4169861510,27694,2,0,-8812.5274301967,42961.3997500230,12756.3943306296,30937.0383956553,51555.6508669130,14192.6570959128,46707.6145832641,58322.6302811144,61210.7913020984,16286.6447129602
4169861510,27694,2,0,-8813.9753861186,42957.9562918221,12747.0008686823,30934.4345085352,51553.6431969372,14186.0257011443,46713.4064069518,58319.6005246055,61208.5767812766,16286.1823404809
4169884484,27695,2,0,-8816.1169007594,42954.1721381102,12744.1292922321,30930.7476963978,51545.9532125451,14183.3488078433,46694.1206074874,58313.8208686146,61204.2450812076,16281.7289634437
4169884484,27695,2,0,-8818.0272291607,42953.2352254548,12748.0837936995,30928.3384924269,51545.5881816404,14181.8156780436,46696.4689729743,58314.6482719985,61201.6655294812,16279.4414364410
4169884484,27695,2,0,-8818.7937940605,42955.0482122815,12757.3434109818,30927.6936044953,51551.1853221789,14182.5214044593,46709.7804332986,58316.6681096712,61203.4298455205,16280.2566721282
4169884484,27695,2,0,-8818.3922600653,42952.0306234694,12767.4060962543,30923.3740721231,51546.4034173275,14187.8508556678,46693.9867628224,58314.4657565462,61203.1378207968,16282.0453235611
4169884484,27695,2,0,-8816.5184347546,42952.8336914597,12775.8869809399,30923.9216184802,51544.8702875278,14184.7967637652,46688.0732621664,58313.4680054067,61206.4961051199,16284.5883721971
4169884484,27695,2,0,-8812.4179209253,42956.8855345017,12777.2010921968,30926.9392072923,51549.2993291714,14180.2703805471,46708.8435206432,58319.5031830309,61209.7692155652,16288.7010537233
4169884484,27695,2,0,-8811.4201697858,42956.6421805653,12777.8824832189,30925.4912513703,51549.0438075381,14183.7016710511,46705.0715346281,58316.9357990013,61207.7858809831,16289.3702770485
4169884484,27695,2,0,-8809.8140338052,42957.1653915287,12779.6954700455,30924.4813325340,51546.9022928973,14185.1252915794,46693.4392164653,58315.8407062872,61205.4861862836,16289.1512585057
4169921793,27696,2,0,-8810.4954248272,42958.6011797538,12778.9654082361,30927.0730519573,51552.5724396168,14182.3145536133,46705.5217394105,58319.9533878134,61206.6907882690,16291.0007484228
4169921793,27696,2,0,-8811.4810082699,42954.0017903547,12777.9433217030,30924.2379785976,51552.2560794994,14178.9562692902,46703.0882000459,58318.4324257105,61202.3469205033,16290.9885807260
4169921793,27696,2,0,-8812.6126040744,42950.7286799093,12781.6301338404,30921.0013712427,51547.6566901003,14182.3023859165,46685.6518904987,58311.8131986388,61199.1224808452,16284.6857137717
4169921793,27696,2,0,-8811.4931759667,42953.3934055135,12783.4431206670,30921.9139485044,51549.4331738364,14177.8611765761,46696.0309358886,58313.1151421989,61197.0174692948,16279.6239518934
4169921793,27696,2,0,-8813.5981875171,42954.5858398022,12784.6355549556,30919.7846015604,51551.4895145995,14177.6908288206,46708.0891234402,58311.7036893674,61194.2675698128,16281.0962432089
4169921793,27696,2,0,-8815.7397021579,42954.3303181689,12791.2669497241,30917.4727391640,51547.7661993717,14186.3663966554,46692.5996453846,58308.1750572887,61196.8471215393,16287.6789671902
4169921793,27696,2,0,-8816.5549378451,42955.7904417877,12796.4382208739,30919.4074029589,51547.7175285844,14188.9946191691,46691.5775588514,58311.8983725166,61202.6146098334,16291.7794810195
4169921793,27696,2,0,-8816.7496209942,42957.4817516461,12797.8253383117,30922.3154824995,51552.1952410152,14179.7471695837,46707.8457695037,58314.3440795780,61206.0580680343,16294.5293805015
4169939345,27697,2,0,-8819.0128126033,42955.8634479686,12799.8086728938,30919.0545397510,51548.0217210050,14176.4253883510,46695.6902403776,58311.1074722231,61200.9354676718,16295.0404237680
4169939345,27697,2,0,-8819.6942036254,42957.0923853477,12803.5198204248,30918.8233535114,51546.4399204180,14175.8291712067,46686.1142629779,58308.5400881934,61198.6114375786,16292.8015675526
4169939345,27697,2,0,-8820.2295822856,42956.3014850542,12802.3760569235,30919.3830675652,51546.8657898068,14167.6646466385,46700.6424929845,58309.5500070297,61194.3040729033,16288.6523829360
4169939345,27697,2,0,-8824.7681332006,42947.8936065496,12797.1682826833,30913.4695669093,51537.5453340404,14164.5740516455,46695.3982156538,58301.1542962219,61187.0886286873,16282.1183297421
4169939345,27697,2,0,-8831.6428819055,42938.1837844849,12795.3066250693,30905.4632223998,51525.0004386160,14166.4113738657,46673.0583242869,58293.1357840156,61184.0467044816,16277.3120894970
4169939345,27697,2,0,-8830.2557644677,42938.1594490912,12798.9204310258,30904.2464527175,51526.3510529633,14168.0418452400,46684.8488225083,58294.6202430280,61186.9426163254,16282.7267145832
4169939345,27697,2,0,-8828.5522869125,42939.4613926513,12801.4756473586,30902.0319318957,51528.4925676042,14171.0229309616,46693.2080302257,58294.1335351551,61188.0012059490,16288.7862276010
4169939345,27697,2,0,-8827.2990141397,42938.9016785974,12809.2143025380,30904.5749805317,51528.3222198486,14178.2262074808,46680.2129300188,58292.8437592918,61191.3351548785,16289.9786618897
4169978536,27698,2,0,-8828.7469700617,42941.8340935317,12811.6113388121,30909.5394008354,51532.7025907049,14172.3127068249,46683.5347112515,58299.1952970334,61191.8827012355,16285.2697632192
4169978536,27698,2,0,-8831.6063788151,42943.3063848473,12811.7208480835,30909.0526929625,51537.2411416199,14166.6547278022,46696.6636561234,58300.3998990189,61190.9944593675,16282.8727269451
4169978536,27698,2,0,-8833.7357257591,42940.9823547541,12814.2517290227,30905.9134271822,51534.5764160156,14171.3757941695,46682.0745876327,58296.2872174927,61188.1837214014,16283.2620932434
4169978536,27698,2,0,-8830.0854167122,42943.2212109696,12819.0579692677,30906.3757996615,51533.4204848174,14177.6421580333,46679.8722345078,58298.3557259526,61188.8286093330,16287.1800916204
4169978536,27698,2,0,-8824.2449222372,42949.3050593810,12824.0345572683,30912.8125112808,51541.5728416888,14178.8589277156,46703.9764419140,58306.5567536113,61194.8151161699,16293.9088279635
4169978536,27698,2,0,-8823.3323449755,42946.6159983832,12825.0688114983,30912.6543312221,51538.7134329354,14173.6389857786,46700.5938221972,58302.1398796646,61192.9534585559,16294.8457406189
4169978536,27698,2,0,-8825.4008534354,42939.4735603481,12826.7844567503,30911.8512632318,51532.3253921034,14171.7651604678,46683.7902328847,58298.3557259526,61190.1427205898,16289.8934880119
4169978536,27698,2,0,-8824.1354129658,42941.4203918398,12829.8263809560,30914.2848025964,51538.5187497863,14173.6389857786,46698.3184628913,58302.8091029898,61193.3184894606,16288.2386812440
4170005933,27699,2,0,-8823.6487050928,42944.9003531311,12835.6060369469,30915.7570939120,51542.0960526522,14171.9233405265,46707.8092664132,58304.0015372785,61194.6812715048,16292.5217105257
4170005933,27699,2,0,-8829.0754978759,42941.1892056001,12838.5871226686,30910.8413443955,51533.3474786365,14165.2067718803,46687.4527096285,58296.4819006419,61190.2643975581,16289.7718110437
4170005933,27699,2,0,-8834.6361353240,42936.5533131106,12832.7344604967,30905.5118931871,51525.8765127872,14153.9273169254,46689.6185596629,58292.3205483284,61183.1462949167,16282.3008451944
4170005933,27699,2,0,-8835.0133339255,42930.0922660976,12825.7623702172,30902.3847951036,51521.2284526009,14150.7393803578,46697.2477055709,58286.4800538534,61174.7870871993,16277.9083066413
4170005933,27699,2,0,-8832.7744777101,42927.2328573442,12829.1328222371,30898.4424613329,51517.8823359746,14159.3784451021,46682.7194755643,58281.8806644544,61173.4608082456,16278.3950145143
4170005933,27699,2,0,-8826.9218155382,42935.6772389393,12840.4366125856,30904.8791729523,51524.7449169827,14176.1090282336,46685.9560829192,58288.8649224307,61182.7447609215,16283.5297825735
4170005933,27699,2,0,-8825.7537166432,42943.4280618156,12846.4474548162,30909.5272331386,51532.3132244066,14173.8458366246,46703.7087525839,58294.5594045439,61187.7335166189,16285.3671047938
4170005933,27699,2,0,-8830.9006523993,42939.1693679275,12851.0590119121,30906.8746752312,51527.2271271346,14168.6137269907,46692.2711175703,58289.1447794577,61185.4824927067,16284.1746705052
4170037558,27700,2,0,-8834.4292844780,42935.2148664601,12855.9017552476,30904.8670052554,51525.5114818825,14172.1666944630,46677.7793906542,58289.5098103623,61185.5189957971,16287.0340792585
4170037558,27700,2,0,-8826.1795860320,42942.4059752824,12863.0685286763,30909.6489101069,51533.1649631842,14170.9864278712,46695.5928988030,58297.2241301481,61188.9381186044,16293.3856170001
4170037558,27700,2,0,-8824.7316301101,42943.8417635075,12866.4268129994,30907.9210971580,51537.0221230770,14168.9300871081,46698.1846182263,58296.0316958594,61186.6140885112,16296.0138395139
4170037558,27700,2,0,-8827.2260079588,42940.6051561526,12868.8846877577,30903.9544279937,51533.2501370619,14168.8205778367,46682.0502522391,58292.4422252967,61185.7501820368,16291.0859223006
4170037558,27700,2,0,-8826.9096478414,42943.0143601236,12871.4764071810,30905.3172100379,51537.2898124071,14170.5970615728,46693.4513841622,58296.9807762116,61185.8475236113,16288.2995197281
4170037558,27700,2,0,-8826.1795860320,42944.5839930137,12873.4597417631,30905.5483962775,51541.3416554492,14172.2518683408,46703.5992433125,58298.6355829796,61184.8497724719,16288.4820351805
4170037558,27700,2,0,-8826.4472753621,42943.4523972092,12877.4994171083,30904.9765145268,51540.2708981288,14174.9287616418,46686.0534244938,58295.9830250721,61185.8840267018,16287.4599486473
4170037558,27700,2,0,-8821.6288674202,42947.5164079481,12884.4593396910,30909.1987053244,51545.5881816404,14172.3857130058,46692.2467821767,58302.3345628137,61189.7290188979,16288.5672090582
4170068526,27701,2,0,-8823.9528975134,42947.0418677720,12884.1551472705,30910.0626117988,51546.1722310879,14162.7367294252,46707.6632540514,58300.7284268331,61187.3076472301,16288.1900104567
4170068526,27701,2,0,-8831.4360310595,42937.9525982452,12883.6319363071,30903.3825462430,51535.1361300695,14160.4613701193,46692.3076206608,58291.9798528174,61181.3211403932,16284.0894966274
4170068526,27701,2,0,-8837.7875688011,42931.8079113496,12885.2624076814,30901.4235470545,51527.1541209536,14162.7245617284,46680.7118055885,58288.4633884356,61182.4405685009,16279.9281443139
4170068526,27701,2,0,-8835.3175263461,42936.1396114186,12887.9514686792,30904.9643468300,51531.2546347830,14164.9390825502,46699.1945370626,58292.2353744507,61184.5942508386,16283.2864286371
4170068526,27701,2,0,-8826.5324492399,42938.8043370228,12890.2389956819,30906.3757996615,51533.2379693651,14167.3604542179,46700.8006730432,58293.2939640743,61185.5676665844,16287.4477809505
4170068526,27701,2,0,-8819.9497252587,42941.1770379033,12894.4368510859,30908.6024881801,51535.8661918789,14170.9620924775,46688.3531191934,58294.1943736392,61189.1449694504,16290.1368419484
4170068526,27701,2,0,-8820.3999300411,42945.1315393708,12897.3449306265,30908.4564758182,51538.6160913608,14163.1747665108,46698.5983199183,58297.3093040259,61188.9746216948,16289.0295815375
4170068526,27701,2,0,-8827.8708958904,42941.7245842603,12899.0119050913,30900.9611745753,51532.7999322795,14154.7668880062,46697.9899350771,58288.9987670958,61181.9295252344,16286.1823404809
4170101264,27702,2,0,-8835.4513710111,42932.6596501273,12900.5572025878,30890.6307999726,51522.3357130118,14153.8786461381,46671.9997346633,58277.1595980871,61175.1764534976,16281.8384727151
4170101264,27702,2,0,-8834.2224336320,42932.7326563082,12903.1245866174,30892.9304946721,51522.0071851975,14155.2170927886,46678.0349122875,58278.0965107424,61174.4585593851,16281.1692493899
4170101264,27702,2,0,-8828.0899144332,42936.3829653551,12901.8956492383,30896.3739528730,51526.9837731981,14154.7060495221,46696.0917743727,58281.0167579799,61171.6843245094,16281.9114788961
4170101264,27702,2,0,-8829.0633301791,42932.7691593987,12900.9344011893,30896.4469590540,51520.1698629773,14156.9449057375,46683.9970837307,58274.7138910256,61167.4986368024,16276.7158723527
4170101264,27702,2,0,-8829.1120009664,42932.7204886114,12904.5482071457,30898.6858152694,51516.9575910160,14149.8146353993,46680.9551595250,58274.3610278178,61166.3062025137,16273.8807989929
4170101264,27702,2,0,-8835.8894080967,42927.9142483663,12902.0051585097,30895.6195556700,51513.9156668103,14134.4468343119,46697.4302210233,58272.1708423897,61161.2201052417,16272.0556444695
4170101264,27702,2,0,-8842.9345045572,42920.2607670647,12900.0826624117,30888.5866269063,51507.2356012545,14133.9601264390,46689.2656964551,58262.4853557186,61153.3719407909,16270.1818191588
4170101264,27702,2,0,-8839.8195741705,42921.1611766296,12906.9087403294,30888.6839684809,51509.7056437095,14143.7551223814,46677.9740738034,58262.9355605010,61156.0001633047,16272.1651537409
4170143604,27703,2,0,-8834.9281600477,42929.0093410804,12913.6009735820,30893.5510472101,51519.0504348696,14146.7362081030,46694.6559861476,58272.3411901452,61161.8041546892,16274.5621900150
4170143604,27703,2,0,-8836.7776499648,42929.6420613152,12916.1075191275,30893.6118856942,51520.0725214027,14148.4518533551,46696.2986252187,58271.6719668199,61162.4977134081,16274.7203700737
4170143604,27703,2,0,-8839.6248910214,42928.6321424789,12921.7046596661,30892.8331530975,51513.9886729912,14154.1828385587,46680.8456502536,58270.6498802868,61165.0529297409,16271.1065641173
4170143604,27703,2,0,-8833.4315333385,42933.5113889049,12926.6812476667,30896.0697604525,51519.2694534124,14151.6519576195,46692.6239807782,58275.9184930111,61168.3503755800,16270.6076885476
4170143604,27703,2,0,-8826.2647599098,42937.4415549787,12932.3513943861,30898.1017658219,51524.7814200732,14147.5392760934,46708.4541543449,58279.2037711533,61169.5549775654,16276.1439906020
4170143604,27703,2,0,-8822.8821401930,42934.3874630761,12937.8755287438,30897.0675115919,51520.9850986644,14147.4662699124,46689.4847149979,58273.3024381942,61166.5738918438,16276.3021706607
4170143604,27703,2,0,-8822.6996247407,42933.4505504207,12941.2824838542,30898.9656722963,51518.3568761506,14143.9863086211,46685.7613997701,58274.1176738813,61167.6324814674,16276.3508414480
4170143604,27703,2,0,-8827.2503433524,42932.2337807384,12939.0436276388,30899.1238523550,51520.3280430360,14142.6843650610,46700.6789960750,58276.1010084635,61167.2917859564,16277.3120894970
4170165600,27704,2,0,-8828.4792807316,42931.7592405624,12940.5524220448,30897.2743624379,51521.7151604738,14148.8655550471,46692.1616082989,58273.1077550450,61167.7298230420,16275.6816181227
4170165600,27704,2,0,-8825.0966610148,42934.0832706555,12947.4271707498,30898.1991073965,51521.8125020484,14155.5091175124,46684.7636486306,58275.8333191334,61170.2363685875,16270.6441916380
4170165600,27704,2,0,-8822.0669045059,42938.8286724165,12949.9945547794,30901.1315223308,51529.0157785675,14151.3355975021,46702.0782812096,58280.6152239848,61171.9033430523,16270.3278315206
4170165600,27704,2,0,-8821.3125073028,42937.0035178930,12951.6128584569,30898.8439953281,51525.3533018238,14148.2328348123,46701.0683623733,58278.5710509185,61169.8470022892,16272.9438863376
4170165600,27704,2,0,-8824.3909345990,42933.8885875064,12957.0396512399,30897.0553438951,51520.0116829186,14151.6641253163,46681.7460598185,58276.3078593095,61167.7906615261,16274.4526807436
4170165600,27704,2,0,-8825.6563750686,42939.5100634386,12963.0018226831,30902.1292734703,51526.7769223521,14149.7659646120,46695.5198926221,58283.1826080144,61173.3999697615,16277.3607602843
4170165600,27704,2,0,-8826.7879708732,42939.9602682210,12963.2938474069,30900.7421560325,51530.8409330910,14143.7794577751,46704.3536405155,58284.0100113984,61171.6599891158,16278.4680206952
4170165600,27704,2,0,-8831.6428819055,42935.7137420298,12965.1798404144,30896.0575927556,51526.6917484744,14143.5969423227,46685.3598657749,58276.9284118474,61167.2917859564,16274.2823329881
4170194623,27705,2,0,-8829.6108765361,42938.5123122991,12970.7161424689,30898.6128090884,51528.2370459709,14145.5802769049,46689.0223425186,58281.7103166988,61170.1876978002,16274.3066683817
4170194623,27705,2,0,-8824.8533070783,42941.0310255414,12973.4903773445,30898.3816228488,51532.2037151352,14147.4906053061,46704.7795099043,58283.8396636429,61171.9033430523,16277.0809032574
4170194623,27705,2,0,-8820.9961471854,42940.6294915463,12975.9604197996,30899.6348956216,51530.8531007878,14150.5568649055,46694.2544521525,58283.2434464985,61172.5117278934,16278.3463437270
4170194623,27705,2,0,-8818.5747755177,42942.3086337078,12975.1938548997,30901.0341807562,51529.9283558293,14146.2251648365,46689.7159012375,58284.6670670268,61171.9033430523,16273.5644388755
4170194623,27705,2,0,-8818.7572909700,42944.3771421677,12971.3488627037,30903.1513600034,51531.9238581082,14136.6856905273,46710.2184703842,58286.7112400931,61169.9930146511,16265.2660696423
4170194623,27705,2,0,-8821.1421595473,42939.4735603481,12971.0203348895,30900.7543237293,51527.3488041028,14133.8141140771,46705.7650933470,58281.1506026450,61164.2376940538,16259.4985813482
4170194623,27705,2,0,-8827.3233495334,42934.8620032522,12974.6584762395,30899.2820324137,51523.6741596623,14138.9367144395,46689.0710133059,58280.0190068405,61162.6558934668,16254.9235273428
4170194623,27705,2,0,-8827.1408340810,42940.1427836734,12977.8950835944,30903.6989063604,51531.8143488368,14144.1688240734,46707.2982231467,58289.4368041814,61168.2773693990,16258.3791532405
4170232352,27706,2,0,-8826.4959461494,42943.9512727789,12979.2213625481,30902.5551428591,51534.3939005633,14139.1070621951,46715.9737909814,58290.2398721717,61168.1800278244,16260.5328355782
4170232352,27706,2,0,-8825.0966610148,42940.9458516637,12981.9590943333,30899.4402124724,51527.5921580393,14145.5072707239,46697.3085440550,58285.9446751932,61168.5693941228,16261.0925496320
4170232352,27706,2,0,-8823.4175188532,42944.2676328963,12985.2200370818,30902.4699689813,51530.4393990958,14149.5104429787,46703.9277711267,58288.4025499515,61175.6996644610,16261.2385619939
4170232352,27706,2,0,-8824.0502390880,42944.7056699820,12988.6999983732,30900.9490068785,51530.4272313990,14149.7903000056,46713.0778791376,58287.6724881421,61178.6320793953,16264.3534923806
4170232352,27706,2,0,-8824.8776424720,42939.5952373163,12992.5084874788,30897.7732380077,51523.0171040338,14151.3355975021,46694.7411600254,58280.7490686498,61176.7582540846,16268.4296708163
4170232352,27706,2,0,-8819.5603589603,42941.4568949302,12997.3999016016,30899.4280447756,51522.6885762196,14147.0890713109,46691.3828757023,58279.6904790262,61174.7870871993,16270.0723098874
4170232352,27706,2,0,-8815.3625035564,42944.1459559281,12998.8356898267,30902.8106644924,51526.4362268411,14140.0318071536,46710.5956689857,58281.2357765227,61173.4729759424,16274.7933762547
4170232352,27706,2,0,-8816.6522794197,42941.3717210525,13000.4783288978,30901.8980872306,51524.7205815890,14142.0029740389,46703.2463801046,58276.8189025760,61168.3503755800,16275.9493074528
4170255993,27707,2,0,-8820.7527932490,42939.5100634386,13004.5910104240,30901.5452240228,51522.2992099213,14148.7682134725,46690.2877829882,58275.6508036810,61170.0416854383,16273.9416374771
4170255993,27707,2,0,-8817.0416457180,42944.6083284074,13006.3309910696,30906.2297872996,51527.7990088852,14156.1175023535,46709.4519054843,58282.7202355351,61174.7140810184,16273.3332526359
4170255993,27707,2,0,-8812.2354054729,42946.6768368673,13010.6870265322,30908.4321404246,51530.0013620102,14160.5952147844,46715.3167353530,58283.1826080144,61178.5590732144,16271.9339675013
4170255993,27707,2,0,-8812.1867346856,42944.1581236249,13018.9123895846,30906.1567811187,51526.3145498728,14160.6438855717,46699.9489342656,58279.3862866057,61180.2625507696,16272.4328430710
4170255993,27707,2,0,-8814.8392925930,42942.8683477617,13020.7375441080,30903.6015647859,51524.5258984399,14150.8975604165,46705.6190809851,58280.0311745373,61179.1796257524,16270.3034961270
4170255993,27707,2,0,-8820.8744702172,42936.2491206900,13014.9943912076,30896.6903129904,51519.6709874075,14140.9930552026,46707.3833970244,58273.9594938226,61172.2927093506,16266.4828393246
4170255993,27707,2,0,-8826.7636354795,42929.9462537357,13010.4558402926,30891.1783463296,51510.9345810887,14143.2562468117,46687.2823618729,58264.3713487261,61165.2719482837,16264.9983803122
4170255993,27707,2,0,-8823.5756989119,42934.0467675651,13011.6604422781,30897.3473686189,51515.7529890305,14146.6875373158,46693.2688687098,58270.1023339298,61169.3237913258,16268.6121862686
4170293582,27708,2,0,-8817.4796828036,42942.1261182555,13015.1769066599,30905.5727316712,51528.4560645137,14151.5789514386,46716.0467971624,58279.2646096374,61173.1566158250,16275.6694504259
4170293582,27708,2,0,-8815.8735468230,42943.0630309109,13018.0484831101,30906.8138367471,51527.2514625282,14153.9759877127,46707.2008815721,58277.3056104489,61174.4342239914,16276.2169967829
4170293582,27708,2,0,-8817.5891920750,42943.9512727789,13023.9619837661,30907.9332648548,51526.0468605427,14157.7966445151,46696.1647805537,58276.2591885222,61176.8677633560,16272.7127000979
4170293582,27708,2,0,-8812.1867346856,42948.8791899922,13027.6731312971,30910.1477856766,51531.9360258051,14157.7114706373,46713.6497608882,58281.0532610704,61179.3499735079,16271.6297750807
4170293582,27708,2,0,-8812.4179209253,42946.5308245054,13027.6487959034,30905.7065763362,51530.3177221276,14149.9119769738,46710.7051782571,58276.7580640919,61177.0259434147,16270.3521669143
4170293582,27708,2,0,-8814.2917462360,42943.5375710870,13027.7339697812,30902.6524844337,51526.2050406014,14145.6897861763,46695.7145757712,58274.9572449621,61175.4684782214,16268.6851924495
4170293582,27708,2,0,-8817.4431797131,42940.8971808764,13026.9552371845,30900.8881683943,51526.9472701076,14137.5009262144,46705.5582425010,58276.7337286983,61171.7816660840,16270.1574837651
