steady_timestamp,sequence,battery,flags,EEG-ch1,EEG-ch2,EEG-ch3,EEG-ch4,EEG-ch5,EEG-ch6,EEG-ch7,EEG-ch8,EEG-ch9,EEG-ch10
5494052086,6159,-2,0,-6716.5808139608,-80232.6855900687,-35929.7729299226,-12640.0589813054,-80540.9785244715,-46348.5458500191,-80473.2287885614,-80462.7158985064,-80502.7354533570,-2417.4415016916
5494052086,6159,-2,0,-6716.8120002004,-80232.8316024305,-35938.2416469114,-12641.1419063227,-80540.2971334495,-46188.0174258340,-80472.5960683266,-80461.2557748876,-80502.2974162714,-2417.5996817503
5494052086,6159,-2,0,-6717.3717142543,-80231.4444849927,-35958.1479989137,-12640.2779998482,-80537.4620600897,-46035.0694767696,-80471.7443295490,-80460.3431976259,-80501.6525283398,-2416.9547938187
5494052086,6159,-2,0,-6717.3352111638,-80231.9798636529,-35962.8325621906,-12640.3631737260,-80537.4863954834,-46089.2278953285,-80472.7542483853,-80460.0025021149,-80503.0639811712,-2417.0399676965
5494052086,6159,-2,0,-6717.5055589194,-80232.2110498926,-35944.5201784720,-12640.5943599656,-80539.2750469163,-46276.7807741573,-80473.6789933438,-80461.9858366970,-80503.8062106774,-2417.9647126550
5494052086,6159,-2,0,-6717.1891988020,-80231.9433605625,-35927.9234400055,-12640.8133785085,-80541.6964185841,-46347.5359311827,-80473.6181548597,-80461.9858366970,-80503.7210367997,-2417.7091910218
5494052086,6159,-2,0,-6717.9557637018,-80232.8924409146,-35932.9121957029,-12640.8498815989,-80542.3291388189,-46203.2757176499,-80474.6889121802,-80462.8132400810,-80503.4168443791,-2417.6726879313
5494052086,6159,-2,0,-6717.4325527384,-80232.1623791053,-35953.1592432163,-12640.5335214815,-80539.1168668576,-46034.9356321045,-80473.2409562582,-80461.2314394940,-80502.4677640269,-2417.0034646060
5494106002,6160,-2,0,-6717.8949252177,-80233.1357948511,-35962.8203944937,-12640.8255462053,-80538.1312834150,-46067.7154073455,-80473.9345149771,-80462.0588428779,-80503.7818752838,-2417.3806632075
5494106002,6160,-2,0,-6717.2378695892,-80233.2331364257,-35946.9780532303,-12640.1198197895,-80538.7883390434,-46253.9663426143,-80473.3382978328,-80461.6573088828,-80503.3438381982,-2417.5145078726
5494106002,6160,-2,0,-6717.7367451590,-80231.9068574720,-35928.7021726022,-12640.7282046307,-80541.6964185841,-46348.9108809237,-80473.4721424979,-80461.8398243351,-80503.4168443791,-2418.0377188360
5494106002,6160,-2,0,-6717.9679313986,-80232.3935653449,-35931.7197614143,-12640.7768754180,-80540.1267856939,-46228.9130548559,-80472.4865590552,-80461.5477996114,-80502.8084595380,-2417.4536693885
5494106002,6160,-2,0,-6718.0652729732,-80233.2453041225,-35954.7410438033,-12641.1905771100,-80539.4697300655,-46053.1141711580,-80473.5816517693,-80461.1097625258,-80503.2951674109,-2417.7578618090
5494106002,6160,-2,0,-6717.2865403765,-80232.2718883767,-35965.4729524011,-12640.6795338434,-80537.4498923929,-46051.3011843314,-80472.9367638376,-80461.2071041003,-80503.4655151664,-2416.8452845473
5494106002,6160,-2,0,-6717.1161926210,-80232.9654470956,-35952.4291814069,-12640.0589813054,-80539.0803637672,-46228.4506823766,-80473.5694840724,-80461.7303150637,-80503.3438381982,-2416.5289244299
5494106002,6160,-2,0,-6717.6637389780,-80233.9510305382,-35934.6765117423,-12641.3365894718,-80541.4774000413,-46350.0424767283,-80474.6767444833,-80462.5820538413,-80504.5849432741,-2416.8696199410
5494137185,6161,-2,0,-6717.6637389780,-80234.9001108904,-35935.0780457374,-12641.6042788019,-80543.3025545647,-46250.0483442373,-80475.2972970213,-80463.6284757681,-80504.7187879392,-2418.2932404693
5494137185,6161,-2,0,-6717.8705898240,-80234.8149370127,-35955.4346025222,-12641.7746265575,-80541.2948845889,-46061.6558943277,-80474.3725520627,-80463.2512771666,-80504.6457817582,-2417.7335264154
5494137185,6161,-2,0,-6716.8971740782,-80232.7950993401,-35968.0525041276,-12640.2658321514,-80538.5814881974,-46034.1934025983,-80473.2896270455,-80460.2701914450,-80502.7962918412,-2417.0277999997
5494137185,6161,-2,0,-6718.0652729732,-80233.1236271543,-35960.4233582196,-12641.1784094131,-80538.5571528038,-46201.5357370043,-80473.4721424979,-80462.0101720907,-80503.0396457776,-2417.7456941122
5494137185,6161,-2,0,-6718.1382791541,-80233.2696395162,-35940.9793786965,-12641.1297386259,-80542.2317972443,-46344.4210007961,-80474.2143720041,-80461.9736690002,-80502.3460870587,-2418.4027497407
5494137185,6161,-2,0,-6716.6173170513,-80232.2475529830,-35938.2294792146,-12640.1806582737,-80541.0880337429,-46277.0727988811,-80473.7763349184,-80461.1097625258,-80503.1369873522,-2417.3076570266
5494137185,6161,-2,0,-6717.4690558289,-80234.8757754968,-35959.9001472562,-12640.5213537847,-80540.9785244715,-46093.3405768547,-80475.1634523563,-80463.7379850395,-80503.5993598315,-2417.1251415743
5494137185,6161,-2,0,-6717.9314283082,-80234.7540985286,-35978.2855371557,-12640.8498815989,-80540.4309781145,-46039.4498476259,-80475.9786880434,-80463.5919726776,-80505.9598930151,-2417.5753463567
5494159696,6162,-2,0,-6717.8949252177,-80235.0826263428,-35970.9849190619,-12640.0954843959,-80540.1754564812,-46192.0327657855,-80475.3703032022,-80462.5820538413,-80504.2077446726,-2418.0255511391
5494159696,6162,-2,0,-6716.3131246307,-80234.0727075065,-35950.1173190106,-12639.7304534912,-80541.3313876794,-46347.6697758478,-80474.2752104882,-80462.3995383890,-80503.7940429806,-2416.6019306109
5494159696,6162,-2,0,-6717.2865403765,-80233.1357948511,-35944.8243708926,-12640.0468136086,-80542.3656419094,-46297.7335480864,-80473.5573163756,-80462.0466751811,-80503.4168443791,-2417.0643030901
5494159696,6162,-2,0,-6718.3938007874,-80233.2818072130,-35963.2219284889,-12641.7381234670,-80541.0028598652,-46109.0125703626,-80474.4698936373,-80461.7789858510,-80503.2951674109,-2419.1936500342
5494159696,6162,-2,0,-6716.9458448655,-80232.6855900687,-35981.1692813027,-12640.3023352419,-80537.9974387499,-46028.6449328471,-80474.1291981263,-80461.7181473669,-80502.6259440856,-2416.9791292124
5494159696,6162,-2,0,-6717.7610805526,-80233.5859996335,-35976.1926933021,-12639.7669565817,-80538.8613452243,-46158.1700655273,-80473.6059871629,-80462.0223397875,-80503.7088691029,-2417.6361848408
5494159696,6162,-2,0,-6717.5055589194,-80233.8171858732,-35953.3174232750,-12640.4240122101,-80541.6599154936,-46323.0788605686,-80475.1634523563,-80463.1782709856,-80505.1689927216,-2416.9182907283
5494159696,6162,-2,0,-6717.7245774622,-80234.7784339222,-35942.5125084962,-12640.9715585672,-80543.1443745060,-46300.2887644193,-80475.6501602292,-80463.6163080713,-80504.4145955186,-2418.2932404693
5494181110,6163,-2,0,-6717.2378695892,-80232.7950993401,-35955.4224348254,-12640.7525400243,-80541.2218784080,-46111.2027557907,-80474.4455582437,-80463.0444263206,-80503.8427137679,-2418.2202342883
5494181110,6163,-2,0,-6718.0652729732,-80233.3061426066,-35973.3576199424,-12640.7647077212,-80539.2628792195,-46002.8494155824,-80474.6037383024,-80462.7402339000,-80503.9400553425,-2417.1008061806
5494181110,6163,-2,0,-6717.3473788607,-80232.8194347337,-35969.2206030226,-12639.7061180976,-80538.9586867989,-46114.1108353314,-80474.6645767865,-80462.8254077778,-80503.1613227458,-2417.2224831488
5494181110,6163,-2,0,-6718.1382791541,-80234.4134030175,-35948.5355184236,-12640.7038692370,-80541.6112447063,-46294.8498039394,-80475.7109987133,-80463.1417678952,-80505.2541665994,-2418.2445696820
5494181110,6163,-2,0,-6717.6880743717,-80234.3282291397,-35935.8689460309,-12640.9593908703,-80543.1565422029,-46302.9656577203,-80475.5771540482,-80463.3607864380,-80504.8526326042,-2417.9890480487
5494181110,6163,-2,0,-6716.8728386846,-80234.0240367192,-35947.3065810445,-12640.5943599656,-80542.1831264570,-46124.4168745405,-80475.2121231435,-80463.4337926189,-80505.1568250248,-2417.6483525376
5494181110,6163,-2,0,-6717.5055589194,-80234.1457136874,-35967.9551625530,-12640.8742169926,-80540.0781149066,-45997.9093306723,-80475.8083402879,-80463.4094572253,-80505.1081542375,-2416.4802536426
5494181110,6163,-2,0,-6717.4690558289,-80234.5229122889,-35968.5878827878,-12640.6673661466,-80539.7617547892,-46085.3950708293,-80475.3094647181,-80462.2778614207,-80504.9256387852,-2417.2954893298
5494221007,6164,-2,0,-6718.0652729732,-80234.4377384112,-35950.1051513138,-12641.3365894718,-80541.9519402174,-46274.8947811498,-80475.7840048942,-80463.7623204331,-80505.9963961056,-2418.5244267089
5494221007,6164,-2,0,-6717.3352111638,-80233.5251611494,-35935.0415426470,-12640.9350554767,-80542.6211635426,-46315.5470562352,-80475.4554770800,-80464.0543451569,-80505.7895452596,-2417.5145078726
5494221007,6164,-2,0,-6717.6880743717,-80233.2453041225,-35946.0898113622,-12640.9228877799,-80541.4895677381,-46151.7333539080,-80475.5406509578,-80463.4459603158,-80504.3172539440,-2418.4270851343
5494221007,6164,-2,0,-6717.8340867336,-80233.8901920541,-35966.9330760199,-12641.3974279560,-80540.2606303590,-46000.5983916702,-80474.9444338134,-80462.3143645112,-80504.1590738853,-2417.6240171440
5494221007,6164,-2,0,-6717.2013664988,-80233.0506209733,-35971.8853286268,-12640.4483476038,-80538.1556188086,-46062.8726640100,-80473.5938194661,-80462.2291906335,-80503.5506890442,-2417.2833216329
5494221007,6164,-2,0,-6717.1891988020,-80233.4521549685,-35955.0209008302,-12640.1684905768,-80539.9686056352,-46253.6013117096,-80473.8006703121,-80462.5090476604,-80503.8305460711,-2417.5996817503
5494221007,6164,-2,0,-6716.0332676038,-80231.6513358387,-35938.5701747256,-12639.6209442198,-80539.5184008528,-46316.5204719811,-80472.2553728156,-80461.7911535478,-80501.7863730048,-2416.4559182490
5494221007,6164,-2,0,-6716.3617954180,-80232.1623791053,-35945.9316313035,-12640.3266706355,-80540.8081767160,-46170.9096441009,-80473.9953534612,-80461.4504580368,-80503.1491550490,-2416.8331168505
5494227342,6165,-2,0,-6717.1526957115,-80233.2574718193,-35968.7217274529,-12640.8620492957,-80538.9465191021,-46008.6534069670,-80473.8615087962,-80462.2170229366,-80504.1104030980,-2416.2855704935
5494227342,6165,-2,0,-6717.6272358876,-80233.3183103035,-35977.5068045590,-12641.2635832909,-80539.7009163051,-46039.5958599877,-80474.7010798770,-80463.1052648047,-80504.3902601250,-2417.4293339948
5494227342,6165,-2,0,-6717.2378695892,-80233.3548133939,-35960.3381843418,-12640.6430307529,-80539.5184008528,-46220.9067103464,-80474.2143720041,-80461.9493336065,-80503.7575398902,-2417.4536693885
5494227342,6165,-2,0,-6717.3960496479,-80233.0384532765,-35941.8554528678,-12640.7403723275,-80541.1853753175,-46312.3834550613,-80475.0052722976,-80463.1417678952,-80504.9743095725,-2418.3662466502
5494227342,6165,-2,0,-6718.0044344891,-80233.2088010320,-35945.1650664036,-12640.5700245720,-80541.5869093127,-46185.2310232615,-80474.9200984198,-80462.1561844525,-80503.2464966236,-2417.6726879313
5494227342,6165,-2,0,-6717.0310187433,-80231.9190251688,-35965.4972877948,-12640.3266706355,-80539.0073575862,-46005.7574951231,-80472.8515899599,-80461.0002532543,-80502.6624471761,-2416.9547938187
5494227342,6165,-2,0,-6717.4568881321,-80232.3692299513,-35975.4991345832,-12640.5700245720,-80537.9487679626,-46012.8147592804,-80473.0219377154,-80461.3531164622,-80502.5407702079,-2417.0156323028
5494227342,6165,-2,0,-6717.3352111638,-80231.8946897752,-35962.5405374668,-12640.8863846894,-80538.9465191021,-46191.0715177365,-80473.2531239550,-80461.5234642177,-80503.4776828632,-2417.3198247234
5494258554,6166,-2,0,-6717.1405280147,-80232.5760807973,-35941.7216082027,-12640.7282046307,-80540.6621643541,-46301.8462296126,-80472.9732669281,-80461.4139549463,-80503.3681735918,-2417.4415016916
5494258554,6166,-2,0,-6717.5785651003,-80232.1258760148,-35941.5147573568,-12640.7282046307,-80540.6986674446,-46198.1531172875,-80473.7276641311,-80461.7059796701,-80503.5871921346,-2417.3441601171
5494258554,6166,-2,0,-6718.6736578144,-80232.1867144989,-35961.9443203225,-12641.5677757115,-80539.8590963638,-46013.9098519945,-80473.9345149771,-80462.1318490589,-80504.1712415821,-2417.9525449582
5494258554,6166,-2,0,-6717.8462544304,-80233.4156518780,-35974.1971910232,-12641.4704341369,-80538.1191157181,-45989.5622906518,-80474.5550675151,-80462.1196813620,-80503.2343289268,-2418.1837311978
5494258554,6166,-2,0,-6718.3451300001,-80233.5494965431,-35963.3801085476,-12641.6286141956,-80540.0172764225,-46156.5639295467,-80474.4455582437,-80462.0953459684,-80504.1104030980,-2417.4536693885
5494258554,6166,-2,0,-6717.0918572274,-80232.7099254623,-35941.3322419044,-12640.8498815989,-80540.8568475033,-46291.1751594989,-80473.2044531678,-80462.1561844525,-80503.1734904427,-2417.8917064741
5494258554,6166,-2,0,-6717.4690558289,-80231.9555282593,-35937.2803988624,-12640.9715585672,-80540.3336365399,-46209.2743921837,-80473.0827761995,-80460.7082285306,-80502.1514039095,-2417.0643030901
5494258554,6166,-2,0,-6716.5929816576,-80231.2132987531,-35956.3836828744,-12639.6331119166,-80538.4476435324,-46018.6430860586,-80472.6447391139,-80460.3310299291,-80501.6281929461,-2416.6506013982
5494291040,6167,-2,0,-6717.2622049829,-80231.0064479071,-35972.7735704949,-12640.7403723275,-80537.1456999723,-45973.8659617502,-80472.5717329330,-80461.1462656162,-80502.2852485746,-2417.5753463567
5494291040,6167,-2,0,-6717.3838819511,-80231.5174911737,-35963.5382886063,-12639.9129689436,-80538.0947803245,-46127.9211712255,-80472.8394222631,-80461.4017872495,-80502.3217516650,-2416.4559182490
5494291040,6167,-2,0,-6717.4812235257,-80231.8338512911,-35942.8653717041,-12640.5091860879,-80540.7108351414,-46278.0462146269,-80473.4599748010,-80460.7812347115,-80503.3073351077,-2417.4049986012
5494291040,6167,-2,0,-6717.3960496479,-80231.7365097165,-35937.0735480164,-12640.6795338434,-80541.8180955523,-46226.7472048214,-80473.2896270455,-80462.1561844525,-80502.9909749903,-2418.1350604106
5494291040,6167,-2,0,-6718.5276454525,-80232.5882484941,-35956.2133351189,-12641.4339310464,-80540.1997918749,-46037.0649790486,-80474.3238812755,-80461.6451411860,-80502.6989502666,-2418.1228927137
5494291040,6167,-2,0,-6718.0044344891,-80232.1380437116,-35973.5279676979,-12640.8012108116,-80537.9487679626,-45960.6883460910,-80474.0683596422,-80461.9980043938,-80503.5506890442,-2417.1859800584
5494291040,6167,-2,0,-6716.9458448655,-80231.6026650514,-35967.8334855848,-12640.2171613641,-80539.0560283735,-46096.6380226937,-80473.0219377154,-80461.2192717971,-80503.2221612299,-2416.2855704935
5494291040,6167,-2,0,-6716.8363355941,-80232.0893729243,-35947.1240655921,-12640.0346459118,-80540.7960090192,-46266.3895610705,-80473.5329809820,-80462.8497431714,-80503.7088691029,-2416.9182907283
5494360829,6168,-2,0,-6717.1891988020,-80232.4665715258,-35938.4363300606,-12640.2658321514,-80542.6211635426,-46239.3042679427,-80474.2143720041,-80462.1561844525,-80503.5993598315,-2418.4270851343
5494360829,6168,-2,0,-6717.4812235257,-80232.4665715258,-35953.9014727225,-12640.4848506942,-80540.8325121097,-46051.6783829329,-80475.5163155641,-80462.6307246286,-80504.0130615234,-2417.3563278139
5494360829,6168,-2,0,-6717.9557637018,-80233.4034841812,-35972.5545519521,-12641.4217633496,-80538.2529603832,-45950.5648223343,-80473.9466826740,-80461.9980043938,-80504.0982354012,-2417.6605202345
5494360829,6168,-2,0,-6717.5785651003,-80231.6878389292,-35967.9429948562,-12641.0445647481,-80537.7784202071,-46062.9943409782,-80473.6546579502,-80462.6550600223,-80503.4411797728,-2416.4559182490
5494360829,6168,-2,0,-6717.2743726797,-80231.9068574720,-35945.9437990003,-12641.3730925623,-80540.1146179971,-46238.9027339475,-80473.7276641311,-80461.8763274256,-80503.0518134744,-2417.6605202345
5494360829,6168,-2,0,-6717.3352111638,-80232.0528698339,-35933.1920527299,-12640.6673661466,-80542.1466233665,-46244.4390360020,-80473.6181548597,-80462.4847122667,-80504.0008938266,-2418.1593958042
5494360829,6168,-2,0,-6717.8827575209,-80233.3669810907,-35947.3309164381,-12641.4826018337,-80541.9032694301,-46068.1534444312,-80475.4554770800,-80462.6550600223,-80505.3393404771,-2418.0742219264
5494360829,6168,-2,0,-6716.9215094718,-80232.1015406212,-35966.2760203914,-12640.1076520927,-80538.8005067402,-45941.2930373552,-80474.5185644246,-80462.4968799636,-80504.3902601250,-2416.2977381903
5494369491,6169,-2,0,-6716.4956400830,-80232.5760807973,-35967.7361440102,-12640.5213537847,-80538.4598112292,-46034.0230548428,-80473.8615087962,-80462.1926875430,-80503.5506890442,-2416.2855704935
5494369491,6169,-2,0,-6717.4447204352,-80232.2718883767,-35948.1461521253,-12640.5213537847,-80540.6743320510,-46221.5272628844,-80474.6037383024,-80461.4869611273,-80503.3681735918,-2417.1981477552
5494369491,6169,-2,0,-6717.7245774622,-80230.9456094230,-35933.8004375710,-12640.9472231735,-80540.7351705351,-46249.2452762470,-80472.3770497838,-80460.9394147702,-80502.7232856602,-2417.8673710805
5494369491,6169,-2,0,-6717.2865403765,-80231.3471434181,-35943.9239613277,-12641.2879186845,-80540.2362949653,-46083.2778915821,-80472.8394222631,-80461.8276566383,-80502.6746148729,-2418.6826067676
5494369491,6169,-2,0,-6718.0774406700,-80231.4931557800,-35964.5238720489,-12641.6407818924,-80538.4598112292,-45941.4755528075,-80474.1291981263,-80461.5477996114,-80502.6259440856,-2417.8308679900
5494369491,6169,-2,0,-6716.3739631148,-80231.1402925721,-35967.6874732229,-12639.9494720340,-80537.0483583977,-46007.1081094705,-80473.0706085027,-80460.6352223497,-80501.8228760953,-2416.0665519507
5494369491,6169,-2,0,-6716.7268263227,-80232.0772052275,-35949.3994248980,-12640.7282046307,-80539.5184008528,-46194.5149759374,-80474.4942290310,-80461.2679425844,-80503.5750244378,-2416.6140983077
5494369491,6169,-2,0,-6717.5663974035,-80231.7851805038,-35932.9852018839,-12640.8620492957,-80541.4408969508,-46255.6576524727,-80473.9953534612,-80461.8519920320,-80504.3902601250,-2417.7091910218
5494403492,6170,-2,0,-6717.4568881321,-80232.2718883767,-35940.8090309410,-12640.9350554767,-80541.1975430144,-46105.7029568268,-80474.6889121802,-80461.5477996114,-80502.8571303253,-2417.6726879313
5494403492,6170,-2,0,-6717.1405280147,-80231.7486774133,-35961.6522955987,-12640.7160369339,-80538.5449851070,-45942.7896640644,-80473.2531239550,-80460.8055701052,-80502.9058011126,-2416.9426261219
5494403492,6170,-2,0,-6718.2234530319,-80231.6635035355,-35969.1354291448,-12641.6042788019,-80537.4742277865,-45981.0083997853,-80473.9710180676,-80461.2192717971,-80502.5529379047,-2417.4293339948
5494403492,6170,-2,0,-6717.9800990954,-80230.8482678484,-35953.5364418178,-12640.2536644546,-80538.4963143197,-46168.6099494014,-80473.0462731091,-80460.8664085893,-80502.5894409952,-2418.1107250169
5494403492,6170,-2,0,-6717.3108757702,-80231.6391681419,-35935.7472690627,-12641.1297386259,-80540.8446798065,-46252.1046850004,-80474.1778689136,-80461.8154889415,-80503.7332044965,-2418.6339359803
5494403492,6170,-2,0,-6717.2622049829,-80230.4223984596,-35939.5070873810,-12640.0468136086,-80540.2484626622,-46122.0076705695,-80472.7055775980,-80460.6230546528,-80502.1392362127,-2417.6605202345
5494403492,6170,-2,0,-6717.4203850416,-80231.7851805038,-35961.6036248114,-12640.5821922688,-80538.2772957768,-45953.0957032734,-80473.1679500773,-80461.6329734891,-80503.3560058950,-2417.5023401758
5494403492,6170,-2,0,-6717.7245774622,-80232.4179007386,-35972.6762289203,-12641.1297386259,-80538.1677865054,-45964.9835430695,-80473.6546579502,-80461.0854271321,-80502.8814657189,-2416.9061230314
5494413507,6171,-2,0,-6717.1891988020,-80232.4665715258,-35958.3670174565,-12641.2270802004,-80539.1046991608,-46143.4106492811,-80474.4333905469,-80461.6086380955,-80503.3803412886,-2417.8308679900
5494413507,6171,-2,0,-6718.8196701762,-80233.3548133939,-35940.2128137967,-12642.1883282494,-80542.2074618507,-46255.1709445998,-80473.8493410994,-80462.5090476604,-80504.9864772693,-2418.1472281074
5494413507,6171,-2,0,-6716.6781555354,-80231.9676959561,-35940.1033045253,-12640.6917015402,-80541.5625739190,-46144.9802821712,-80473.1922854709,-80461.5112965209,-80503.2586643204,-2417.3198247234
5494413507,6171,-2,0,-6716.9215094718,-80232.0163667434,-35960.8248922148,-12640.6551984498,-80539.9686056352,-45959.8609427070,-80474.1048627327,-80461.6694765796,-80502.4677640269,-2416.6019306109
5494413507,6171,-2,0,-6718.1382791541,-80233.7563473891,-35973.7956570280,-12640.4970183911,-80539.2020407354,-45945.4422219718,-80475.3703032022,-80463.0687617142,-80505.2054958121,-2417.0034646060
5494413507,6171,-2,0,-6717.3108757702,-80234.0362044160,-35962.4066928017,-12641.1054032322,-80540.1146179971,-46116.8850702071,-80475.0174399944,-80463.5067987999,-80505.5826944136,-2418.2445696820
5494413507,6171,-2,0,-6718.1626145478,-80233.0262855797,-35940.4683354300,-12640.9715585672,-80541.9519402174,-46244.9379115717,-80475.0782784785,-80463.3607864380,-80505.7408744723,-2418.0498865328
5494413507,6171,-2,0,-6716.9336771687,-80232.4300684354,-35937.7671067353,-12641.1175709290,-80542.4508157871,-46159.9587169603,-80475.0661107817,-80462.6550600223,-80503.9887261298,-2417.6848556281
5494463521,6172,-2,0,-6716.8850063814,-80231.8460189879,-35956.1646643316,-12640.5700245720,-80539.7130840020,-45973.2454092122,-80473.1436146836,-80461.2801102813,-80502.7719564475,-2416.7357752759
5494463521,6172,-2,0,-6716.2401184498,-80230.8361001516,-35970.1940187684,-12639.5357703420,-80537.5350662706,-45928.0302478182,-80472.0606896664,-80460.0511729022,-80502.2730808778,-2416.4437505522
5494463521,6172,-2,0,-6717.3838819511,-80230.9456094230,-35962.2485127430,-12640.3510060292,-80538.4598112292,-46085.5410831912,-80473.4478071042,-80461.8276566383,-80503.3925089855,-2416.6749367918
5494463521,6172,-2,0,-6717.7610805526,-80231.5783296578,-35942.0744714106,-12640.4240122101,-80541.2462138016,-46236.2015052528,-80473.2166208646,-80461.4869611273,-80504.2199123694,-2418.0620542296
5494463521,6172,-2,0,-6717.5298943130,-80232.5639131004,-35936.7328525053,-12641.1784094131,-80542.4751511808,-46176.3242691871,-80474.4942290310,-80462.3508676017,-80502.8449626284,-2417.5023401758
5494463521,6172,-2,0,-6716.6659878386,-80231.1159571785,-35952.8793861894,-12640.5943599656,-80539.9929410289,-45983.4419391499,-80473.2287885614,-80461.3044456749,-80503.0031426871,-2417.1129738774
5494463521,6172,-2,0,-6715.9237583324,-80231.1037894817,-35968.2228518831,-12639.6574473103,-80537.1091968819,-45914.2199119241,-80473.2044531678,-80460.3797007164,-80503.4168443791,-2415.7501918333
5494463521,6172,-2,0,-6716.6781555354,-80231.4566526895,-35962.4675312859,-12640.4726829974,-80539.2507115227,-46055.8640706400,-80473.9831857644,-80461.7181473669,-80502.6989502666,-2417.3563278139
5494485120,6173,-2,0,-6717.4690558289,-80232.2232175894,-35941.2714034203,-12640.4726829974,-80540.5161519923,-46219.9576299942,-80474.0561919454,-80462.3143645112,-80503.5263536505,-2417.5145078726
5494485120,6173,-2,0,-6717.0675218337,-80232.1015406212,-35933.0095372775,-12641.1297386259,-80542.2683003348,-46190.2076112621,-80474.8714276325,-80461.2436071908,-80503.0274780808,-2417.9282095646
5494485120,6173,-2,0,-6716.7633294132,-80231.2254664499,-35948.0244751570,-12639.9251366404,-80538.6666620752,-46002.9710925507,-80473.0097700186,-80460.7203962274,-80503.0153103840,-2416.1273904348
5494485120,6173,-2,0,-6717.5298943130,-80231.2011310563,-35966.8844052326,-12641.1662417163,-80537.9731033563,-45905.7025241481,-80473.6059871629,-80462.1440167557,-80503.5385213473,-2417.2954893298
5494485120,6173,-2,0,-6718.0409375796,-80232.5274100100,-35965.0835861028,-12641.3852602591,-80539.1655376449,-46026.4669151158,-80474.4090551532,-80463.5676372840,-80505.0473157534,-2417.7335264154
5494485120,6173,-2,0,-6717.2257018924,-80231.4444849927,-35942.8897070977,-12640.1684905768,-80540.9541890779,-46204.3221395767,-80474.7984214516,-80462.1196813620,-80503.2951674109,-2417.3441601171
5494485120,6173,-2,0,-6716.6659878386,-80232.1015406212,-35932.1943015904,-12640.6430307529,-80542.8888528727,-46202.1806249359,-80474.1291981263,-80462.4603768731,-80503.9765584330,-2418.1593958042
5494485120,6173,-2,0,-6716.6051493545,-80231.6878389292,-35945.1650664036,-12640.5943599656,-80539.9199348479,-46022.0622088659,-80474.4698936373,-80462.1075136652,-80503.0153103840,-2416.3829120681
5494523466,6174,-2,0,-6716.7024909290,-80231.7365097165,-35964.9375737409,-12640.3388383324,-80537.8270909944,-45907.0044677081,-80472.5473975393,-80461.1706010099,-80503.1126519585,-2416.8209491537
5494523466,6174,-2,0,-6718.4181361811,-80232.6977577655,-35967.6874732229,-12642.7480423033,-80538.5814881974,-46006.7917493531,-80473.5208132852,-80462.5333830540,-80504.2685831567,-2418.4879236184
5494523466,6174,-2,0,-6717.3595465575,-80231.5904973546,-35947.7811212206,-12641.1175709290,-80540.3944750240,-46186.6911468803,-80473.8980118867,-80462.0466751811,-80503.1613227458,-2417.7091910218
5494523466,6174,-2,0,-6716.7998325036,-80230.4710692469,-35933.1433819426,-12639.7669565817,-80541.2218784080,-46212.1216332402,-80472.8759253535,-80461.8641597288,-80503.0518134744,-2416.6992721854
5494523466,6174,-2,0,-6716.9701802591,-80231.1159571785,-35944.2281537483,-12640.1319874864,-80541.3435553762,-46046.1664162721,-80473.7519995248,-80462.2656937239,-80503.3073351077,-2417.2954893298
5494523466,6174,-2,0,-6717.0066833496,-80231.7121743228,-35964.8158967727,-12640.0954843959,-80538.6666620752,-45903.6218479914,-80473.1801177741,-80461.6451411860,-80503.8792168584,-2416.6506013982
5494523466,6174,-2,0,-6717.1891988020,-80230.6900877897,-35966.6775543866,-12640.8012108116,-80538.4354758355,-45974.7055328310,-80474.0075211581,-80461.4017872495,-80502.5407702079,-2417.2224831488
5494523466,6174,-2,0,-6717.1891988020,-80231.2011310563,-35947.0510594112,-12640.9837262640,-80539.4453946718,-46164.5459386625,-80473.5329809820,-80462.1196813620,-80503.6723660124,-2418.2567373788
5494574071,6175,-2,0,-6717.4568881321,-80231.0551186944,-35930.6490040939,-12641.2879186845,-80541.2218784080,-46216.5141717933,-80473.3504655296,-80462.0345074843,-80503.6115275283,-2417.7943648995
5494574071,6175,-2,0,-6717.6272358876,-80231.7973482006,-35937.7792744321,-12640.9958939608,-80541.5017354349,-46063.6513966067,-80473.6668256470,-80462.4603768731,-80503.1978258363,-2418.1715635010
5494574071,6175,-2,0,-6717.0796895305,-80230.7144231833,-35958.4765267279,-12640.5091860879,-80539.2263761290,-45906.5055921384,-80472.9854346249,-80461.0854271321,-80502.7354533570,-2416.7236075791
5494574071,6175,-2,0,-6716.5078077799,-80230.8117647579,-35963.3801085476,-12639.7426211880,-80536.1236134392,-45948.1799537570,-80472.9002607472,-80460.8299054988,-80501.8715468826,-2416.6992721854
5494574071,6175,-2,0,-6718.2599561224,-80230.8969386357,-35946.5035130542,-12640.9350554767,-80538.9586867989,-46131.4741386978,-80473.1436146836,-80460.9029116798,-80501.8837145794,-2417.7456941122
5494574071,6175,-2,0,-6716.9093417750,-80229.7531751343,-35926.9256888661,-12640.0954843959,-80540.1389533907,-46209.8949447216,-80471.9268450013,-80459.8321543593,-80501.2144912542,-2417.2346508457
5494574071,6175,-2,0,-6716.9701802591,-80230.5927462151,-35930.9410288176,-12640.3510060292,-80540.0051087257,-46074.5536529600,-80472.8150868694,-80460.9150793766,-80502.3339193619,-2418.1715635010
5494574071,6175,-2,0,-6717.8705898240,-80231.1524602690,-35951.4922687516,-12641.6894526797,-80537.6324078452,-45903.0621339375,-80473.0706085027,-80460.6473900465,-80503.6967014061,-2417.7213587186
5494580440,6176,-2,0,-6718.1869499414,-80230.4832369437,-35960.4355259164,-12640.6430307529,-80536.0749426519,-45925.0734974902,-80472.8880930504,-80460.7934024084,-80502.1757393032,-2416.6627690950
5494580440,6176,-2,0,-6718.3694653938,-80230.2033799168,-35946.8928793525,-12641.3730925623,-80538.8370098307,-46113.1982580697,-80472.7542483853,-80460.4405392005,-80503.1491550490,-2417.6970233249
5494580440,6176,-2,0,-6716.6051493545,-80230.7874293643,-35927.9356077024,-12640.6673661466,-80539.2993823100,-46216.3924948251,-80471.7321618522,-80460.1728498704,-80500.9346342272,-2416.6262660045
5494580440,6176,-2,0,-6717.1891988020,-80231.1889633594,-35929.8337684067,-12641.1297386259,-80540.9541890779,-46104.0481500589,-80473.7033287375,-80461.4017872495,-80502.5164348142,-2417.4171662980
5494580440,6176,-2,0,-6717.3473788607,-80231.9068574720,-35951.5774426293,-12640.2293290610,-80539.2507115227,-45923.3821876318,-80472.8394222631,-80461.4504580368,-80503.0761488681,-2417.1981477552
5494580440,6176,-2,0,-6717.1040249242,-80231.4201495991,-35963.1124192175,-12640.4483476038,-80536.7563336740,-45911.3726708676,-80472.9854346249,-80460.9029116798,-80502.3704224523,-2417.0399676965
5494580440,6176,-2,0,-6718.3694653938,-80231.5053234768,-35950.2876667661,-12640.8133785085,-80538.7883390434,-46083.3874008535,-80473.0097700186,-80461.4504580368,-80502.2122423937,-2418.3175758629
5494580440,6176,-2,0,-6717.6029004939,-80230.1668768263,-35929.6025821671,-12640.6795338434,-80538.9830221926,-46212.8638627464,-80472.0850250600,-80460.1850175672,-80501.7377022175,-2417.7821972027
5494598572,6177,-2,0,-6717.8584221272,-80229.4854858042,-35928.7873464800,-12641.0567324449,-80540.3093011463,-46125.7674888878,-80472.1458635442,-80460.2093529609,-80501.9688884572,-2418.1593958042
5494598572,6177,-2,0,-6718.5033100588,-80230.8361001516,-35948.7545369664,-12642.1761605526,-80539.2628792195,-45938.8473302938,-80472.9854346249,-80460.9759178607,-80503.4290120759,-2418.4757559216
5494598572,6177,-2,0,-6717.5055589194,-80231.0916217849,-35962.7838914033,-12641.0689001417,-80537.0605260946,-45901.5290041378,-80472.8637576567,-80460.8177378020,-80502.6259440856,-2418.0863896233
5494598572,6177,-2,0,-6717.0553541369,-80231.4688203864,-35952.9523923703,-12640.6065276625,-80539.0073575862,-46061.4125403913,-80472.9245961408,-80461.6086380955,-80502.6137763888,-2416.8574522441
5494598572,6177,-2,0,-6717.9557637018,-80232.1988821957,-35932.3889847395,-12640.8377139021,-80540.7960090192,-46202.2779665105,-80473.3504655296,-80461.4747934304,-80502.8206272348,-2418.1107250169
5494598572,6177,-2,0,-6716.7146586259,-80230.7144231833,-35924.1757893841,-12640.0346459118,-80540.2849657526,-46135.5868202239,-80473.1922854709,-80460.4648745941,-80503.2221612299,-2417.2589862393
5494598572,6177,-2,0,-6717.2135341956,-80231.5053234768,-35942.6950239486,-12641.2149125036,-80539.6279101242,-45946.5373146859,-80473.4721424979,-80461.2314394940,-80502.4920994206,-2417.7456941122
5494598572,6177,-2,0,-6716.8850063814,-80230.1547091295,-35957.6004525567,-12640.4605153006,-80537.2917123342,-45879.7974976120,-80472.7542483853,-80461.5599673082,-80502.7962918412,-2417.3076570266
5494638662,6178,-2,0,-6718.2599561224,-80232.1137083180,-35950.4093437343,-12641.3730925623,-80539.0681960703,-46022.7192644943,-80473.4478071042,-80461.7059796701,-80503.7088691029,-2418.0377188360
5494638662,6178,-2,0,-6716.8850063814,-80231.5661619609,-35927.7652599468,-12640.7038692370,-80541.3678907699,-46183.8195704301,-80475.0174399944,-80462.6915631127,-80504.3780924281,-2416.6019306109
5494638662,6178,-2,0,-6716.3739631148,-80231.2498018436,-35918.6759904201,-12640.4848506942,-80542.3778096062,-46142.8387675304,-80472.9732669281,-80461.8154889415,-80503.9887261298,-2417.8795387773
5494638662,6178,-2,0,-6716.9215094718,-80230.8117647579,-35932.9121957029,-12640.1806582737,-80540.4309781145,-45950.0781144613,-80473.7763349184,-80461.7181473669,-80503.0639811712,-2417.4780047821
5494638662,6178,-2,0,-6718.2112853351,-80232.3083914671,-35949.7157850154,-12640.9350554767,-80538.9951898894,-45861.9839894632,-80474.6889121802,-80462.4360414795,-80503.5141859537,-2418.1837311978
5494638662,6178,-2,0,-6717.6150681908,-80231.3349757213,-35943.8874582372,-12641.2635832909,-80539.1533699481,-45985.8268077271,-80473.7033287375,-80461.6086380955,-80502.4920994206,-2417.5388432662
5494638662,6178,-2,0,-6717.2135341956,-80230.9699448166,-35921.4137222053,-12640.2536644546,-80540.5283196891,-46156.3570787007,-80474.2143720041,-80461.7059796701,-80502.9179688094,-2416.8939553346
5494638662,6178,-2,0,-6716.2401184498,-80231.4201495991,-35909.2825284728,-12640.8985523862,-80541.1123691366,-46145.7711824647,-80473.5451486788,-80461.2071041003,-80503.1004842617,-2417.4536693885
5494685117,6179,-2,0,-6716.6659878386,-80230.4589015501,-35922.4723118289,-12641.0323970513,-80540.1876241781,-45966.0543003899,-80472.4013851774,-80460.4527068973,-80502.7476210539,-2417.6605202345
5494685117,6179,-2,0,-6717.2987080734,-80230.5927462151,-35940.8698694251,-12640.5335214815,-80537.9000971753,-45850.7532052957,-80473.8371734025,-80460.5135453814,-80503.2221612299,-2417.7700295059
5494685117,6179,-2,0,-6717.9070929145,-80230.2155476136,-35939.2272303540,-12641.5434403178,-80537.5715693611,-45952.5481569164,-80473.2774593487,-80461.5234642177,-80503.5993598315,-2417.5388432662
5494685117,6179,-2,0,-6717.5907327971,-80229.8748521026,-35918.6029842392,-12641.0323970513,-80539.0195252830,-46137.7526702584,-80472.3162112997,-80460.6352223497,-80502.4677640269,-2417.4536693885
5494685117,6179,-2,0,-6717.9435960050,-80231.4079819022,-35906.0824242083,-12641.2392478973,-80540.2727980558,-46156.8437865736,-80472.8880930504,-80461.9736690002,-80503.2708320172,-2417.9890480487
5494685117,6179,-2,0,-6717.9557637018,-80231.4566526895,-35917.6052330997,-12640.5335214815,-80540.5891581732,-45985.4252737320,-80473.0949438963,-80461.2679425844,-80503.5628567410,-2418.1715635010
5494685117,6179,-2,0,-6716.7633294132,-80231.0429509976,-35937.8766160067,-12640.2171613641,-80537.9487679626,-45851.2642485622,-80472.7664160821,-80460.6838931369,-80502.0418946381,-2417.0886384838
5494685117,6179,-2,0,-6717.5420620098,-80229.9721936771,-35940.8455340315,-12640.1806582737,-80538.2164572927,-45930.4272840923,-80473.1679500773,-80460.8299054988,-80501.5795221588,-2416.5045890363
5494724883,6180,-2,0,-6717.2257018924,-80230.1182060390,-35921.3893868116,-12640.1076520927,-80538.5814881974,-46116.2280145786,-80472.5839006298,-80460.1363467799,-80500.5696033226,-2417.2224831488
5494724883,6180,-2,0,-6717.5177266162,-80230.4710692469,-35907.1410138319,-12641.4947695305,-80540.7716736256,-46167.0159811176,-80473.5694840724,-80461.7424827605,-80503.6358629219,-2418.1350604106
5494724883,6180,-2,0,-6717.0675218337,-80231.7121743228,-35916.0477679063,-12640.5821922688,-80541.7450893714,-46012.3402191043,-80473.6911610407,-80462.5577184477,-80503.4655151664,-2418.2445696820
5494724883,6180,-2,0,-6717.7245774622,-80230.8726032420,-35938.0712991559,-12640.8012108116,-80538.8735129212,-45859.0272391353,-80473.9466826740,-80462.1075136652,-80503.6601983156,-2417.9160418677
5494724883,6180,-2,0,-6717.9314283082,-80231.4079819022,-35943.8022843595,-12641.4217633496,-80538.2286249896,-45910.8494599042,-80474.7984214516,-80462.4360414795,-80503.7818752838,-2416.1273904348
5494724883,6180,-2,0,-6717.4568881321,-80231.3958142054,-35927.4123967390,-12640.2171613641,-80540.1754564812,-46102.3568402005,-80474.4577259405,-80461.9493336065,-80503.9643907361,-2417.0277999997
5494724883,6180,-2,0,-6718.1382791541,-80232.2110498926,-35910.6331428201,-12641.2879186845,-80543.0105298410,-46176.4459461554,-80475.0174399944,-80463.2756125602,-80504.6457817582,-2417.8187002932
5494724883,6180,-2,0,-6716.8485032909,-80231.8460189879,-35916.0477679063,-12641.2027448068,-80541.7572570682,-46036.6269419629,-80475.1026138721,-80463.1052648047,-80504.6944525455,-2417.2103154520
5494763618,6181,-2,0,-6717.1040249242,-80231.8581866847,-35938.7770255716,-12641.4704341369,-80540.6621643541,-45871.6938115280,-80474.5428998183,-80461.2436071908,-80503.7697075870,-2416.6871044886
5494763618,6181,-2,0,-6716.8485032909,-80230.9699448166,-35947.1605686826,-12640.2414967578,-80538.8491775275,-45894.4474045869,-80473.3382978328,-80461.3044456749,-80502.7841241443,-2416.3829120681
5494763618,6181,-2,0,-6716.8606709877,-80230.4832369437,-35931.6345875365,-12640.4483476038,-80537.8027556008,-46073.0935293413,-80472.5717329330,-80460.4040361100,-80502.1757393032,-2418.1837311978
5494763618,6181,-2,0,-6718.0896083669,-80230.9577771198,-35913.5412223608,-12641.0323970513,-80541.0636983493,-46170.3864331375,-80473.3748009233,-80461.2801102813,-80502.2244100905,-2418.2445696820
5494763618,6181,-2,0,-6717.6637389780,-80231.5661619609,-35916.3397926301,-12641.1662417163,-80541.0758660461,-46051.6540475393,-80473.8006703121,-80461.5964703987,-80502.9301365062,-2418.2324019851
5494763618,6181,-2,0,-6717.0066833496,-80232.0528698339,-35938.2051438209,-12640.5700245720,-80539.4332269750,-45873.7379845942,-80474.3603843659,-80462.0345074843,-80504.0617323107,-2417.4293339948
5494763618,6181,-2,0,-6716.9336771687,-80231.5783296578,-35950.0564805265,-12639.6331119166,-80538.7031651656,-45876.7799087999,-80473.2896270455,-80461.1462656162,-80504.2807508535,-2416.5775952172
5494763618,6181,-2,0,-6717.2257018924,-80232.2110498926,-35939.5314227746,-12641.3487571687,-80540.3579719336,-46062.4102915307,-80474.9809369039,-80463.2147740761,-80504.0130615234,-2418.1350604106
5494768557,6182,-2,0,-6716.1792799656,-80231.6148327482,-35919.6250707723,-12640.7160369339,-80541.4287292540,-46187.3725379024,-80474.0561919454,-80462.1075136652,-80503.7332044965,-2417.8065325963
5494768557,6182,-2,0,-6717.1770311051,-80231.7730128069,-35919.2235367771,-12640.5821922688,-80541.8789340364,-46093.2432352801,-80474.0805273390,-80462.7645692937,-80504.1347384917,-2417.6605202345
5494768557,6182,-2,0,-6718.3329623033,-80233.4521549685,-35940.9428756061,-12641.6042788019,-80541.4895677381,-45908.1482312095,-80475.2364585372,-80462.6550600223,-80504.4024278218,-2417.7700295059
5494768557,6182,-2,0,-6717.4933912225,-80232.6612546750,-35955.6414533682,-12640.7768754180,-80539.1412022513,-45874.5167171909,-80475.3338001118,-80462.5577184477,-80504.4876016995,-2416.9182907283
5494768557,6182,-2,0,-6718.3086269097,-80232.2718883767,-35945.7004450638,-12641.2635832909,-80541.0393629556,-46035.9820540313,-80474.0561919454,-80463.5189664967,-80504.8161295138,-2417.9160418677
5494768557,6182,-2,0,-6718.1626145478,-80231.8216835942,-35924.9180188903,-12640.2536644546,-80541.5260708286,-46177.7965605027,-80474.9566015103,-80463.1296001984,-80504.8769679979,-2417.7943648995
5494768557,6182,-2,0,-6717.6029004939,-80231.8095158974,-35920.4889772467,-12640.7403723275,-80542.6454989363,-46109.8399737466,-80473.6424902534,-80461.1462656162,-80503.9157199489,-2418.0985573201
5494768557,6182,-2,0,-6717.4447204352,-80232.0285344402,-35939.8964536793,-12641.0323970513,-80541.2340461048,-45916.7994636506,-80474.5185644246,-80463.2512771666,-80503.7575398902,-2418.0133834423
5494803490,6183,-2,0,-6716.7511617163,-80230.6414170024,-35954.7167084097,-12639.9008012467,-80538.2286249896,-45854.6712036727,-80473.0949438963,-80462.4968799636,-80503.8427137679,-2416.6262660045
5494803490,6183,-2,0,-6717.6759066749,-80231.9311928656,-35948.8275431473,-12640.6795338434,-80538.8735129212,-46001.2067765113,-80474.0561919454,-80461.3287810686,-80503.2221612299,-2417.1129738774
5494803490,6183,-2,0,-6717.5785651003,-80231.5296588705,-35925.3073851886,-12640.4848506942,-80541.1367045302,-46154.2520671503,-80473.9223472803,-80462.5090476604,-80503.5263536505,-2417.0764707870
5494803490,6183,-2,0,-6717.7732482495,-80231.9190251688,-35919.2235367771,-12641.5677757115,-80542.0979525792,-46111.6772959668,-80474.9809369039,-80462.4238737826,-80504.7674587265,-2417.9038741709
5494803490,6183,-2,0,-6717.6272358876,-80231.9433605625,-35936.2096415420,-12641.4217633496,-80541.7572570682,-45928.2370986642,-80475.1269492658,-80463.0322586238,-80504.3659247313,-2418.3662466502
5494803490,6183,-2,0,-6715.8750875451,-80231.5661619609,-35954.5828637446,-12640.0954843959,-80538.8735129212,-45844.7423630651,-80473.8371734025,-80461.4991288241,-80503.3073351077,-2416.6506013982
5494803490,6183,-2,0,-6717.7489128558,-80231.7730128069,-35950.7987100327,-12640.6065276625,-80538.4598112292,-45974.4621788945,-80475.0417753880,-80463.0200909269,-80503.6115275283,-2417.7213587186
5494803490,6183,-2,0,-6717.0796895305,-80232.0163667434,-35930.1987993114,-12640.8012108116,-80540.7473382319,-46147.5476662009,-80474.8470922389,-80462.8740785651,-80503.6601983156,-2418.1350604106
5494826919,6184,-2,0,-6717.9679313986,-80231.6756712324,-35921.4258899021,-12640.9107200830,-80543.5580761980,-46134.2483735734,-80474.8227568452,-80463.0444263206,-80504.4632663059,-2418.2689050756
5494826919,6184,-2,0,-6716.6659878386,-80232.0772052275,-35934.7616856200,-12640.3631737260,-80542.5724927553,-45948.5814877521,-80473.8858441898,-80463.1539355920,-80503.4411797728,-2416.7357752759
5494826919,6184,-2,0,-6716.4834723862,-80230.8969386357,-35954.3273421113,-12640.4361799069,-80539.2993823100,-45839.7536073677,-80473.8615087962,-80461.7789858510,-80503.4046766823,-2416.9304584251
5494826919,6184,-2,0,-6716.9215094718,-80231.2132987531,-35953.9988142971,-12640.2171613641,-80538.7396682561,-45946.9631840747,-80473.5816517693,-80462.2535260271,-80503.3438381982,-2417.8917064741
5494826919,6184,-2,0,-6716.9458448655,-80230.3615599755,-35933.0460403680,-12640.9107200830,-80539.5427362464,-46125.0739301689,-80473.4234717106,-80460.6108869560,-80502.2487454841,-2417.2103154520
5494826919,6184,-2,0,-6718.0652729732,-80229.7896782248,-35920.5254803372,-12640.3145029387,-80540.7473382319,-46136.4263913047,-80473.1071115932,-80460.5257130782,-80502.5042671174,-2418.0742219264
5494826919,6184,-2,0,-6717.1283603178,-80231.0551186944,-35932.9852018839,-12640.6186953593,-80540.5039842954,-45966.2611512359,-80473.8615087962,-80460.4648745941,-80502.6867825697,-2418.2080665915
5494826919,6184,-2,0,-6717.1040249242,-80229.5706596820,-35953.8893050257,-12640.1684905768,-80538.2286249896,-45835.5800873575,-80473.3626332265,-80460.5987192592,-80502.6259440856,-2416.7357752759
5494850195,6185,-2,0,-6716.9945156528,-80230.9091063325,-35955.7387949428,-12640.8133785085,-80538.2894634737,-45919.4398538612,-80473.2531239550,-80461.5112965209,-80503.2221612299,-2417.8430356868
5494850195,6185,-2,0,-6718.7344962985,-80231.3593111150,-35936.6598463244,-12641.4826018337,-80540.6621643541,-46106.9440619027,-80474.4577259405,-80462.8984139587,-80504.3902601250,-2418.0498865328
5494850195,6185,-2,0,-6717.5420620098,-80230.8969386357,-35921.9734362591,-12640.3753414228,-80542.2561326380,-46143.1794630414,-80474.1778689136,-80462.4968799636,-80503.2951674109,-2418.1228927137
5494850195,6185,-2,0,-6717.4447204352,-80230.0695352517,-35930.1744639178,-12641.1297386259,-80541.4408969508,-45978.4288480588,-80474.0196888549,-80462.4847122667,-80504.0373969171,-2418.2567373788
5494850195,6185,-2,0,-6716.9093417750,-80229.7410074375,-35949.8009588932,-12640.2293290610,-80536.9753522168,-45826.3691408625,-80471.4036340380,-80460.7082285306,-80501.8715468826,-2416.7966137600
5494850195,6185,-2,0,-6717.1161926210,-80228.5485731489,-35954.0353173876,-12641.0080616576,-80536.6833274930,-45881.3549628054,-80472.5595652361,-80459.5888004229,-80501.5065159779,-2417.1008061806
5494850195,6185,-2,0,-6717.4568881321,-80229.6801689534,-35934.8955302851,-12640.5335214815,-80538.2286249896,-46065.5373896142,-80472.7542483853,-80460.6352223497,-80503.2343289268,-2417.4293339948
5494850195,6185,-2,0,-6717.5420620098,-80229.6558335598,-35916.3519603269,-12640.7525400243,-80541.7815924618,-46131.4254679105,-80472.6569068107,-80461.9493336065,-80502.5894409952,-2418.0985573201
5494882243,6186,-2,0,-6716.4226339021,-80228.9014363567,-35922.5088149193,-12640.4240122101,-80540.3579719336,-45989.5866260454,-80472.9854346249,-80460.3188622323,-80502.2974162714,-2417.1859800584
5494882243,6186,-2,0,-6716.8850063814,-80229.7288397407,-35944.4958430784,-12639.7304534912,-80538.9708544958,-45823.6070736837,-80473.6789933438,-80460.8907439829,-80502.9423042030,-2417.2468185425
5494882243,6186,-2,0,-6717.7975836431,-80230.5684108215,-35951.9668089277,-12640.7282046307,-80536.4399735566,-45850.2178266355,-80472.6812422044,-80460.8664085893,-80501.6160252493,-2417.0156323028
5494882243,6186,-2,0,-6717.9192606113,-80230.2763860977,-35936.5016662657,-12642.2613344304,-80538.5206497133,-46035.3615014933,-80474.0561919454,-80461.3774518558,-80503.4776828632,-2417.8552033836
5494882243,6186,-2,0,-6718.0044344891,-80229.8505167089,-35916.6926558380,-12642.0058127971,-80540.9298536843,-46125.7431534942,-80473.3991363169,-80461.8398243351,-80503.2464966236,-2417.7821972027
5494882243,6186,-2,0,-6717.3108757702,-80229.9113551930,-35919.1383628994,-12640.7768754180,-80540.8811828970,-45999.6249759244,-80472.7542483853,-80460.9394147702,-80503.5020182569,-2417.8308679900
5494882243,6186,-2,0,-6717.4568881321,-80230.8117647579,-35939.5070873810,-12641.3122540782,-80538.9586867989,-45824.7143340946,-80473.6424902534,-80461.7424827605,-80503.2464966236,-2417.1738123615
5494882243,6186,-2,0,-6717.0553541369,-80231.4688203864,-35950.8108777295,-12639.9616397308,-80538.4719789260,-45828.2429661732,-80474.5428998183,-80462.0223397875,-80503.5993598315,-2417.3198247234
5494931045,6187,-2,0,-6717.3473788607,-80230.2277153104,-35935.6134243976,-12640.2049936673,-80539.0195252830,-46005.0396010106,-80473.8858441898,-80461.5112965209,-80503.6845337092,-2417.0034646060
5494931045,6187,-2,0,-6717.6880743717,-80231.2741372372,-35917.1306929236,-12642.1274897653,-80542.0127787015,-46124.1248498167,-80474.7254152706,-80462.5577184477,-80504.9013033915,-2418.7921160390
5494931045,6187,-2,0,-6717.5663974035,-80228.5364054520,-35915.5732277302,-12640.5821922688,-80540.4188104177,-46021.1131285137,-80472.4135528743,-80460.4770422909,-80501.7863730048,-2417.5266755694
5494931045,6187,-2,0,-6717.8949252177,-80229.0839518091,-35935.7959398500,-12641.2879186845,-80538.3016311705,-45833.1952187802,-80473.3261301360,-80460.8177378020,-80502.9544718999,-2417.9282095646
5494931045,6187,-2,0,-6717.7975836431,-80229.7896782248,-35949.3385864139,-12641.0689001417,-80537.4255569992,-45808.1175956281,-80473.5573163756,-80461.9249982129,-80503.9643907361,-2418.1593958042
5494931045,6187,-2,0,-6717.6759066749,-80230.7509262738,-35938.8135286621,-12641.4217633496,-80539.3358854004,-45977.2607491638,-80473.7519995248,-80462.1926875430,-80504.3415893377,-2417.2711539361
5494931045,6187,-2,0,-6717.2013664988,-80230.6657523960,-35918.2136179408,-12641.0689001417,-80541.1245368334,-46116.4105300310,-80474.6159059992,-80462.3752029953,-80504.1834092790,-2417.4901724789
5494931045,6187,-2,0,-6717.1891988020,-80230.1060383422,-35915.5975631239,-12640.2779998482,-80541.9519402174,-46040.4232633717,-80474.7132475738,-80462.4238737826,-80504.0739000076,-2417.1251415743
5494942046,6188,-2,0,-6716.7024909290,-80230.3372245818,-35933.2893943044,-12640.0954843959,-80539.8834317575,-45852.7000367873,-80473.5329809820,-80462.0588428779,-80503.2829997141,-2416.5410921267
5494942046,6188,-2,0,-6717.1648634083,-80231.1037894817,-35951.3340886929,-12640.2171613641,-80538.0096064467,-45799.7705556075,-80474.0440242485,-80462.6185569318,-80503.5871921346,-2417.2833216329
5494942046,6188,-2,0,-6716.9336771687,-80229.7410074375,-35942.7315270391,-12639.8034596721,-80538.0826126277,-45948.2529599379,-80472.9245961408,-80461.0732594353,-80503.3073351077,-2416.9182907283
5494942046,6188,-2,0,-6717.5420620098,-80230.8726032420,-35923.5430691493,-12641.0689001417,-80541.0515306525,-46106.5911986948,-80474.0683596422,-80463.1782709856,-80504.6336140614,-2418.6947744644
5494942046,6188,-2,0,-6717.3230434670,-80231.2376341467,-35918.3596303027,-12641.9571420098,-80542.6333312395,-46061.1205156675,-80475.7718371974,-80464.2976990934,-80504.1712415821,-2418.5122590121
5494942046,6188,-2,0,-6717.5663974035,-80231.2376341467,-35935.5404182167,-12641.0080616576,-80540.1024503003,-45869.4792907062,-80473.9953534612,-80461.9128305161,-80503.1126519585,-2417.7456941122
5494942046,6188,-2,0,-6717.5907327971,-80230.7387585770,-35953.6216156956,-12641.0445647481,-80538.6058235911,-45789.8417150000,-80474.1900366104,-80462.5698861445,-80503.1856581395,-2417.2954893298
5494942046,6188,-2,0,-6716.4104662053,-80230.1668768263,-35948.5598538172,-12640.0103105181,-80538.6179912879,-45922.9198151525,-80472.4865590552,-80460.7568993179,-80502.5164348142,-2416.8087814569
5494975765,6189,-2,0,-6717.3595465575,-80230.9699448166,-35927.9721107928,-12641.3122540782,-80541.2218784080,-46092.1481425660,-80474.1657012168,-80462.1805198462,-80504.3659247313,-2418.4879236184
5494975765,6189,-2,0,-6717.2500372861,-80230.5805785183,-35918.6151519360,-12640.6917015402,-80540.7838413224,-46071.5117287543,-80473.4234717106,-80461.7181473669,-80503.4776828632,-2417.0156323028
5494975765,6189,-2,0,-6716.6538201417,-80230.6657523960,-35933.5814190282,-12640.2536644546,-80540.0416118162,-45890.9309402050,-80473.7763349184,-80461.1584333130,-80502.9423042030,-2417.9403772614
5494975765,6189,-2,0,-6717.5298943130,-80230.9699448166,-35954.2056651431,-12640.3510060292,-80538.7883390434,-45787.6880326624,-80474.9079307230,-80462.6185569318,-80504.1347384917,-2416.9426261219
5494975765,6189,-2,0,-6716.6173170513,-80230.5562431246,-35950.4823499153,-12640.2293290610,-80538.1921218991,-45895.6763419660,-80472.9124284440,-80461.1706010099,-80503.3438381982,-2417.1008061806
5494975765,6189,-2,0,-6716.7754971100,-80230.2277153104,-35928.8481849641,-12640.4240122101,-80539.9077671511,-46074.1764543585,-80473.0584408059,-80461.3044456749,-80503.3316705014,-2417.7456941122
5494975765,6189,-2,0,-6717.3352111638,-80230.1790445231,-35917.3618791632,-12640.3388383324,-80540.9420213811,-46079.2138808432,-80472.9610992313,-80461.3044456749,-80503.1734904427,-2416.9182907283
5494975765,6189,-2,0,-6717.1161926210,-80231.1159571785,-35928.9211911450,-12641.2149125036,-80539.7009163051,-45900.4460791206,-80473.8493410994,-80462.1318490589,-80503.6115275283,-2417.6240171440
5495035188,6190,1,0,-6716.9580125623,-80230.1912122200,-35949.2290771425,-12641.1297386259,-80538.5206497133,-45775.8975344409,-80473.9588503708,-80460.9637501639,-80503.2099935331,-2417.4049986012
5495035188,6190,1,0,-6717.4933912225,-80230.1668768263,-35949.8131265900,-12641.2392478973,-80537.6080724516,-45866.3035218354,-80473.7641672216,-80460.7812347115,-80503.1978258363,-2417.7091910218
5495035188,6190,1,0,-6717.7732482495,-80229.5828273788,-35929.7485945290,-12641.4704341369,-80539.4818977623,-46048.6121233335,-80472.1458635442,-80461.4382903400,-80502.3095839682,-2417.7943648995
5495035188,6190,1,0,-6717.2257018924,-80229.8018459216,-35913.7967439941,-12640.9472231735,-80540.6743320510,-46080.6375013715,-80473.4356394074,-80461.4139549463,-80502.2852485746,-2417.7821972027
5495035188,6190,1,0,-6718.2112853351,-80230.5684108215,-35923.9932739317,-12640.8012108116,-80541.0028598652,-45916.4100973523,-80474.2630427914,-80462.5212153572,-80503.4898505601,-2417.9160418677
5495035188,6190,1,0,-6717.1891988020,-80230.8239324547,-35943.4372534548,-12640.6065276625,-80538.9465191021,-45768.4995747726,-80473.6546579502,-80461.0489240416,-80502.9544718999,-2417.0886384838
5495035188,6190,1,0,-6717.2743726797,-80230.5562431246,-35946.5886869319,-12640.7403723275,-80538.8248421339,-45828.2186307796,-80474.4090551532,-80462.3995383890,-80503.0153103840,-2417.4415016916
5495035188,6190,1,0,-6716.4104662053,-80230.1303737358,-35926.1834593598,-12640.3023352419,-80539.0438606767,-46015.3334725228,-80473.5208132852,-80461.6573088828,-80503.1126519585,-2416.8817876378
5495039535,6191,1,0,-6716.8971740782,-80229.9965290708,-35909.1730192014,-12640.5335214815,-80541.1123691366,-46075.7460872487,-80473.7398318280,-80462.0466751811,-80502.5772732983,-2417.8308679900
5495039535,6191,1,0,-6717.2378695892,-80229.6680012566,-35915.2446999160,-12640.9228877799,-80540.9785244715,-45922.8711443652,-80474.1048627327,-80462.1805198462,-80503.1856581395,-2417.7821972027
5495039535,6191,1,0,-6717.8097513399,-80229.4124796233,-35935.0415426470,-12641.4704341369,-80538.9830221926,-45758.3395479254,-80473.5573163756,-80462.3021968144,-80503.3925089855,-2418.3419112565
5495039535,6191,1,0,-6718.0166021859,-80230.2277153104,-35941.6364343250,-12640.3023352419,-80537.9731033563,-45794.7817999101,-80472.9854346249,-80461.1949364035,-80503.0639811712,-2417.9403772614
5495039535,6191,1,0,-6717.2987080734,-80230.2642184009,-35923.4335598779,-12641.4339310464,-80538.8005067402,-45978.7695435698,-80473.3017947423,-80461.1827687067,-80502.3704224523,-2417.6483525376
5495039535,6191,1,0,-6717.7732482495,-80231.1281248753,-35905.6322194259,-12641.3365894718,-80542.1831264570,-46067.3625441377,-80474.4820613342,-80462.7645692937,-80504.3172539440,-2417.7578618090
5495039535,6191,1,0,-6716.1792799656,-80229.4489827138,-35908.3091127270,-12639.2559133151,-80540.9298536843,-45939.7234044650,-80472.1701989378,-80461.4747934304,-80502.9544718999,-2416.8087814569
5495039535,6191,1,0,-6717.0431864401,-80230.5197400342,-35931.4642397810,-12640.4361799069,-80539.4940654591,-45762.9754404150,-80473.9710180676,-80462.7402339000,-80503.5871921346,-2417.9525449582
5495086094,6192,1,0,-6717.5785651003,-80230.8361001516,-35942.0744714106,-12641.1905771100,-80538.2529603832,-45769.3756489438,-80474.8957630261,-80462.1805198462,-80503.8062106774,-2418.7799483422
5495086094,6192,1,0,-6716.5808139608,-80230.0695352517,-35927.4732352231,-12640.1076520927,-80539.0681960703,-45949.7252512535,-80473.5573163756,-80461.8033212447,-80503.6723660124,-2417.1129738774
5495086094,6192,1,0,-6717.0310187433,-80230.5319077310,-35908.7228144189,-12640.4483476038,-80540.5526550827,-46061.1813541516,-80474.0196888549,-80462.2048552398,-80503.3073351077,-2417.1981477552
5495086094,6192,1,0,-6716.9093417750,-80229.6436658629,-35909.5015470156,-12641.6651172861,-80541.1367045302,-45953.2903864226,-80474.8470922389,-80461.9128305161,-80503.5141859537,-2417.9647126550
5495086094,6192,1,0,-6718.4789746652,-80229.7410074375,-35930.9531965144,-12641.9084712225,-80539.3723884909,-45768.4995747726,-80473.8006703121,-80461.7789858510,-80503.0639811712,-2418.3054081661
5495086094,6192,1,0,-6717.4447204352,-80228.6094116330,-35942.1961483788,-12640.5091860879,-80536.6589920994,-45748.7879059194,-80472.0363542728,-80460.6230546528,-80501.9810561540,-2416.9182907283
5495086094,6192,1,0,-6717.0188510464,-80228.9379394472,-35929.9554453750,-12639.7061180976,-80537.0970291850,-45915.7165386334,-80472.0363542728,-80460.2701914450,-80502.3825901492,-2416.8574522441
5495086094,6192,1,0,-6716.8485032909,-80228.7432562980,-35910.0612610695,-12639.5966088262,-80539.7617547892,-46048.8919803605,-80472.5108944488,-80460.4892099878,-80501.9688884572,-2416.2490674030
5495111441,6193,1,0,-6716.0819383911,-80229.3029703519,-35907.9927526095,-12640.0589813054,-80541.0150275620,-45971.0187206936,-80472.6569068107,-80461.4382903400,-80503.0031426871,-2417.2711539361
5495111441,6193,1,0,-6717.3230434670,-80229.0109456281,-35926.9743596533,-12640.1684905768,-80538.3259665641,-45780.5455946273,-80473.0341054122,-80461.3531164622,-80503.1248196554,-2417.0643030901
5495111441,6193,1,0,-6718.1869499414,-80230.5805785183,-35941.7581112932,-12641.5556080147,-80538.0339418404,-45731.1690809198,-80474.2265397009,-80461.8154889415,-80504.0982354012,-2417.5023401758
5495111441,6193,1,0,-6718.0531052764,-80230.2155476136,-35932.9852018839,-12641.5799434083,-80538.4841466228,-45886.7695878916,-80473.9953534612,-80462.6793954159,-80503.0761488681,-2417.3806632075
5495111441,6193,1,0,-6717.3108757702,-80229.6680012566,-35910.0004225853,-12640.3145029387,-80540.4553135082,-46036.1158986964,-80473.5329809820,-80460.8542408925,-80502.0053915477,-2416.9669615156
5495111441,6193,1,0,-6716.7633294132,-80228.7797593885,-35904.6709713769,-12639.9251366404,-80541.0880337429,-45979.9011393744,-80473.1679500773,-80461.7789858510,-80502.4555963301,-2416.7844460632
5495111441,6193,1,0,-6717.4447204352,-80229.4246473201,-35923.0928643668,-12641.0567324449,-80540.1754564812,-45793.4433532596,-80473.4843101947,-80461.2192717971,-80503.1369873522,-2417.6483525376
5495111441,6193,1,0,-6716.6416524449,-80229.2421318678,-35940.2979876745,-12640.2658321514,-80537.4012216056,-45722.0676436962,-80472.2553728156,-80461.4261226431,-80502.7232856602,-2416.2734027966
5495154928,6194,1,0,-6716.5078077799,-80228.7432562980,-35934.8955302851,-12640.1684905768,-80536.7928367644,-45859.3679346463,-80472.7420806885,-80461.1584333130,-80502.2244100905,-2416.7236075791
5495154928,6194,1,0,-6717.9557637018,-80230.2763860977,-35916.4858049920,-12641.4460987432,-80540.4431458113,-46029.6183485929,-80474.1413658231,-80461.9128305161,-80503.3560058950,-2418.0377188360
5495154928,6194,1,0,-6717.0675218337,-80229.2786349582,-35907.9197464286,-12639.9981428213,-80540.8325121097,-46003.3969619395,-80472.3770497838,-80461.6694765796,-80502.5286025110,-2418.0012157455
5495154928,6194,1,0,-6717.8097513399,-80230.4223984596,-35926.2321301471,-12641.1540740195,-80540.0051087257,-45817.1825297612,-80474.4333905469,-80462.3386999049,-80503.1491550490,-2417.7213587186
5495154928,6194,1,0,-6718.0409375796,-80229.9113551930,-35946.3331652986,-12641.6286141956,-80537.4620600897,-45720.0356383268,-80473.9710180676,-80461.4747934304,-80502.7597887507,-2417.3928309044
5495154928,6194,1,0,-6717.4203850416,-80229.4368150169,-35944.8730416799,-12640.2414967578,-80537.1943707596,-45841.1772278960,-80472.7785837790,-80461.2436071908,-80503.1126519585,-2417.5388432662
5495154928,6194,1,0,-6716.7876648068,-80228.4633992711,-35925.1005343426,-12641.4460987432,-80538.8005067402,-46017.2438009240,-80472.5230621457,-80461.2192717971,-80501.6768637334,-2417.5388432662
5495154928,6194,1,0,-6717.5907327971,-80228.8771009631,-35914.3321226543,-12641.1419063227,-80539.2628792195,-46017.8643534620,-80473.0341054122,-80460.0876759926,-80502.3704224523,-2417.9525449582
5495174669,6195,1,0,-6717.4812235257,-80228.1957099410,-35927.8139307341,-12640.6065276625,-80538.2894634737,-45841.5057557102,-80471.4766402189,-80460.3066945354,-80502.2974162714,-2418.1715635010
5495174669,6195,1,0,-6717.5907327971,-80228.3173869092,-35949.2290771425,-12640.5578568752,-80537.3647185151,-45720.0478060236,-80473.1314469868,-80460.5378807751,-80501.6890314303,-2417.5266755694
5495174669,6195,1,0,-6717.3230434670,-80229.2056287773,-35949.6306111377,-12640.6795338434,-80537.3890539088,-45810.7579858387,-80473.0097700186,-80461.0124209512,-80502.6016086920,-2416.3950797649
5495174669,6195,1,0,-6717.4447204352,-80229.9478582835,-35931.2452212382,-12641.3730925623,-80540.4066427209,-45996.9359149265,-80474.5672352119,-80462.3386999049,-80503.6845337092,-2418.0498865328
5495174669,6195,1,0,-6717.7732482495,-80230.0330321613,-35918.2014502440,-12641.7259557702,-80542.0736171856,-46026.2357288761,-80474.8835953293,-80463.0200909269,-80504.6092786678,-2418.7069421612
5495174669,6195,1,0,-6716.0819383911,-80228.7675916917,-35926.5363225677,-12639.5844411293,-80540.5891581732,-45858.1755003577,-80473.8250057057,-80461.6938119733,-80503.1856581395,-2417.7456941122
5495174669,6195,1,0,-6716.7146586259,-80230.0451998581,-35949.1560709616,-12639.5357703420,-80537.5107308770,-45718.0158006542,-80472.8637576567,-80461.9006628192,-80503.3438381982,-2416.9061230314
5495174669,6195,1,0,-6716.9823479560,-80228.5120700584,-35953.6459510892,-12640.6673661466,-80536.6589920994,-45791.0828200760,-80472.1945343314,-80460.2336883545,-80501.9810561540,-2417.2589862393
5495195287,6196,1,0,-6716.9823479560,-80226.9059340778,-35934.4696608963,-12640.1563228800,-80537.3160477278,-45978.3071710906,-80471.7078264585,-80458.7492293421,-80500.9954727114,-2417.1251415743
5495195287,6196,1,0,-6717.7854159463,-80228.0131944887,-35919.4912261072,-12641.1419063227,-80538.9221837085,-46035.3493337965,-80472.2675405124,-80460.7203962274,-80501.9202176699,-2418.5974328898
5495195287,6196,1,0,-6716.9458448655,-80227.4413127380,-35925.5872422155,-12641.4095956528,-80538.9343514053,-45884.5428993730,-80471.5009756125,-80459.8686574498,-80501.5186836747,-2417.7578618090
5495195287,6196,1,0,-6717.8340867336,-80229.6193304693,-35947.9758043697,-12641.9328066162,-80538.5571528038,-45723.8076243419,-80472.6447391139,-80461.0854271321,-80502.9544718999,-2418.4270851343
5495195287,6196,1,0,-6717.7245774622,-80229.2056287773,-35952.8915538862,-12641.4339310464,-80538.3259665641,-45761.4909814026,-80473.3991363169,-80460.8420731956,-80502.1392362127,-2417.6361848408
5495195287,6196,1,0,-6716.7754971100,-80229.0474487186,-35935.5282505199,-12639.6939504007,-80539.1046991608,-45948.9951894441,-80473.0584408059,-80461.1949364035,-80502.7719564475,-2417.1859800584
5495195287,6196,1,0,-6716.6659878386,-80229.3881442296,-35917.8972578234,-12640.6551984498,-80541.0758660461,-46032.4412542558,-80473.4721424979,-80461.7546504574,-80503.2951674109,-2417.1129738774
5495195287,6196,1,0,-6717.7975836431,-80229.9356905867,-35921.8760946845,-12640.2901675451,-80541.0028598652,-45897.3311487339,-80473.8371734025,-80462.5820538413,-80503.2343289268,-2417.5145078726
5495236515,6197,1,0,-6716.9580125623,-80228.0983683664,-35941.8311174742,-12640.1563228800,-80538.0826126277,-45724.7688723909,-80472.4622236616,-80461.2192717971,-80502.4799317237,-2416.7722783664
5495236515,6197,1,0,-6716.7268263227,-80228.3173869092,-35950.9325546977,-12640.6308630561,-80537.1943707596,-45739.2362639134,-80472.7785837790,-80459.9294959339,-80502.1635716064,-2417.1494769679
5495236515,6197,1,0,-6717.9314283082,-80228.6094116330,-35936.1731384515,-12641.1784094131,-80538.2772957768,-45919.4641892548,-80472.9976023218,-80460.9272470734,-80503.1978258363,-2418.4027497407
5495236515,6197,1,0,-6717.2257018924,-80227.9280206109,-35915.5367246398,-12640.5335214815,-80540.0172764225,-46025.1406361621,-80473.2044531678,-80461.0732594353,-80502.2487454841,-2417.3563278139
5495236515,6197,1,0,-6717.8827575209,-80228.7310886012,-35916.9116743808,-12640.7525400243,-80541.7815924618,-45917.4321838854,-80473.4964778915,-80461.0610917385,-80502.9423042030,-2418.1837311978
5495236515,6197,1,0,-6716.2766215402,-80227.9766913982,-35936.2826477229,-12639.1829071342,-80538.3868050483,-45733.1402478051,-80471.6956587617,-80459.4062849705,-80501.0319758018,-2416.0787196475
5495236515,6197,1,0,-6716.2522861466,-80228.2565484251,-35949.4480956853,-12639.8521304594,-80537.4742277865,-45718.5998501017,-80471.9268450013,-80460.9272470734,-80502.2852485746,-2416.8574522441
5495236515,6197,1,0,-6716.5564785672,-80227.9766913982,-35935.2727288866,-12639.8521304594,-80537.7784202071,-45892.8899393935,-80473.3261301360,-80461.5964703987,-80502.3460870587,-2416.4194151585
5495275463,6198,1,0,-6716.9580125623,-80229.0231133249,-35915.9139232413,-12640.4970183911,-80540.1754564812,-46022.5854198293,-80473.7763349184,-80461.1340979194,-80502.6016086920,-2417.8673710805
5495275463,6198,1,0,-6717.8584221272,-80230.5805785183,-35914.4051288352,-12641.1905771100,-80541.7694247650,-45933.8585745964,-80474.8470922389,-80462.6428923254,-80503.8548814647,-2418.2080665915
5495275463,6198,1,0,-6718.1139437605,-80230.4710692469,-35932.0361215317,-12641.1540740195,-80540.4066427209,-45743.1055915031,-80474.7619183611,-80462.8740785651,-80504.0739000076,-2418.2567373788
5495275463,6198,1,0,-6717.6394035844,-80230.0573675549,-35946.2723268145,-12640.7890431148,-80539.0195252830,-45699.8007585103,-80474.5672352119,-80461.8398243351,-80503.9157199489,-2418.1593958042
5495275463,6198,1,0,-6717.4690558289,-80229.4489827138,-35936.0879645737,-12641.1419063227,-80538.3746373514,-45853.2597508412,-80473.9953534612,-80461.3287810686,-80502.6381117824,-2417.7943648995
5495275463,6198,1,0,-6716.9093417750,-80228.3538899997,-35912.9693406101,-12640.7647077212,-80539.8712640607,-45998.6028893912,-80473.2896270455,-80460.9394147702,-80502.7719564475,-2417.6361848408
5495275463,6198,1,0,-6718.0531052764,-80227.7698405522,-35906.7638152304,-12640.5700245720,-80540.3823073272,-45939.0541811398,-80473.2774593487,-80461.3896195527,-80502.5651056015,-2418.1958988947
5495275463,6198,1,0,-6718.0531052764,-80228.2078776378,-35924.7111680443,-12641.1662417163,-80539.5549039433,-45746.5003789167,-80473.8128380089,-80461.7424827605,-80502.5164348142,-2417.0643030901
5495287139,6199,1,0,-6717.7854159463,-80229.3881442296,-35940.1884784031,-12641.7137880734,-80537.3647185151,-45678.3491090114,-80472.6204037203,-80461.0002532543,-80502.0783977286,-2417.3076570266
5495287139,6199,1,0,-6716.8850063814,-80228.0983683664,-35933.1312142457,-12641.1540740195,-80538.0217741436,-45822.3659686077,-80473.0706085027,-80461.2922779781,-80502.8571303253,-2417.4171662980
5495287139,6199,1,0,-6718.2964592128,-80227.6724989776,-35912.3001172849,-12640.7525400243,-80540.9055182906,-45984.7438827099,-80473.1436146836,-80461.5599673082,-80503.6358629219,-2418.4392528311
5495287139,6199,1,0,-6716.9945156528,-80229.1082872027,-35902.8458168534,-12640.3388383324,-80540.8325121097,-45948.5814877521,-80472.9976023218,-80461.4504580368,-80503.4290120759,-2418.0863896233
5495287139,6199,1,0,-6718.2721238192,-80229.3759765328,-35919.5155615009,-12641.3974279560,-80540.5891581732,-45763.0241112023,-80473.9710180676,-80461.4747934304,-80501.8107083985,-2418.0863896233
5495287139,6199,1,0,-6716.9580125623,-80228.3173869092,-35936.3921569943,-12640.7403723275,-80537.2308738501,-45671.4256895192,-80472.7785837790,-80460.7568993179,-80501.2144912542,-2416.8452845473
5495287139,6199,1,0,-6717.7489128558,-80228.8162624790,-35933.1798850330,-12641.3365894718,-80537.7054140262,-45794.0639057976,-80473.9101795835,-80461.1827687067,-80501.9688884572,-2417.2954893298
5495287139,6199,1,0,-6717.3717142543,-80228.9501071440,-35912.4582973436,-12641.2270802004,-80538.3746373514,-45971.7244471094,-80473.0219377154,-80461.9736690002,-80504.0008938266,-2417.6240171440
5495325946,6200,1,0,-6717.0918572274,-80229.5828273788,-35902.0062457727,-12640.7282046307,-80540.9663567747,-45970.4590066398,-80473.7276641311,-80461.6573088828,-80502.6746148729,-2418.3784143470
5495325946,6200,1,0,-6718.0896083669,-80230.1547091295,-35915.9747617254,-12641.1540740195,-80540.4066427209,-45790.3527582666,-80474.2873781850,-80462.1561844525,-80503.2586643204,-2418.6947744644
5495325946,6200,1,0,-6718.0044344891,-80229.6558335598,-35936.6111755371,-12641.6772849829,-80538.7396682561,-45674.4797814217,-80474.3725520627,-80462.0345074843,-80503.9643907361,-2418.2689050756
5495325946,6200,1,0,-6717.2500372861,-80228.5972439362,-35936.5381693562,-12640.2779998482,-80537.9000971753,-45777.1264718200,-80472.6447391139,-80460.4527068973,-80502.6624471761,-2417.1494769679
5495325946,6200,1,0,-6716.8971740782,-80228.5120700584,-35916.7413266252,-12640.1928259705,-80539.0681960703,-45961.2602278416,-80473.1314469868,-80461.0245886480,-80502.4677640269,-2416.7236075791
5495325946,6200,1,0,-6717.0675218337,-80229.1569579900,-35904.3059404722,-12640.7038692370,-80541.3313876794,-45984.6100380449,-80473.5086455883,-80461.7911535478,-80502.6016086920,-2416.9669615156
5495325946,6200,1,0,-6716.6903232322,-80229.7410074375,-35915.6827370017,-12639.9494720340,-80540.8811828970,-45818.6548210768,-80473.6059871629,-80462.1196813620,-80503.5385213473,-2417.4780047821
5495325946,6200,1,0,-6717.6394035844,-80230.5440754278,-35937.9009514003,-12640.4118445133,-80538.1921218991,-45684.2261065769,-80473.8006703121,-80461.9371659097,-80502.8084595380,-2416.9791292124
5495348458,6201,1,0,-6717.0310187433,-80228.9622748408,-35941.3200742076,-12640.4240122101,-80537.8514263880,-45758.3517156222,-80473.0462731091,-80461.1949364035,-80502.9788072935,-2416.8331168505
5495348458,6201,1,0,-6717.1283603178,-80228.8892686599,-35923.7134169048,-12641.1419063227,-80538.6301589847,-45949.3723880456,-80473.2287885614,-80461.6329734891,-80502.0905654254,-2416.3464089776
5495348458,6201,1,0,-6717.4568881321,-80230.4102307628,-35909.3555346537,-12641.5191049242,-80541.1367045302,-46003.8836698124,-80473.2896270455,-80461.7059796701,-80503.2708320172,-2418.2202342883
5495348458,6201,1,0,-6716.9093417750,-80230.3128891882,-35919.4668907136,-12640.5821922688,-80541.6234124032,-45847.8572934518,-80474.0440242485,-80461.8398243351,-80504.0008938266,-2418.1715635010
5495348458,6201,1,0,-6717.4325527384,-80229.6558335598,-35941.7337758996,-12640.7525400243,-80538.8735129212,-45694.2522887590,-80474.2387073977,-80462.3873706922,-80503.9400553425,-2418.4392528311
5495348458,6201,1,0,-6716.7389940195,-80230.1547091295,-35949.0222262965,-12640.6065276625,-80538.8856806180,-45745.5512985645,-80474.1778689136,-80461.0245886480,-80503.3925089855,-2417.1008061806
5495348458,6201,1,0,-6716.9093417750,-80229.4246473201,-35932.9486987934,-12640.6186953593,-80539.5670716401,-45931.1208428112,-80473.9710180676,-80461.7546504574,-80502.9301365062,-2417.0277999997
5495348458,6201,1,0,-6717.1770311051,-80229.6923366502,-35915.6097308207,-12640.7403723275,-80542.1831264570,-46002.6669001301,-80473.9831857644,-80461.5721350050,-80503.1126519585,-2416.9304584251
5495442298,6202,1,0,-6716.7998325036,-80228.2200453346,-35919.8440893151,-12639.5479380389,-80540.1997918749,-45865.9749940212,-80471.9876834855,-80460.8299054988,-80502.5286025110,-2417.8430356868
5495442298,6202,1,0,-6717.5907327971,-80229.0352810218,-35941.8189497773,-12640.2901675451,-80538.9100160116,-45698.0242747741,-80473.1436146836,-80461.6451411860,-80502.7841241443,-2417.5875140535
5495442298,6202,1,0,-6717.0675218337,-80227.7576728554,-35951.7599580817,-12640.4361799069,-80538.1191157181,-45720.3154953537,-80472.1336958473,-80461.4139549463,-80503.0031426871,-2417.4901724789
5495442298,6202,1,0,-6717.6880743717,-80229.2299641709,-35938.8500317525,-12640.9472231735,-80539.1533699481,-45910.4114228186,-80473.7154964343,-80461.6451411860,-80503.3560058950,-2417.4901724789
5495442298,6202,1,0,-6717.6515712812,-80229.6436658629,-35921.8030885036,-12641.2270802004,-80541.8911017333,-46017.0977885621,-80473.7641672216,-80462.0223397875,-80503.4046766823,-2417.4293339948
5495442298,6202,1,0,-6715.9480937260,-80228.8040947821,-35923.1293674573,-12639.7791242785,-80540.4309781145,-45900.5799237856,-80473.1801177741,-80461.4991288241,-80502.0783977286,-2418.0498865328
5495442298,6202,1,0,-6717.8827575209,-80228.8162624790,-35944.9217124672,-12641.1054032322,-80539.3480530973,-45719.3542473047,-80474.0440242485,-80461.0002532543,-80502.8449626284,-2418.6826067676
5495442298,6202,1,0,-6717.2500372861,-80227.6846666744,-35956.6757075981,-12640.7282046307,-80536.3426319820,-45711.5304182476,-80472.3162112997,-80461.2436071908,-80500.8494603495,-2417.3441601171
5495448624,6203,1,0,-6716.3861308116,-80226.9667725619,-35943.8996259341,-12640.3145029387,-80536.8293398549,-45882.6812417591,-80471.6104848839,-80459.7713158752,-80501.8715468826,-2416.7357752759
5495448624,6203,1,0,-6716.9215094718,-80228.3903930902,-35923.9567708413,-12640.8742169926,-80540.0172764225,-46007.0716063800,-80472.8515899599,-80461.3774518558,-80502.5286025110,-2417.4780047821
5495448624,6203,1,0,-6717.6759066749,-80229.8870197994,-35923.5430691493,-12641.4217633496,-80541.9641079142,-45918.0040656361,-80474.9444338134,-80462.7280662032,-80504.5484401837,-2418.2445696820
5495448624,6203,1,0,-6717.2622049829,-80230.0086967676,-35943.7779489658,-12640.8498815989,-80540.8933505938,-45728.2123305918,-80475.6501602292,-80462.6307246286,-80504.1834092790,-2418.2567373788
5495448624,6203,1,0,-6718.1017760637,-80229.3151380487,-35958.3548497597,-12641.4704341369,-80539.2872146132,-45686.9029998779,-80474.7132475738,-80462.0710105748,-80504.3415893377,-2417.7578618090
5495448624,6203,1,0,-6717.1648634083,-80229.2056287773,-35947.1362332890,-12640.3266706355,-80539.3237177036,-45843.7446119257,-80474.3117135786,-80461.6694765796,-80503.9887261298,-2418.4757559216
5495448624,6203,1,0,-6717.9922667923,-80228.7797593885,-35926.0982854821,-12640.8985523862,-80540.8690152001,-45983.6487899958,-80473.8371734025,-80462.2778614207,-80503.4046766823,-2418.2689050756
5495448624,6203,1,0,-6717.4325527384,-80227.7698405522,-35919.1018598089,-12640.8255462053,-80540.4674812050,-45912.4677635816,-80472.7177452948,-80460.6352223497,-80503.0518134744,-2418.0863896233
5495456378,6204,1,0,-6717.8949252177,-80228.5485731489,-35936.8910325640,-12641.3000863814,-80539.3845561877,-45726.1559898287,-80472.9124284440,-80461.0002532543,-80502.2244100905,-2417.5631786599
5495456378,6204,1,0,-6717.6637389780,-80228.4877346647,-35954.5706960478,-12640.7647077212,-80537.7175817230,-45667.8118835627,-80474.3238812755,-80461.2192717971,-80503.7818752838,-2418.1837311978
5495456378,6204,1,0,-6716.6659878386,-80227.8793498236,-35948.0609782475,-12640.4605153006,-80537.5594016643,-45812.6561465430,-80472.5960683266,-80460.5257130782,-80501.7255345207,-2416.5897629140
5495456378,6204,1,0,-6716.8728386846,-80227.7941759458,-35926.8648503819,-12640.5821922688,-80539.8590963638,-45970.7023605762,-80473.7641672216,-80461.5721350050,-80503.5871921346,-2417.4049986012
5495456378,6204,1,0,-6718.0044344891,-80228.7675916917,-35919.3573814422,-12641.1175709290,-80542.3413065157,-45933.8099038091,-80473.6303225565,-80461.5356319146,-80503.6723660124,-2418.4635882248
5495456378,6204,1,0,-6717.2378695892,-80228.4025607870,-35936.3313185102,-12640.4483476038,-80539.8347609702,-45744.9185783297,-80472.8759253535,-80461.1827687067,-80502.3339193619,-2417.6483525376
5495456378,6204,1,0,-6717.6394035844,-80228.1105360632,-35953.7432926638,-12640.9958939608,-80536.8293398549,-45656.3255777619,-80472.3283789965,-80461.3896195527,-80503.0639811712,-2417.5388432662
5495456378,6204,1,0,-6717.6515712812,-80229.2056287773,-35950.2268282820,-12640.9228877799,-80538.7883390434,-45785.6316918993,-80474.2873781850,-80461.7303150637,-80504.0617323107,-2417.9890480487
5495484133,6205,1,0,-6717.3960496479,-80228.8527655694,-35930.4421532479,-12640.6065276625,-80540.0294441194,-45959.2038870786,-80473.8371734025,-80462.2656937239,-80503.4168443791,-2418.1958988947
5495484133,6205,1,0,-6717.2622049829,-80229.4003119265,-35920.5741511245,-12640.6795338434,-80542.2804680316,-45944.2132845927,-80473.6668256470,-80462.1561844525,-80503.5141859537,-2417.6848556281
5495484133,6205,1,0,-6717.8219190367,-80228.9866102345,-35935.1267165247,-12640.7768754180,-80541.1975430144,-45760.3350502044,-80474.6037383024,-80462.7158985064,-80503.9643907361,-2418.2445696820
5495484133,6205,1,0,-6717.2622049829,-80228.7919270853,-35954.3151744145,-12640.7038692370,-80539.0073575862,-45648.3679040397,-80474.4820613342,-80461.8154889415,-80502.7597887507,-2417.1251415743
5495484133,6205,1,0,-6716.4104662053,-80227.6238281903,-35952.1979951673,-12639.7182857944,-80536.6346567057,-45750.7104020174,-80472.8150868694,-80460.4405392005,-80501.9810561540,-2416.3707443712
5495484133,6205,1,0,-6717.2865403765,-80228.5364054520,-35932.0239538349,-12640.5456891783,-80539.0681960703,-45932.6053018236,-80473.7763349184,-80461.5599673082,-80502.2730808778,-2417.6240171440
5495484133,6205,1,0,-6716.7633294132,-80228.1348714569,-35919.4425553199,-12640.5335214815,-80541.0271952588,-45950.6499962120,-80473.8615087962,-80461.4504580368,-80503.5628567410,-2417.5145078726
5495484133,6205,1,0,-6717.6515712812,-80229.2786349582,-35932.3889847395,-12641.0932355354,-80540.8933505938,-45776.4815838884,-80474.1657012168,-80462.0345074843,-80502.9909749903,-2417.8795387773
5495543597,6206,1,0,-6716.1427768752,-80227.1614557110,-35950.4701822184,-12639.9251366404,-80536.1722842265,-45640.5075718921,-80472.0606896664,-80460.2336883545,-80502.1879070000,-2415.3608255349
5495543597,6206,1,0,-6716.9580125623,-80227.2587972856,-35954.0839881749,-12639.6574473103,-80537.2673769405,-45723.3330841658,-80472.6569068107,-80460.8785762861,-80502.8084595380,-2416.5654275204
5495543597,6206,1,0,-6716.8728386846,-80227.8185113395,-35934.9198656787,-12640.2779998482,-80538.8613452243,-45910.5330997868,-80473.7398318280,-80462.1683521493,-80502.8571303253,-2417.0521353933
5495543597,6206,1,0,-6718.3938007874,-80229.1934610805,-35919.1383628994,-12640.8498815989,-80540.9420213811,-45951.4043934150,-80474.6037383024,-80462.0345074843,-80502.6624471761,-2418.4149174375
5495543597,6206,1,0,-6717.3595465575,-80227.4413127380,-35926.7431734137,-12640.0589813054,-80539.9807733321,-45790.3892613571,-80473.0097700186,-80461.1340979194,-80503.0761488681,-2417.1859800584
5495543597,6206,1,0,-6716.4104662053,-80226.9546048651,-35947.0997301985,-12640.3023352419,-80537.7175817230,-45636.7964243611,-80472.1458635442,-80459.9173282371,-80501.8472114890,-2416.4559182490
5495543597,6206,1,0,-6717.5907327971,-80227.7211697649,-35953.2565847909,-12640.6917015402,-80537.3647185151,-45689.2635330616,-80472.7542483853,-80460.8785762861,-80503.1613227458,-2417.1738123615
5495543597,6206,1,0,-6716.3009569339,-80227.9158529141,-35933.3502327886,-12639.7547888849,-80538.0826126277,-45879.0187650154,-80472.9610992313,-80460.5743838655,-80502.5894409952,-2416.5410921267
5495549716,6207,1,0,-6716.3252923275,-80228.0740329728,-35916.8386681998,-12639.8521304594,-80540.8690152001,-45953.9352743542,-80472.9489315345,-80461.6329734891,-80503.5506890442,-2416.9547938187
5495549716,6207,1,0,-6716.9701802591,-80228.4633992711,-35922.9346843081,-12640.0833166991,-80540.8933505938,-45811.8165754623,-80474.7132475738,-80462.1440167557,-80503.7453721933,-2416.9182907283
5495549716,6207,1,0,-6717.1648634083,-80229.3516411392,-35944.0943090832,-12639.9859751245,-80539.1898730386,-45642.7220927138,-80473.5938194661,-80462.3386999049,-80503.6967014061,-2417.2468185425
5495549716,6207,1,0,-6717.4325527384,-80228.6459147234,-35953.9866466003,-12640.9107200830,-80538.5814881974,-45671.1093294018,-80474.8470922389,-80462.1318490589,-80503.8913845552,-2417.1981477552
5495549716,6207,1,0,-6718.4668069684,-80229.4733181074,-35938.7526901779,-12641.0810678386,-80539.8104255765,-45856.5206935897,-80474.6402413929,-80462.2900291176,-80503.6601983156,-2417.8308679900
5495549716,6207,1,0,-6716.6416524449,-80227.2344618920,-35918.9801828407,-12640.3510060292,-80540.4066427209,-45951.3313872341,-80473.2652916519,-80461.4382903400,-80502.5407702079,-2416.9791292124
5495549716,6207,1,0,-6717.1405280147,-80227.1006172269,-35922.2167901956,-12640.4118445133,-80539.7009163051,-45834.1686345260,-80471.9390126982,-80460.6230546528,-80502.1757393032,-2416.9304584251
5495549716,6207,1,0,-6716.2036153593,-80225.5796551241,-35944.5080107752,-12640.0468136086,-80537.6689109357,-45656.9826333903,-80472.1580312410,-80460.3797007164,-80502.2365777873,-2417.1373092711
5495572419,6208,1,0,-6717.0431864401,-80226.4922323858,-35956.6027014172,-12640.3753414228,-80535.6855763536,-45655.8510375858,-80471.9146773045,-80459.5157942419,-80501.2388266478,-2416.7722783664
5495572419,6208,1,0,-6717.9800990954,-80227.9523560045,-35944.4228368974,-12641.0689001417,-80537.4377246961,-45834.3511499783,-80472.3770497838,-80461.4747934304,-80502.3704224523,-2417.2103154520
5495572419,6208,1,0,-6717.0431864401,-80227.4656481316,-35924.8936834966,-12640.4240122101,-80539.4575623687,-45956.6486707457,-80473.4356394074,-80460.4405392005,-80502.4555963301,-2417.1251415743
5495572419,6208,1,0,-6717.6515712812,-80228.1348714569,-35925.1735405235,-12640.7160369339,-80540.4918165986,-45858.4675250814,-80473.0584408059,-80461.0367563448,-80501.8350437921,-2417.7821972027
5495572419,6208,1,0,-6717.3473788607,-80228.4268961806,-35945.6639419734,-12641.0689001417,-80538.6788297720,-45672.9588193188,-80472.2310374219,-80460.6352223497,-80502.4799317237,-2417.5631786599
5495572419,6208,1,0,-6718.0166021859,-80228.8649332663,-35960.1313334959,-12641.2027448068,-80536.9388491263,-45648.0880470127,-80474.4333905469,-80461.5599673082,-80502.6016086920,-2417.0034646060
5495572419,6208,1,0,-6718.0166021859,-80228.4025607870,-35950.8473808200,-12641.2514155941,-80539.2750469163,-45814.3474564014,-80473.3869686201,-80462.8984139587,-80503.9887261298,-2418.0133834423
5495572419,6208,1,0,-6717.6394035844,-80229.6071627725,-35930.6976748812,-12641.5799434083,-80541.6112447063,-45953.5337403591,-80474.3725520627,-80462.2900291176,-80504.0617323107,-2418.1350604106
5495622166,6209,1,0,-6716.5321431735,-80229.1569579900,-35928.1424585483,-12641.5921111051,-80543.2538837774,-45885.2121226982,-80475.4189739895,-80462.1926875430,-80504.0130615234,-2418.8164514326
5495622166,6209,1,0,-6717.4082173448,-80229.0961195059,-35948.2069906094,-12640.4118445133,-80540.0172764225,-45697.9634362900,-80474.7132475738,-80462.6672277191,-80503.9887261298,-2416.4194151585
5495622166,6209,1,0,-6717.3108757702,-80229.8870197994,-35965.8744863963,-12640.5700245720,-80539.0316929799,-45641.9433601172,-80474.7740860579,-80462.8740785651,-80504.2320800663,-2416.9791292124
5495622166,6209,1,0,-6716.8363355941,-80229.4124796233,-35957.4301048012,-12640.7647077212,-80539.0803637672,-45792.1779127900,-80474.5428998183,-80462.0223397875,-80504.0008938266,-2416.4072474617
5495622166,6209,1,0,-6717.3838819511,-80229.6558335598,-35937.8401129162,-12640.5213537847,-80542.6333312395,-45951.7329212293,-80475.1634523563,-80463.1904386825,-80505.0351480566,-2417.7335264154
5495622166,6209,1,0,-6716.9823479560,-80229.4124796233,-35930.8071841526,-12640.9958939608,-80542.3048034252,-45904.6317668277,-80475.4311416863,-80462.2900291176,-80505.0473157534,-2417.7821972027
5495622166,6209,1,0,-6715.6682366991,-80228.3173869092,-35947.6229411619,-12639.8642981563,-80539.9199348479,-45717.2735711480,-80473.8250057057,-80462.0588428779,-80502.9301365062,-2416.7601106696
5495622166,6209,1,0,-6716.9093417750,-80228.6824178139,-35967.0790883818,-12640.6673661466,-80538.8126744371,-45639.6193300240,-80473.8006703121,-80462.1318490589,-80504.0252292203,-2417.1008061806
5495646074,6210,1,0,-6717.0796895305,-80229.3638088360,-35963.5626239999,-12640.3388383324,-80539.5184008528,-45772.7704363574,-80475.5406509578,-80462.6307246286,-80503.3681735918,-2417.3928309044
5495646074,6210,1,0,-6716.6538201417,-80228.5972439362,-35941.6607697186,-12640.3145029387,-80539.1898730386,-45942.0109314677,-80473.1679500773,-80461.7424827605,-80503.8913845552,-2417.1616446647
5495646074,6210,1,0,-6717.7610805526,-80228.8405978726,-35933.0338726712,-12641.9328066162,-80542.7915112982,-45927.5557076421,-80475.2486262340,-80463.4824634062,-80504.6214463646,-2418.3784143470
5495646074,6210,1,0,-6717.1770311051,-80229.3394734423,-35948.3408352744,-12640.5821922688,-80541.3070522858,-45741.2439338892,-80474.9809369039,-80462.5455507509,-80503.6723660124,-2417.8065325963
5495646074,6210,1,0,-6717.3960496479,-80229.4003119265,-35966.7992313548,-12640.4848506942,-80537.8757617817,-45633.6084877934,-80474.9931046007,-80462.2656937239,-80503.9643907361,-2417.5266755694
5495646074,6210,1,0,-6717.5298943130,-80228.7675916917,-35965.4486170075,-12640.4240122101,-80537.3525508183,-45745.0645906916,-80473.7641672216,-80461.6329734891,-80503.1613227458,-2417.0277999997
5495646074,6210,1,0,-6716.2522861466,-80228.2322130315,-35945.5422650051,-12640.1928259705,-80540.2119595717,-45929.0279989577,-80473.1436146836,-80461.8033212447,-80503.2221612299,-2416.6506013982
5495646074,6210,1,0,-6716.4469692958,-80228.8649332663,-35934.7738533168,-12639.9373043372,-80542.3169711221,-45937.2533620100,-80473.7033287375,-80462.7037308096,-80504.0739000076,-2417.5145078726
5495674676,6211,1,0,-6717.8462544304,-80229.4003119265,-35947.5134318905,-12641.7016203765,-80540.8811828970,-45764.7884272416,-80474.7740860579,-80463.1417678952,-80504.7309556360,-2417.7213587186
5495674676,6211,1,0,-6717.2378695892,-80228.4877346647,-35967.8456532816,-12641.8719681320,-80537.4620600897,-45637.1492875689,-80473.9101795835,-80462.0953459684,-80504.3537570345,-2417.2224831488
5495674676,6211,1,0,-6718.1261114573,-80229.5341565915,-35970.5103788858,-12642.6507007287,-80538.9465191021,-45722.5178484787,-80474.4455582437,-80462.2778614207,-80504.1469061885,-2417.8917064741
5495674676,6211,1,0,-6717.2500372861,-80228.3173869092,-35950.6040268835,-12641.0445647481,-80540.0781149066,-45908.4159205396,-80473.8736764930,-80461.9858366970,-80502.8327949316,-2417.6605202345
5495674676,6211,1,0,-6717.9435960050,-80228.5972439362,-35935.6255920945,-12641.0567324449,-80542.1222879729,-45948.7153324172,-80474.1535335199,-80462.0466751811,-80503.4168443791,-2417.7456941122
5495674676,6211,1,0,-6716.7754971100,-80228.4999023616,-35945.6882773670,-12640.0954843959,-80541.2948845889,-45785.2544932978,-80474.0805273390,-80461.9493336065,-80504.3659247313,-2417.7700295059
5495674676,6211,1,0,-6717.0918572274,-80228.8162624790,-35967.0425852913,-12639.9738074277,-80538.8735129212,-45634.0830279695,-80474.4455582437,-80461.9493336065,-80503.2586643204,-2416.6871044886
5495674676,6211,1,0,-6716.9215094718,-80229.0717841122,-35971.7636516586,-12640.8255462053,-80539.7617547892,-45696.1261140697,-80475.2607939308,-80463.1782709856,-80503.5871921346,-2416.9304584251
5495698443,6212,1,0,-6717.6029004939,-80229.6314981661,-35954.0961558717,-12641.1297386259,-80540.5161519923,-45886.2950477155,-80475.4189739895,-80463.4824634062,-80505.4731851422,-2417.6726879313
5495698443,6212,1,0,-6717.0796895305,-80229.4489827138,-35936.8301940799,-12640.3388383324,-80542.9131882664,-45950.4918161533,-80475.5163155641,-80463.1782709856,-80504.7431233328,-2417.7456941122
5495698443,6212,1,0,-6717.9557637018,-80229.8383490121,-35943.0235517628,-12642.1639928558,-80542.9861944473,-45806.5479627379,-80475.7961725910,-80463.8839974014,-80505.2176635089,-2418.3419112565
5495698443,6212,1,0,-6716.7998325036,-80228.3782253933,-35963.7816425427,-12639.6939504007,-80539.6765809115,-45642.0285339949,-80473.8371734025,-80462.3752029953,-80504.0373969171,-2417.2468185425
5495698443,6212,1,0,-6717.4325527384,-80229.1934610805,-35972.4937134680,-12640.7160369339,-80538.4111404419,-45672.9466516220,-80474.2022043072,-80462.4968799636,-80504.5241047900,-2417.1859800584
5495698443,6212,1,0,-6717.0553541369,-80228.5729085425,-35955.1912485857,-12639.8764658531,-80538.3989727451,-45858.1755003577,-80473.1436146836,-80461.3044456749,-80503.4411797728,-2416.7479429727
5495698443,6212,1,0,-6717.1040249242,-80227.7090020681,-35936.6233432339,-12639.5966088262,-80540.7473382319,-45952.7550077624,-80473.9831857644,-80461.8519920320,-80502.9909749903,-2417.1738123615
5495698443,6212,1,0,-6716.4226339021,-80227.2709649825,-35939.9572921634,-12639.9859751245,-80540.0172764225,-45826.0649484419,-80473.1071115932,-80461.0489240416,-80502.7841241443,-2417.4901724789
5495767452,6213,1,0,-6717.6272358876,-80228.1592068505,-35961.7009663860,-12640.8498815989,-80539.6522455178,-45648.8302765189,-80474.1048627327,-80461.1462656162,-80503.7575398902,-2417.1859800584
5495767452,6213,1,0,-6717.3352111638,-80228.3903930902,-35972.3355334093,-12640.2293290610,-80537.6689109357,-45655.0966403828,-80473.1801177741,-80462.2291906335,-80503.2343289268,-2416.6627690950
5495767452,6213,1,0,-6716.8485032909,-80227.1857911047,-35957.9411480677,-12640.4605153006,-80537.8027556008,-45833.8766098022,-80473.7033287375,-80461.2314394940,-80502.9788072935,-2416.9669615156
5495767452,6213,1,0,-6717.2257018924,-80228.2322130315,-35938.5458393320,-12640.8498815989,-80541.0150275620,-45946.5616500795,-80473.3504655296,-80461.6208057923,-80503.2221612299,-2417.1373092711
5495767452,6213,1,0,-6717.5177266162,-80227.4291450411,-35938.3876592733,-12641.3122540782,-80540.9055182906,-45844.2678228890,-80474.3238812755,-80461.4747934304,-80502.7719564475,-2418.7434452517
5495767452,6213,1,0,-6717.1040249242,-80226.6625801413,-35957.4544401948,-12640.0468136086,-80538.7031651656,-45658.7104463392,-80472.2553728156,-80459.6009681197,-80502.4190932396,-2417.7700295059
5495767452,6213,1,0,-6716.3861308116,-80227.3439711634,-35971.0092544556,-12639.9859751245,-80536.2574581042,-45633.8153386394,-80471.4401371284,-80459.9416636307,-80502.8084595380,-2416.6506013982
5495767452,6213,1,0,-6716.6294847481,-80227.7211697649,-35959.8149733785,-12640.5578568752,-80538.7153328625,-45804.0900879797,-80473.1436146836,-80462.1075136652,-80503.6845337092,-2418.0255511391
5495775238,6214,1,0,-6716.3982985085,-80227.6846666744,-35938.7770255716,-12640.2049936673,-80540.1632887844,-45942.1569438296,-80473.1436146836,-80461.8033212447,-80502.7841241443,-2417.5875140535
5495775238,6214,1,0,-6716.9093417750,-80228.2930515156,-35935.8689460309,-12640.8377139021,-80541.2583814985,-45862.0813310378,-80474.1048627327,-80461.5599673082,-80503.5871921346,-2418.0498865328
5495775238,6214,1,0,-6716.8971740782,-80228.5607408457,-35954.9113915588,-12640.9837262640,-80539.5549039433,-45670.8659754653,-80473.1192792900,-80462.1926875430,-80504.0860677044,-2417.1859800584
5495775238,6214,1,0,-6717.5907327971,-80229.6680012566,-35970.7537328223,-12641.2879186845,-80538.3746373514,-45620.7837353421,-80474.8714276325,-80462.6185569318,-80504.1469061885,-2418.6582713739
5495775238,6214,1,0,-6717.6029004939,-80228.9622748408,-35961.5914571146,-12641.7259557702,-80538.4354758355,-45774.5104170031,-80473.4113040137,-80461.7303150637,-80503.3073351077,-2418.9502960977
5495775238,6214,1,0,-6716.9458448655,-80226.6869155349,-35938.2538146082,-12640.4970183911,-80538.5206497133,-45924.7084665855,-80471.8903419109,-80460.9759178607,-80502.1149008191,-2417.1008061806
5495775238,6214,1,0,-6717.5542297066,-80227.6359958871,-35932.3889847395,-12640.7647077212,-80540.2849657526,-45875.9403377192,-80473.4113040137,-80461.1340979194,-80503.1856581395,-2417.1494769679
5495775238,6214,1,0,-6717.2987080734,-80227.9036852172,-35949.4480956853,-12640.1441551832,-80539.5184008528,-45687.2071922985,-80473.4843101947,-80461.5721350050,-80503.2708320172,-2417.8430356868
5495793545,6215,1,0,-6717.4325527384,-80228.0983683664,-35966.5802128120,-12640.5456891783,-80537.8270909944,-45609.2122556634,-80473.0949438963,-80461.4261226431,-80503.7575398902,-2417.0764707870
5495793545,6215,1,0,-6717.4325527384,-80228.3052192124,-35960.2530104641,-12640.8255462053,-80538.0461095372,-45747.9361671418,-80473.8006703121,-80462.5820538413,-80502.9301365062,-2417.7700295059
5495793545,6215,1,0,-6717.8705898240,-80229.3759765328,-35940.0911368285,-12641.5556080147,-80540.8811828970,-45918.0770718170,-80474.2630427914,-80463.2391094698,-80504.3050862472,-2418.3662466502
5495793545,6215,1,0,-6718.4911423620,-80229.6193304693,-35932.9121957029,-12641.7502911638,-80542.4994865744,-45894.1553798631,-80474.4577259405,-80462.2778614207,-80504.9621418756,-2418.0985573201
5495793545,6215,1,0,-6717.5542297066,-80229.1326225964,-35947.9393012793,-12641.8719681320,-80540.9785244715,-45708.2573078022,-80474.9809369039,-80463.7014819490,-80504.3780924281,-2418.4027497407
5495793545,6215,1,0,-6716.6051493545,-80227.2344618920,-35967.9429948562,-12639.7426211880,-80536.6468244026,-45609.6867958395,-80472.7177452948,-80460.7568993179,-80502.6016086920,-2415.5190055936
5495793545,6215,1,0,-6716.8485032909,-80226.5895739604,-35965.3026046456,-12639.9738074277,-80536.3061288915,-45726.1073190415,-80472.7177452948,-80461.4747934304,-80502.0297269413,-2416.8087814569
5495793545,6215,1,0,-6716.7754971100,-80227.6846666744,-35946.0046374844,-12640.7768754180,-80538.7883390434,-45907.4303370969,-80472.9854346249,-80461.3774518558,-80502.0418946381,-2417.6118494472
5495820856,6216,1,0,-6717.9314283082,-80228.3295546060,-35934.0681269011,-12641.3244217750,-80541.5990770095,-45914.5727751320,-80473.9710180676,-80462.5212153572,-80504.1225707948,-2419.0476376723
5495820856,6216,1,0,-6717.9314283082,-80228.7189209044,-35948.1218167316,-12641.2270802004,-80541.7815924618,-45737.3746062995,-80474.2508750945,-80462.2291906335,-80503.9400553425,-2417.5266755694
5495820856,6216,1,0,-6716.8971740782,-80228.9257717504,-35968.5513796973,-12640.1806582737,-80538.2894634737,-45609.8814789887,-80473.8493410994,-80461.6208057923,-80503.4533474696,-2417.0764707870
5495820856,6216,1,0,-6717.3230434670,-80229.4611504106,-35970.7293974286,-12641.0689001417,-80537.6080724516,-45703.3172228921,-80474.3238812755,-80462.2535260271,-80504.1104030980,-2417.8552033836
5495820856,6216,1,0,-6716.4348015989,-80227.4534804348,-35950.7622069422,-12640.6065276625,-80539.1655376449,-45891.6123312271,-80473.0584408059,-80461.4869611273,-80503.2343289268,-2416.6871044886
5495820856,6216,1,0,-6717.0066833496,-80228.2808838187,-35937.4385789211,-12640.1441551832,-80541.1732076207,-45925.3533545171,-80473.7885026153,-80462.0466751811,-80503.5385213473,-2418.2932404693
5495820856,6216,1,0,-6717.6515712812,-80228.0010267918,-35946.5035130542,-12640.5578568752,-80540.1024503003,-45761.3571367375,-80472.7785837790,-80461.1219302226,-80502.6746148729,-2417.7943648995
5495820856,6216,1,0,-6716.8363355941,-80227.1127849238,-35968.0038333403,-12639.9738074277,-80537.0118553073,-45619.8589903835,-80471.3792986443,-80460.3066945354,-80502.4190932396,-2417.2833216329
5495876442,6217,1,0,-6716.7511617163,-80226.4922323858,-35972.0191732919,-12640.5943599656,-80537.0118553073,-45684.7249821466,-80472.4013851774,-80460.6595577433,-80501.8593791858,-2416.6140983077
5495876442,6217,1,0,-6716.7633294132,-80226.8085925032,-35953.5972803019,-12639.9494720340,-80538.9951898894,-45872.8375750293,-80472.5717329330,-80461.0732594353,-80503.1126519585,-2417.5875140535
5495876442,6217,1,0,-6716.6903232322,-80227.0154433492,-35936.3921569943,-12640.0954843959,-80540.1632887844,-45932.6539726109,-80472.3040436029,-80460.4648745941,-80501.9688884572,-2417.8065325963
5495876442,6217,1,0,-6717.7732482495,-80226.5409031731,-35943.4494211516,-12640.7768754180,-80539.5427362464,-45781.2756564367,-80472.8637576567,-80460.7568993179,-80501.8107083985,-2418.5730974962
5495876442,6217,1,0,-6717.5542297066,-80226.8450955936,-35962.7595560096,-12640.5578568752,-80537.5228985738,-45614.2983529354,-80472.0606896664,-80460.7447316211,-80502.2730808778,-2417.5388432662
5495876442,6217,1,0,-6718.2964592128,-80227.9523560045,-35969.2692738099,-12641.0932355354,-80537.7540848135,-45653.0646350133,-80473.2652916519,-80461.4991288241,-80502.8084595380,-2418.4514205280
5495876442,6217,1,0,-6716.9701802591,-80227.2831326793,-35950.9812254850,-12640.3631737260,-80538.1312834150,-45837.5877573332,-80472.6325714171,-80460.7325639242,-80502.3095839682,-2417.3684955107
5495876442,6217,1,0,-6716.8606709877,-80227.7820082490,-35931.8414383825,-12640.4605153006,-80540.9176859874,-45919.9752325214,-80473.3017947423,-80460.6473900465,-80503.3560058950,-2416.8696199410
5495880460,6218,1,0,-6717.1770311051,-80226.9181017746,-35934.2263069598,-12640.0711490023,-80541.3678907699,-45787.8462127211,-80473.2896270455,-80461.7303150637,-80502.9909749903,-2416.9791292124
5495880460,6218,1,0,-6716.8971740782,-80226.9424371682,-35953.6094479988,-12640.2049936673,-80537.8149232976,-45614.3591914195,-80473.1922854709,-80460.8177378020,-80502.3217516650,-2417.5266755694
5495880460,6218,1,0,-6717.2987080734,-80227.0884495301,-35963.4166116381,-12640.3023352419,-80537.4012216056,-45624.6287275381,-80472.7907514758,-80460.5013776846,-80502.6746148729,-2417.2468185425
5495880460,6218,1,0,-6717.1770311051,-80227.4778158284,-35946.2479914209,-12640.3996768165,-80538.2651280800,-45804.8323174859,-80473.7398318280,-80460.5865515624,-80502.6624471761,-2418.0255511391
5495880460,6218,1,0,-6717.2865403765,-80227.3561388602,-35926.0496146948,-12640.5091860879,-80540.5891581732,-45918.8923075041,-80473.1801177741,-80461.1340979194,-80502.7841241443,-2418.3540789534
5495880460,6218,1,0,-6717.8462544304,-80227.7820082490,-35926.5849933550,-12640.5700245720,-80540.9785244715,-45808.8476574375,-80473.4721424979,-80461.4626257336,-80502.8936334157,-2417.7456941122
5495880460,6218,1,0,-6716.9945156528,-80226.9424371682,-35944.7878678021,-12639.6331119166,-80539.0316929799,-45623.5214671272,-80472.5473975393,-80460.5622161687,-80502.5042671174,-2417.2833216329
5495880460,6218,1,0,-6717.6029004939,-80227.4048096475,-35957.5639494662,-12640.2049936673,-80537.3647185151,-45609.7963051109,-80472.9245961408,-80461.2801102813,-80503.4411797728,-2416.8574522441
5495919672,6219,1,0,-6716.5686462640,-80226.6625801413,-35945.3719172496,-12640.1928259705,-80537.7662525103,-45781.9570474588,-80473.0584408059,-80461.2314394940,-80502.7597887507,-2416.7114398823
5495919672,6219,1,0,-6718.0774406700,-80227.6481635840,-35924.0662801127,-12640.6917015402,-80541.0636983493,-45911.7863725595,-80473.9466826740,-80461.0002532543,-80504.0252292203,-2417.6970233249
5495919672,6219,1,0,-6716.8971740782,-80227.1614557110,-35920.9756851196,-12640.9958939608,-80540.4188104177,-45825.3227189357,-80473.5208132852,-80462.1683521493,-80503.8792168584,-2418.0742219264
5495919672,6219,1,0,-6717.7975836431,-80227.7455051585,-35939.8842859825,-12641.1540740195,-80540.7351705351,-45635.6769962533,-80474.8349245420,-80462.9957555333,-80504.5484401837,-2418.0742219264
5495919672,6219,1,0,-6717.3838819511,-80227.9766913982,-35952.1979951673,-12639.7061180976,-80537.8270909944,-45585.1445513477,-80473.8736764930,-80462.1318490589,-80503.2099935331,-2417.8430356868
5495919672,6219,1,0,-6718.5033100588,-80228.6702501171,-35943.2547380024,-12641.5069372274,-80540.6256612637,-45742.6675544175,-80475.5041478673,-80464.1030159442,-80504.8282972106,-2418.2080665915
5495919672,6219,1,0,-6717.2135341956,-80228.9622748408,-35919.5277291977,-12639.9738074277,-80540.8811828970,-45893.1332933300,-80474.2873781850,-80462.2170229366,-80503.1248196554,-2416.9547938187
5495919672,6219,1,0,-6716.7876648068,-80228.3782253933,-35913.8575824782,-12640.4361799069,-80541.6720831905,-45833.0370387215,-80473.5816517693,-80462.1683521493,-80504.3050862472,-2418.3297435597
5495946439,6220,1,0,-6717.5663974035,-80227.6359958871,-35930.0771223432,-12641.1175709290,-80540.4309781145,-45639.6193300240,-80474.3725520627,-80461.9249982129,-80503.7210367997,-2417.4536693885
5495946439,6220,1,0,-6718.0166021859,-80228.2808838187,-35946.1628175431,-12640.7525400243,-80538.0947803245,-45568.7424960303,-80474.3847197596,-80461.9736690002,-80503.0274780808,-2418.5000913152
5495946439,6220,1,0,-6717.9557637018,-80227.2344618920,-35939.3245719286,-12640.8012108116,-80537.9852710531,-45706.3104763105,-80474.1657012168,-80461.6816442764,-80503.0761488681,-2417.6361848408
5495946439,6220,1,0,-6718.1747822446,-80228.6215793298,-35917.1063575299,-12641.2514155941,-80540.7595059287,-45870.7812342662,-80474.7375829674,-80461.9006628192,-80503.5628567410,-2418.9259607040
5495946439,6220,1,0,-6716.8485032909,-80227.2222941952,-35906.1067596020,-12640.3266706355,-80541.4530646476,-45840.8000292945,-80473.9223472803,-80462.0953459684,-80503.5993598315,-2417.7456941122
5495946439,6220,1,0,-6716.9823479560,-80227.2466295888,-35922.0464424400,-12640.1319874864,-80539.4332269750,-45654.5125909353,-80472.6082360234,-80460.9759178607,-80503.0274780808,-2417.6848556281
5495946439,6220,1,0,-6716.4226339021,-80226.2002076620,-35940.0668014348,-12639.3897579802,-80537.3038800310,-45555.9420789726,-80472.7420806885,-80460.1120113863,-80502.6989502666,-2416.8574522441
5495946439,6220,1,0,-6717.0675218337,-80227.8185113395,-35938.6675163002,-12640.4240122101,-80537.7054140262,-45676.8889853927,-80474.0561919454,-80461.9858366970,-80502.7232856602,-2417.9890480487
5495999962,6221,1,0,-6717.4203850416,-80227.8550144300,-35917.9337609139,-12640.6551984498,-80540.0781149066,-45857.2385877023,-80473.8858441898,-80461.4504580368,-80503.0274780808,-2418.4392528311
5495999962,6221,1,0,-6716.7389940195,-80226.4557292953,-35905.4740393672,-12639.8521304594,-80540.4674812050,-45855.0362345773,-80472.9610992313,-80461.4139549463,-80502.2609131809,-2417.4049986012
5495999962,6221,1,0,-6717.3230434670,-80226.5895739604,-35918.1284440631,-12641.5556080147,-80539.7617547892,-45674.8813154169,-80473.3504655296,-80460.7325639242,-80503.1491550490,-2418.2567373788
5495999962,6221,1,0,-6717.4325527384,-80227.6603312808,-35939.4219135032,-12641.0932355354,-80537.4863954834,-45557.0736747771,-80472.7542483853,-80461.3287810686,-80502.3339193619,-2417.5510109631
5495999962,6221,1,0,-6717.4812235257,-80226.6260770508,-35939.2150626572,-12641.4582664401,-80536.4399735566,-45654.1232246369,-80473.2531239550,-80461.1949364035,-80502.4190932396,-2418.3297435597
5495999962,6221,1,0,-6717.3960496479,-80225.7378351828,-35917.2158668013,-12640.6065276625,-80538.2042895959,-45837.9041174506,-80472.1823666346,-80459.9903344180,-80501.8107083985,-2416.8817876378
5495999962,6221,1,0,-6717.3960496479,-80226.4800646890,-35903.7948972056,-12640.0103105181,-80541.1853753175,-45867.4959561240,-80472.4987267520,-80460.6717254401,-80502.6259440856,-2417.5875140535
5495999962,6221,1,0,-6716.5564785672,-80226.5287354763,-35915.0865198573,-12640.1198197895,-80539.7374193956,-45702.1247886034,-80473.1801177741,-80461.5599673082,-80502.3582547555,-2416.9912969092
5496048378,6222,0,0,-6716.5808139608,-80226.3340523271,-35936.4894985689,-12640.4605153006,-80538.3259665641,-45561.6852318730,-80472.5230621457,-80461.2679425844,-80502.6502794793,-2417.2833216329
5496048378,6222,0,0,-6717.6637389780,-80226.8085925032,-35939.9937952539,-12641.0567324449,-80536.8780106422,-45634.1195310600,-80472.7542483853,-80461.7424827605,-80502.2365777873,-2417.1494769679
5496048378,6222,0,0,-6716.6903232322,-80226.7112509286,-35921.5597345671,-12639.9373043372,-80537.4255569992,-45823.0351919330,-80471.7686649426,-80459.1264279436,-80501.6160252493,-2416.7966137600
5496048378,6222,0,0,-6717.6272358876,-80226.8329278968,-35906.3866166289,-12640.8863846894,-80541.1488722271,-45877.3882936411,-80472.7542483853,-80460.6960608338,-80503.1978258363,-2417.8795387773
5496048378,6222,0,0,-6716.9215094718,-80226.8937663809,-35914.7823274368,-12640.7525400243,-80539.8590963638,-45723.4425934372,-80473.1557823805,-80461.4747934304,-80501.8472114890,-2417.7578618090
5496048378,6222,0,0,-6717.3108757702,-80228.4755669679,-35935.8932814246,-12640.6186953593,-80537.7540848135,-45567.7204094972,-80472.9610992313,-80461.6816442764,-80503.0274780808,-2416.9669615156
5496048378,6222,0,0,-6716.7754971100,-80228.0375298823,-35942.2083160757,-12640.8620492957,-80538.2042895959,-45611.9743228423,-80473.9588503708,-80462.5455507509,-80503.5628567410,-2417.5753463567
5496048378,6222,0,0,-6716.7876648068,-80226.0663629970,-35923.7864230857,-12640.3023352419,-80539.0316929799,-45795.9133957147,-80473.0341054122,-80461.0002532543,-80502.3339193619,-2416.3950797649
5496060174,6223,0,0,-6716.0576029974,-80226.7234186254,-35906.1675980861,-12639.9981428213,-80539.6765809115,-45877.2787843697,-80472.7542483853,-80460.9637501639,-80502.2609131809,-2417.3076570266
5496060174,6223,0,0,-6716.7754971100,-80227.2709649825,-35910.9008321502,-12640.8742169926,-80540.6743320510,-45737.8248110819,-80472.5230621457,-80460.7082285306,-80502.4190932396,-2418.0620542296
5496060174,6223,0,0,-6715.8020813641,-80226.0176922097,-35929.5660790766,-12640.1441551832,-80537.0605260946,-45559.2881955989,-80472.5717329330,-80459.2602726087,-80500.7034479876,-2417.3441601171
5496060174,6223,0,0,-6717.1040249242,-80225.9325183319,-35938.8865348430,-12640.3875091196,-80535.7950856250,-45575.5929093417,-80472.7785837790,-80460.2336883545,-80502.4434286333,-2417.3684955107
5496060174,6223,0,0,-6716.6781555354,-80226.0055245129,-35924.0784478095,-12640.3875091196,-80537.0483583977,-45761.2111243756,-80472.0120188791,-80460.0146698117,-80502.2609131809,-2416.7966137600
5496060174,6223,0,0,-6716.5686462640,-80226.1515368747,-35905.8390702719,-12640.0468136086,-80540.1389533907,-45869.5644645839,-80473.0827761995,-80460.8177378020,-80501.6646960366,-2417.1129738774
5496060174,6223,0,0,-6716.3617954180,-80226.3462200239,-35907.2870261938,-12640.3875091196,-80540.0537795130,-45760.5175656567,-80473.0706085027,-80460.5987192592,-80502.1635716064,-2417.5388432662
5496060174,6223,0,0,-6716.4226339021,-80226.6747478381,-35928.8481849641,-12639.7061180976,-80538.7031651656,-45582.0661240515,-80472.2918759060,-80460.5865515624,-80502.1879070000,-2416.0178811634
5496094877,6224,0,0,-6716.3861308116,-80226.3097169334,-35941.0158817870,-12640.2658321514,-80535.9410979868,-45569.9349303190,-80473.1436146836,-80460.5865515624,-80502.2730808778,-2416.7844460632
5496094877,6224,0,0,-6716.8728386846,-80227.2101264983,-35928.5439925435,-12640.9593908703,-80538.3624696546,-45740.3313566275,-80472.5839006298,-80461.7546504574,-80502.4677640269,-2417.2833216329
5496094877,6224,0,0,-6717.5420620098,-80226.9302694714,-35907.4938770398,-12640.6551984498,-80540.2971334495,-45866.3278572290,-80473.7641672216,-80461.6208057923,-80503.4776828632,-2418.4392528311
5496094877,6224,0,0,-6718.1626145478,-80227.6846666744,-35905.9242441497,-12640.9350554767,-80541.9762756110,-45775.5203358394,-80473.7398318280,-80462.1805198462,-80504.3537570345,-2418.9746314913
5496094877,6224,0,0,-6717.6272358876,-80226.5044000826,-35925.1370374331,-12641.0323970513,-80539.0925314640,-45586.9088673870,-80473.6911610407,-80461.4626257336,-80503.4776828632,-2417.2589862393
5496094877,6224,0,0,-6717.5055589194,-80227.0762818333,-35940.8820371220,-12640.5213537847,-80537.4133893024,-45549.6878828056,-80474.2630427914,-80462.0710105748,-80503.1248196554,-2417.1008061806
5496094877,6224,0,0,-6717.1405280147,-80226.9424371682,-35932.1456308031,-12640.8742169926,-80538.8370098307,-45709.2915620321,-80473.2652916519,-80461.5599673082,-80502.8814657189,-2417.8308679900
5496094877,6224,0,0,-6717.2865403765,-80227.1736234079,-35909.5258824092,-12640.8742169926,-80540.7838413224,-45848.2466597501,-80473.0097700186,-80461.6938119733,-80503.5506890442,-2417.5875140535
5496106417,6225,0,0,-6717.7610805526,-80227.6603312808,-35904.4397851373,-12641.5069372274,-80541.6355801000,-45782.0665567302,-80474.1535335199,-80463.0565940174,-80504.9986449661,-2418.2567373788
5496106417,6225,0,0,-6717.7124097653,-80228.0253621855,-35921.2555421466,-12641.4826018337,-80540.0537795130,-45592.4695048351,-80474.8470922389,-80462.6185569318,-80503.3073351077,-2418.0620542296
5496106417,6225,0,0,-6717.3230434670,-80227.4048096475,-35937.5480881925,-12640.4605153006,-80537.3768862119,-45526.9221220499,-80473.4234717106,-80462.3752029953,-80502.9058011126,-2417.2954893298
5496106417,6225,0,0,-6718.1869499414,-80227.9888590950,-35931.3425628128,-12641.1175709290,-80538.4476435324,-45673.7497196123,-80474.8835953293,-80461.8276566383,-80503.4533474696,-2418.0498865328
5496106417,6225,0,0,-6717.3717142543,-80226.9424371682,-35910.2437765218,-12640.3753414228,-80539.6157424274,-45839.3764087662,-80473.0827761995,-80461.6573088828,-80502.6502794793,-2418.1350604106
5496106417,6225,0,0,-6716.6416524449,-80226.7964248064,-35903.9044064770,-12640.0468136086,-80540.2727980558,-45803.3965292608,-80474.2630427914,-80461.4382903400,-80502.1149008191,-2417.1251415743
5496106417,6225,0,0,-6716.1914476625,-80226.0541953002,-35919.6007353786,-12639.8277950658,-80538.4233081387,-45611.7918073899,-80473.2896270455,-80461.3896195527,-80501.5430190684,-2416.7114398823
5496106417,6225,0,0,-6716.5199754767,-80227.0397787428,-35938.5215039383,-12640.8863846894,-80537.2552092437,-45522.0915464112,-80473.6911610407,-80461.3044456749,-80503.0518134744,-2416.2612350998
5496135213,6226,0,0,-6717.4812235257,-80226.9789402587,-35934.8955302851,-12640.6065276625,-80538.4111404419,-45650.0957169885,-80474.2387073977,-80461.0610917385,-80503.4290120759,-2416.5532598236
5496135213,6226,0,0,-6717.0796895305,-80227.3926419507,-35913.9062532655,-12640.6308630561,-80540.5769904764,-45824.4101416740,-80474.0318565517,-80462.6550600223,-80502.9666395967,-2417.5875140535
5496135213,6226,0,0,-6717.0675218337,-80226.2245430557,-35902.6024629170,-12640.4118445133,-80539.4088915814,-45816.7809957660,-80472.8029191726,-80460.9759178607,-80502.5286025110,-2417.9282095646
5496135213,6226,0,0,-6717.3108757702,-80226.3827231144,-35917.6417361901,-12640.8255462053,-80539.9929410289,-45634.7887543853,-80473.0584408059,-80461.7789858510,-80503.1248196554,-2418.1715635010
5496135213,6226,0,0,-6717.2257018924,-80226.2610461461,-35936.2704800261,-12641.4826018337,-80536.5129797375,-45515.8495179410,-80472.3648820870,-80460.6838931369,-80502.1270685159,-2418.1958988947
5496135213,6226,0,0,-6717.6515712812,-80226.7842571095,-35935.2727288866,-12641.0810678386,-80538.0947803245,-45618.1555128283,-80473.3504655296,-80461.1340979194,-80502.7476210539,-2417.1129738774
5496135213,6226,0,0,-6716.9458448655,-80226.8815986841,-35915.5123892461,-12640.6430307529,-80539.5670716401,-45805.6840562635,-80473.5329809820,-80461.5356319146,-80503.9400553425,-2417.5875140535
5496135213,6226,0,0,-6716.9336771687,-80228.0740329728,-35902.8214814598,-12640.3023352419,-80541.4165615572,-45826.2961346816,-80474.5307321214,-80463.2634448634,-80504.6822848487,-2418.2445696820
5496164816,6227,0,0,-6716.9336771687,-80227.4291450411,-35913.9792594464,-12640.4605153006,-80541.1975430144,-45653.7460260354,-80474.3238812755,-80463.1052648047,-80504.9743095725,-2417.6848556281
5496164816,6227,0,0,-6716.8971740782,-80228.1957099410,-35934.0681269011,-12640.6308630561,-80538.3503019578,-45516.3727289044,-80473.2409562582,-80462.7524015969,-80504.3902601250,-2417.2346508457
5496164816,6227,0,0,-6716.3861308116,-80226.6990832318,-35936.0514614833,-12640.1076520927,-80537.1091968819,-45589.3910775389,-80473.9223472803,-80461.6208057923,-80502.6989502666,-2416.2977381903
5496164816,6227,0,0,-6717.2987080734,-80227.3683065570,-35916.3519603269,-12641.0689001417,-80540.9785244715,-45772.8434425384,-80474.3603843659,-80461.8398243351,-80504.1590738853,-2417.9768803519
5496164816,6227,0,0,-6717.4447204352,-80227.2709649825,-35898.9643215669,-12640.9593908703,-80542.8645174791,-45822.0861115808,-80475.3824708991,-80463.0930971079,-80503.7332044965,-2418.2445696820
5496164816,6227,0,0,-6717.1161926210,-80227.3683065570,-35905.6200517291,-12640.5091860879,-80541.4043938603,-45665.1836610490,-80474.8957630261,-80463.0079232301,-80504.2320800663,-2417.6970233249
5496164816,6227,0,0,-6717.1161926210,-80228.4999023616,-35926.6336641423,-12641.5434403178,-80539.3602207941,-45508.3298813044,-80474.5428998183,-80462.0953459684,-80504.1104030980,-2418.1593958042
5496164816,6227,0,0,-6716.8971740782,-80226.9181017746,-35931.2087181477,-12640.4605153006,-80538.1191157181,-45557.6820596183,-80474.0440242485,-80461.5964703987,-80502.2122423937,-2416.4559182490
5496218624,6228,0,0,-6716.2279507529,-80225.2632950067,-35912.5191358277,-12639.7669565817,-80537.8514263880,-45745.7581494105,-80472.5839006298,-80460.6473900465,-80502.4799317237,-2416.7601106696
5496218624,6228,0,0,-6715.9724291197,-80227.0154433492,-35895.2896771264,-12640.8620492957,-80541.3192199826,-45818.6548210768,-80474.0440242485,-80461.2436071908,-80502.4190932396,-2417.8065325963
5496218624,6228,0,0,-6717.8827575209,-80227.2709649825,-35900.3392713079,-12641.1905771100,-80541.3192199826,-45678.7019722193,-80474.1778689136,-80461.8763274256,-80503.4411797728,-2418.3054081661
5496218624,6228,0,0,-6717.4203850416,-80227.0641141365,-35920.8175050609,-12641.0932355354,-80539.3967238846,-45510.5078990357,-80473.9223472803,-80462.8375754746,-80504.4876016995,-2417.7578618090
5496218624,6228,0,0,-6716.9823479560,-80226.6504124445,-35928.6900049054,-12640.2779998482,-80537.5715693611,-45531.2659898157,-80474.4333905469,-80461.8641597288,-80502.9179688094,-2417.6483525376
5496218624,6228,0,0,-6716.4956400830,-80225.8716798478,-35912.5799743118,-12640.0103105181,-80537.3038800310,-45713.3069019837,-80472.3648820870,-80460.5135453814,-80501.7498699144,-2416.4924213395
5496218624,6228,0,0,-6717.1648634083,-80226.4557292953,-35894.3162613806,-12641.2270802004,-80541.1975430144,-45816.2699524995,-80473.9710180676,-80461.9493336065,-80503.8062106774,-2418.7677806453
5496218624,6228,0,0,-6716.9823479560,-80225.5188166399,-35897.4676948577,-12640.7160369339,-80540.1876241781,-45701.7232546083,-80472.8759253535,-80460.8177378020,-80501.5430190684,-2417.4293339948
5496228705,6229,0,0,-6716.2887892371,-80225.5309843368,-35918.3352949091,-12639.9008012467,-80537.7540848135,-45521.5074969637,-80472.8029191726,-80460.3797007164,-80502.5894409952,-2416.8696199410
5496228705,6229,0,0,-6718.1504468510,-80226.1515368747,-35930.6246687002,-12641.1662417163,-80537.3403831215,-45519.2929761419,-80473.4964778915,-80460.9029116798,-80503.0761488681,-2417.4415016916
5496228705,6229,0,0,-6717.7367451590,-80226.6990832318,-35918.7976673883,-12641.1054032322,-80538.0704449309,-45697.1847036933,-80473.6668256470,-80461.3774518558,-80502.6867825697,-2417.3319924202
5496228705,6229,0,0,-6717.8462544304,-80227.9766913982,-35900.0472465842,-12641.1905771100,-80541.4287292540,-45818.4236348371,-80474.9566015103,-80462.0831782716,-80504.3780924281,-2418.5122590121
5496228705,6229,0,0,-6717.2743726797,-80228.0010267918,-35898.6966322368,-12641.3852602591,-80541.8424309460,-45724.7323693005,-80474.2752104882,-80461.5477996114,-80504.1955769758,-2418.7799483422
5496228705,6229,0,0,-6717.9922667923,-80226.8450955936,-35918.3717979995,-12640.4483476038,-80538.9100160116,-45540.9636441836,-80473.5329809820,-80462.0101720907,-80503.8548814647,-2417.4293339948
5496228705,6229,0,0,-6716.9458448655,-80226.5774062635,-35933.8491083583,-12640.7038692370,-80537.8635940849,-45509.4006386249,-80473.4356394074,-80460.7082285306,-80503.1369873522,-2417.7335264154
5496228705,6229,0,0,-6716.7511617163,-80227.0397787428,-35923.2875475160,-12640.2779998482,-80537.8635940849,-45671.5960372747,-80473.4599748010,-80461.1827687067,-80502.9058011126,-2416.9912969092
5496259688,6230,0,0,-6716.5199754767,-80226.5287354763,-35902.4199474646,-12640.3023352419,-80539.2750469163,-45815.2965367536,-80473.2409562582,-80460.9029116798,-80502.7597887507,-2418.3297435597
5496259688,6230,0,0,-6717.8584221272,-80227.3439711634,-35900.4001097920,-12641.7259557702,-80541.9154371269,-45747.4007884816,-80473.7398318280,-80462.3143645112,-80503.7697075870,-2418.7312775549
5496259688,6230,0,0,-6716.9701802591,-80226.1637045716,-35916.6926558380,-12640.2171613641,-80538.2529603832,-45554.5062907475,-80472.4865590552,-80461.3531164622,-80502.4434286333,-2416.9061230314
5496259688,6230,0,0,-6717.3717142543,-80226.6747478381,-35933.6422575123,-12640.8133785085,-80536.2696258011,-45497.2086064083,-80473.1436146836,-80461.9249982129,-80503.2586643204,-2417.3928309044
5496259688,6230,0,0,-6716.8728386846,-80226.2732138430,-35926.0982854821,-12640.6308630561,-80538.5084820165,-45648.9884565776,-80474.5307321214,-80461.4017872495,-80502.3582547555,-2417.3198247234
5496259688,6230,0,0,-6716.8971740782,-80227.8793498236,-35905.0238345848,-12640.0103105181,-80539.3967238846,-45808.1540987186,-80473.5816517693,-80462.5212153572,-80503.9157199489,-2416.9669615156
5496259688,6230,0,0,-6716.5443108703,-80226.7842571095,-35898.8913153860,-12640.6186953593,-80541.4895677381,-45766.0295323175,-80474.1778689136,-80461.7059796701,-80503.2464966236,-2417.5510109631
5496259688,6230,0,0,-6717.1283603178,-80226.5165677794,-35915.1595260383,-12640.7768754180,-80540.0659472098,-45576.3716419383,-80473.4599748010,-80461.8033212447,-80503.1734904427,-2417.2954893298
5496287699,6231,0,0,-6717.2013664988,-80225.3119657940,-35932.2916431650,-12640.6430307529,-80536.3304642852,-45490.2243484319,-80472.4865590552,-80460.4405392005,-80502.5407702079,-2417.2103154520
5496287699,6231,0,0,-6716.7389940195,-80225.5309843368,-35926.9013534724,-12640.7768754180,-80536.7806690676,-45619.7008103248,-80472.3405466933,-80460.6230546528,-80501.2388266478,-2417.1738123615
5496287699,6231,0,0,-6717.2865403765,-80226.6504124445,-35905.3888654894,-12641.4947695305,-80540.1024503003,-45795.3171785703,-80472.8759253535,-80460.7447316211,-80502.4434286333,-2418.2324019851
5496287699,6231,0,0,-6717.2865403765,-80226.1758722684,-35894.8029692535,-12641.0202293544,-80541.4043938603,-45781.3729980113,-80473.4478071042,-80461.5721350050,-80503.0274780808,-2417.7578618090
5496287699,6231,0,0,-6717.4812235257,-80227.1979588015,-35908.4064543015,-12641.1054032322,-80540.8690152001,-45594.8908765028,-80473.8250057057,-80461.6938119733,-80504.0860677044,-2416.9912969092
5496287699,6231,0,0,-6717.5542297066,-80227.3439711634,-35928.5683279371,-12640.3510060292,-80538.5571528038,-45485.2477604313,-80473.9831857644,-80461.9858366970,-80503.3925089855,-2417.5510109631
5496287699,6231,0,0,-6716.9823479560,-80227.2587972856,-35926.6093287487,-12640.5456891783,-80538.2894634737,-45594.4285040236,-80473.6789933438,-80462.2778614207,-80503.5506890442,-2416.8331168505
5496287699,6231,0,0,-6715.9845968165,-80225.5918228209,-35906.2041011766,-12640.1441551832,-80539.8225932734,-45774.4495785190,-80472.9610992313,-80461.9371659097,-80502.5164348142,-2416.9182907283
5496358318,6232,0,0,-6716.4104662053,-80226.6869155349,-35893.8295535076,-12639.8034596721,-80542.1952941538,-45792.1900804868,-80473.3869686201,-80461.5234642177,-80503.7818752838,-2417.8308679900
5496358318,6232,0,0,-6717.4690558289,-80226.7842571095,-35905.8147348782,-12640.1076520927,-80541.1367045302,-45621.1122631563,-80474.4090551532,-80462.4603768731,-80503.2586643204,-2417.7335264154
5496358318,6232,0,0,-6717.1283603178,-80227.0276110460,-35926.5728256582,-12640.3145029387,-80538.2651280800,-45486.7687225342,-80472.9854346249,-80461.6451411860,-80503.7453721933,-2416.7966137600
5496358318,6232,0,0,-6717.6272358876,-80226.9667725619,-35929.2497189592,-12640.8985523862,-80538.0461095372,-45568.1584465828,-80473.4113040137,-80462.4968799636,-80503.2951674109,-2417.9768803519
5496358318,6232,0,0,-6716.5321431735,-80226.0055245129,-35910.1099318567,-12640.5821922688,-80538.7275005593,-45758.3882187127,-80473.2166208646,-80461.2679425844,-80502.5286025110,-2417.3928309044
5496358318,6232,0,0,-6716.5443108703,-80226.3097169334,-35896.1170805104,-12640.5091860879,-80540.7716736256,-45802.3866104245,-80473.7398318280,-80460.9759178607,-80503.2829997141,-2416.7966137600
5496358318,6232,0,0,-6717.1770311051,-80227.3561388602,-35905.5348778513,-12639.7912919753,-80540.6743320510,-45642.7464281075,-80473.4113040137,-80461.2192717971,-80503.3195028045,-2416.1882289189
5496358318,6232,0,0,-6717.7854159463,-80228.2322130315,-35928.4709863626,-12640.6673661466,-80540.0172764225,-45495.6633089118,-80475.0904461753,-80462.3265322080,-80504.0130615234,-2416.8696199410
5496364532,6233,0,0,-6716.5321431735,-80227.0519464396,-35933.5570836346,-12640.0224782150,-80537.8635940849,-45552.4864530749,-80473.7519995248,-80461.7789858510,-80503.5263536505,-2416.8209491537
5496364532,6233,0,0,-6717.2257018924,-80227.9766913982,-35915.5975631239,-12640.4970183911,-80539.1655376449,-45739.4917855467,-80474.8227568452,-80462.7645692937,-80504.3050862472,-2417.5631786599
5496364532,6233,0,0,-6717.2013664988,-80227.1736234079,-35897.9422350338,-12640.8863846894,-80542.1952941538,-45809.5655515500,-80473.7154964343,-80462.1561844525,-80503.6480306188,-2417.9647126550
5496364532,6233,0,0,-6717.9070929145,-80227.7941759458,-35904.9629961006,-12641.1175709290,-80541.9884433078,-45669.0529886387,-80474.2387073977,-80462.6550600223,-80504.1347384917,-2418.4514205280
5496364532,6233,0,0,-6717.6394035844,-80226.2732138430,-35925.1857082204,-12640.9958939608,-80539.2628792195,-45500.5547230346,-80473.6181548597,-80461.5356319146,-80503.8305460711,-2417.7213587186
5496364532,6233,0,0,-6716.5443108703,-80226.3948908112,-35932.9608664902,-12640.6430307529,-80536.9023460359,-45528.2484010036,-80472.8515899599,-80460.5500484719,-80502.5407702079,-2417.0399676965
5496364532,6233,0,0,-6717.4082173448,-80226.1758722684,-35917.0333513490,-12640.3266706355,-80539.3602207941,-45715.4727520182,-80473.4478071042,-80461.3044456749,-80503.5506890442,-2417.1981477552
5496364532,6233,0,0,-6717.2013664988,-80226.4435615985,-35899.1225016256,-12640.5456891783,-80540.5526550827,-45809.1761852517,-80472.9002607472,-80461.8884951224,-80503.3560058950,-2417.6118494472
5496388286,6234,0,0,-6717.1405280147,-80227.0519464396,-35900.5947929412,-12640.4240122101,-80540.3944750240,-45685.6618948020,-80474.0805273390,-80461.6208057923,-80503.7940429806,-2417.8065325963
