steady_timestamp,sequence,battery,flags,EEG-ch1,EEG-ch2,EEG-ch3,EEG-ch4,EEG-ch5,EEG-ch6,EEG-ch7,EEG-ch8,EEG-ch9,EEG-ch10
8360335722,7842,-2,0,57255.7057851947,61109.3370459887,40767.3814973942,59820.1695675980,57653.4191235494,63042.1270155257,67416.1219986496,58482.8666805757,69445.3653009021,27604.1115527023
8360335722,7842,-2,0,57232.6723351089,61029.9671596126,40713.7827928892,59739.3882283905,57568.9023014173,63046.7750757121,67369.3250366686,58382.6413618451,69429.3891149736,27605.7785271671
8360335722,7842,-2,0,57237.5394138381,60953.1768249630,40683.0836938049,59690.4862548591,57464.4182887987,63083.6431970856,67361.2700213718,58299.3048063048,69446.6672444622,27603.9655403404
8360335722,7842,-2,0,57261.0230687064,60986.7840035880,40718.5890331343,59744.3283133006,57488.3886515398,63096.2732663878,67404.8425436948,58354.4244729127,69472.2437431840,27599.1349647017
8360335722,7842,-2,0,57267.4962834162,61078.4310960584,40765.2643181471,59822.5179330848,57602.2904614994,63074.1888966542,67432.1468553654,58466.7201468917,69467.4009998485,27596.1052081928
8360335722,7842,-2,0,57257.6161135959,61108.8138350253,40766.3350754675,59820.3520830503,57654.4047069921,63053.9783522313,67414.0778255834,58488.9018581999,69445.3287978117,27607.1534769080
8360335722,7842,-2,0,57240.9707043421,61037.8274917603,40719.1487471881,59742.0407862979,57575.6188700635,63043.6844807191,67369.8482476320,58396.3665238614,69425.9943275600,27608.1877311380
8360335722,7842,-2,0,57238.6466742490,60957.3990157606,40683.5947370715,59687.1158028391,57467.8374116059,63062.9702801834,67359.6638853912,58312.3120742085,69433.3192810474,27603.3449878025
8360349763,7843,-2,0,57253.7467860062,60968.4837875663,40706.3970009177,59723.3512039778,57465.1726860017,63083.5823586015,67392.4436606322,58339.0810072190,69457.7885193584,27595.3386432930
8360349763,7843,-2,0,57260.7310439826,61051.1997905687,40753.8753539208,59798.2798810135,57565.7265325465,63068.3240667855,67421.9868285183,58439.0629720131,69460.1125494515,27587.0037709693
8360349763,7843,-2,0,57246.5921802743,61093.8597356299,40760.7135995353,59816.1055568591,57635.8854724276,63040.0828424595,67410.5735288984,58482.1487864632,69437.3589563926,27589.7171673608
8360349763,7843,-2,0,57231.8570994218,61039.2754476822,40719.6719581515,59751.0570496437,57581.5932092036,63043.7574869000,67366.4534602184,58401.8906582190,69419.7644667867,27601.3251501299
8360349763,7843,-2,0,57235.1180421703,60957.1313264305,40685.6267424409,59686.9089519931,57470.4169633324,63081.3921731734,67349.7715478741,58292.8437592918,69433.5261318934,27611.0958106787
8360349763,7843,-2,0,57260.7432116794,60975.9304180219,40719.8179705134,59724.6166444474,57469.7355723103,63118.2967976373,67394.0741320065,58316.9357990013,69472.3045816681,27619.9782293594
8360349763,7843,-2,0,57275.4904602288,61071.2278195392,40779.2815048871,59809.5715036652,57583.2966867588,63097.6482161288,67436.7949155518,58430.2170564229,69482.0387391265,27622.2049178780
8360349763,7843,-2,0,57259.6481189654,61113.3767213339,40781.7393796453,59820.4980954122,57654.2951977207,63053.3699673901,67420.2590155694,58467.2068547646,69451.1206214994,27615.0138090557
8360376229,7844,-2,0,57238.8048543077,61057.5513283102,40732.9955861726,59758.4671770088,57606.7681739302,63046.7750757121,67379.3025480634,58394.4561954602,69425.9456567727,27612.4464250260
8360376229,7844,-2,0,57238.4884941903,60974.2877789509,40690.2017964463,59700.0865676524,57499.4734233455,63067.0951294064,67362.1339278462,58293.6103241917,69429.4499534577,27609.3436623362
8360376229,7844,-2,0,57255.6814498011,60960.8303062647,40695.8962785595,59713.7630588814,57462.0577556150,63090.3475980350,67389.0002024313,58278.1573492265,69450.6947521106,27599.0011200367
8360376229,7844,-2,0,57272.1321759057,61042.5607258244,40747.6819962379,59795.6151554093,57552.6219230682,63085.2249976726,67431.6479797957,58371.9216209441,69464.3347402491,27593.1241224712
8360376229,7844,-2,0,57265.3182656849,61112.3059640135,40774.8281278499,59836.8636476391,57647.3839459252,63057.1054503148,67436.1378599234,58440.3527478764,69451.2179630740,27598.5509152542
8360376229,7844,-2,0,57249.8044522356,61080.1224059168,40742.1456941835,59786.0148426160,57621.9899626558,63051.3014589302,67397.1160562122,58379.1370651601,69430.6667231400,27613.3224991973
8360376229,7844,-2,0,57248.1374777709,60992.5393241853,40697.0278743640,59709.2488433600,57509.0128976547,63077.0239700139,67369.6535644828,58261.8404677870,69436.9209193070,27619.3698445183
8360376229,7844,-2,0,57263.0185709853,60977.0011753424,40711.5682720674,59718.2529390090,57472.6923226382,63103.4157044229,67393.4170763780,58251.7291117271,69466.9994658533,27620.5014403228
8360406174,7845,-2,0,57267.7396373526,61052.6964172779,40755.5544960824,59787.2924507824,57556.8197784721,63092.6472927346,67425.1139266018,58341.5267142804,69476.4294308911,27611.6798601262
8360406174,7845,-2,0,57254.8662141139,61114.5448202289,40770.3139123286,59815.9230414068,57645.9846607906,63061.8386843789,67420.1495062980,58403.0222540236,69455.1237937541,27601.9578703647
8360406174,7845,-2,0,57238.9386989727,61089.4185262895,40739.8703348776,59774.7962261452,57633.7317900899,63054.7692525248,67386.0069490129,58369.0987152812,69433.0759271110,27598.5387475574
8360406174,7845,-2,0,57239.7539346598,61009.6714413120,40702.3208224820,59711.8405627833,57536.7187433206,63085.8090471201,67364.6404733918,58285.0807687188,69439.6099803049,27609.6235193631
8360406174,7845,-2,0,57265.9023151323,60984.0462718029,40710.8990487422,59713.5197049449,57486.3079753831,63130.5861714285,67391.5919218546,58273.5092890402,69474.9693072724,27624.1517493697
8360406174,7845,-2,0,57292.6347450524,61058.8411041735,40769.3769996732,59794.6539073603,57562.8549560962,63123.6262488458,67444.2780490979,58378.1758171111,69502.3222897303,27626.8164749739
8360406174,7845,-2,0,57281.7324886990,61127.2357280152,40795.6105540235,59842.2782727253,57661.0117663669,63066.8031046827,67445.3488064183,58469.0806800753,69476.3077539229,27613.7240331924
8360406174,7845,-2,0,57248.3443286168,61094.3099404124,40755.3111421459,59788.9959283376,57646.2158470302,63039.1459298041,67394.2688151556,58431.0079567163,69435.3391187200,27608.2972404094
8360433563,7846,-2,0,57235.0450359894,61000.1928054869,40702.2356486042,59704.2114168753,57533.8958376576,63061.4736534742,67353.0933291068,58320.2454125371,69427.9289913549,27617.3500068457
8360433563,7846,-2,0,57246.5921802743,60960.4774430568,40698.5245010732,59692.6034341063,57466.3286171999,63093.4381930281,67369.2398627908,58283.7788251587,69451.7168386437,27624.4194386998
8360433563,7846,-2,0,57263.9798190343,61021.3524302620,40745.1511152987,59761.4604304273,57526.4370395052,63092.1119140744,67414.6740427277,58361.7980971874,69469.7128622448,27621.1706636481
8360433563,7846,-2,0,57263.6026204328,61101.1603537237,40782.0800751564,59816.2880723115,57628.7308666957,63066.5840861398,67429.0075895851,58448.3104215986,69458.5794196519,27617.0579821219
8360433563,7846,-2,0,57251.3132466416,61105.5528922768,40770.2044030572,59800.2023771115,57650.6083855833,63052.3965516443,67404.8060406043,58446.2419131387,69435.8258265929,27617.2283298774
8360433563,7846,-2,0,57242.9783743179,61028.3975267225,40721.4606095845,59727.8775871960,57561.5530125362,63061.8021812884,67371.1501911920,58355.6290748982,69428.2210160786,27621.6938746115
8360433563,7846,-2,0,57251.9459668764,60967.9970796934,40696.9305327894,59693.1266450696,57470.0275970340,63089.7635485876,67374.0217676422,58285.2024456870,69446.2292073766,27617.4595161171
8360433563,7846,-2,0,57270.7815615584,61011.4479250481,40734.4922128818,59750.6920187390,57508.5505251755,63094.8253104659,67414.4428564881,58347.4158795427,69465.6001807187,27607.4211662382
8360490072,7847,-2,0,57272.6797222627,61102.1581048631,40779.9020574251,59824.2214106400,57625.5794332185,63069.9667058566,67440.7372493224,58453.1775003277,69459.3581522485,27600.4247405650
8360490072,7847,-2,0,57259.4047650289,61111.3568836613,40767.9533791449,59810.4110747460,57658.9189225134,63052.6277378839,67414.3090118230,58452.2527553692,69436.0326774389,27603.3449878025
8360490072,7847,-2,0,57248.8553718834,61032.1208419503,40717.7859651439,59731.2723746096,57567.7098671286,63057.5921581877,67374.1677800041,58347.2211963936,69425.8118121077,27611.3878354024
8360490072,7847,-2,0,57253.6372767348,60968.1065889648,40695.4582414738,59691.7881984191,57474.6999926140,63078.7517829628,67371.5273897936,58277.2326042680,69441.9096750044,27615.2328275985
8360490072,7847,-2,0,57267.1434202083,61000.9715380836,40727.1550916976,59736.3341364879,57495.7136050273,63085.5048546995,67403.3945877728,58323.9687277649,69458.1413825662,27615.3180014762
8360490072,7847,-2,0,57267.4232772352,61082.6897899464,40767.2963235165,59800.6160788035,57595.7807436991,63060.2568837919,67423.5686291053,58417.0272730668,69452.6659189959,27609.9642148742
8360490072,7847,-2,0,57247.8089499566,61103.3748745454,40761.1394689241,59798.5354026468,57641.5556191470,63031.4681131088,67402.2508242715,58436.7024388295,69425.1425887824,27602.5540875090
8360490072,7847,-2,0,57231.0783668251,61029.3101039842,40709.5240990012,59726.8311652692,57565.4588432164,63037.9169924250,67362.3772817827,58344.0089244323,69409.2029059444,27603.4179939834
8360498733,7848,-2,0,57242.5160018387,60953.5783589582,40678.3139566503,59679.0121167550,57464.2479410431,63082.6697813398,67359.9559101149,58257.4114261434,69433.2827779569,27614.1620702781
8360498733,7848,-2,0,57274.0911750942,60987.4288915196,40714.2816684589,59735.1051991088,57485.0668703072,63105.8857468779,67408.6997035876,58303.7338479484,69467.9972169928,27621.6208684305
8360498733,7848,-2,0,57289.8970132672,61092.0589165001,40772.4797623631,59825.7180373492,57609.6154149868,63085.8942209979,67449.3641463699,58425.2526361191,69475.6020275071,27622.0832409098
8360498733,7848,-2,0,57276.9627515444,61123.2203880637,40773.8547121041,59830.2809236578,57670.4052283142,63051.3136266271,67426.5375471301,58451.8390536772,69447.0322753669,27620.8908066212
8360498733,7848,-2,0,57259.4291004225,61058.7802656894,40730.6837237763,59758.7592017326,57605.2958826147,63062.0090321344,67384.8631855115,58370.4736650222,69432.9907532332,27627.5465367833
8360498733,7848,-2,0,57266.8027246972,60989.8380954906,40707.2365719985,59715.0163316541,57513.3811008142,63100.0817554934,67383.4760680737,58298.4043967399,69455.6591724144,27636.5871355227
8360498733,7848,-2,0,57284.6649036333,60999.4749113743,40728.3110228958,59744.3769840879,57505.3869240015,63107.1390196507,67421.0255804693,58322.8492996572,69479.2523365540,27625.7092145630
8360498733,7848,-2,0,57285.3706300491,61073.0286386690,40764.6802686996,59804.3637294250,57589.9767523146,63076.7441129870,67445.8598496849,58417.9276826317,69472.9616372966,27606.7154398224
8360552747,7849,-2,0,57262.4588569315,61111.6975791723,40767.4666712720,59815.2903211720,57654.2951977207,63044.6578964649,67427.7543168124,58462.8629869988,69443.5888171660,27595.5333264421
8360552747,7849,-2,0,57239.2185559996,61054.9961119774,40725.1109186314,59748.0759639220,57600.4288038855,63047.2739512818,67378.4873123763,58384.2961686131,69420.7865533198,27600.9357838315
8360552747,7849,-2,0,57244.2803178780,60969.3111909503,40690.7006720161,59684.6822634745,57488.0722914225,63085.3101715504,67362.6206357192,58275.8211514365,69437.6509811164,27616.4252618871
8360552747,7849,-2,0,57267.0339109369,60972.7668168480,40715.4254319603,59716.4886229697,57471.3538759877,63109.0858511424,67398.8073660706,58287.1371094819,69472.7912895410,27621.8885577606
8360552747,7849,-2,0,57275.6973110748,61058.2935578164,40769.2674904018,59797.0631113312,57570.2772511582,63090.2380887636,67433.9841775857,58393.0204072351,69479.5200258841,27615.3788399604
8360552747,7849,-2,0,57263.5661173424,61110.6146541551,40780.1089082711,59816.1542276464,57649.5011251724,63059.7823436158,67421.8651515501,58441.3991698031,69455.7321785953,27612.2152387864
8360552747,7849,-2,0,57255.1217357472,61077.1899909825,40747.6819962379,59766.9480616944,57620.9800438194,63071.5241710500,67387.8686066268,58382.6048587547,69441.4473025252,27620.5379434133
8360552747,7849,-2,0,57261.9234782713,61006.5565109253,40714.2451653685,59712.6192953800,57527.2766105860,63093.0731621234,67374.6423201802,58290.3250460495,69451.2544661644,27631.2941874048
8360556075,7850,-2,0,57278.2768628013,60991.2738837157,40721.9594851542,59720.9420000069,57488.1574653002,63111.2395334800,67395.5829264125,58271.8544822723,69473.9715561329,27631.9877461237
8360556075,7850,-2,0,57285.3706300491,61057.7946822467,40762.5874248460,59787.7183201712,57561.2853232061,63092.2579264363,67430.2365269642,58350.6524868976,69476.8674679767,27623.3000105921
8360556075,7850,-2,0,57272.1930143898,61118.4993216964,40777.6266981192,59825.1218202049,57650.5110440087,63056.7525871069,67426.9390811252,58417.3801362746,69450.9137706534,27615.4031753540
8360556075,7850,-2,0,57253.2600781333,61084.6852922254,40742.4255512104,59774.7840584484,57631.6997847205,63047.5659760056,67386.7613462159,58369.1960568558,69425.3859427189,27614.4175919113
8360556075,7850,-2,0,57250.6440233164,60995.2405528800,40696.9183650926,59700.2812508015,57521.4361161110,63080.3335835498,67362.2677725113,58265.3569321688,69432.2485237270,27620.2337509927
8360556075,7850,-2,0,57265.8171412546,60971.6230533466,40703.4645859833,59702.8242994375,57470.7454911466,63104.1335985354,67388.1727990473,58253.1892353459,69461.4388284052,27617.2891683616
8360556075,7850,-2,0,57277.8753288061,61044.4832219224,40751.9528578228,59776.3293559449,57546.4529007789,63092.6351250378,67428.1680185043,58351.0905239833,69473.5213513504,27604.0750496118
8360556075,7850,-2,0,57270.6842199838,61109.4587229569,40774.3900907643,59816.3610784924,57636.5546957528,63061.9846967408,67428.3140308662,58423.7438417130,69455.7321785953,27601.1548023743
8360588461,7851,-2,0,57252.1041469351,61084.3810998048,40746.3678849810,59774.6380460865,57625.3239115852,63044.0130085333,67387.5644142062,58387.6057821489,69429.8393197561,27604.8537822085
8360588461,7851,-2,0,57241.3722383373,60997.4550737017,40699.8872831174,59702.8121317407,57525.0864251578,63059.0401141096,67354.8211420556,58287.8793389881,69425.0695826015,27616.7051189141
8360588461,7851,-2,0,57252.6395255953,60952.1790738236,40689.4352315465,59686.0328778219,57452.9684860883,63086.4295996581,67369.6170613923,58245.8399464648,69445.0124376943,27617.7637085377
8360588461,7851,-2,0,57270.8302323456,61011.2167388085,40733.3727847741,59756.6541901822,57513.1499145745,63095.2876829452,67420.8552327138,58332.4982832378,69466.4275841027,27610.5604320185
8360588461,7851,-2,0,57270.5625430155,61095.0521699186,40770.4720923873,59823.8807151290,57626.4433396929,63059.3078034397,67443.4749811076,58438.9534627417,69453.5298254703,27607.8105325365
8360588461,7851,-2,0,57251.8972960891,61085.5126956094,40744.5183950639,59794.8364228126,57634.6321996548,63037.4789553394,67411.1819137395,58420.2517127249,69422.5143662686,27611.7772017008
8360588461,7851,-2,0,57243.4164114036,60999.9981223377,40693.1220436838,59716.7563122998,57531.9003353787,63055.1951219136,67377.3678842686,58311.6915216706,69419.1195788551,27613.0304744735
8360588461,7851,-2,0,57258.1028214688,60955.1114887579,40684.6898297855,59701.9238898726,57459.8919055805,63091.2845106904,67393.1980578352,58265.5394476212,69445.8398410782,27615.1963245080
8360635189,7852,-2,0,57281.5256378530,61015.4145942124,40733.8351572534,59770.9512339492,57519.5622908002,63097.2223467400,67438.0603560214,58344.1184337037,69471.6718614333,27613.6388593147
8360635189,7852,-2,0,57280.8929176182,61096.3176103881,40772.4432592726,59826.3994283713,57621.5397578733,63076.5981006251,67450.1307112698,58432.8696143303,69463.3248214128,27608.8447867664
8360635189,7852,-2,0,57263.3836018900,61104.6889858023,40761.0177919559,59803.6214999188,57648.6615540916,63063.8585220515,67420.0643324203,58431.0809628973,69444.9881023006,27608.1877311380
8360635189,7852,-2,0,57246.1906462792,61026.7183845609,40713.8557990701,59723.1443531318,57563.8405395389,63073.6900210844,67377.2340396035,58335.7227228959,69437.3832917863,27609.7330286345
8360635189,7852,-2,0,57254.2943323633,60965.9407389303,40697.3929052687,59683.9643693620,57475.8924269027,63117.3598849820,67380.6166593203,58268.2650117095,69463.0814674763,27613.5293500433
8360635189,7852,-2,0,57272.4972068104,61007.3960820061,40739.2254469460,59738.2566325859,57506.7983768330,63117.5424004343,67420.6970526551,58329.0791604306,69486.6989670097,27612.5072635101
8360635189,7852,-2,0,57268.0925005605,61094.0909218695,40782.0192366723,59806.8094364864,57612.0611220482,63078.7152798723,67438.2915422610,58439.0751397100,69474.9328041819,27610.0615564487
8360635189,7852,-2,0,57244.3533240589,61103.3505391518,40767.0773049737,59790.2370334135,57643.2104259150,63046.7994111057,67405.3657546582,58444.4654294025,69439.8533342413,27608.9664637347
8360671824,7853,-2,0,57227.3185485068,61021.0239024478,40710.0959807518,59709.6747127488,57551.4903272636,63047.9310069103,67360.5764626529,58343.5830550435,69421.4436089482,27606.3747443114
8360671824,7853,-2,0,57236.2983087621,60949.9645530018,40682.0737749686,59672.7214174976,57456.2050934432,63076.8414545616,67360.6738042275,58271.6719668199,69437.1764409403,27604.2088942769
8360671824,7853,-2,0,57256.1194868867,60975.9182503251,40709.2929127615,59720.9298323101,57472.5463102764,63087.4273507975,67400.2674896893,58317.7266992947,69459.4554938231,27605.4256639592
8360671824,7853,-2,0,57266.3525199148,61060.4959109414,40749.3124676122,59793.9238455509,57578.1862540932,63064.9171116751,67431.5506382211,58423.6708355321,69459.2364752803,27608.2120665316
8360671824,7853,-2,0,57250.9725511306,61091.1463392384,40747.1344498809,59799.0829490038,57634.8755535912,63035.9093224492,67414.6862104245,58463.9094089256,69436.2395282849,27607.7983648397
8360671824,7853,-2,0,57230.4091434998,61023.6399572647,40698.5001656796,59729.3255431179,57569.7297048012,63028.4018535095,67372.5129732362,58390.2583400563,69418.4746909234,27609.4288362139
8360671824,7853,-2,0,57229.9954418078,60938.3687379295,40659.9285667509,59668.7425806365,57459.3321915267,63065.5863350004,67360.9658289512,58304.9992884180,69430.1313444798,27609.4653393044
8360671824,7853,-2,0,57247.4925898392,60957.5450281225,40690.6398335320,59708.9811540299,57467.8130762123,63092.2457587394,67401.6911102176,58346.1261036795,69461.4631637989,27609.7573640282
8360676226,7854,-2,0,57256.3385054295,61057.4783221293,40751.0767836515,59794.4592242111,57586.8983250184,63076.7562806838,67438.2307037769,58467.2798609455,69468.7272788022,27609.3558300330
8360676226,7854,-2,0,57242.7471880783,61101.7930739585,40760.4215748115,59805.7995176501,57658.1766930072,63052.8589241236,67416.8155573685,58501.0695550228,69443.5279786819,27606.6667690351
8360676226,7854,-2,0,57229.5087339349,61051.5769891702,40724.9405708758,59741.7487615741,57606.0137767272,63065.0266209465,67374.8735064199,58420.5072343581,69430.6667231400,27610.4022519598
8360676226,7854,-2,0,57239.0725436378,60985.8592586295,40702.8075303549,59692.6399371967,57510.8623875718,63097.1371728623,67365.0176719933,58333.7393883137,69452.2400496071,27614.2472441558
8360676226,7854,-2,0,57253.6494444316,60989.8137600969,40719.1730825818,59712.5584568959,57492.6838485183,63110.8745025754,67392.5410022068,58340.2734415077,69476.8553002799,27606.1192226781
8360676226,7854,-2,0,57260.7310439826,61068.8794540524,40764.6072625186,59779.9431619013,57583.2358482747,63099.5585445300,67422.5222071785,58428.3310634153,69485.9810728971,27599.1714677922
8360676226,7854,-2,0,57248.7945333993,61122.7336801907,40777.2251641240,59805.7021760755,57663.8711751203,63060.7435916648,67414.3698503071,58476.6003167119,69465.1743113299,27598.1250458654
8360676226,7854,-2,0,57224.7389967803,61072.2864091628,40733.7134802852,59744.9245304449,57619.8484480149,63051.2892912334,67367.3295343896,58403.2777756569,69437.3589563926,27600.6924298951
8360711116,7855,-2,0,57223.6925748536,60979.7389071275,40690.6276658351,59673.7313363339,57506.0683150236,63082.6211105525,67344.5759413307,58287.1127740882,69445.8033379878,27609.1246437934
8360711116,7855,-2,0,57242.5281695355,60969.5545448867,40704.8517034212,59693.8810422727,57476.1601162328,63105.5815544574,67376.6013193687,58279.9581683563,69475.0788165438,27610.9984691041
8360711116,7855,-2,0,57255.8031267693,61053.6576653269,40759.0222896769,59776.3536913386,57575.1078267970,63094.1925902311,67416.0611601655,58378.2123202016,69487.1978425794,27605.6446825020
8360711116,7855,-2,0,57249.5245952087,61111.0770266344,40777.5780273319,59808.2087216210,57663.7373304553,63064.4425714990,67410.5978642920,58428.6839266232,69467.8998754182,27603.0042922914
8360711116,7855,-2,0,57230.6038266490,61069.8407021014,40737.9113356891,59755.8024514046,57630.5803566127,63045.2176105188,67371.5395574904,58362.0049480334,69442.4328859678,27607.3359923604
8360711116,7855,-2,0,57217.1585216596,60977.0741815233,40684.6411589982,59683.4533260954,57513.5757839633,63060.2933868824,67341.9233834233,58251.5100931843,69436.1300190135,27608.1147249571
8360711116,7855,-2,0,57230.8715159791,60950.8406271730,40685.1887053553,59686.9697904772,57460.5002904217,63087.6220339467,67364.4457902426,58228.7321647318,69457.4113207568,27613.5901885274
8360711116,7855,-2,0,57240.8125242834,61014.7940416744,40727.9216565974,59755.9484637665,57532.3627078580,63078.1799012121,67403.5892709220,58312.5797635386,69466.3180748312,27611.6068539452
8360748855,7856,-2,0,57231.6624162726,61084.9529815555,40754.4594033683,59803.0739535617,57632.8557159186,63045.8016599663,67410.0746533286,58393.7139659540,69449.3563054601,27609.0273022188
8360748855,7856,-2,0,57208.3977799471,61057.5391606134,40724.7702231203,59756.6176870918,57624.1558126902,63035.0210805811,67367.9987577149,58352.1247782132,69421.8573106402,27610.7794505613
8360748855,7856,-2,0,57199.9168952615,60964.7969754290,40678.9101737946,59675.2401307399,57513.4906100856,63061.3276411123,67333.7223557647,58234.4631499354,69423.5364528018,27614.4175919113
8360748855,7856,-2,0,57218.0832666182,60934.7792673668,40688.6686666466,59675.4956523732,57457.2393476731,63098.9623273857,67359.6638853912,58206.3192671839,69456.8759420966,27614.0768964003
8360748855,7856,-2,0,57239.1820529092,61009.0873918645,40745.1146122083,59757.0800595710,57535.1004396431,63111.3490427514,67407.9209709910,58301.4706563393,69480.7489632632,27615.1354860239
8360748855,7856,-2,0,57252.0554761478,61100.2356087651,40788.9061530740,59823.2844979847,57651.8616583561,63090.5787842747,67430.2243592674,58394.3953569761,69480.6272862950,27624.5167802744
8360748855,7856,-2,0,57241.1410520977,61092.9714937618,40763.4634990173,59792.7192435654,57659.5029719609,63067.4114895238,67398.8317014642,58372.7733597217,69457.3991530600,27622.3996010272
8360748855,7856,-2,0,57232.8426828644,61011.3384157767,40712.9310541116,59718.1921005249,57562.9522976708,63075.7341941507,67364.9324981155,58276.3078593095,69447.6771632985,27623.5798676190
8360801396,7857,-2,0,57239.1698852124,60963.3003487197,40700.2036432348,59689.1721436022,57488.0114529383,63104.8636603448,67367.9622546244,58224.6924893865,69469.4330052179,27621.4626883718
8360801396,7857,-2,0,57250.9725511306,61016.1933268091,40743.6058178022,59744.4013194815,57534.1391915941,63109.7429067708,67402.0318057287,58292.4908960840,69488.4146122617,27612.1300649086
8360801396,7857,-2,0,57246.7503603330,61105.2121967657,40785.7912226874,59808.9996219145,57646.0333315779,63081.0758130560,67421.8408161564,58389.4066012787,69477.6340328766,27607.5671786000
8360801396,7857,-2,0,57227.3428839004,61106.1491094211,40766.8704541277,59787.0004260586,57662.4962253793,63057.1906241925,67390.2169721136,58370.8995344110,69449.2832992791,27608.8691221601
8360801396,7857,-2,0,57218.6429806720,61023.8589758075,40715.7174566840,59712.2420967785,57564.8382906784,63078.1068950312,67356.5854580950,58256.1946564611,69446.3387166480,27619.7957139071
8360801396,7857,-2,0,57226.4546420324,60967.1453409158,40699.2667305794,59686.1058840028,57478.2894631768,63101.2376866916,67366.5264663993,58195.0519799258,69464.9066219998,27619.0656520977
8360801396,7857,-2,0,57241.4939153055,61007.5299266711,40733.0320892631,59742.7343450168,57515.1332491567,63094.7279688913,67405.8524625311,58259.2730837573,69481.7102113123,27609.5748485758
8360801396,7857,-2,0,57238.4763264934,61080.8037969389,40762.8307787825,59797.0266082407,57613.3508979115,63057.4704812195,67416.4991972511,58346.3572899191,69466.5857641613,27600.6315914110
8360817720,7858,-2,0,57214.8953300506,61083.3346778781,40745.2971276606,59776.7065545464,57637.5524468923,63030.5312004535,67383.4395649832,58351.2122009515,69431.9808343969,27600.4369082618
8360817720,7858,-2,0,57198.2499207968,61006.2888215952,40694.8376889359,59704.5399446896,57554.9216177677,63037.7831477599,67343.1766561961,58267.1090805113,69416.1263254366,27610.5725997153
8360817720,7858,-2,0,57207.1323394775,60936.1542171078,40667.8740727762,59660.2860313445,57457.7503909397,63074.6025983462,67341.3636693695,58194.5044335688,69433.2097717760,27618.1895779265
8360817720,7858,-2,0,57230.9931929473,60970.7591468722,40703.5984306484,59710.3196006805,57480.8446795096,63094.4237764707,67385.5324088367,58243.8687795795,69461.6700146449,27616.3157526157
8360817720,7858,-2,0,57237.9166124396,61061.9438668633,40754.7514280920,59785.5889732272,57595.7199052150,63064.0532052007,67414.4793595785,58355.8602611379,69460.3924064785,27605.9610426194
8360817720,7858,-2,0,57220.4559674987,61081.4365171737,40747.7428347220,59777.7164733827,57643.9039846339,63027.1242453430,67386.2989737366,58369.9139509684,69429.5959658196,27604.0385465214
8360817720,7858,-2,0,57206.2562653063,61007.1040572823,40695.0202043882,59699.1739903906,57562.8427883994,63026.2481711718,67344.5759413307,58270.2605139885,69408.5458503159,27611.2661584342
8360817720,7858,-2,0,57214.2382744221,60934.8036027604,40663.4937019200,59657.5848026498,57460.9383275073,63052.0315207396,67341.4853463377,58189.4670070841,69419.1195788551,27617.5568576917
8360845092,7859,-2,0,57237.9652832269,60961.1223309884,40692.3554787840,59708.7499677903,57473.8847569269,63070.8062769374,67382.8555155357,58235.1932117447,69440.6077314444,27618.2260810169
8360845092,7859,-2,0,57250.4980109545,61049.3259652579,40738.3858758652,59783.2041046499,57578.2957633646,63055.9373514198,67411.4130999792,58342.3784530580,69440.0236819969,27609.5870162726
8360845092,7859,-2,0,57242.8688650465,61090.4406128227,40743.2651222912,59797.7323346565,57645.4371144336,63029.2900953775,67397.5175902074,58385.9996461683,69419.3385973979,27597.6261702957
8360845092,7859,-2,0,57225.8340894944,61032.6318852169,40700.0941339634,59732.4283058077,57589.9524169209,63027.0025683748,67354.1397510336,58307.8465294745,69400.3691580509,27594.3287244567
8360845092,7859,-2,0,57227.4037223846,60949.0154726496,40663.1165033185,59670.8840952773,57476.4521409565,63057.4461458258,67336.9224600291,58199.8825555646,69412.8775503849,27597.3828163592
8360845092,7859,-2,0,57249.6097690864,60958.3602638096,40688.3158034388,59704.2114168753,57464.1384317717,63082.2682473446,67375.4818912610,58214.4351209648,69444.1485312198,27598.4414059828
8360845092,7859,-2,0,57265.9266505260,61057.5878314007,40745.7595001399,59794.7634166317,57574.3655972908,63071.5363387468,67419.8818169679,58333.0945003821,69457.7520162679,27599.9745357825
8360845092,7859,-2,0,57251.5200974876,61105.7475754259,40752.5612426639,59811.0437949808,57646.9215734460,63032.5753735197,67406.9597229420,58384.6125287305,69435.5581372629,27601.1182992839
8360872657,7860,-2,0,57226.9413499053,61046.6125688664,40704.8273680275,59738.7798435493,57589.7455660750,63027.0269037685,67360.3939472006,58313.4071669226,69413.6562829816,27599.2566416700
8360872657,7860,-2,0,57220.1152719876,60958.3237607192,40663.7370558564,59671.6749955708,57477.3282151278,63046.1545231741,67337.2996586306,58226.3229607608,69417.6229521458,27598.0520396845
8360872657,7860,-2,0,57232.4046457788,60947.0808088548,40673.9944242782,59686.5195856948,57449.3546801319,63067.7643527317,67363.2898590444,58238.1986328600,69437.5171364513,27600.3273989904
8360872657,7860,-2,0,57243.0635481957,61021.5714488048,40719.7571320293,59758.9295494881,57538.0328545774,63057.5678227940,67400.0849742370,58343.3762041975,69445.2679593276,27601.6293425504
8360872657,7860,-2,0,57232.9886952263,61079.7208719216,40740.5152228092,59791.6241508514,57625.2752407979,63035.3009376081,67400.3283281734,58418.8037568029,69428.9632455848,27603.9655403404
8360872657,7860,-2,0,57218.1441051023,61046.7829166219,40714.8413825128,59744.4378225720,57604.2616283847,63030.0688279742,67364.7134795727,58377.1293951844,69410.7725388345,27611.8137047912
8360872657,7860,-2,0,57215.7835719187,60953.5296881709,40673.0940147133,59663.6321479708,57488.1331299066,63058.6629155081,67335.8638704055,58267.8513100175,69416.3331762826,27612.2639095737
8360872657,7860,-2,0,57236.1766317939,60935.8621923840,40686.6609966709,59673.4636470038,57446.2397497452,63088.6076173894,67363.5088775872,58261.4267660950,69447.9083495381,27614.1255671876
8360915217,7861,-2,0,57250.4493401672,61018.3470091467,40743.6179854990,59754.0624707589,57535.4411351542,63080.2240742784,67404.0151403108,58371.4470807680,69461.7916916131,27613.0304744735
8360915217,7861,-2,0,57240.0094562931,61082.9088084893,40762.8186110856,59789.5191393010,57627.5506001038,63043.6723130222,67397.1890623931,58439.4401706146,69439.0380985542,27610.1832334170
8360915217,7861,-2,0,57222.8895068633,61053.7306715078,40728.0920043530,59739.5829115396,57605.8434289717,63034.4370311336,67356.7558058505,58393.6409597731,69413.9726430989,27607.6158493873
8360915217,7861,-2,0,57226.1261142182,60980.9435091130,40689.0945360354,59680.6304204325,57512.3468465842,63065.5863350004,67338.1392297114,58310.4990873819,69418.2678400774,27618.9804782199
8360915217,7861,-2,0,57248.9892165485,60958.9686486508,40692.2216341189,59682.5650842273,57465.7080646619,63086.5147735358,67360.2966056260,58295.1191185977,69443.3332955327,27626.8894811549
8360915217,7861,-2,0,57266.7297185163,61025.6111241500,40733.7134802852,59748.3801563426,57531.9976769533,63075.7950326348,67400.7176944718,58376.8860412479,69452.0575341548,27617.2648329679
8360915217,7861,-2,0,57260.0861560510,61104.0319301739,40764.8384487583,59801.7233392144,57633.5249392439,63045.6191445139,67410.0381502382,58463.7755642605,69433.8789951013,27603.2598139247
8360915217,7861,-2,0,57236.4078180335,61086.9484838345,40739.0916022809,59762.9692248333,57629.0228914194,63025.5181093624,67371.3813774317,58431.8110247067,69404.6521873326,27597.9303627163
8360943969,7862,-2,0,57219.6042287211,60990.9453559015,40685.2860469299,59673.3784731260,57515.5104477582,63047.6146467929,67330.8142762240,58313.1029745020,69401.3547414936,27599.8285234206
8360943969,7862,-2,0,57231.4312300330,60946.3629147422,40679.3360431834,59661.1864409094,57444.1590735885,63082.0370611050,67346.4984374288,58272.6575502626,69432.1390144556,27605.4499993528
8360943969,7862,-2,0,57251.6661098495,61007.8706221822,40726.8752346707,59737.8307631971,57507.2364139186,63084.6166128314,67391.0565431944,58362.5646620873,69457.9345317202,27606.1313903749
8360943969,7862,-2,0,57259.2709203639,61089.2846816245,40765.4346659026,59800.8716004368,57615.6384249142,63069.2974825314,67409.8191316953,58458.3244360838,69455.3549799938,27609.7086932409
8360943969,7862,-2,0,57248.2348193454,61085.5005279125,40748.5580704092,59776.8890699988,57627.1125630182,63045.8746661472,67382.9528571103,58444.2585785565,69433.8303243140,27611.1688168596
8360943969,7862,-2,0,57229.1558707271,61001.0445442645,40693.9494470678,59696.7282833292,57528.8584111730,63041.6159722592,67343.3470039516,58341.2103541630,69422.6603786305,27604.1967265801
8360943969,7862,-2,0,57227.6714117147,60938.7702719247,40672.3396175103,59658.9719200876,57443.5628564441,63075.5151756079,67343.9675564896,58276.5633809427,69437.0060931848,27605.3648254751
8360943969,7862,-2,0,57244.7913611445,60985.3847184534,40716.5448600680,59717.5715479869,57487.0745402830,63091.1871691158,67387.4914080252,58339.3486965491,69463.1423059605,27606.3139058273
8360967570,7863,-2,0,57248.3321609200,61076.8492954714,40765.1669765725,59790.9792629197,57604.6388269862,63065.2213040957,67411.9728140330,58442.6402748791,69458.7984381947,27606.8371167907
8360967570,7863,-2,0,57228.1459518908,61084.1377458684,40751.5878269181,59772.3870221743,57634.2793364469,63033.8164785957,67378.9253494619,58439.2576551623,69428.9145747975,27609.5870162726
8360967570,7863,-2,0,57210.2351021674,60996.0071177798,40693.2680560457,59683.0517921002,57534.2121977750,63038.8052342931,67332.1892259650,58323.3968460142,69410.6508618663,27610.8281213486
8360967570,7863,-2,0,57217.1706893565,60933.9275285892,40672.9601700482,59648.1548376120,57442.8936331189,63069.3583210155,67335.2676532612,58256.2919980357,69431.7618158541,27613.4563438623
8360967570,7863,-2,0,57235.9697809479,60975.6140579046,40711.1302349818,59708.0320736778,57478.4354755387,63082.2804150414,67379.4728958189,58319.6370276959,69453.4446515926,27609.4166685171
8360967570,7863,-2,0,57245.5944291349,61063.5134997535,40755.7005084442,59781.6588071534,57588.9668334783,63068.0563774554,67410.0381502382,58425.6054993270,69453.1526268688,27605.3891608687
8360967570,7863,-2,0,57237.5029107476,61091.3410223876,40754.4594033683,59784.1410173052,57637.1752482908,63046.4952186852,67396.3738267060,58449.7218744300,69433.5504672871,27609.2584884584
8360967570,7863,-2,0,57225.5785678611,61026.3776890499,40709.9134652995,59719.8712426865,57566.6756128987,63048.1013546658,67358.7148050390,58368.0036225672,69421.1759196181,27613.9552194321
8361023946,7864,-2,0,57229.1802061207,60952.1304030363,40677.0850192712,59668.2315373699,57465.0631767303,63076.5737652315,67351.2073360992,58279.9946714468,69432.6500577222,27618.2747518042
8361023946,7864,-2,0,57247.6872729884,60971.9150780704,40702.6128472057,59708.7864708808,57472.4611363986,63089.2403376242,67386.4084830080,58309.0754668536,69453.8461855877,27615.7560385619
8361023946,7864,-2,0,57255.3650896837,61063.5986736312,40753.2791367765,59789.5799777851,57582.8099788859,63067.4601603111,67418.2026748064,58414.4477213403,69452.6537512991,27611.5095123707
8361023946,7864,-2,0,57240.7395181025,61098.7754851464,40756.3697317695,59795.3961368665,57642.6872149516,63039.5109607088,67396.5563421583,58440.5961018128,69426.6270477948,27609.4045008203
8361023946,7864,-2,0,57229.3262184826,61037.4502931587,40712.1766569086,59723.4607132492,57576.3489318729,63048.3568762991,67354.8819805398,58343.9115828577,69415.6396175637,27612.1300649086
8361023946,7864,-2,0,57234.9233590211,60966.6221299524,40680.5528128657,59674.7777582607,57476.1601162328,63071.6823511087,67347.1919961477,58244.4284936333,69431.2872756780,27614.5757719700
8361023946,7864,-2,0,57246.9693788759,60975.9060826283,40696.5289987943,59705.6350374036,57470.0519324277,63080.4065897307,67379.6919143617,58258.7863758844,69451.9723602770,27608.1512280475
8361023946,7864,-2,0,57247.6751052916,61050.0195239768,40737.6801494495,59769.0409055480,57562.0518881059,63058.9062694446,67405.3049161740,58347.0751840317,69451.2788015581,27601.8726964869
8361032955,7865,-2,0,57232.1491241455,61089.7592218006,40747.6333254506,59784.0680111243,57631.1644060602,63036.3716949285,67391.9082819720,58389.3457627946,69430.9952509542,27603.7465217976
8361032955,7865,-2,0,57211.4032010624,61034.5787167085,40705.5574298369,59720.6986460704,57576.7869689585,63024.4838551325,67346.1577419177,58320.3062510212,69407.9618008684,27607.0196322430
8361032955,7865,-2,0,57207.0471655998,60944.2092324045,40659.4661942716,59647.0354095043,57461.3033584120,63050.4253847590,67325.2171356854,58218.4504609164,69412.1961593628,27610.3414134757
8361032955,7865,-2,0,57226.0652757340,60943.7468599253,40679.2143662152,59669.1441146316,57440.1437336369,63081.9762226209,67359.6030469071,58240.7660168896,69443.6496556501,27613.5293500433
8361032955,7865,-2,0,57240.2771456232,61034.2258535007,40735.3439516594,59754.6830232969,57545.6011620013,63069.2488117441,67405.4509285359,58370.2668141762,69454.1625457051,27612.0448910309
8361032955,7865,-2,0,57235.2883899258,61094.2004311409,40754.7027573047,59786.2095257652,57633.4154299725,63043.2586113303,67400.0241357529,58445.4996836325,69436.0205097421,27612.3004126642
8361032955,7865,-2,0,57221.5267248191,61048.0726924852,40715.3889288698,59727.4152147167,57591.4247082365,63035.9336578429,67360.0654193863,58384.6003610336,69413.8022953434,27613.9795548257
8361032955,7865,-2,0,57220.8696691906,60962.6311253945,40670.5753014709,59663.8511665136,57478.9951895925,63050.8634218446,67337.8593726845,58285.5553088949,69415.8343007129,27616.2549141316
8361067884,7866,-2,0,57235.3492284099,60946.9226287961,40676.3549574618,59674.6560812924,57444.4876014027,63070.9766246929,67361.1483444036,58277.9139952901,69435.0227586026,27617.0579821219
8361067884,7866,-2,0,57245.3997459857,61017.1180717676,40719.9274797848,59739.6072469333,57524.3441956516,63061.7778458948,67395.3760755665,58361.1775446495,69442.1043581536,27613.5780208306
8361067884,7866,-2,0,57233.3293907373,61079.9155550708,40741.9631787311,59774.7962261452,57615.1638847381,63030.4338588789,67395.2543985983,58430.7402673862,69423.3661050463,27608.0417187761
8361067884,7866,-2,0,57214.9561685347,61053.0371127889,40711.4830981897,59731.9050948444,57598.0195999146,63024.3865135579,67360.1262578704,58391.7793021592,69400.0041271462,27608.1512280475
8361067884,7866,-2,0,57219.9205888385,60967.4982041237,40669.0421716712,59663.6686510613,57491.9416190121,63060.8896040267,67336.6669383958,58288.6945746752,69408.1199809271,27618.6641181026
8361067884,7866,-2,0,57246.8598696045,60947.8352060578,40676.8051622443,59674.8507644416,57444.2807505567,63089.7392131939,67368.3637886196,58271.5989606390,69442.8587553566,27625.5632022012
8361067884,7866,-2,0,57264.3205145454,61025.5016148786,40726.7657253993,59753.1742288909,57525.5853007276,63078.4719259359,67410.0138148445,58367.1397160927,69456.4257373142,27618.7492919803
8361067884,7866,-2,0,57256.6426978501,61094.7114744075,40751.9041870355,59794.4713919079,57622.9998814921,63041.3239475354,67409.2715853383,58438.3085748101,69436.7019007642,27617.6785346599
8361085111,7867,-2,0,57235.0085328989,61064.6450955580,40717.5547789043,59745.2773936528,57606.9385216858,63026.2481711718,67366.1371001010,58393.6531274699,69411.0888989519,27614.4297596082
8361085111,7867,-2,0,57221.0886877335,60970.5036252389,40670.2224382631,59672.6727467103,57502.4180059767,63040.7520657847,67331.9458720285,58290.1425305971,69407.0735590003,27608.2485696221
8361085111,7867,-2,0,57233.0738691041,60927.9775248427,40665.7812289227,59661.1256024253,57441.3726710160,63069.9545381598,67344.5272705434,58251.9237948763,69430.6180523527,27608.4189173776
8361085111,7867,-2,0,57251.9216314828,60988.5361519305,40711.1302349818,59725.8455818265,57503.6956141431,63079.2993293198,67385.7149242891,58323.9565600681,69451.0111122280,27610.5117612312
8361085111,7867,-2,0,57248.8553718834,61070.7776147568,40747.5724869665,59785.1509361416,57612.2193021069,63051.4961420794,67400.8272037432,58414.7762491545,69441.7271595521,27612.3490834514
8361085111,7867,-2,0,57232.1612918423,61068.5144231477,40728.3718613799,59759.0755618500,57627.7209478594,63033.5731246592,67371.9897622728,58396.0623314409,69418.4503555298,27615.3058337794
8361085111,7867,-2,0,57224.6294875089,60983.9610979251,40679.2387016089,59681.1536313959,57528.9192496571,63057.9085183051,67338.1148943178,58285.9811782837,69416.2114993144,27617.9462239900
8361085111,7867,-2,0,57236.5903334859,60934.9982859096,40670.5387983805,59660.9187515793,57454.2460942547,63085.9063886947,67350.2704234439,58233.0638648007,69441.4351348283,27618.1774102296
8361159462,7868,-2,0,57250.7291971941,60992.3324733393,40716.3136738284,59729.1551953624,57510.6920398163,63084.5922774378,67393.8429457668,58309.1484730346,69461.5970084639,27609.2219853680
8361159462,7868,-2,0,57245.4970875603,61068.9281248397,40749.3489707027,59784.7007313591,57610.8200169723,63055.6331589992,67404.0516434013,58391.7427990687,69445.8033379878,27597.4071517529
8361159462,7868,-2,0,57234.0716202435,61074.2940791386,40735.6116409895,59766.8263847262,57631.6146108427,63039.7543146453,67378.3169646208,58377.9202954778,69423.8649806160,27603.3449878025
8361159462,7868,-2,0,57226.6979959688,60999.2437251347,40688.3401388324,59693.2361543411,57544.2140445635,63041.5186306846,67344.2960843038,58276.6485548205,69413.6927860720,27606.6059305510
8361159462,7868,-2,0,57232.7088381994,60935.3998199047,40664.3941114849,59654.5307107473,57455.2316776973,63061.9968644376,67343.8215441277,58201.7685485721,69425.2520980538,27607.9200418079
8361159462,7868,-2,0,57248.1983162550,60974.8231576111,40699.5709230000,59704.7102924451,57485.7725967229,63069.5651718615,67381.8577643962,58247.5799271105,69445.2192885403,27603.2111431374
8361159462,7868,-2,0,57250.8387064655,61065.2899834896,40744.8225874845,59778.3735290112,57598.6888232398,63045.3636228806,67407.4707662085,58349.4600526090,69439.4883033366,27590.7757569844
8361159462,7868,-2,0,57239.3280652710,61085.5735340935,40739.6634840316,59777.6678025954,57647.2744366538,63027.5744501255,67387.8321035363,58361.0923707717,69416.0046484684,27591.8586820016
8361180235,7869,-2,0,57235.1667129576,61013.1757379970,40690.6276658351,59707.7157135604,57568.5737736030,63050.7052417859,67353.2758445591,58258.4700157670,69413.1209043213,27603.6491802230
8361180235,7869,-2,0,57254.7567048425,60954.1380730121,40675.5397217747,59677.6249993172,57478.7031648688,63092.2214233458,67361.0388351322,58187.6661879543,69442.8587553566,27619.1751613691
8361180235,7869,-2,0,57274.8334046004,60992.9895289677,40715.8513013491,59732.1119456904,57503.5617694781,63099.4977060459,67402.2873273619,58234.1954606053,69470.4185886606,27627.9602384753
8361180235,7869,-2,0,57268.4940345556,61070.7776147568,40756.2358871044,59788.4848850710,57598.7618294208,63064.5277453768,67417.8011408112,58312.0443848784,69460.1977233293,27622.2779240590
8361180235,7869,-2,0,57242.6498465037,61085.1354970079,40746.1732018319,59775.5506233483,57637.7471300415,63034.8750682193,67390.1926367199,58309.0146283695,69429.2917733990,27612.5681019943
8361180235,7869,-2,0,57223.1815315870,61015.7796251171,40699.7291030587,59707.2290056874,57568.7684567522,63034.3275218622,67350.5259450772,58212.6221341382,69410.3588371425,27609.7695317250
8361180235,7869,-2,0,57225.4690585897,60934.9131120318,40664.5766269372,59648.5685393040,57463.5300469306,63062.9581124866,67335.4988395008,58110.0119468303,69420.0443238136,27614.0647287035
8361180235,7869,-2,0,57243.7814423082,60949.5021805225,40688.6686666466,59681.1901344863,57458.3709434776,63079.2019877452,67368.3637886196,58128.0566412187,69445.0611084816,27614.7582874224
8361193910,7870,-2,0,57251.9581345733,61039.2876153790,40738.9455899190,59763.3707588285,57565.5318493973,63060.7800947553,67403.9543018267,58244.9882076872,69447.2756293033,27608.7717805855
8361193910,7870,-2,0,57235.3370607131,61078.2485806061,40740.8194152298,59775.6723003165,57632.2594987743,63032.9525721212,67388.6473392234,58295.2772986564,69419.7157959994,27603.3814908929
8361193910,7870,-2,0,57227.9999395289,61023.1045786045,40700.2036432348,59715.5517103143,57577.2371737410,63043.0639281811,67352.5336150529,58232.5528215342,69407.4994283891,27612.2152387864
8361193910,7870,-2,0,57236.9431966937,60948.1393984783,40670.0399228107,59664.7759114722,57476.5129794407,63068.7012653870,67344.4664320593,58156.7602380240,69422.1006645767,27613.9430517353
8361193910,7870,-2,0,57252.4935132335,60955.5981966308,40688.2184618642,59693.1388127665,57463.2015191164,63078.2164043026,67375.3237112023,58179.4651602957,69443.6496556501,27607.1169738176
8361193910,7870,-2,0,57253.6251090380,61031.3421093536,40726.6075453406,59756.2769915807,57552.8409416110,63060.2447160951,67401.5085947653,58269.4574459981,69443.2116185645,27597.4436548433
8361193910,7870,-2,0,57246.8842049981,61084.5879506508,40741.0506014694,59784.1045142148,57632.4420142267,63043.2099405430,67401.0827253765,58323.3968460142,69425.6779674426,27594.2313828821
8361193910,7870,-2,0,57236.7120104541,61045.9190101475,40711.7142844293,59738.5486573097,57598.2751215478,63038.0386693932,67368.7409872211,58269.2749305458,69409.9329677537,27605.0484653577
8361219051,7871,-2,0,57243.1122189830,60965.1985094241,40677.0241807871,59675.6660001287,57493.4260780245,63065.6350057877,67352.9229813513,58175.4254849504,69420.3241808405,27619.5401922738
8361219051,7871,-2,0,57256.2898346422,60951.2786642587,40685.6024070473,59687.1158028391,57456.3754411987,63084.2637496236,67378.4264738922,58176.0703728821,69444.2580404912,27616.0237278920
8361219051,7871,-2,0,57263.1280802567,61032.0843388598,40731.9856673363,59765.5366088630,57547.6209996739,63061.9360259535,67413.7979685564,58286.8694201518,69448.5775728634,27604.5252543943
8361219051,7871,-2,0,57247.5047575361,61087.6785456439,40747.9496855680,59794.3862180302,57634.3645103247,63033.0620813926,67405.0007237535,58354.6556591524,69423.2565957748,27599.2688093668
8361219051,7871,-2,0,57228.8638460033,61045.0186005826,40710.2541608105,59738.8041789430,57600.1002760713,63025.7249602084,67362.8396542620,58293.5859887980,69401.7319400951,27594.5842460900
8361219051,7871,-2,0,57226.6614928784,60959.0781579222,40669.1516809426,59673.9260194830,57495.7257727241,63054.6962463438,67341.3271662790,58194.6382782339,69411.5756068248,27600.2787282031
8361219051,7871,-2,0,57246.4218325188,60943.3939967174,40676.4401313396,59685.2176421347,57458.0180802698,63081.9397195304,67364.9811689028,58189.8685410793,69441.2282839823,27608.0052156857
8361219051,7871,-2,0,57266.3160168243,61018.6512015673,40722.2515098780,59759.8664621435,57538.8359225678,63082.0613964986,67406.1201518612,58286.7599108804,69459.7596862437,27609.5018423949
8361285701,7872,-2,0,57261.4367703983,61089.4793647736,40746.9641021254,59805.4466544422,57632.6853681631,63049.3302920449,67410.0503179350,58370.1086341175,69445.0611084816,27604.8537822085
8361285701,7872,-2,0,57237.7584323809,61064.4139093184,40715.8999721364,59760.4991823783,57620.0918019514,63035.0940867621,67372.3791285711,58336.5501262798,69416.6252010063,27599.5608340905
8361285701,7872,-2,0,57228.6691628542,60974.1661019826,40668.0930913190,59677.7953470727,57507.9421403343,63054.6840786470,67336.6547706990,58224.5951478120,69411.5512714312,27603.6005094358
8361285701,7872,-2,0,57243.9882931542,60940.4737494799,40668.6163022824,59667.3189601082,57444.9134707915,63085.1276560980,67353.3123476496,58187.0091323259,69436.8479131261,27606.0583841940
8361285701,7872,-2,0,57261.0595717968,61015.9378051758,40721.9229820637,59744.3526486942,57519.9151540081,63078.7882860533,67400.8028683496,58277.4881259013,69453.5054900767,27603.2598139247
8361285701,7872,-2,0,57254.4890155124,61092.1319226810,40754.6419188206,59795.9193478299,57621.9412918685,63042.7840711542,67409.2350822478,58360.1676258132,69434.5117153361,27604.7686083308
8361285701,7872,-2,0,57233.7309247325,61069.8285344046,40724.2105090665,59756.3013269744,57614.7745184397,63025.8101340862,67376.2241207672,58324.9299758139,69406.4043356751,27609.2219853680
8361285701,7872,-2,0,57227.3672192941,60985.6889108739,40677.6690687187,59689.4276652355,57514.8533921297,63038.8904081708,67351.3411807643,58231.5063996074,69404.0559701882,27617.8245470218
8361296673,7873,2,0,57239.5592515107,60939.5490045214,40664.8564839641,59673.5974916688,57442.7597884538,63060.7800947553,67362.8153188683,58192.8496268009,69420.6892117452,27616.8389635791
8361296673,7873,2,0,57256.7157040310,60989.1567044685,40703.2577351373,59731.0533560668,57492.2944822200,63067.1681355873,67398.6126829214,58257.4114261434,69437.7848257814,27611.1323137692
8361296673,7873,2,0,57257.8107967451,61071.2034841456,40739.3957947015,59789.7138224502,57598.2872892447,63034.2666833781,67413.6762915882,58342.4757946326,69425.6292966553,27605.9610426194
8361296673,7873,2,0,57235.7264270115,61068.0520506684,40718.4186853787,59763.6384481586,57616.3319836331,63008.6536815658,67378.7184986159,58327.4730244499,69397.4245754197,27599.6095048778
8361296673,7873,2,0,57222.1716127507,60979.0940191959,40662.8244785947,59677.9170240410,57514.4153550441,63021.1499062030,67337.8107018972,58214.0822577569,69384.7580030271,27600.2422251126
8361296673,7873,2,0,57240.8490273739,60925.7995071114,40651.2773343097,59653.8128166347,57432.2834014893,63059.9770267650,67348.9684798838,58156.2613624543,69410.9063834996,27609.0759730061
8361296673,7873,2,0,57264.5638684818,60983.2553715094,40698.7921904033,59722.8644961049,57487.0988756766,63067.1681355873,67397.3229070582,58239.0017008503,69436.3733729500,27609.0029668251
8361296673,7873,2,0,57262.1059937236,61067.5410074019,40738.2520312001,59783.3379493149,57596.8393333227,63033.1229198768,67411.8754724584,58341.3563665249,69426.2133461028,27600.7532683792
8361319035,7874,2,0,57235.7020916178,61070.2787391870,40720.3898522641,59760.8277101925,57620.7245221862,63010.4301653020,67380.8113424694,58334.5181209104,69398.8481959480,27602.8947830200
8361319035,7874,2,0,57215.6618949504,60992.3081379456,40673.5077164053,59687.0549643550,57535.7331598779,63021.1985769903,67337.3118263274,58241.7029295450,69387.8364303233,27610.5604320185
8361319035,7874,2,0,57221.0643523398,60925.6656624464,40654.7694632979,59650.0895014069,57445.4123463612,63057.3001334639,67337.1901493592,58175.9000251265,69408.0226393525,27614.3202503368
8361319035,7874,2,0,57244.5845102986,60962.3269329739,40696.5776695816,59702.1064053250,57470.7941619339,63080.9663037846,67382.6364969929,58227.5032273526,69441.6054825839,27613.0061390799
8361319035,7874,2,0,57245.7282737999,61052.4165602510,40743.4963085308,59774.6745491770,57581.8608985337,63048.7705779911,67409.6487839398,58332.2305939077,69438.7217384368,27602.3229012693
8361319035,7874,2,0,57225.9070956753,61075.8393766351,40736.6580629163,59770.2090044430,57630.2153257081,63024.0214826532,67383.9019374625,58352.4533060274,69412.0136439105,27602.2012243011
8361319035,7874,2,0,57213.8610758206,61003.8431145338,40685.6875809250,59695.9495507326,57553.4614941489,63024.3621781642,67339.6358564206,58251.5100931843,69396.9013644564,27610.5117612312
8361319035,7874,2,0,57217.4870494739,60925.7995071114,40650.7176202559,59644.0908268732,57446.4466005912,63044.2928655602,67330.1450528987,58162.5277263181,69409.8356261791,27608.9664637347
8361339013,7875,2,0,57229.9589387174,60945.0001326980,40675.2598647478,59684.8282758364,57453.9784049246,63050.9485957224,67361.3916983400,58203.2286721909,69426.4567000393,27597.5288287211
8361339013,7875,2,0,57232.9765275295,61029.2127624096,40721.1929202544,59754.2328185145,57557.3551571323,63035.9214901460,67382.6364969929,58306.6662628827,69420.3728516278,27589.2061240942
8361339013,7875,2,0,57223.6560717631,61069.0254664143,40733.3119462900,59765.2080810488,57625.3969177662,63028.0611579984,67371.9289237887,58345.2135264178,69406.9397143353,27596.1173758896
8361339013,7875,2,0,57207.0715009934,61015.1469048823,40699.5709230000,59704.8806402006,57571.0194806644,63029.3874369521,67333.8196973392,58275.5412944096,69396.4998304612,27606.5085889764
8361339013,7875,2,0,57203.3968565529,60932.5890819386,40661.3765226728,59644.5166962620,57465.3552014540,63051.5083097762,67318.0625299535,58185.3908286484,69405.3214106578,27611.3635000088
8361339013,7875,2,0,57218.5456390975,60937.9793716312,40678.4356336185,59670.1296980743,57453.2726785088,63067.5575018857,67350.1974172629,58205.4431930126,69431.4454557367,27611.8015370944
8361339013,7875,2,0,57226.8561760275,61028.3123528447,40726.7778930961,59752.7605271989,57557.2456478609,63048.3690439959,67387.5279111157,58320.6591142291,69435.9353358644,27606.6059305510
8361339013,7875,2,0,57212.8754923780,61078.7231207822,40736.0861811656,59775.4289463800,57635.8246339434,63015.9786350532,67375.0195187817,58370.4614973254,69411.3079174947,27605.8028625607
8361377544,7876,2,0,57195.9867291877,61022.8490569712,40692.3798141776,59712.4246122308,57583.6008791794,63021.9408064965,67331.3983256715,58285.0442656283,69392.5453289937,27606.0097134067
8361377544,7876,2,0,57203.0439933450,60942.8951211477,40659.0524925796,59657.7064796181,57481.7815921650,63056.7525871069,67320.6542493768,58185.3056547707,69407.0735590003,27605.9245395289
8361377544,7876,2,0,57220.8453337970,60943.0167981159,40678.7519937359,59683.1734690685,57464.4669595859,63075.9775480872,67353.6530431607,58198.5927797013,69432.5527161476,27602.9434538073
8361377544,7876,2,0,57229.8737648396,61018.8945555038,40728.0189981720,59749.8767830518,57555.4813318215,63058.2978846034,67382.1984599073,58295.8248450135,69437.3346209990,27599.6825110588
8361377544,7876,2,0,57210.5757976784,61066.8596163798,40740.6003966870,59767.6659558070,57629.3635869304,63027.3310961890,67369.7874091479,58346.6249792492,69413.5711091038,27597.0786239387
8361377544,7876,2,0,57192.0808985076,61031.0622523267,40708.5750186490,59716.9388277521,57602.1322814407,63023.2670854502,67332.2013936618,58295.0947832041,69393.8716079474,27605.9488749226
8361377544,7876,2,0,57193.6140283073,60948.6017709576,40667.3630295097,59652.5473761651,57496.4558345335,63057.0567795275,67309.2166143633,58199.6270339313,69403.8126162518,27613.6145239210
8361377544,7876,2,0,57217.2801986279,60934.1465471320,40679.6037325135,59667.9516803430,57461.4737061675,63085.6752024550,67342.2275758439,58202.8758089830,69437.6753165100,27608.3094081062
8361403958,7877,2,0,57231.9179379059,61013.3582534493,40730.0023327542,59749.6090937217,57551.2348056303,63065.9391982082,67386.2259675557,58324.0539016427,69448.0178588095,27598.5874183447
8361403958,7877,2,0,57218.0589312245,61073.0286386690,40747.7550024188,59785.4186254717,57642.7602211325,63025.2139169418,67379.9352682982,58410.8825861712,69420.8108887134,27594.1827120948
8361403958,7877,2,0,57197.8240514080,61032.9969161215,40710.7408686835,59726.7824944819,57614.8718600143,63022.7682098804,67335.0121316279,58364.9616983614,69395.6115885931,27597.1151270291
8361403958,7877,2,0,57199.5396966600,60952.9821418139,40675.3937094128,59663.3644586407,57513.1742499682,63064.6007515577,67316.9552695427,58281.2357765227,69406.2583233132,27610.4509227471
8361403958,7877,2,0,57220.7479922224,60938.5755887755,40689.3135545783,59670.3487166171,57470.9036712053,63092.8906466710,67344.2839166070,58279.0820941851,69438.8434154050,27615.3788399604
8361403958,7877,2,0,57232.7575089867,61009.1847334391,40736.9014168528,59733.0123552552,57542.2915484655,63088.0600710323,67380.8600132568,58369.2812307336,69453.0187822038,27607.6158493873
8361403958,7877,2,0,57226.0774434309,61083.8578888414,40769.3039934923,59778.1545104684,57644.6097110496,63059.7458405253,67387.0533709396,58450.9143087187,69441.2526193760,27604.8902852990
8361403958,7877,2,0,57206.4631161523,61070.7046085758,40746.1123633477,59745.4964121956,57647.1527596856,63042.4312079463,67352.3024288133,58422.7217551799,69417.1119088793,27606.6667690351
8361452889,7878,2,0,57201.0728264597,60983.7177439886,40694.2779748820,59669.1076115412,57542.5105670083,63056.6552455323,67318.8655979438,58305.7293502273,69412.0744823946,27613.4928469528
8361452889,7878,2,0,57216.0634289456,60936.6774280711,40682.2197873305,59654.2751891140,57466.0487601729,63080.2970804593,67330.2180590797,58252.1063103286,69430.2895245385,27612.4220896324
8361452889,7878,2,0,57233.5605769770,60995.5447453005,40724.9284031790,59725.0425138362,57525.7556484831,63068.2753959982,67373.3160412265,58331.4031905237,69442.0191842758,27602.0673796361
8361452889,7878,2,0,57228.4258089177,61071.0088009964,40753.1452921114,59778.8237337936,57628.3901711846,63030.5798712408,67381.3223857360,58410.8825861712,69421.4801120387,27595.3994817771
8361452889,7878,2,0,57212.2549398400,61058.0867069705,40725.0014093599,59746.7983557556,57632.1378218061,63014.2143190139,67346.4741020351,58377.7256123287,69394.6625082409,27598.2345551368
8361452889,7878,2,0,57204.0174090909,60976.9525045551,40674.9556723272,59675.1914599526,57535.2586197018,63032.0399948595,67315.4829782271,58281.8928321512,69387.9094365042,27602.2012243011
8361452889,7878,2,0,57218.4969683102,60932.3578956990,40664.0169128834,59657.9620012513,57464.9536674589,63069.2123086536,67327.6020042627,58245.7669402839,69413.4129290451,27605.1823100227
8361452889,7878,2,0,57240.4718287724,60984.7276628249,40707.1513981207,59717.1700139918,57514.0503241394,63078.6666090850,67371.9897622728,58323.9930631586,69438.3932106226,27605.4134962624
8361470378,7879,2,0,57245.3145721079,61073.7830358721,40752.3787272116,59784.2991973640,57624.5330112917,63051.6299867444,67397.6879379629,58431.3243168337,69434.7063984852,27606.8249490938
8361470378,7879,2,0,57220.9670107652,61075.7055319701,40739.1646084618,59762.6163616255,57646.4713686635,63016.8060384372,67363.7278961300,58428.9394482564,69403.2650698948,27602.8826153232
8361470378,7879,2,0,57198.6757901856,60983.5838993236,40683.9597679762,59671.6141570867,57540.0040214628,63019.5072671319,67313.0616065593,58310.1218887804,69384.3808044256,27605.3283223846
8361470378,7879,2,0,57200.7077955550,60912.4880467871,40657.0326549070,59627.2385667734,57436.8584554947,63046.0450139027,67310.9200919185,58230.8615116758,69402.5958465695,27603.9898757341
8361470378,7879,2,0,57218.8376638212,60955.2818365134,40696.9913712735,59691.0581366097,57473.4467198413,63061.0842871759,67357.7292215963,58298.6599183732,69430.9830832574,27605.4865024433
8361470378,7879,2,0,57228.9368521843,61046.0893579030,40741.0506014694,59769.4059364527,57592.1791054395,63046.3127032328,67389.4260718201,58409.5076364302,69430.2651891449,27607.9687125952
8361470378,7879,2,0,57222.4879728681,61065.5211697293,40735.5264671118,59766.8872232103,57637.8566393129,63022.0989865552,67372.0019299696,58422.1012026419,69409.4097567903,27611.6920278230
8361470378,7879,2,0,57212.0359212972,60995.8124346306,40685.4807300790,59699.9648906841,57559.8982057683,63016.5261814103,67334.3672436963,58333.3378543186,69393.2267200158,27612.2274064832
8361497609,7880,2,0,57215.3211994394,60922.9400983580,40651.2408312193,59654.1048413585,57457.3001861572,63038.5497126598,67323.8786890349,58253.2987446173,69402.2308156648,27611.9232140626
8361497609,7880,2,0,57224.7876675676,60939.3056505849,40673.1791885910,59684.0130401493,57460.4394519375,63052.6399055808,67351.4020192484,58281.4426273687,69418.1583308060,27604.8172791180
8361497609,7880,2,0,57231.2365468838,61030.4295320919,40724.4173599124,59757.9561337423,57568.3425873634,63034.7655589479,67381.3345534328,58380.4755118107,69420.1051622977,27601.0331254061
8361497609,7880,2,0,57214.0435912730,61061.5058297777,40724.2713475506,59760.9250517671,57625.5307624312,63001.9979514037,67362.0000831812,58386.1943293174,69389.8684356927,27596.1782143738
8361497609,7880,2,0,57196.6559525130,60990.0327786397,40674.8096599653,59686.2762317583,57553.9360343250,63009.9312897322,67318.4032254646,58263.6412869168,69372.8093247469,27599.9258649952
8361497609,7880,2,0,57208.8358170328,60915.8098280198,40646.1303985536,59638.2381647014,57449.9022264889,63050.1455277320,67319.5591566628,58157.9526723127,69393.3362292872,27603.3814908929
8361497609,7880,2,0,57231.4677331234,60942.2624009129,40679.9322603278,59685.2541452252,57462.9703328767,63068.2145575141,67363.2290205603,58195.5265201019,69424.0718314620,27606.8127813970
8361497609,7880,2,0,57238.6101711585,61033.4227855104,40726.2790175264,59760.4748469846,57567.2718300430,63046.6777341375,67393.5022502558,58310.6085966533,69424.6558809095,27608.5405943459
8361525003,7881,2,0,57226.7466667561,61073.1381479404,40730.7202268667,59771.9733204823,57631.7606232046,63018.5095159924,67379.5702373935,58364.9373629678,69402.5228403886,27612.2152387864
8361525003,7881,2,0,57205.5505388906,61015.7187866330,40686.1986241916,59707.3385149588,57576.6774596871,63003.3729011447,67335.7056903468,58310.3165719296,69380.1221105375,27605.5473409274
8361525003,7881,2,0,57201.8758944500,60924.9599360306,40640.2655686850,59640.9393933960,57461.2060168374,63022.0868188583,67313.9498484274,58226.5176439100,69381.5944018531,27601.6171748536
8361525003,7881,2,0,57219.5068871465,60917.3916286068,40652.1047376937,59658.4487091243,57432.7336062717,63043.8061576873,67342.1058988757,58238.7705146107,69404.5548457580,27601.4954978854
8361525003,7881,2,0,57232.7088381994,61002.0909661913,40705.3505789909,59742.7100096231,57531.4136275058,63033.1715906640,67384.3521422449,58352.5019768147,69413.2790843800,27599.8041880270
8361525003,7881,2,0,57221.3928801540,61057.4053159484,40721.3511003131,59774.3703567564,57616.0886296966,63004.5288323428,67378.7793371000,58412.1480266408,69390.0022803577,27599.2931447604
8361525003,7881,2,0,57204.2120922400,61006.8607033459,40679.1656954279,59710.4291099519,57573.3070076672,63001.0853741419,67338.3339128606,58342.3541176644,69370.7651516807,27603.3814908929
8361525003,7881,2,0,57209.2616864216,60926.1888734098,40642.2610709639,59650.1138368005,57469.2610321342,63045.8259953599,67325.7403466488,58251.4127516097,69389.1140384897,27614.8312936033
8361558919,7882,2,0,57238.8170220045,60932.9054420560,40672.2422759357,59685.0594620760,57457.4827016096,63074.0063812018,67368.5584717687,58273.0347488641,69429.5837981228,27622.7402965382
8361558919,7882,2,0,57244.4871687240,61004.8043625828,40717.1167418187,59749.4874167535,57537.4609728268,63042.9787543033,67395.5829264125,58360.7273398670,69431.1169279225,27609.2098176711
8361558919,7882,2,0,57221.4415509413,61052.6477464906,40727.2524332722,59762.0566475716,57612.9736993100,63002.1804668560,67378.9010140683,58409.0330962541,69399.6999347256,27597.1516301196
8361558919,7882,2,0,57192.8839664979,61015.9134697821,40689.3257222751,59705.8540559464,57583.3818606366,62984.3182879199,67333.3329894663,58353.5483987415,69368.2099353479,27596.8596053958
8361558919,7882,2,0,57189.1484835732,60929.3159714933,40641.1416428562,59634.7703711068,57472.9478442715,63007.6559304263,67304.9457527784,58246.0346296140,69366.9079917878,27603.1259692597
8361558919,7882,2,0,57212.5347968669,60905.6254657790,40644.3904179080,59642.6307032544,57424.1675477084,63046.8602495899,67328.9891217005,58230.2531268346,69395.6602593804,27605.4134962624
8361558919,7882,2,0,57232.9521921358,60988.4753134464,40699.5587553032,59727.2813700516,57511.7749648335,63044.6213933744,67375.9320960435,58336.6839709449,69416.1749962239,27603.2476462279
8361558919,7882,2,0,57227.9999395289,61064.0975492010,40729.0410847052,59774.9787415976,57615.3829032809,63010.1138051846,67379.9474359950,58424.8632698208,69399.2497299432,27593.8298488869
8361615336,7883,2,0,57216.3189505789,61043.8626693844,40702.2234809074,59732.2336226586,57606.3423045414,63010.7951962067,67348.2505857713,58385.1722427843,69381.9959358483,27602.4080751471
8361615336,7883,2,0,57218.9228376990,60963.5437026562,40663.8587328247,59665.6033148561,57506.0561473268,63037.8439862441,67327.0179548152,58283.8031605524,69390.6593359862,27615.9872248015
8361615336,7883,2,0,57240.6665119216,60937.2249744282,40670.9159969820,59668.4383882159,57455.1465038196,63066.7057631081,67352.7891366862,58261.8404677870,69423.2079249876,27623.2148367143
8361615336,7883,2,0,57253.7589537031,60997.3698998240,40710.9477195294,59729.2525369370,57514.2815103791,63047.9553423039,67384.6928377560,58334.4329470326,69432.6865608126,27613.8700455543
8361615336,7883,2,0,57237.8557739555,61059.7901845257,40728.7125568909,59767.3739310832,57603.1300325802,63007.0475455852,67381.5657396725,58402.1340121555,69407.6089376606,27601.9578703647
8361615336,7883,2,0,57211.1476794291,61043.6193154480,40698.3906564082,59732.9150136807,57604.7361685608,62983.6855676851,67340.7309491347,58375.6936069592,69374.2572806689,27602.6027582963
8361615336,7883,2,0,57194.7942948991,60953.4931850804,40640.6914380738,59647.9236513724,57497.2832379174,62990.2682916664,67297.9858301957,58263.5561130390,69361.3108512492,27610.0615564487
8361615336,7883,2,0,57200.8538079169,60897.1324133966,40625.6034940133,59620.3516503716,57414.7375826706,63021.2594154744,67307.1602736002,58210.1764270768,69380.4628060486,27611.1079783755
8361623407,7884,2,0,57222.0621034793,60958.4454376874,40678.9953476724,59697.3001650799,57474.7486634013,63037.5397938235,67361.3308598559,58299.3656447889,69407.5846022669,27607.7740294460
8361623407,7884,2,0,57225.2257046533,61047.4278045536,40724.0401613109,59765.6339504376,57590.0010877082,63012.7906984856,67383.0136955944,58394.2371769174,69402.1578094839,27607.2143153922
8361623407,7884,2,0,57212.3036106273,61045.4444699714,40708.2464908348,59739.7045885079,57605.1377025560,62997.9947791489,67352.5214473561,58362.8566868110,69381.2537063421,27612.9574682926
8361623407,7884,2,0,57201.0728264597,60966.2449313509,40662.2404291472,59664.7637437754,57509.6577855864,63009.7366065831,67316.3955554888,58241.7394326355,69376.1919444637,27616.1210694666
8361623407,7884,2,0,57204.7718062939,60904.9440747569,40641.3484937022,59632.7383657374,57423.1576288721,63031.4802808057,67317.3324681442,58154.9229158038,69393.6647571015,27608.7961159791
8361623407,7884,2,0,57218.5334714006,60943.6130152602,40673.1426855006,59683.4411583986,57457.7138878492,63042.7840711542,67354.9793221143,58187.4836725020,69414.0943200672,27605.1579746291
8361623407,7884,2,0,57221.2347000953,61031.2691031727,40714.2451653685,59751.2760681865,57567.5273516763,63021.9043034060,67380.4341438679,58276.4417039745,69412.7193703262,27603.4301616802
8361623407,7884,2,0,57208.0327490424,61053.3291375127,40708.7088633140,59749.4874167535,57613.7402642098,62998.7978471392,67362.1460955431,58291.4201387635,69390.0022803577,27610.8767921359
8361654144,7885,2,0,57198.0552376476,60980.8218321448,40658.4806108289,59674.8750998352,57533.1292727578,63007.4734149740,67323.5988320080,58207.4751983821,69379.5623964837,27617.0701498187
8361654144,7885,2,0,57212.5469645637,60914.8607476676,40635.7635208605,59636.3400039970,57437.3816664581,63047.6146467929,67324.5114092697,58157.8796661318,69403.4232499535,27621.1584959513
8361654144,7885,2,0,57236.5173273049,60955.2818365134,40674.7123183907,59693.1874835538,57469.5652245548,63052.6885763680,67370.4809678668,58246.5091697901,69431.1777664066,27614.9529705716
8361654144,7885,2,0,57237.6245877158,61038.3141996332,40716.6056985521,59759.7934559625,57573.9153925083,63019.5681056160,67390.0466243581,58374.3794957024,69422.2588446354,27602.0673796361
8361654144,7885,2,0,57218.3022851610,61054.6919195569,40709.7066144535,59750.2783170470,57612.7181776767,62996.2669662001,67364.7743180568,58400.0655036956,69393.2267200158,27603.3084847120
8361654144,7885,2,0,57208.7019723677,60991.2008775347,40671.0133385565,59688.4420817928,57546.4407330821,63010.4910037861,67330.9116177986,58325.8182176820,69386.0234434967,27616.4495972808
8361654144,7885,2,0,57212.5956353510,60916.7710760688,40641.3119906117,59638.7370402711,57448.2717551146,63032.1616718277,67322.3455592352,58238.6488376425,69396.3659857961,27619.0413167041
8361654144,7885,2,0,57229.9224356269,60930.3988965105,40661.0479948586,59668.8642576047,57449.2938416477,63045.1446043378,67349.9540633265,58252.9823844999,69417.2457535443,27612.3004126642
8361693980,7886,2,0,57237.3082275984,61016.2906683836,40708.7697017981,59741.3228921853,57553.9847051123,63026.7348790447,67381.8820997899,58351.9787658513,69419.2899266106,27602.1160504234
8361693980,7886,2,0,57217.8277449849,61055.8600184519,40716.1919968601,59753.6852721574,57620.4933359465,63003.6162550811,67364.6161379981,58395.6973005362,69396.8648613659,27598.1128781686
8361693980,7886,2,0,57200.0020691393,60996.1409624449,40675.2111939605,59683.8913631810,57560.4579198221,63005.6604281474,67322.9904471668,58320.5374372608,69380.5966507136,27606.8249490938
8361693980,7886,2,0,57203.8105582449,60919.9711803332,40642.1637293894,59626.6545173259,57451.8368902837,63042.9544189097,67315.5194813175,58235.4730687717,69400.0041271462,27619.3333414278
8361693980,7886,2,0,57225.8584248881,60938.4904148978,40669.9304135393,59665.9926811545,57451.7273810123,63057.4096427354,67356.1474210093,58270.9905757978,69427.5517927534,27622.4847749050
8361693980,7886,2,0,57236.4199857304,61027.1929247370,40715.1699103270,59743.0020343469,57552.5610845840,63032.5875412165,67389.0488732186,58370.9847082888,69427.5882958438,27617.8853855059
8361693980,7886,2,0,57222.1837804475,61067.7235228542,40717.4209342392,59754.5248432382,57618.1449704597,63001.2557218975,67372.1357746347,58396.4395300424,69398.9455375226,27609.1854822775
8361693980,7886,2,0,57205.1125018049,61017.3614257041,40677.4013793886,59696.6309417547,57572.6864551292,62997.5202389728,67334.9999639311,58321.3283375543,69373.4785480722,27608.2364019253
8361770136,7887,2,0,57207.8502335901,60932.6864235132,40638.6107619171,59639.2845866281,57468.0807655424,63025.0435691863,67318.0260268631,58224.2666199977,69382.1176128165,27612.0570587277
8361770136,7887,2,0,57226.0287726436,60920.1901988761,40650.1335708084,59654.2630214172,57437.5033434263,63053.3699673901,67347.1189899667,58224.3152907850,69409.5314337586,27614.1742379749
8361770136,7887,2,0,57239.6930961757,61003.8674499274,40704.3649955482,59734.4846465708,57531.5109690804,63043.3681206017,67390.2413075072,58332.7781402647,69424.4368623667,27609.7208609377
8361770136,7887,2,0,57229.8129263555,61067.1881441940,40724.0888320982,59770.4401906826,57621.4545839955,63012.5838476396,67387.5035757221,58406.2588613785,69406.3678325846,27604.5374220911
8361770136,7887,2,0,57212.6686415320,61025.2095901549,40684.7871713601,59710.6846315852,57585.7058907297,63007.2787318248,67341.6800294869,58345.5663896256,69384.3929721224,27606.2652350400
8361770136,7887,2,0,57215.7957396155,60942.8951211477,40645.0839766269,59642.2413369561,57478.1556185118,63039.7543146453,67321.5911620322,58242.5911714131,69395.0640422361,27614.2715795495
8361770136,7887,2,0,57235.8967747670,60936.9694527949,40661.4495288537,59660.5172175842,57451.1433315648,63072.8991207909,67354.9306513271,58238.3689806155,69428.9510778880,27623.7988861618
8361770136,7887,2,0,57251.8486253019,61021.8999766190,40719.0149025231,59740.2643025617,57543.3014673018,63072.5219221894,67400.8880422273,58322.7397903858,69448.7844237094,27629.2621820353
8361780328,7888,2,0,57242.7958588656,61089.3820231991,40745.7595001399,59777.6921379891,57636.3843479973,63047.7119883675,67400.9245453178,58371.5200869490,69435.9110004707,27623.7258799809
8361780328,7888,2,0,57221.2712031858,61061.9195314697,40716.7760463076,59730.1164434114,57617.8772811296,63022.3666758853,67360.9171581639,58308.2967342570,69408.5458503159,27616.9363051537
8361780328,7888,2,0,57207.4973703822,60964.7483046417,40661.5103673378,59648.0939991279,57504.5230175271,63030.0323248837,67320.6542493768,58180.4629114351,69399.9189532685,27612.8479590212
8361780328,7888,2,0,57216.2946151852,60921.6989932821,40651.0096449796,59632.4585087105,57435.2523195141,63057.2149595862,67332.8706169871,58126.5356791159,69418.0244861410,27606.9466260621
8361780328,7888,2,0,57234.8381851434,60991.8457654664,40701.1162204965,59709.6990481425,57506.1291535077,63059.7215051317,67379.8500944204,58209.2516821182,69435.2417771454,27604.5374220911
8361780328,7888,2,0,57234.4853219355,61071.8483720772,40736.3538704958,59768.8340547020,57614.6528414715,63028.8763936855,67392.5896729941,58295.0461124168,69421.7721367624,27608.2850727126
8361780328,7888,2,0,57216.3311182757,61049.4963130135,40708.5141801649,59726.9163391470,57607.5955773142,63012.3283260063,67357.5710415376,58255.8904640406,69395.0032037520,27614.1620702781
8361780328,7888,2,0,57211.9629151163,60962.9718209055,40659.7947220858,59653.5937980919,57503.5130986908,63033.1715906640,67332.2865675396,58163.9513468464,69394.3218127299,27622.1927501812
8361791796,7889,2,0,57226.4059712451,60923.6579924706,40651.1069865542,59646.2931799981,57440.7521184780,63046.9332557708,67349.0779891552,58152.1121778377,69415.0555681162,27621.8033838829
8361791796,7889,2,0,57237.0040351779,60973.2778601145,40683.1688676827,59705.6228697068,57493.6329288705,63042.9300835160,67381.7360874280,58245.8521141616,69423.3904404399,27610.4752581407
8361791796,7889,2,0,57231.1392053092,61045.7851654825,40709.8161237249,59757.8466244709,57591.0475096350,63009.7366065831,67393.0885485638,58346.7709916111,69408.5336826191,27601.7388518218
8361791796,7889,2,0,57208.9574940010,61039.8473294329,40690.0071132972,59733.0731937394,57604.2981314752,62984.5738095532,67358.4714511025,58343.5465519530,69378.3334591045,27600.1692189317
8361791796,7889,2,0,57196.1449092464,60954.3692592517,40639.1461405773,59650.4545323116,57506.3846751410,63001.5964174085,67317.5393189902,58233.0030263166,69369.8404067221,27601.5563363695
8361791796,7889,2,0,57210.0769221087,60900.7340516562,40626.3213881259,59621.1790537556,57424.6664232781,63046.7507403184,67324.0368690936,58164.3042100543,69395.1492161139,27604.6956021498
8361791796,7889,2,0,57233.5484092801,60961.6333742550,40675.4667155937,59687.5903430152,57478.5814879006,63060.7922624521,67370.4931355636,58238.6975084297,69423.7554713446,27606.7397752161
8361791796,7889,2,0,57245.4484167730,61062.4305747362,40729.4669540940,59765.6461181344,57603.6897466340,63049.2816212576,67401.8006194890,58347.8174135379,69427.6126312375,27612.2152387864
8361820056,7890,2,0,57233.9256078817,61071.4590057789,40719.3921011246,59750.0106277169,57633.7926285740,63022.3058374012,67376.0051022244,58338.6064670429,69408.0348070493,27621.8155515797
8361820056,7890,2,0,57215.2968640457,60988.2197918131,40666.7303092749,59669.2049531157,57535.8670045430,63021.0890677189,67331.4104933683,58226.9435132988,69394.3218127299,27627.3153505437
8361820056,7890,2,0,57213.4595418255,60920.5308943871,40639.4016622105,59628.3458271843,57439.9855535782,63039.6934761611,67325.1806325950,58148.2063471575,69403.8004485550,27626.0864131645
8361820056,7890,2,0,57230.1171187761,60952.2642477013,40668.2634390746,59675.3861431018,57461.9360786468,63047.0549327390,67359.2501836992,58188.5179267319,69421.1272488308,27619.1751613691
8361820056,7890,2,0,57234.6921727815,61037.3042807969,40708.9765526441,59744.0362885768,57568.3547550602,63024.3743458611,67384.4738192132,58283.7423220683,69416.3575116762,27607.9078741111
8361820056,7890,2,0,57217.9007511658,61061.3841528095,40703.4037474992,59743.3548975548,57619.3130693547,62998.7005055647,67364.2024363061,58308.0898834110,69390.2334665974,27604.4887513038
8361820056,7890,2,0,57203.4698627338,60989.5825738573,40655.5360281978,59670.2635427393,57543.6543305096,63010.5761776638,67323.9760306095,58221.0178449460,69377.8589189285,27607.9808802920
8361820056,7890,2,0,57210.2959406515,60916.8562499466,40628.5480766445,59620.1447995256,57442.1149005222,63047.7849945484,67319.5591566628,58136.3306750583,69399.8216116939,27610.8402890454
8361854081,7891,2,0,57232.9643598327,60952.1182353395,40668.0322528349,59673.5731562752,57464.2601087400,63067.0707940128,67365.1758520520,58182.5679229855,69433.0029209300,27615.4518461413
8361854081,7891,2,0,57238.5858357648,61042.6093966117,40714.7927117255,59750.1444723820,57573.7207093591,63036.4447011094,67393.3927409844,58280.2258576864,69429.6933073942,27611.1688168596
8361854081,7891,2,0,57220.1031042908,61066.3120700228,40705.8251191670,59745.2043874718,57622.9268753111,63010.0042959132,67369.7995768447,58289.9965182353,69398.7751897671,27605.5108378370
8361854081,7891,2,0,57208.8236493359,61007.2865727347,40664.7226392991,59683.1978044621,57561.6138510203,63023.9241410786,67336.6791060926,58208.6311295803,69387.8729334137,27612.9087975053
8361854081,7891,2,0,57217.5600556548,60937.5778376360,40636.7977750904,59638.4815186378,57464.2479410431,63047.0792681327,67332.0432136031,58131.9381365052,69401.2695676158,27617.6785346599
8361854081,7891,2,0,57234.5583281165,60945.0488034853,40656.8623071515,59667.7691648906,57456.4971181669,63058.7845924763,67363.0221697143,58150.9562466395,69423.5972912859,27613.1886545322
8361854081,7891,2,0,57239.6322576916,61029.4074455588,40702.8927042327,59740.9943643711,57552.6219230682,63035.3982791826,67396.0331311950,58251.1937330669,69423.9379867969,27602.9434538073
8361854081,7891,2,0,57228.2311257685,61078.5406053298,40711.7751229134,59765.0012302028,57626.1634826660,63000.9150263864,67388.5621653457,58304.6707606037,69397.3150661483,27595.2656371120
8361901911,7892,2,0,57214.9196654442,61025.8179749960,40667.8010665953,59703.3475104009,57572.4917719800,63003.7014289589,67350.4286035026,58234.4996530258,69378.3942975887,27604.5252543943
8361901911,7892,2,0,57212.7781508034,60934.7549319731,40623.3403024043,59635.5247683098,57453.7715540786,63030.1174987615,67332.2865675396,58138.6182020610,69385.4515617460,27614.6122750605
8361901911,7892,2,0,57228.1459518908,60932.9541128433,40642.0663878148,59662.0990181711,57435.9823813234,63049.7926645242,67363.9955854601,58167.3217988664,69414.2403324290,27616.2914172221
8361901911,7892,2,0,57235.1302098671,61012.4456761876,40689.1918776100,59735.4945654071,57532.2045277993,63031.2125914756,67397.7609441438,58284.4602161808,69418.4625232266,27613.8943809480
8361901911,7892,2,0,57224.7389967803,61058.8897749608,40702.2599839979,59755.2184019571,57606.2327952700,63002.3994853988,67385.4472349590,58345.9192528335,69396.9500352436,27610.5117612312
8361901911,7892,2,0,57209.0670032724,61016.0716498408,40668.4702899206,59701.4980204838,57568.2574134856,62996.7901771634,67346.2915865828,58297.0902854830,69378.9540116425,27611.2174876469
8361901911,7892,2,0,57206.7673085729,60935.1199628778,40630.2393865029,59640.3553439485,57465.1970213953,63025.3112585164,67324.7912662966,58207.9375708613,69385.3907232619,27616.0115601952
8361901911,7892,2,0,57225.7002448293,60921.0784407441,40638.5620911298,59650.3936938275,57428.8277755915,63051.2406204461,67351.5480316103,58198.8969721219,69413.7414568593,27615.4518461413
8361908143,7893,2,0,57241.9806231784,61003.5267544164,40690.2869703241,59731.0290206731,57518.4063596020,63043.5628037508,67397.4324163296,58303.2958108627,69428.0628360199,27604.5495897879
8361908143,7893,2,0,57230.7011682236,61068.7091062969,40710.5705209279,59769.7466319637,57614.8840277112,63004.5896708270,67398.2476520167,58384.1866593417,69408.0469747462,27600.1692189317
8361908143,7893,2,0,57207.7528920155,61027.4484463703,40667.5942157493,59711.6945504215,57585.7058907297,62985.7784115387,67351.7913855467,58327.8015522641,69377.4695526301,27596.6649222467
8361908143,7893,2,0,57203.8835644258,60937.2979806091,40620.4808936509,59638.7857110584,57474.2254524379,63015.6257718454,67326.0810421599,58222.8429994694,69382.8841777163,27604.9876268736
8361908143,7893,2,0,57220.3586259241,60921.1514469251,40629.3998154221,59648.3860238517,57430.0810483643,63043.4411267826,67353.0689937131,58214.4716240553,69413.7414568593,27612.6532758720
8361908143,7893,2,0,57235.8846070702,60996.5546641368,40678.6546521614,59719.4453732977,57509.4996055276,63047.3104543723,67391.9447850624,58310.6816028343,69429.0119163721,27608.6622713141
8361908143,7893,2,0,57230.2752988348,61068.6239324191,40707.2974104826,59760.9250517671,57606.8898508985,63022.5005205503,67396.7753607012,58387.5571113616,69416.8077164587,27606.5937628542
8361908143,7893,2,0,57216.6961491804,61055.3124720948,40686.6609966709,59728.9605122132,57607.5104034364,63014.1169774393,67367.7432360816,58365.2293876915,69394.5529989695,27612.2274064832
8361937732,7894,2,0,57214.6033053268,60971.6717241339,40640.7644442547,59659.7141495938,57509.0007299579,63022.1841604329,67339.6601918143,58263.9941501246,69390.3186404751,27615.3301691731
8361937732,7894,2,0,57226.9048468148,60923.2686261723,40629.7770140236,59639.2359158408,57434.0963883159,63047.0671004358,67347.7638778983,58215.0800088964,69406.8423727607,27608.5770974363
8361937732,7894,2,0,57240.2528102296,60982.4401358222,40675.6370633493,59705.6837081909,57493.7181027483,63044.3293686507,67389.2557240646,58298.7207568573,69424.1813407334,27598.3805674987
8361937732,7894,2,0,57235.1910483512,61063.0632949710,40713.1500726544,59763.1882433761,57605.2593795242,63016.8425415277,67399.6956079387,58400.6008823558,69410.3953402330,27597.6870087798
8361937732,7894,2,0,57213.3500325541,61048.5837357517,40688.3766419229,59727.3057054453,57608.7028377251,62999.8564367628,67359.9437424181,58376.9103766415,69382.3853021466,27609.7086932409
8361937732,7894,2,0,57198.0674053445,60958.3359284160,40637.5278368998,59648.9944086928,57500.6171868469,63011.8172827398,67322.5767454749,58271.2217620375,69376.5083045811,27616.7781250950
8361937732,7894,2,0,57203.1048318292,60909.8476565766,40625.7495063752,59631.2417390282,57427.1851365204,63040.6303888165,67333.2113124981,58232.4919830500,69401.3669091904,27609.5748485758
8361937732,7894,2,0,57220.8940045843,60966.3301052286,40667.8619050794,59693.7837006981,57482.8888525759,63055.4871466373,67372.2574516029,58307.6153432349,69427.2354326359,27603.5396709516
8361980289,7895,2,0,57224.7024936899,61053.1831251508,40707.9788015047,59754.1841477272,57595.3427066135,63035.5686269382,67391.6405926419,58403.1682663855,69426.7973955503,27605.0484653577
8361980289,7895,2,0,57203.7983905481,61060.4715755478,40692.1851310285,59732.8541751966,57622.5010059223,63007.2908995216,67356.7679735473,58395.9406544726,69400.0041271462,27607.4089985413
8361980289,7895,2,0,57186.2404040325,60981.4058815923,40639.3894945137,59653.8128166347,57530.8904165424,63011.0872209304,67311.6501537279,58288.1713637118,69385.1838724159,27611.5460154611
8361980289,7895,2,0,57195.0863196228,60915.3352878437,40614.8594177187,59616.4701550851,57437.0896417343,63040.5208795451,67312.1977000849,58212.3057740208,69400.4421642318,27610.3657488693
8361980289,7895,2,0,57214.2139390285,60957.5085250320,40653.4675197379,59677.9900302219,57473.0938566334,63049.9873476734,67357.8143954741,58278.0478399551,69422.4170246941,27600.9357838315
8361980289,7895,2,0,57220.1031042908,61051.6256599575,40702.0409654551,59755.0967249889,57591.7167329603,63026.3333450496,67385.4959057463,58392.0104883988,69416.6130333095,27593.9515258552
8361980289,7895,2,0,57202.7763040149,61063.5378351471,40690.1652933559,59737.9159370749,57627.9643017958,63003.0565410273,67355.8918993761,58390.0636569071,69389.9414418736,27588.7194162213
8361980289,7895,2,0,57190.0367254413,60987.6114069720,40644.3539148175,59660.7484038238,57543.1797903336,63009.3837433752,67316.5659032443,58287.9888482595,69380.0369366598,27590.8852662558
8362010316,7896,2,0,57200.4887770122,60925.2641284512,40628.6089151286,59627.2142313798,57456.0712487781,63044.9134180982,67317.7705052298,58220.1052676843,69403.8491193423,27603.3206524088
8362010316,7896,2,0,57223.4978917044,60956.9974817655,40664.8199808737,59676.3717265445,57477.8027553039,63056.2415438403,67357.6197123249,58264.0671563056,69430.1921829639,27609.5991839695
8362010316,7896,2,0,57226.4911451228,61042.2930364943,40711.0207257104,59746.8591942398,57580.9239858783,63035.7633100873,67383.3543911054,58365.5700832026,69429.5716304260,27605.1336392354
8362010316,7896,2,0,57207.6433827441,61074.3427499259,40717.3722634520,59754.6830232969,57640.6917126726,63019.1787393177,67367.6337268102,58400.5887146590,69408.3268317731,27606.4234150987
8362010316,7896,2,0,57191.5333521505,61012.3605023098,40679.3603785771,59686.7751073281,57577.9063970662,63022.2815020075,67330.6074253780,58319.5761892118,69395.4655762312,27614.8799643906
8362010316,7896,2,0,57193.0908173439,60928.4398973220,40643.5265114335,59626.0339647879,57466.0122570825,63042.2000217067,67312.5992340800,58224.2909553914,69402.6201819631,27610.6334381994
8362010316,7896,2,0,57208.0084136488,60943.3209905365,40667.7037250207,59664.4838867484,57466.3894556840,63048.6732364165,67345.3668416242,58258.7133697035,69421.8329752466,27601.7631872155
8362010316,7896,2,0,57208.5681277027,61025.6841303310,40705.4600882623,59737.5995769575,57567.0771468938,63014.5428468281,67369.7509060574,58365.8134371390,69412.4760163897,27595.7036741977
8362030107,7897,2,0,57189.4770113875,61052.5017341287,40695.1540490533,59736.3219687911,57618.9723738437,62981.7752392839,67345.1721584750,58391.9131468242,69380.1099428407,27597.4193194497
8362030107,7897,2,0,57171.8825217815,60991.2982191093,40649.0871488816,59668.2193696731,57556.9901262276,62990.4873102092,67303.7898215802,58314.6361043017,69361.4081928238,27606.2043965559
8362030107,7897,2,0,57182.9429581935,60923.3659677468,40625.2749661991,59622.3349849538,57463.5543823242,63030.3365173043,67301.2467729442,58236.2883044588,69381.0711908897,27622.1684147876
8362030107,7897,2,0,57203.1413349196,60927.0527798842,40645.4733429252,59651.0385817591,57449.1113261954,63049.6709875560,67335.2189824739,58249.7336094482,69409.5922722427,27617.6907023567
8362030107,7897,2,0,57214.7006469014,61010.9003786911,40697.5754207210,59729.7635802035,57546.7692608963,63041.4577922005,67374.5449786056,58358.1477881406,69421.6504597942,27609.3801654266
8362030107,7897,2,0,57201.7785528754,61064.5599216803,40714.1721591875,59760.3166669259,57630.5438535223,63008.2156444802,67369.2763658813,58426.0800395030,69403.5084238312,27607.9078741111
8362030107,7897,2,0,57173.6955086081,61008.8683733217,40668.4459545269,59689.4763360228,57580.6076257609,62993.1520358134,67318.8290948534,58359.4253963070,69376.4352984002,27609.8668732996
8362030107,7897,2,0,57165.8595118541,60915.0189277263,40623.0117745900,59610.3498035832,57463.5665500210,63026.8565560129,67291.9749879651,58254.1626510917,69384.3564690319,27611.7650340039
8362057422,7898,2,0,57180.3147356798,60912.1230158824,40639.4503329978,59628.9907151159,57436.0675552012,63055.9251837229,67323.8178505508,58261.9986478457,69414.4836863655,27609.5140100917
8362057422,7898,2,0,57195.5121890116,61001.4339105628,40694.7038442708,59710.9036501280,57535.1612781272,63050.6565709986,67368.7044841306,58361.6764202192,69427.9411590517,27603.0772984724
8362057422,7898,2,0,57193.7843760628,61063.4404935725,40715.8269659554,59748.1002993157,57625.3360792821,63028.0246549079,67371.6247313681,58413.3282932326,69412.3665071183,27601.8240256996
8362057422,7898,2,0,57181.5436730589,61031.4029478377,40686.0039410424,59706.0609067924,57600.0029344967,63016.9155477086,67341.6191910028,58360.4474828401,69395.8549425296,27608.9907991283
8362057422,7898,2,0,57178.9519536356,60948.6869448354,40644.8527903872,59641.6207844181,57495.8717850860,63039.7421469484,67317.4054743251,58265.8071369513,69401.9631263347,27617.8245470218
8362057422,7898,2,0,57197.7388775302,60927.8680155713,40653.4918551315,59645.8064721252,57452.0924119170,63080.6864467576,67338.9788007922,58250.3419942893,69432.8204054777,27623.5798676190
8362057422,7898,2,0,57216.4041244566,61005.9116229937,40707.9301307174,59722.1587696892,57534.2852039560,63071.9135373483,67381.1033671932,58342.8894963246,69448.2125419587,27621.0854897703
8362057422,7898,2,0,57207.7285566219,61073.7952035689,40734.9545853611,59766.6682046675,57632.4785173171,63026.9538975875,67380.4341438679,58419.6068247932,69425.6049612617,27616.5834419458
8362105230,7899,2,0,57178.1975564326,61035.7468156035,40691.8809386079,59709.2610110569,57608.8731854806,63003.5797519907,67332.1162197840,58363.7692640728,69390.3064727783,27613.5780208306
8362105230,7899,2,0,57165.1537854384,60938.0645455090,40632.9406151976,59623.1988914282,57489.4959119507,63022.2815020075,67295.5766262247,58244.0147919414,69383.3465501956,27613.7483685861
8362105230,7899,2,0,57184.0380509076,60911.1617678334,40633.1718014372,59624.8050274088,57436.9679647661,63054.5745693756,67320.5569078022,58221.4072112443,69408.8257073428,27613.4685115592
8362105230,7899,2,0,57205.7573897366,60985.3847184534,40686.4054750376,59702.6539516820,57514.8290567361,63055.4141404564,67365.1515166583,58313.8208686146,69428.9875809785,27609.6113516663
8362105230,7899,2,0,57204.8326447780,61063.3309843011,40722.0568267288,59750.5338386803,57618.9967092373,63033.6582985370,67373.7784137058,58390.8302218070,69417.0875734856,27605.6446825020
8362105230,7899,2,0,57190.6451102825,61054.2782178649,40703.9026230690,59719.9564165642,57626.6623582358,63018.8988822907,67339.7575333889,58360.8246814416,69395.8671102264,27606.6911044288
8362105230,7899,2,0,57184.5369264773,60976.8429952837,40661.0236594649,59649.9556567418,57534.4798871052,63038.5253772661,67310.3360424710,58260.7332073761,69395.1735515075,27610.9132952263
8362105230,7899,2,0,57205.3436880446,60933.6355038654,40655.2318357772,59634.8068741973,57465.9270832047,63077.3768332218,67328.2347244975,58211.3445259718,69422.8063909924,27616.5956096427
8362125249,7900,2,0,57231.6624162726,60998.3311478730,40704.7178587561,59712.9964939815,57527.5808030065,63077.2673239504,67381.2250441614,58292.8437592918,69448.4802312888,27618.5181057407
8362125249,7900,2,0,57222.4879728681,61077.4941834030,40736.8405783687,59769.9413151129,57633.2694176106,63029.2657599839,67390.6063384119,58385.9631430778,69428.5130408024,27611.4121707961
8362125249,7900,2,0,57193.7235375787,61064.9979587659,40706.8593733969,59731.6009024238,57640.1441663156,63010.8073639035,67348.4696043141,58364.2073011584,69398.6048420116,27609.2828238521
8362125249,7900,2,0,57184.0745539981,60983.4013838712,40656.4607731563,59654.1048413585,57542.8390948225,63037.1869306156,67313.0251034688,58261.2807537331,69397.2055568769,27612.8722944148
8362125249,7900,2,0,57199.5153612664,60936.4097387410,40647.3715036296,59636.4495132684,57467.2655298552,63071.4876679595,67328.3564014657,58215.5302136789,69423.8041421319,27611.2418230406
8362125249,7900,2,0,57220.5289736796,60986.5041465611,40690.3721442019,59696.9838049625,57513.4784423888,63080.1023973101,67369.9212538129,58276.5998840332,69445.8763441687,27605.5960117147
8362125249,7900,2,0,57219.6163964179,61064.5842570739,40729.0410847052,59752.8700364703,57616.5631698727,63048.7340749006,67387.5765819030,58353.5849018320,69435.6189757470,27599.4756602128
8362125249,7900,2,0,57200.3914354376,61072.3229122533,40716.6422016426,59737.1737075687,57646.4713686635,63014.7010268868,67362.0244185748,58346.6736500365,69404.5305103643,27597.5774995084
8362154251,7901,2,0,57188.3210801893,60994.2549694373,40663.8343974310,59661.3567886649,57557.5620079783,63017.8402926671,67322.8322671081,58243.1265500733,69386.5831575505,27606.4112474019
8362154251,7901,2,0,57197.2765050510,60923.3172969595,40631.9793671486,59616.1051241804,57453.7472186849,63053.4186381774,67315.7993383445,58158.9747588458,69401.4034122809,27611.7041955198
8362154251,7901,2,0,57218.5334714006,60962.4121068517,40667.7037250207,59670.3122135266,57480.0172761257,63072.1812266784,67357.6318800217,58213.7902330332,69428.9510778880,27610.8889598327
8362154251,7901,2,0,57226.0652757340,61062.4062393426,40719.1122440976,59750.7650249199,57600.8911763648,63055.1586188231,67386.6761723381,58326.9376457897,69432.3458653016,27607.2386507858
8362154251,7901,2,0,57214.4694606618,61085.9872357855,40716.0946552856,59749.0128765774,57648.5520448202,63031.3221007470,67365.8450753772,58336.6596355512,69410.5900233822,27609.3071592457
8362154251,7901,2,0,57205.6722158588,61012.5551854590,40668.0565882286,59679.3284768724,57571.0316483613,63029.4361077394,67330.4979161066,58237.4199002633,69396.6336751263,27615.0624798430
8362154251,7901,2,0,57210.6609715562,60938.4052410200,40638.2457310124,59636.4008424811,57472.8626703938,63047.0671004358,67325.5334958028,58156.0666793051,69406.8667081544,27618.7006211930
8362154251,7901,2,0,57228.0729457098,60960.2949276045,40663.5667081009,59675.7025032192,57483.7892621408,63061.7900135916,67359.6152146039,58187.3376601401,69426.8217309440,27617.3865099361
8362180321,7902,2,0,57231.5164039107,61042.2321980102,40706.4578394018,59743.1967174961,57582.0190785924,63041.6038045623,67387.0655386364,58279.3497835152,69424.5707070317,27605.2796515973
8362180321,7902,2,0,57212.0359212972,61072.5054277056,40706.7255287319,59750.4608324993,57637.7349623446,63011.0872209304,67368.2786147418,58308.8564483108,69395.3560669599,27596.9569469704
8362180321,7902,2,0,57189.6595268398,61004.8895364606,40656.7771332737,59676.4082296349,57569.0483137791,63002.5941685480,67319.8268459929,58223.6095643693,69371.2883626441,27590.0335274782
8362180321,7902,2,0,57189.8785453826,60916.7467406752,40614.2632005744,59611.7247533242,57455.2195100005,63035.8484839651,67304.0940140008,58126.6938591746,69382.2636251784,27596.0808727992
8362180321,7902,2,0,57212.7538154097,60930.9951136548,40643.8428715509,59652.1945129573,57456.7769751938,63063.8463543547,67348.9198090965,58161.3231243327,69415.3232574463,27607.9078741111
8362180321,7902,2,0,57225.2987108342,61026.5480368054,40698.4879979828,59738.1592910114,57569.6810340139,63047.9310069103,67390.5211645342,58279.3497835152,69424.5342039413,27611.3756677056
8362180321,7902,2,0,57219.3000363005,61075.5108488209,40713.6002774368,59758.9903879722,57646.8485672650,63025.8466371766,67383.3908941959,58327.2783413008,69409.6774461204,27617.3013360584
8362180321,7902,2,0,57200.4279385281,61020.3911822130,40674.6879829971,59695.7670352802,57593.5175520901,63020.4806828777,67340.3902536236,58258.5065188575,69390.1726281133,27615.6586969873
8362227715,7903,2,0,57194.1372392706,60935.3268137238,40635.4593284399,59633.4684275468,57483.1930449964,63040.2531902150,67316.4442262761,58174.7197585347,69395.9766194978,27611.5338477643
8362227715,7903,2,0,57210.6001330721,60927.6976678158,40647.8338761088,59651.3427741797,57457.6773847587,63065.7323473622,67339.8913780539,58189.0776407858,69420.2998454469,27605.5595086242
8362227715,7903,2,0,57226.5763190006,61010.3163292436,40699.1450536112,59728.8996737291,57554.6904315281,63053.3212966028,67380.6896655012,58306.1187165257,69432.9177470523,27601.8361933964
8362227715,7903,2,0,57216.9273354200,61070.5464285171,40719.3677657309,59763.1760756793,57643.2104259150,63017.3535847942,67379.6067404840,58387.0095650046,69412.5611902675,27601.3738209172
8362227715,7903,2,0,57194.8064625959,61028.9085699890,40682.7308305970,59703.2136657359,57607.0480309572,63009.5175880402,67335.9368765864,58332.8268110520,69387.7147533550,27603.9290372500
8362227715,7903,2,0,57194.1737423611,60940.8752834751,40639.6815192375,59626.2529833308,57491.1020479314,63041.2509413545,67307.2941182652,58226.0552714307,69393.4579062555,27608.1998988348
8362227715,7903,2,0,57213.0823432240,60928.8170959235,40652.7374579285,59640.1728284962,57454.0757464991,63068.5065822379,67332.3595737205,58225.4225511959,69419.8374729676,27609.2341530648
8362227715,7903,2,0,57226.4303066387,61008.4546716297,40703.5497598611,59718.0825912535,57542.8755979130,63053.5889859329,67374.7883325421,58328.2274216529,69429.1457610372,27608.3459111967
8362250336,7904,2,0,57213.3865356445,61064.2557292597,40718.3091761073,59747.7231007142,57626.4798427834,63017.3170817038,67367.9622546244,58387.9221422663,69406.1974848291,27603.6005094358
8362250336,7904,2,0,57190.5599364047,61028.8720668986,40682.6456567193,59700.3664246793,57603.0083556120,63006.6095084996,67330.5100838034,58340.6141370187,69382.2636251784,27601.7875226091
8362250336,7904,2,0,57183.7703615775,60942.2137301256,40637.6130107776,59635.0015573464,57498.8042000203,63023.4982716898,67306.9899258447,58240.9728677356,69381.1563647675,27605.4743347465
8362250336,7904,2,0,57200.4157708313,60911.8066557650,40635.5810054081,59633.4684275468,57443.3195025077,63055.0247741581,67327.4803272945,58215.0921765932,69405.9784662863,27608.7109421014
8362250336,7904,2,0,57219.8110795671,60983.8515886537,40687.8412632627,59707.8252228318,57521.2414329618,63061.2181318409,67376.1389468894,58312.5797635386,69427.1989295455,27606.6911044288
8362250336,7904,2,0,57217.1585216596,61065.2169773087,40725.3299371742,59762.7258708969,57634.5470257770,63027.2094192208,67387.8199358395,58411.8681696139,69416.7955487619,27604.9632914799
8362250336,7904,2,0,57195.6947044640,61043.8748370813,40692.8543543537,59718.1069266471,57627.7574509498,63008.3129860548,67346.5714436097,58377.9689662651,69388.4934859517,27602.5419198122
8362250336,7904,2,0,57188.3332478861,60950.6337763271,40639.9978793549,59635.0502281337,57515.3766030931,63028.9250644728,67309.4112975124,58258.1779910433,69385.5002325333,27603.2354785311
8362281935,7905,2,0,57200.3305969535,60910.3100290558,40632.7094289579,59625.3039029786,57446.7264576181,63056.2415438403,67321.5911620322,58218.8154918211,69408.6310241937,27602.5662552058
8362281935,7905,2,0,57210.9529962799,60971.3310286229,40675.6248956524,59688.3690756119,57506.5306875029,63053.4064704806,67357.5953769313,58300.0835389015,69423.6702974668,27599.5973371810
8362281935,7905,2,0,57205.8182282207,61046.5273949887,40709.3172481552,59737.5874092607,57608.4594837886,63031.8574794072,67368.5584717687,58385.4764352049,69411.9893085168,27597.5774995084
8362281935,7905,2,0,57192.1295692949,61045.9068424507,40695.7259308040,59715.5395426175,57623.3892477904,63021.4662663204,67344.7462890863,58376.2654887099,69394.6381728473,27601.9213672742
8362281935,7905,2,0,57185.6806899787,60968.8366507742,40654.5747801488,59647.0840802916,57532.7277387626,63039.9733331881,67315.6411582858,58285.1781102934,69393.1172107444,27609.5870162726
8362281935,7905,2,0,57207.2175133553,60918.5232244113,40646.5197648520,59626.8978712624,57457.8720679079,63085.9307240883,67328.3564014657,58237.0061985714,69423.2565957748,27616.1940756475
8362281935,7905,2,0,57237.1378798429,60976.4779643790,40694.3266456693,59696.5457678769,57510.2783381243,63090.0069025240,67378.8158401905,58314.9767998128,69452.5199066340,27612.6167727816
8362281935,7905,2,0,57232.9400244390,61060.5445817287,40730.7932330477,59759.7934559625,57618.4004920930,63041.4577922005,67392.6505114782,58417.3314654874,69437.6996519037,27595.7280095913
8362333516,7906,2,0,57201.8515590564,61055.6166645154,40704.0608031277,59727.1961961739,57635.9341432148,63012.1214751604,67350.4529388962,58408.4247114130,69400.4786673223,27591.1894586764
8362333516,7906,2,0,57184.3909141155,60970.8929915373,40651.3381727939,59643.2025850051,57539.3226304407,63025.3720970005,67308.6203972189,58304.1718850340,69385.5610710174,27599.6216725746
8362333516,7906,2,0,57195.1958288942,60917.4159640004,40637.8563647140,59619.7554332273,57458.6508005046,63059.4781511952,67318.3910577678,58250.9260437368,69407.8887946875,27605.4256639592
8362333516,7906,2,0,57215.0291747156,60960.3679337854,40676.0264296476,59679.8881909263,57495.9204558732,63063.6273358119,67362.1460955431,58309.7081870884,69428.9510778880,27601.0331254061
8362333516,7906,2,0,57219.1296885450,61040.7234036041,40713.6854513146,59742.4423202930,57598.9321771763,63039.0242528359,67384.4616515163,58400.1506775734,69421.3949381609,27596.3242267356
8362333516,7906,2,0,57206.5726254237,61060.3864016700,40708.8062048886,59740.3738118331,57641.1419174551,63015.5284302708,67365.4070382916,58414.9465969101,69400.3083195668,27602.5419198122
8362333516,7906,2,0,57192.4946001995,60989.1445367717,40662.6906339297,59667.4771401669,57563.4876763310,63020.5050182714,67322.6619193526,58323.2751690460,69387.0698654234,27611.8380401849
8362333516,7906,2,0,57198.2864238873,60909.2636071291,40629.9108586887,59613.1483738524,57456.9594906462,63048.1135223626,67315.1666181097,58236.5316583953,69399.0307114004,27612.3977542387
8362342639,7907,2,0,57221.8187495428,60937.0546266727,40661.6077089124,59663.4739679121,57473.0451858461,63068.7499361743,67358.9094881882,58283.1096018335,69424.7897255745,27610.1588980233
8362342639,7907,2,0,57228.3649704336,61028.8477315049,40712.4565139355,59745.8371077066,57588.4314548181,63042.0783447384,67389.2313886709,58398.2281814753,69424.8870671491,27604.1237203991
8362342639,7907,2,0,57215.7957396155,61059.6806752543,40713.3204204099,59747.9786223475,57644.5610402623,63015.6501072390,67367.3903728737,58421.3468054389,69400.8558659238,27603.9533726436
8362342639,7907,2,0,57196.3760954861,60987.5018977006,40661.8145597584,59670.3000458298,57569.9365556472,63013.2287355712,67321.1166218561,58325.9642300439,69383.2370409242,27608.3459111967
8362342639,7907,2,0,57199.4423550854,60916.4060451641,40631.1397960678,59624.2088102645,57473.6900737777,63051.1554465684,67314.4000532098,58246.2293127631,69400.4786673223,27617.2770006647
8362342639,7907,2,0,57223.0598546188,60938.4417441105,40659.1741695478,59663.6564833645,57482.3778093093,63066.9734524382,67352.9716521386,58277.6584736568,69427.9533267485,27622.0589055162
8362342639,7907,2,0,57232.1977949328,61020.8778900859,40704.0973062181,59734.1439510598,57578.6242911788,63044.6578964649,67381.7725905185,58371.8486147632,69426.1890107092,27609.9642148742
8362342639,7907,2,0,57218.5091360070,61061.9682022570,40710.6921978962,59750.6068448612,57645.1572574066,63019.8966334302,67371.7220729427,58411.5761448901,69402.4863372981,27596.7014253371
8362373973,7908,2,0,57202.8614778927,61008.1383115123,40670.7943200137,59688.7462742134,57591.0961804223,63018.6920314447,67331.7633565762,58332.4374447537,69382.4583083275,27596.9204438800
8362373973,7908,2,0,57200.9876525820,60919.2289508270,40629.6796724490,59620.2178057066,57476.2209547169,63048.3203732086,67311.1999489454,58218.5843055814,69390.1969635069,27601.5441686727
8362373973,7908,2,0,57221.4172155477,60926.6390781922,40655.2196680804,59651.8659851430,57461.8995755563,63076.1113927522,67347.5570270523,58230.3383007124,69425.2520980538,27604.6712667562
8362373973,7908,2,0,57228.4379766145,61016.7652085597,40708.8548756759,59730.6518220716,57564.0838934754,63058.1883753320,67380.5314854425,58336.4406170084,69432.0173374874,27599.8406911175
8362373973,7908,2,0,57213.4717095223,61067.8573675193,40720.5602000196,59745.3747352274,57638.1486640366,63031.9183178913,67364.9690012060,58378.4070033508,69411.9406377295,27597.9668658067
8362373973,7908,2,0,57196.1327415496,61019.2717541053,40679.0196830660,59684.6092572936,57593.4810489996,63023.0724023010,67324.2315522428,58294.8757646613,69392.6426705683,27600.8141068633
8362373973,7908,2,0,57196.8993064494,60935.5823353571,40634.4129065131,59624.9997105580,57486.7095093783,63041.9323323766,67306.9655904510,58187.0578031132,69395.5872531995,27609.6843578472
8362373973,7908,2,0,57217.7790741976,60923.9500171943,40644.7189457222,59640.8663872151,57457.2880184604,63063.4934911468,67336.0585535547,58180.1222159241,69420.1660007818,27613.0304744735
8362416805,7909,2,0,57227.3672192941,60995.3622298482,40687.5614062358,59707.2776764747,57537.4366374331,63053.8201721726,67371.5638928840,58273.9716615194,69428.1115068072,27604.4887513038
8362416805,7909,2,0,57217.6208941389,61057.8798561245,40713.6489482241,59746.6036726065,57631.4685984808,63029.5942877981,67372.6103148108,58351.5042256752,69409.8721292696,27601.7753549123
8362416805,7909,2,0,57194.9524749578,61025.5746210596,40683.9354325825,59696.0955630944,57610.3211414025,63022.3545081885,67332.8097785030,58305.7415179242,69387.8851011106,27600.2422251126
8362416805,7909,2,0,57191.5941906346,60937.4074898805,40641.8108661815,59620.8748613350,57502.0773104657,63057.0202764370,67305.5298022259,58199.5905308408,69397.0595445151,27604.8537822085
8362416805,7909,2,0,57213.5203803096,60924.6314082164,40656.7162947896,59635.4639298257,57465.3673691508,63087.8167170959,67336.3262428848,58199.4080153885,69432.2363560302,27610.0858918424
8362416805,7909,2,0,57228.0121072257,61004.0864684702,40704.8517034212,59713.3858602798,57546.9639440455,63071.8770342578,67376.9785179702,58312.0565525753,69442.4572213615,27607.1169738176
8362416805,7909,2,0,57219.2026947259,61069.4391681063,40721.3267649194,59751.5437575166,57637.1630805940,63038.4645387820,67376.2362884640,58402.7058939062,69419.7644667867,27606.2774027368
8362416805,7909,2,0,57205.0638310176,61046.6734073505,40689.5569085147,59713.1911771307,57624.5330112917,63024.3986812547,67348.0924057126,58382.1546539722,69395.7576009550,27610.6699412899
8362449147,7910,2,0,57200.2454230758,60961.0249894138,40642.2610709639,59644.0664914795,57520.2558495191,63037.5519615203,67322.9904471668,58296.0560312531,69392.1559626954,27608.7596128887
8362449147,7910,2,0,57216.3676213662,60921.6746578885,40638.6594327043,59633.3467505785,57456.3511058050,63070.2100597931,67338.8814592176,58264.8823919927,69411.6972837931,27608.5527620427
8362449147,7910,2,0,57242.5646726260,60987.4288915196,40691.8444355174,59707.0951610224,57526.1815178719,63083.3876754523,67387.3940664507,58354.4731437000,69439.7681603636,27613.8213747670
8362449147,7910,2,0,57239.3402329679,61068.7821124778,40728.1650105339,59765.9989813422,57632.6853681631,63043.2221082398,67399.6469371514,58447.4343474273,69425.2642657506,27612.3734188451
8362449147,7910,2,0,57214.1287651507,61051.1389520846,40698.5366687700,59727.7559102277,57631.6876170236,63021.8069618314,67357.1938429361,58417.8911795412,69395.4290731408,27612.0813941213
8362449147,7910,2,0,57198.9799826062,60960.1245798489,40644.5607656635,59639.9173068629,57521.8863208934,63038.3306941170,67313.5848175227,58302.6144198407,69388.5056536485,27609.5870162726
8362449147,7910,2,0,57204.1025829686,60911.5024633445,40635.1186329289,59614.8153483172,57444.7674584296,63061.7291751075,67319.2914673327,58254.7101974487,69410.0546447220,27601.6780133377
8362449147,7910,2,0,57215.0048393220,60965.4540310574,40676.0872681317,59674.7412551702,57496.7235238636,63061.3398088092,67353.4583600115,58326.7429626406,69424.7410547873,27594.4990722122
8362465104,7911,2,0,57214.6033053268,61045.7486623920,40711.7021167325,59730.0434372305,57602.7041631914,63039.3406129533,67366.1005970105,58413.2066162644,69413.6076121943,27593.5499918600
8362465104,7911,2,0,57204.1269183623,61051.6864984416,40701.1283881933,59712.8018108323,57627.4775939229,63033.2080937545,67343.3348362548,58412.1723620344,69396.0496256788,27600.9601192252
8362465104,7911,2,0,57201.3891865771,60981.9290925557,40662.7149693233,59650.9412401845,57547.0369502264,63044.4267102253,67316.5294001539,58322.2287471192,69393.1658815317,27615.8412124396
8362465104,7911,2,0,57209.8944066563,60920.2388696633,40643.0154681670,59616.2268011487,57459.3078561330,63071.5728418373,67318.8047594597,58251.1207268860,69411.0158927710,27623.6285384063
8362465104,7911,2,0,57225.2257046533,60959.2363379809,40675.4058771096,59669.2536239030,57489.9947875205,63070.1492213090,67358.3862772248,58302.6752583248,69429.5351273355,27616.7051189141
8362465104,7911,2,0,57223.5343947949,61046.2962087490,40714.1356560971,59740.1061225030,57599.3215434746,63036.4690365031,67379.8257590268,58404.7013961851,69420.7622179262,27605.1701423259
8362465104,7911,2,0,57205.4288619223,61056.5292417771,40698.7678550097,59724.5193028728,57634.0116471168,63008.9335385927,67350.3434296248,58404.0808436472,69389.3938955166,27598.5022444669
8362465104,7911,2,0,57193.3463389771,60976.3441197139,40646.1790693409,59645.4049381301,57545.1144541284,63023.8024641104,67308.9245896395,58296.7982607593,69374.2572806689,27598.1250458654
8362512084,7912,2,0,57210.3324437420,60924.3758865831,40635.0456267479,59621.6779293253,57461.4493707739,63068.6890976902,67320.2527153817,58237.7605957744,69402.7540266282,27605.5230055338
8362512084,7912,2,0,57230.3118019252,60965.0281616686,40672.1205989674,59675.7876770970,57490.5058307870,63069.6016749519,67362.0365862717,58291.0672755557,69424.7288870904,27604.3062358515
8362512084,7912,2,0,57227.8052563797,61045.0672713699,40710.4001731724,59735.0686960183,57588.3341132435,63039.6326376770,67380.0812806601,58380.9013811995,69414.8730526638,27599.5121633032
8362512084,7912,2,0,57207.3878611108,61063.8420275677,40704.0121323404,59731.3697161841,57631.4199276935,63014.3846667694,67356.3299364617,58397.9483244484,69388.2744674089,27598.2710582273
8362512084,7912,2,0,57189.3553344192,60995.8732731148,40659.2350080319,59662.7195707091,57561.3339939934,63023.2184146629,67314.3513824225,58314.1615641256,69375.3037025956,27602.9069507168
8362512084,7912,2,0,57198.7244609729,60919.6183171254,40629.4849892999,59615.5089070361,57461.1573460501,63058.3222199971,67310.2143655027,58225.6415697387,69394.9180298742,27607.9322095047
8362512084,7912,2,0,57220.5289736796,60940.6927680227,40660.1475852937,59659.9940066208,57467.9590885741,63074.2253997447,67350.8909759818,58257.7764570481,69423.6216266795,27603.8925341595
8362512084,7912,2,0,57233.0982044977,61034.1406796229,40712.8458802338,59743.5009099166,57581.6905507782,63051.2406204461,67389.1218793995,58373.7467754676,69425.5441227776,27596.1417112833
8362536033,7913,2,0,57220.0787688972,61066.6527655338,40713.0648987766,59752.9552103481,57644.4028602036,63017.3170817038,67374.9586802976,58406.8429108260,69399.9676240557,27592.5157376301
8362536033,7913,2,0,57205.7330543429,61002.5411709737,40667.2413525414,59685.4244929807,57578.4174403328,63031.7601378326,67337.6525218385,58325.9520623471,69384.3199659414,27601.3859886140
8362536033,7913,2,0,57215.1630193807,60931.6643369801,40641.8230338783,59640.1728284962,57480.5404870890,63059.1252879874,67334.6957715105,58248.2004796485,69403.3015729852,27614.1377348844
8362536033,7913,2,0,57228.2554611622,60936.0325401395,40657.1543318752,59664.4717190516,57467.7644054250,63065.9635336019,67358.5809603739,58264.2740071516,69424.0596637652,27609.7695317250
8362536033,7913,2,0,57230.5186527712,61010.4623416055,40698.0377932003,59727.0866869025,57556.6737661102,63051.0824403874,67383.2935526213,58353.1833678368,69423.6337943764,27600.6680945014
8362536033,7913,2,0,57218.0224281341,61060.6419233033,40712.6146939942,59749.7672737804,57632.9773928869,63033.9259878671,67372.9631780187,58402.2435214269,69406.7328634893,27601.3251501299
8362536033,7913,2,0,57205.8912344016,61019.8558035528,40682.3779673892,59697.7260344687,57597.0705195624,63034.2301802876,67337.3361617211,58341.4415404027,69393.1050430476,27610.6942766835
8362536033,7913,2,0,57209.7727296881,60937.5413345456,40640.9104566166,59628.1511440351,57488.1331299066,63062.6904231565,67316.0426922809,58235.9719443414,69401.0018782857,27613.1521514418
8362564308,7914,2,0,57229.9711064142,60934.1100440415,40655.9618975866,59646.7798878711,57462.7513143339,63086.0037302693,67348.6399520696,58239.3058932709,69430.8249031987,27604.9997945704
8362564308,7914,2,0,57246.8355342108,61024.3335159836,40710.5826886248,59733.5842370059,57565.3980047322,63069.6868488297,67392.0421266370,58346.1139359827,69441.8853396108,27602.9921245946
8362564308,7914,2,0,57237.6002523222,61077.3481710412,40722.1663360002,59762.4946846572,57643.3686059737,63030.8475605709,67382.2227953009,58396.6585485852,69413.4494321356,27603.1259692597
8362564308,7914,2,0,57218.1197697087,61028.2271789670,40679.5793971199,59705.5376958290,57602.2052876216,63020.3955090000,67339.5141794524,58329.8822284209,69387.7999272328,27605.3526577783
8362564308,7914,2,0,57207.2540164458,60937.4318252742,40632.7702674420,59636.9240534445,57489.6540920094,63033.3906092069,67311.8083337866,58227.7587489859,69385.1473693254,27604.3062358515
8362564308,7914,2,0,57212.2427721432,60911.1374324398,40632.9892859849,59636.8388795667,57442.1027328254,63057.1541211021,67326.5920854264,58217.1850204468,69404.9685474500,27601.2034731616
8362564308,7914,2,0,57223.0233515283,60982.7078251523,40682.5118120542,59705.3430126799,57519.4406138320,63062.0698706185,67364.1294301252,58315.9745509522,69422.4291923909,27596.5554129753
8362564308,7914,2,0,57218.7646576403,61058.5490794497,40717.8954744153,59751.6654344848,57622.0264657462,63035.8484839651,67374.1191092168,58408.0110097210,69412.3300040279,27598.3440644082
8362598046,7915,2,0,57203.8957321226,61038.0830133935,40691.9417770920,59711.4511964850,57615.0057046794,63026.7105436511,67342.2275758439,58376.5453457368,69391.1947146464,27607.7131909619
8362598046,7915,2,0,57203.4455273402,60949.2223234956,40641.4093321863,59634.2349924466,57505.7641226030,63041.4699598973,67313.6213206132,58265.9531493131,69389.2357154579,27614.1255671876
8362598046,7915,2,0,57217.9737573468,60919.1559446461,40639.7788608121,59634.1863216593,57451.2528408362,63068.7742715680,67336.2167336134,58245.4019093792,69415.1164066003,27612.4707604197
8362598046,7915,2,0,57229.5574047222,60993.3545598724,40687.7804247786,59709.1880048759,57529.8683300093,63061.0356163886,67375.3602142928,58349.7277419391,69427.4179480883,27603.5031678612
8362598046,7915,2,0,57218.6551483689,61063.5621705408,40714.7562086350,59752.4806701720,57630.1666549208,63034.2058448940,67374.8491710262,58435.4126629662,69408.9838874015,27594.3043890630
8362598046,7915,2,0,57197.9335606794,61042.7675766704,40689.5569085147,59711.0618301867,57624.5451789886,63016.2949951706,67337.4821740830,58402.2191860333,69384.9405184794,27599.3539832445
8362598046,7915,2,0,57186.6419380277,60957.7275435748,40643.6603560986,59639.6131144423,57522.3608610695,63035.2766022144,67306.8317457860,58300.2782220506,69383.1031962591,27610.0250533583
8362598046,7915,2,0,57203.9930736972,60915.8098280198,40639.2556498487,59627.5549268908,57454.8544790958,63068.8959485362,67322.0900376019,58256.5475196690,69411.2105759201,27620.0877386308
8362620159,7916,2,0,57223.4613886139,60969.9074080946,40681.8060856385,59693.1266450696,57509.4387670435,63062.0455352249,67362.0730893621,58325.8912238629,69430.7032262305,27617.0701498187
8362620159,7916,2,0,57218.5699744911,61046.2597056586,40713.2474142290,59750.2783170470,57610.8686877596,63019.8722980366,67372.4156316616,58416.1755342892,69413.4372644387,27604.0628819150
8362620159,7916,2,0,57193.6383637009,61032.7535621851,40683.7650848270,59717.7297280456,57618.6803491199,62996.4008108651,67331.8850335444,58396.6950516756,69380.3897998676,27595.9348604373
8362620159,7916,2,0,57180.3269033766,60944.5012571283,40630.4462373489,59633.2007382167,57521.3387745364,63023.4130978120,67290.3566842877,58284.3385392126,69374.6709823608,27598.4779090733
8362620159,7916,2,0,57193.1516558280,60898.9819033137,40624.8125937198,59613.4769016667,57448.9531461367,63062.1307091026,67300.7235619808,58235.4365656812,69403.2772375916,27604.1115527023
8362620159,7916,2,0,57212.4496229892,60962.8258085436,40678.1801119853,59684.2807294794,57509.6821209800,63078.2164043026,67346.4010958542,58318.1525686836,69431.1777664066,27608.1268926539
8362620159,7916,2,0,57215.9660873710,61051.8933492876,40725.9748251058,59747.8812807729,57624.5695143822,63055.8156744515,67364.2997778807,58420.2273773312,69428.9997486753,27611.2783261310
8362620159,7916,2,0,57198.0065668603,61060.1917185208,40718.6498716184,59730.5423128002,57654.0640114810,63036.7610612268,67337.0319693005,58429.1584667993,69407.3899191177,27617.4351807234
8362652876,7917,2,0,57181.2881514256,60981.4180492891,40674.5419706352,59656.3680329675,57565.1789861894,63033.8043108988,67297.2801037800,58341.8065713074,69396.4754950676,27617.8367147186
8362652876,7917,2,0,57184.1597278758,60907.5357941802,40647.1403173899,59612.9415230065,57464.2844441336,63060.9626102076,67292.6198758968,58266.4276894892,69409.0812289761,27613.6753624051
8362652876,7917,2,0,57202.9344840736,60939.4273275531,40678.8249999169,59659.4099571733,57483.6797528694,63069.6260103456,67334.0508835789,58310.1705595677,69429.7663135751,27609.1976499743
8362652876,7917,2,0,57205.4166942255,61028.1055019987,40721.7526343082,59735.2512114707,57596.0362653324,63044.7309026458,67361.7810646384,58413.9366780738,69425.2520980538,27603.0529630787
8362652876,7917,2,0,57189.5986883557,61050.2142071260,40717.0072325473,59732.3918027173,57644.9869096511,63025.2260846387,67339.3559993937,58424.9606113953,69401.1843937380,27604.4279128197
8362652876,7917,2,0,57180.5094188289,60983.0485206634,40671.8285742437,59661.9165027188,57569.5471893489,63035.2279314271,67303.2544429200,58333.8854006756,69392.1924657859,27611.3269969183
8362652876,7917,2,0,57190.2679116809,60917.3672932131,40647.6635283533,59625.3404060690,57478.4476432355,63062.8972740025,67303.5708030374,58267.5714529906,69410.6995326536,27612.8966298085
8362652876,7917,2,0,57208.8601524264,60947.1781504293,40677.4500501759,59671.6506601772,57496.9303747096,63074.7364430112,67341.7043648805,58319.6491953928,69432.7230639031,27610.0858918424
8362682989,7918,2,0,57213.5568834001,61029.1275885319,40721.3997711004,59737.9281047717,57599.5162266238,63056.9229348624,67365.8329076804,58419.3269677663,69433.1611009887,27609.9398794805
8362682989,7918,2,0,57196.8019648749,61058.4517378751,40722.0811621224,59741.0430351584,57653.8206575446,63037.1260921315,67349.9175602360,58448.2130800240,69411.7581222772,27612.0935618182
8362682989,7918,2,0,57182.6144303793,61002.5898417610,40681.5627317020,59678.0873717965,57596.0849361197,63031.4681131088,67313.3536312831,58370.9482051983,69394.6503405441,27621.6938746115
8362682989,7918,2,0,57180.5337542226,60917.3794609100,40640.7401088611,59614.5598266839,57484.8235163707,63051.7516637127,67294.4571981170,58266.2086709464,69401.0383813762,27621.0976574671
8362682989,7918,2,0,57197.5563620779,60925.8481778987,40659.7582189953,59643.8353052399,57474.9920173378,63072.4610837053,67325.1684648981,58276.3200270063,69424.8870671491,27615.9020509237
8362682989,7918,2,0,57212.8389892875,61020.0504867019,40717.0194002441,59732.3552996268,57586.4967910232,63065.2578071861,67364.5552995140,58383.1159020212,69436.4828822214,27611.9475494563
8362682989,7918,2,0,57204.9908248367,61066.0200452990,40727.9094889006,59751.8722853308,57661.8391697509,63034.1450064099,67351.5967023976,58418.2805458395,69415.3597605368,27610.7429474708
8362682989,7918,2,0,57188.5157633384,61007.4569204902,40683.0958615017,59680.7155943102,57602.4729769518,63023.1332407851,67308.3405401920,58332.2305939077,69396.3538180993,27613.1399837449
8362710849,7919,2,0,57188.7956203654,60928.4155619284,40646.0330569791,59623.0650467631,57494.8862016433,63046.3492063233,67296.9515759657,58247.3244054772,69402.5350080854,27619.1386582786
8362710849,7919,2,0,57204.9421540494,60931.8711878261,40663.9560743992,59650.8438986099,57479.1046988639,63066.9612847414,67329.1838048497,58271.0270788883,69426.0795014378,27620.9151420148
8362710849,7919,2,0,57215.7349011314,61012.9567194542,40713.6367805273,59724.3854582078,57570.8978036962,63057.8111767305,67366.3317832501,58373.1627260201,69434.2075229155,27615.3423368699
8362710849,7919,2,0,57202.5207823816,61063.0511272742,40729.0289170083,59751.2639004897,57650.8152364293,63027.1729161303,67358.2159294693,58429.7303485499,69412.3665071183,27609.0759730061
8362710849,7919,2,0,57179.8401955037,61016.0959852345,40689.3378899719,59693.4795082775,57609.9317751042,63015.6014364517,67312.8304203197,58366.8355236721,69385.3055493841,27608.9786314315
8362710849,7919,2,0,57178.4165749754,60921.6503224948,40642.2975740544,59617.1515461072,57495.2512325480,63043.6358099318,67284.7230406587,58254.3329988472,69388.3353058930,27615.9142186206
8362710849,7919,2,0,57198.3837654618,60904.6885531236,40652.9443087745,59629.7207769253,57455.7792240544,63065.9635336019,67313.5361467354,58247.5799271105,69415.7004560478,27615.2449952953
8362710849,7919,2,0,57211.7438965734,60985.7984201454,40703.5862629516,59714.5782945685,57547.6940058549,63057.3366365544,67359.6760530880,58355.5682364141,69427.3206065137,27610.6699412899
8362755394,7920,2,0,57204.3216015114,61048.4498910867,40721.2415910417,59750.3148201375,57637.5889499828,63027.5622824287,67359.2258483055,58422.6487489990,69408.7648688587,27609.4531716076
8362755394,7920,2,0,57185.1331436217,61012.9080486669,40683.8745940984,59691.9707138715,57605.0525286782,63015.9056288723,67318.7925917629,58366.4826604643,69385.5610710174,27611.8258724881
