steady_timestamp,sequence,battery,flags,EEG-ch1,EEG-ch2,EEG-ch3,EEG-ch4,EEG-ch5,EEG-ch6,EEG-ch7,EEG-ch8,EEG-ch9,EEG-ch10
5409765231,5055,-2,0,-6719.0265210222,-80268.7019726646,-32700.9285655931,-12641.2270802004,-80531.0861869545,-48353.0765600242,-80470.3572121112,-80456.3643607648,-80500.3749201734,-2416.5289244299
5409765231,5055,-2,0,-6719.4037196237,-80268.2396001853,-32678.4183264706,-12642.2491667336,-80534.4809743681,-48470.8720329671,-80470.1260258715,-80456.8023978504,-80498.8539580705,-2417.7821972027
5409765231,5055,-2,0,-6718.5641485429,-80267.1445074712,-32679.3674068228,-12641.2392478973,-80533.7874156492,-48339.0350378905,-80469.7366595732,-80456.5225408235,-80499.3041628530,-2416.8331168505
5409765231,5055,-2,0,-6719.2333718682,-80267.6068799505,-32705.1142533002,-12642.8453838779,-80530.0762681182,-48133.1819430400,-80468.9944300670,-80455.9506590728,-80499.8638769068,-2416.4315828553
5409765231,5055,-2,0,-6719.1360302936,-80267.5825445569,-32719.7519925782,-12641.4947695305,-80526.7788222792,-48127.4752932300,-80469.0065977638,-80455.7316405300,-80499.4015044275,-2415.0444654175
5409765231,5055,-2,0,-6718.9291794476,-80268.8723204201,-32705.2115948748,-12641.6772849829,-80530.0154296341,-48329.5077312781,-80469.8705042383,-80455.7681436205,-80498.9512996451,-2415.3486578381
5409765231,5055,-2,0,-6718.1261114573,-80267.8137307965,-32681.2290644367,-12640.6795338434,-80532.1934473654,-48469.3267354705,-80469.1769455194,-80455.7438082268,-80498.5375979531,-2416.3829120681
5409765231,5055,-2,0,-6718.8805086603,-80267.4973706791,-32679.7567731212,-12641.4826018337,-80533.3737139572,-48363.8328040156,-80469.3229578812,-80455.8654851951,-80499.1703181879,-2417.5996817503
5409807749,5056,-2,0,-6718.6979932080,-80268.1909293980,-32704.1773406448,-12642.0666512812,-80530.1249389055,-48154.3172324214,-80469.2134486098,-80455.7438082268,-80499.0729766133,-2416.8452845473
5409807749,5056,-2,0,-6719.4645581078,-80268.0449170361,-32722.8425875712,-12641.8232973448,-80527.8739149932,-48114.6018699913,-80469.2742870939,-80455.8411498014,-80498.0630577770,-2415.5190055936
5409807749,5056,-2,0,-6719.2577072619,-80268.5559603027,-32711.6118034036,-12641.3974279560,-80529.3340386120,-48299.5021909127,-80470.0651873874,-80456.3278576743,-80498.8661257673,-2415.5920117746
5409807749,5056,-2,0,-6719.0143533254,-80269.4320344739,-32687.0330558213,-12641.3730925623,-80533.5075586223,-48465.9441157538,-80470.1381935684,-80457.0700871805,-80500.0342246623,-2417.0034646060
5409807749,5056,-2,0,-6718.6736578144,-80268.0327493393,-32681.6671015224,-12641.5556080147,-80533.9212603142,-48390.8207555689,-80470.2598705366,-80456.6320500949,-80499.3406659434,-2417.0399676965
5409807749,5056,-2,0,-6717.9679313986,-80267.6677184346,-32703.8366451338,-12640.7525400243,-80532.5828136637,-48174.0289012746,-80470.3572121112,-80456.4982054299,-80499.2311566720,-2416.4194151585
5409807749,5056,-2,0,-6718.0166021859,-80268.0205816425,-32724.7650836692,-12640.9472231735,-80528.0199273551,-48106.4860162104,-80468.8727530988,-80455.3179388380,-80499.0729766133,-2414.7402729970
5409807749,5056,-2,0,-6717.3595465575,-80267.4000291045,-32717.1967762454,-12639.9616397308,-80528.8594984359,-48276.9797840935,-80470.1990320525,-80456.6928885790,-80499.1946535816,-2414.6794345128
5409859022,5057,-2,0,-6719.1116949000,-80269.6753884104,-32693.6279474993,-12642.0544835844,-80533.9820987984,-48459.5195718313,-80471.5374787030,-80458.5302107993,-80500.8251249558,-2417.2589862393
5409859022,5057,-2,0,-6719.7687505284,-80269.8822392564,-32683.5652622267,-12642.3586760050,-80536.2696258011,-48414.4504227991,-80471.7686649426,-80458.7979001294,-80500.4600940511,-2418.3419112565
5409859022,5057,-2,0,-6719.8174213157,-80268.7993142391,-32703.0579125371,-12641.9206389193,-80532.4733043923,-48199.6784061773,-80469.6393179986,-80456.2670191902,-80500.0828954496,-2417.3198247234
5409859022,5057,-2,0,-6719.5010611983,-80267.6798861314,-32725.7141640214,-12642.1639928558,-80528.6648152867,-48098.3823301263,-80469.4933056368,-80455.8289821046,-80498.0508900802,-2415.8840364983
5409859022,5057,-2,0,-6718.0896083669,-80267.8745692806,-32721.7109917667,-12640.9107200830,-80527.9225857805,-48245.1977599920,-80469.6149826050,-80456.6077147013,-80498.8417903737,-2415.7015210460
5409859022,5057,-2,0,-6719.2212041714,-80267.8137307965,-32697.4607719985,-12640.6065276625,-80532.2786212431,-48448.6659862652,-80469.3959640622,-80457.3986149947,-80499.7908707259,-2416.5167567331
5409859022,5057,-2,0,-6717.8584221272,-80268.3369417599,-32684.7090257281,-12641.2757509877,-80535.2597069648,-48436.3522770804,-80470.1260258715,-80456.5468762172,-80500.0098892687,-2417.1616446647
5409859022,5057,-2,0,-6719.0751918095,-80270.3202763420,-32703.0335771435,-12641.2270802004,-80534.0794403729,-48227.1165625131,-80471.9998511823,-80459.1142602468,-80501.0076404082,-2416.8696199410
5409876473,5058,-2,0,-6719.2090364746,-80269.9430777405,-32727.1742876402,-12641.7502911638,-80530.1371066023,-48100.9618818528,-80471.2941247665,-80457.5324596598,-80501.2874974351,-2415.6650179555
5409876473,5058,-2,0,-6718.9291794476,-80270.2472701611,-32726.9187660069,-12642.0666512812,-80529.8450818785,-48221.1908941603,-80470.8195845905,-80458.0800060168,-80500.6669448971,-2415.2756516572
5409876473,5058,-2,0,-6719.0873595063,-80269.1643451438,-32703.0092417498,-12641.6286141956,-80533.0451861430,-48425.0849898223,-80470.4667213826,-80458.6397200707,-80499.6448583640,-2416.2125643125
5409876473,5058,-2,0,-6718.3207946065,-80268.7141403614,-32685.3052428724,-12640.9715585672,-80535.0650238156,-48445.0156772183,-80471.2819570697,-80458.7492293421,-80500.5087648384,-2417.8917064741
5409876473,5058,-2,0,-6718.5276454525,-80269.2981898089,-32699.2615911283,-12641.3122540782,-80534.2497881285,-48249.1887645499,-80471.2332862824,-80458.8830740072,-80500.0950631465,-2416.9061230314
5409876473,5058,-2,0,-6719.4280550174,-80270.2229347674,-32724.9719345152,-12641.8841358289,-80531.4147147687,-48097.2020635345,-80471.5983171871,-80458.6762231612,-80501.4091744033,-2415.8353657110
5409876473,5058,-2,0,-6719.0386887190,-80269.9065746500,-32728.4275604129,-12642.3708437018,-80530.1614419960,-48190.9419998585,-80471.3184601602,-80457.5567950534,-80500.2897462956,-2415.3851609286
5409876473,5058,-2,0,-6719.0751918095,-80270.1864316770,-32706.8664016427,-12642.0788189780,-80532.7774968129,-48407.1254693117,-80471.3427955538,-80458.7370616453,-80501.6038575525,-2417.1981477552
5409891539,5059,-2,0,-6719.4888935015,-80269.6875561072,-32688.2619932004,-12641.5921111051,-80536.5859859185,-48458.8016777187,-80471.6226525808,-80458.7005585548,-80501.2388266478,-2417.6483525376
5409891539,5059,-2,0,-6718.8683409635,-80269.2251836279,-32698.0204860524,-12641.3974279560,-80534.3349620062,-48276.1402130127,-80471.4401371284,-80458.5910492834,-80500.8251249558,-2417.1251415743
5409891539,5059,-2,0,-6718.3816330906,-80268.4829541217,-32723.4266370187,-12641.4460987432,-80529.7599080008,-48103.9551352712,-80469.8705042383,-80456.3400253712,-80499.6935291513,-2415.8231980142
5409891539,5059,-2,0,-6718.1747822446,-80268.1544263075,-32731.4086461346,-12641.1540740195,-80527.2290270616,-48168.4925992201,-80469.9191750256,-80456.7415593663,-80499.7056968481,-2415.4825025032
5409891539,5059,-2,0,-6717.8340867336,-80268.1179232171,-32711.0764247434,-12641.4217633496,-80530.0397650277,-48381.3056166534,-80469.5054733336,-80455.9384913760,-80499.4988460021,-2415.7988626206
5409891539,5059,-2,0,-6719.1481979904,-80268.3369417599,-32690.4156755381,-12640.6430307529,-80535.6734086567,-48465.0923769762,-80471.4158017348,-80458.1895152882,-80500.3140816893,-2417.4293339948
5409891539,5059,-2,0,-6718.6858255112,-80268.7263080582,-32697.7649644191,-12641.2514155941,-80534.8338375759,-48305.3183499941,-80471.3427955538,-80457.3621119043,-80499.7056968481,-2416.7114398823
5409891539,5059,-2,0,-6718.8926763572,-80269.0426681756,-32723.7064940456,-12642.1153220685,-80530.5021375070,-48113.2269202503,-80471.2089508888,-80456.7537270631,-80500.3262493861,-2415.8110303174
5409935535,5060,-2,0,-6718.6614901175,-80268.7993142391,-32733.9516947705,-12641.2635832909,-80527.8617472964,-48144.0233609092,-80469.3107901844,-80457.2160995424,-80499.8882123005,-2414.7037699065
5409935535,5060,-2,0,-6719.6592412570,-80269.8092330755,-32717.1116023676,-12641.8232973448,-80531.2078639227,-48359.4402654626,-80470.5032244731,-80457.5811304471,-80500.9711373177,-2416.4437505522
5409935535,5060,-2,0,-6718.0531052764,-80268.0692524298,-32693.6279474993,-12640.7890431148,-80533.6170678937,-48466.8445253187,-80470.2111997493,-80456.9605779091,-80499.9733861782,-2416.6262660045
5409935535,5060,-2,0,-6718.8318378731,-80268.7384757550,-32696.7793809765,-12641.5434403178,-80535.4787255076,-48325.6627390821,-80470.7952491968,-80458.1651798946,-80500.0220569655,-2417.0399676965
5409935535,5060,-2,0,-6719.4280550174,-80268.6046310900,-32721.4433024366,-12641.5191049242,-80531.0983546513,-48123.2896055229,-80470.1260258715,-80455.9749944665,-80499.0729766133,-2416.2125643125
5409935535,5060,-2,0,-6720.0607752522,-80268.6411341804,-32736.4339049224,-12641.8111296479,-80528.2876166852,-48124.4942075084,-80470.7952491968,-80457.6784720217,-80500.8616280463,-2416.2977381903
5409935535,5060,-2,0,-6718.5641485429,-80268.7506434519,-32720.5793959621,-12641.0323970513,-80529.7964110913,-48324.4094663093,-80469.4568025463,-80456.3765284616,-80498.9634673419,-2415.3973286254
5409935535,5060,-2,0,-6718.4424715747,-80268.3126063662,-32696.6820394019,-12641.4704341369,-80533.7265771651,-48461.9044404086,-80471.1237770110,-80459.1142602468,-80501.1049819828,-2417.2468185425
5409996662,5061,-2,0,-6718.4424715747,-80269.0548358724,-32696.1709961353,-12642.2978375209,-80535.6490732631,-48351.4095855594,-80470.7709138032,-80457.6176335376,-80500.5331002321,-2418.0133834423
5409996662,5061,-2,0,-6719.7930859221,-80269.4928729581,-32720.1413588765,-12642.5046883668,-80531.9014226416,-48134.9827621697,-80472.3162112997,-80459.0899248531,-80500.8372926526,-2417.3076570266
5409996662,5061,-2,0,-6719.2212041714,-80268.4221156376,-32736.2513894701,-12641.3122540782,-80528.2389458979,-48101.6676082685,-80469.8826719351,-80457.1065902710,-80499.5596844862,-2415.9935457697
5409996662,5061,-2,0,-6719.5740673793,-80268.4342833345,-32723.1711153854,-12641.2149125036,-80530.2952866610,-48293.1628208680,-80469.8583365414,-80456.2791868870,-80498.9147965546,-2415.8475334078
5409996662,5061,-2,0,-6717.8584221272,-80267.3270229236,-32696.4386854654,-12641.2514155941,-80532.7531614192,-48451.2212025980,-80470.5397275635,-80456.7902301536,-80498.3185794103,-2416.8817876378
5409996662,5061,-2,0,-6718.7953347826,-80268.3491094567,-32690.9267188046,-12641.4947695305,-80535.7829179281,-48366.3150141675,-80469.8096657541,-80457.8488197772,-80500.5452679289,-2417.5996817503
5409996662,5061,-2,0,-6718.6858255112,-80268.9939973883,-32713.0110885383,-12641.2392478973,-80532.5219751796,-48150.0220354429,-80470.8439199841,-80456.4738700362,-80500.2532432052,-2415.9327072856
5409996662,5061,-2,0,-6719.5862350761,-80269.3346928994,-32732.9174405406,-12641.8476327384,-80529.2975355215,-48086.3363102716,-80470.1746966588,-80457.3621119043,-80501.2509943446,-2414.9714592366
5410005408,5062,-2,0,-6718.7709993889,-80268.0814201266,-32722.5140597570,-12641.7259557702,-80530.3926282356,-48255.2847806582,-80470.3328767175,-80457.6419689312,-80500.1193985401,-2415.5433409873
5410005408,5062,-2,0,-6719.1847010809,-80268.6776372709,-32696.4265177686,-12641.5921111051,-80534.0429372825,-48435.9264076916,-80471.1602801015,-80457.8731551708,-80500.9589696209,-2417.3319924202
5410005408,5062,-2,0,-6719.2820426555,-80267.9719108552,-32686.4246709801,-12641.9449743130,-80535.4178870235,-48380.8554118709,-80471.6469879744,-80458.0313352295,-80499.4988460021,-2417.1129738774
5410005408,5062,-2,0,-6717.8340867336,-80266.7916442634,-32703.8853159211,-12641.5799434083,-80532.3759628177,-48159.0017956982,-80469.9313427224,-80455.6221312586,-80498.9391319483,-2415.8840364983
5410005408,5062,-2,0,-6718.9535148413,-80267.8745692806,-32725.3856362072,-12641.7867942543,-80528.8229953454,-48066.5029644502,-80469.8583365414,-80456.1088391315,-80498.9756350387,-2415.2878193540
5410005408,5062,-2,0,-6718.6371547239,-80267.5460414664,-32720.2508681479,-12641.3244217750,-80528.5796414090,-48218.7695224925,-80470.4058828985,-80457.5689627503,-80500.3019139924,-2415.8231980142
5410005408,5062,-2,0,-6718.0896083669,-80268.4099479408,-32694.1268230691,-12640.7890431148,-80533.1303600207,-48411.0556353855,-80469.1526101257,-80456.9970809996,-80499.9855538750,-2416.2977381903
5410005408,5062,-2,0,-6718.3572976970,-80269.1035066597,-32683.0785543538,-12641.4460987432,-80535.9776010773,-48391.1127802927,-80471.8295034268,-80458.3598630438,-80500.1315662369,-2417.3076570266
5410038992,5063,-2,0,-6719.0873595063,-80268.5802956963,-32700.2958453583,-12642.0788189780,-80533.3980493508,-48184.3957789677,-80471.2211185856,-80458.6397200707,-80501.3726713129,-2417.1129738774
5410038992,5063,-2,0,-6718.9778502349,-80268.5681279995,-32725.4829777818,-12642.5290237605,-80528.7743245581,-48064.4466236872,-80470.9047584682,-80456.9605779091,-80500.5817710194,-2416.2734027966
5410038992,5063,-2,0,-6718.9535148413,-80267.2661844395,-32724.8989283343,-12641.2027448068,-80527.8252442059,-48190.9176644648,-80469.1891132162,-80455.6464666523,-80499.7543676354,-2414.9227884493
5410038992,5063,-2,0,-6719.0995272032,-80267.3756937109,-32701.1232487422,-12641.9084712225,-80531.5242240401,-48399.8005158243,-80469.4933056368,-80456.3156899775,-80498.7809518896,-2416.9669615156
5410038992,5063,-2,0,-6718.5763162398,-80266.5969611142,-32686.6193541293,-12641.3730925623,-80533.7752479524,-48411.6883556203,-80468.7024053433,-80455.9749944665,-80498.5497656499,-2416.5289244299
5410038992,5063,-2,0,-6719.2090364746,-80267.2661844395,-32701.1475841359,-12641.3730925623,-80532.6558198446,-48212.1989662081,-80469.7123241796,-80457.2769380265,-80498.2455732294,-2416.7601106696
5410038992,5063,-2,0,-6718.5033100588,-80267.8624015838,-32727.7461693908,-12641.3365894718,-80529.5165540643,-48069.8855841670,-80470.4302182921,-80456.8632363345,-80499.5353490926,-2416.3220735839
5410038992,5063,-2,0,-6718.2234530319,-80267.1688428649,-32731.2991368631,-12641.4704341369,-80527.2411947584,-48174.6737892062,-80469.0552685511,-80455.6708020459,-80498.0508900802,-2415.2513162635
5410062967,5064,-2,0,-6719.5253965920,-80268.4464510313,-32710.1273443912,-12641.7624588606,-80531.9987642162,-48389.6039858866,-80470.3450444144,-80457.8366520804,-80500.1559016306,-2416.3950797649
5410062967,5064,-2,0,-6719.6470735602,-80269.3346928994,-32694.7352079102,-12642.8697192715,-80535.7342471408,-48433.5293714175,-80471.2576216761,-80458.9317447944,-80500.5209325353,-2418.3540789534
5410062967,5064,-2,0,-6718.6614901175,-80267.1323397744,-32705.6374642636,-12641.2392478973,-80532.8870060843,-48248.0571687453,-80469.4081317590,-80456.6928885790,-80499.6326906672,-2417.2346508457
5410062967,5064,-2,0,-6718.2234530319,-80267.3391906204,-32731.8466832202,-12641.1175709290,-80529.2853678247,-48079.3398845984,-80468.9944300670,-80456.6807208822,-80499.3041628530,-2415.4216640190
5410062967,5064,-2,0,-6718.7344962985,-80268.1179232171,-32739.2446428885,-12641.3974279560,-80528.1294366265,-48149.1094581812,-80470.5397275635,-80456.6442177917,-80499.4136721244,-2415.0688008112
5410062967,5064,-2,0,-6718.1261114573,-80268.1179232171,-32717.9755088420,-12640.3388383324,-80531.9622611257,-48368.5173672925,-80471.0507708301,-80457.3499442075,-80500.3992555670,-2416.1760612221
5410062967,5064,-2,0,-6718.7466639953,-80269.5050406549,-32697.6919582382,-12642.2126636431,-80534.9433468474,-48443.5068828123,-80471.3306278570,-80458.3841984374,-80501.6038575525,-2417.8552033836
5410062967,5064,-2,0,-6718.7709993889,-80267.7893954028,-32704.3233530067,-12641.2392478973,-80534.0429372825,-48275.3493127192,-80470.7587461063,-80456.9970809996,-80501.1049819828,-2417.7335264154
5410106460,5065,-2,0,-6718.6371547239,-80267.4365321950,-32729.3766407651,-12640.8742169926,-80530.0154296341,-48090.1082962867,-80470.0165166001,-80456.2305160997,-80499.6083552735,-2415.6285148650
5410106460,5065,-2,0,-6718.9900179317,-80267.6433830410,-32739.4879968250,-12641.5677757115,-80527.3263686362,-48131.6609809371,-80470.3328767175,-80456.8145655472,-80499.2554920657,-2415.9813780729
5410106460,5065,-2,0,-6719.6470735602,-80268.1909293980,-32719.5938125195,-12642.1153220685,-80529.7112372135,-48339.7772673967,-80469.6879887859,-80456.1453422220,-80499.0486412197,-2416.5654275204
5410106460,5065,-2,0,-6719.2333718682,-80266.6577995983,-32694.9785618467,-12640.9958939608,-80532.9843476589,-48441.3288650810,-80470.1138581747,-80456.2791868870,-80498.6592749213,-2416.5289244299
5410106460,5065,-2,0,-6717.3473788607,-80266.1954271190,-32696.5116916464,-12640.7647077212,-80532.2421181527,-48294.6229444867,-80469.1647778225,-80455.9628267696,-80498.8782934642,-2416.6019306109
5410106460,5065,-2,0,-6718.3207946065,-80266.9498243221,-32720.8470852922,-12641.3852602591,-80528.9446723136,-48089.6094207170,-80469.2134486098,-80455.8533174982,-80498.6349395277,-2416.5410921267
5410106460,5065,-2,0,-6718.2599561224,-80266.2806009968,-32732.1873787312,-12640.8742169926,-80526.9126669442,-48092.7365188005,-80468.2035297735,-80454.2958523049,-80497.3694990581,-2415.0809685080
5410106460,5065,-2,0,-6718.7588316921,-80266.8403150506,-32716.5153852233,-12641.6042788019,-80529.2732001279,-48296.7279560371,-80469.3229578812,-80456.2426837966,-80499.9855538750,-2416.2612350998
5410122827,5066,-2,0,-6718.8805086603,-80267.9354077647,-32690.3913401444,-12642.0788189780,-80533.7265771651,-48426.2287533237,-80470.4667213826,-80457.1065902710,-80500.6061064130,-2417.1616446647
5410122827,5066,-2,0,-6718.5398131493,-80267.6677184346,-32687.7996207211,-12641.6407818924,-80535.0893592092,-48306.5716227669,-80470.5762306540,-80457.1430933615,-80499.6326906672,-2416.9547938187
5410122827,5066,-2,0,-6719.4523904110,-80267.8624015838,-32711.7578157655,-12641.8719681320,-80531.7067394925,-48097.7982806788,-80470.4180505953,-80457.4351180852,-80500.7277833812,-2416.7114398823
5410122827,5066,-2,0,-6719.7809182252,-80268.8479850264,-32728.3058834447,-12641.7502911638,-80529.4800509739,-48075.3002092532,-80471.1116093142,-80457.8853228677,-80501.0806465891,-2415.3729932317
5410122827,5066,-2,0,-6718.4303038779,-80268.1909293980,-32714.0210073746,-12641.0202293544,-80529.9424234531,-48267.5254836621,-80471.0872739206,-80457.3499442075,-80500.5331002321,-2415.7866949237
5410122827,5066,-2,0,-6718.6614901175,-80268.9939973883,-32688.5905210146,-12640.9228877799,-80534.0551049793,-48426.8493058617,-80471.4279694316,-80458.0556706232,-80500.2167401147,-2416.5775952172
5410122827,5066,-2,0,-6718.5763162398,-80267.7772277060,-32685.7919507453,-12641.8719681320,-80534.0916080697,-48340.7628508393,-80470.0286842970,-80457.1309256646,-80499.6570260608,-2417.1494769679
5410122827,5066,-2,0,-6718.5154777557,-80267.0715012903,-32709.0079162835,-12641.5434403178,-80530.6846529593,-48125.6501387066,-80469.9800135097,-80455.6586343491,-80498.5497656499,-2416.1638935252
5410142495,5067,-2,0,-6718.9656825381,-80266.5604580237,-32729.0481129509,-12641.3974279560,-80527.0708470029,-48073.1343592187,-80468.7632438274,-80454.8190632683,-80498.2212378357,-2415.4338317159
5410142495,5067,-2,0,-6719.7565828316,-80267.4000291045,-32720.9079237764,-12642.4925206700,-80529.2732001279,-48253.6543092839,-80469.5298087272,-80456.8754040314,-80499.4988460021,-2416.7844460632
5410142495,5067,-2,0,-6719.3063780491,-80266.6821349920,-32694.6622017293,-12641.1054032322,-80531.5242240401,-48425.8515547222,-80469.4202994558,-80455.9384913760,-80498.6106041341,-2417.3563278139
5410142495,5067,-2,0,-6719.2090364746,-80267.2905198331,-32685.8284538358,-12641.2514155941,-80534.4444712776,-48362.8958913603,-80469.7001564828,-80456.3521930680,-80498.7201134055,-2417.9282095646
5410142495,5067,-2,0,-6718.6736578144,-80267.3878614077,-32705.5766257794,-12641.2514155941,-80531.9014226416,-48147.7588438338,-80469.2864547908,-80456.3156899775,-80499.9247153909,-2416.1638935252
5410142495,5067,-2,0,-6718.2356207287,-80267.2540167426,-32726.0548595325,-12640.1319874864,-80527.8739149932,-48061.8670719607,-80468.9457592797,-80455.6342989554,-80498.2942440167,-2414.5212544541
5410142495,5067,-2,0,-6718.7831670858,-80267.7163892219,-32720.2752035416,-12640.3145029387,-80528.2632812916,-48217.0538772405,-80469.8583365414,-80456.3400253712,-80499.4866783053,-2415.2026454762
5410142495,5067,-2,0,-6718.2721238192,-80267.8502338870,-32694.2971708246,-12640.8377139021,-80531.8892549448,-48409.1939777716,-80470.4423859890,-80458.3476953469,-80499.0851443102,-2416.0787196475
5410192487,5068,-2,0,-6718.4911423620,-80267.5703768600,-32681.6671015224,-12642.1639928558,-80534.5174774586,-48381.2447781693,-80470.3207090207,-80456.7902301536,-80499.3893367307,-2417.6361848408
5410192487,5068,-2,0,-6719.9877690712,-80267.3026875299,-32698.3855169571,-12641.5312726210,-80531.7554102797,-48166.6674446967,-80469.6271503018,-80457.0822548774,-80498.9269642515,-2417.4171662980
5410192487,5068,-2,0,-6718.1869499414,-80266.8281473538,-32720.1170234829,-12641.7867942543,-80528.1781074138,-48049.7115428346,-80469.6393179986,-80455.6099635618,-80499.2919951561,-2416.5532598236
5410192487,5068,-2,0,-6718.6858255112,-80268.2396001853,-32717.0507638835,-12641.6529495892,-80528.5431383185,-48182.8748168648,-80470.1503612652,-80456.7415593663,-80500.7277833812,-2416.0665519507
5410192487,5068,-2,0,-6718.6858255112,-80268.2761032758,-32692.1678238806,-12641.2270802004,-80533.0208507493,-48383.1794419641,-80471.5253110062,-80457.7393105058,-80500.0585600560,-2417.6240171440
5410192487,5068,-2,0,-6719.2942103523,-80268.6411341804,-32675.0722098443,-12641.3487571687,-80536.0992780455,-48385.1141057590,-80471.6104848839,-80459.0655894595,-80500.5452679289,-2417.8187002932
5410192487,5068,-2,0,-6718.8805086603,-80268.4829541217,-32688.5661856210,-12641.2027448068,-80534.2254527348,-48183.8360649139,-80471.5739817935,-80458.0435029264,-80500.8981311368,-2417.4049986012
5410192487,5068,-2,0,-6718.2842915160,-80266.6212965078,-32712.4148713939,-12640.6065276625,-80529.1880262501,-48041.7417014155,-80469.2134486098,-80455.9384913760,-80498.1847347453,-2414.8984530557
5410237091,5069,-2,0,-6719.1116949000,-80268.6289664836,-32714.7267337903,-12642.1396574622,-80529.3827093993,-48147.7223407434,-80470.6492368349,-80457.5446273566,-80500.9589696209,-2416.4194151585
5410237091,5069,-2,0,-6719.7322474379,-80268.6289664836,-32689.7707876064,-12640.8863846894,-80532.7531614192,-48362.2875065191,-80472.0363542728,-80457.8366520804,-80500.4114232639,-2416.7722783664
5410237091,5069,-2,0,-6719.6835766507,-80268.8723204201,-32673.2105522304,-12641.7989619511,-80536.0141041678,-48399.1191248022,-80471.9025096077,-80458.4085338311,-80500.3870878702,-2418.4149174375
5410237091,5069,-2,0,-6719.0630241127,-80268.6776372709,-32683.5652622267,-12640.9472231735,-80534.1889496443,-48208.7190049168,-80471.1237770110,-80456.9119071218,-80499.9733861782,-2417.1738123615
5410237091,5069,-2,0,-6718.8683409635,-80268.3977802440,-32709.4702887628,-12641.3852602591,-80530.6968206562,-48049.6507043505,-80470.5518952603,-80457.3499442075,-80500.9102988336,-2415.6406825619
5410237091,5069,-2,0,-6718.1869499414,-80268.5924633932,-32715.1647708759,-12640.8620492957,-80529.8937526658,-48131.2837823356,-80471.1846154951,-80456.7172239727,-80500.0585600560,-2414.8132791779
5410237091,5069,-2,0,-6718.4546392715,-80268.5802956963,-32695.3070896609,-12640.7647077212,-80532.1326088813,-48345.4717495098,-80471.3549632507,-80458.1165091073,-80499.8760446036,-2415.2634839603
5410237091,5069,-2,0,-6718.9170117508,-80268.5316249090,-32675.9726194092,-12641.0323970513,-80535.6125701726,-48413.0511376644,-80471.9998511823,-80459.3576141832,-80500.9833050145,-2417.6605202345
5410242943,5070,-2,0,-6718.4424715747,-80268.5924633932,-32684.5995164567,-12641.3852602591,-80535.3327131457,-48244.8448967841,-80470.9290938619,-80457.9096582613,-80500.1072308433,-2417.3928309044
5410242943,5070,-2,0,-6719.4402227142,-80268.6046310900,-32710.8939092911,-12641.7016203765,-80530.2222804801,-48063.2176863080,-80470.2963736271,-80457.3256088138,-80500.2532432052,-2416.3099058871
5410242943,5070,-2,0,-6719.0265210222,-80267.9962462488,-32719.8006633655,-12641.2027448068,-80529.4070447929,-48109.7347912621,-80469.9556781160,-80457.3742796011,-80499.2311566720,-2415.1904777794
5410242943,5070,-2,0,-6719.5375642888,-80268.2030970948,-32700.9772363804,-12641.6042788019,-80530.7819945339,-48324.7744972140,-80471.3671309475,-80457.5689627503,-80500.6912802908,-2415.4459994127
5410242943,5070,-2,0,-6717.9435960050,-80268.8114819360,-32679.2335621578,-12640.9472231735,-80535.6490732631,-48421.4468484723,-80471.2697893729,-80458.0800060168,-80500.1559016306,-2416.7844460632
5410242943,5070,-2,0,-6718.5641485429,-80268.4099479408,-32682.8595358110,-12641.5069372274,-80534.6999929109,-48268.7300856475,-80470.3937152017,-80458.0921737137,-80500.4965971416,-2416.4924213395
5410242943,5070,-2,0,-6719.1725333841,-80268.3369417599,-32707.8884881758,-12641.5069372274,-80531.7432425829,-48073.0856884314,-80471.3306278570,-80457.3012734202,-80500.3992555670,-2415.7015210460
5410242943,5070,-2,0,-6718.8683409635,-80268.0205816425,-32720.8592529891,-12640.8620492957,-80528.5796414090,-48091.5075814214,-80469.9435104192,-80456.3521930680,-80500.6182741098,-2415.4094963222
5410290338,5071,-2,0,-6718.9413471445,-80268.9696619947,-32705.4184457207,-12641.6772849829,-80531.4755532528,-48300.4512712649,-80471.0751062237,-80457.7758135963,-80500.3384170829,-2416.7601106696
5410290338,5071,-2,0,-6719.5253965920,-80269.6388853199,-32680.9613751066,-12642.5046883668,-80536.3426319820,-48426.5572811379,-80471.8903419109,-80458.7857324326,-80501.5795221588,-2418.0985573201
5410290338,5071,-2,0,-6718.1504468510,-80268.1422586107,-32681.3385737081,-12640.8498815989,-80535.4300547203,-48301.8748917932,-80470.6370691381,-80458.3355276501,-80500.6426095035,-2417.1859800584
5410290338,5071,-2,0,-6719.0995272032,-80267.5460414664,-32706.3675260729,-12641.4339310464,-80531.7675779766,-48089.9014454407,-80470.6979076222,-80457.8244843836,-80499.8152061195,-2416.4680859458
5410290338,5071,-2,0,-6717.5420620098,-80267.8989046742,-32720.6524021431,-12640.5578568752,-80527.9590888710,-48068.4132928514,-80469.4568025463,-80457.0822548774,-80499.7421999386,-2414.5090867573
5410290338,5071,-2,0,-6720.0121044649,-80269.3711959898,-32708.8010654375,-12641.8841358289,-80531.5607271306,-48267.4524774811,-80472.0485219696,-80458.1773475914,-80502.1149008191,-2416.4437505522
5410290338,5071,-2,0,-6718.1504468510,-80269.0791712661,-32684.5751810630,-12641.0080616576,-80535.0285207251,-48417.5775208826,-80472.0971927569,-80458.5667138898,-80500.8859634399,-2417.3319924202
5410290338,5071,-2,0,-6718.3816330906,-80269.0305004788,-32681.3872444954,-12641.0080616576,-80536.3061288915,-48322.8398334192,-80472.2675405124,-80459.0412540658,-80500.6061064130,-2417.6361848408
5410305523,5072,-2,0,-6718.3816330906,-80268.4221156376,-32705.4914519017,-12641.2392478973,-80532.6558198446,-48114.5531992040,-80471.6226525808,-80458.2625214692,-80499.6326906672,-2416.2247320094
5410305523,5072,-2,0,-6719.9147628903,-80268.8236496328,-32726.0426918356,-12643.1739116921,-80528.5309706217,-48072.0270988078,-80470.3085413239,-80457.0700871805,-80500.0707277528,-2415.8110303174
5410305523,5072,-2,0,-6718.5033100588,-80267.0836689871,-32714.4955475507,-12641.7502911638,-80530.3439574483,-48251.0260867701,-80469.6758210891,-80455.2814357476,-80498.5984364372,-2416.2125643125
5410305523,5072,-2,0,-6719.2455395650,-80266.9498243221,-32689.2840797335,-12641.2270802004,-80533.1546954144,-48420.2787495773,-80469.5054733336,-80456.9362425155,-80498.8661257673,-2416.9912969092
5410305523,5072,-2,0,-6718.2721238192,-80266.8281473538,-32682.3241571508,-12640.8012108116,-80534.7973344855,-48349.4384186741,-80470.1990320525,-80456.7658947600,-80500.2775785988,-2418.1472281074
5410305523,5072,-2,0,-6719.6470735602,-80267.8745692806,-32703.2890987767,-12642.0666512812,-80531.9865965194,-48128.8989137583,-80470.8439199841,-80458.0191675327,-80500.6304418067,-2416.5897629140
5410305523,5072,-2,0,-6718.9048440540,-80266.9254889284,-32723.0129353267,-12640.9837262640,-80528.8229953454,-48049.4803565949,-80470.4788890794,-80456.3643607648,-80499.9247153909,-2416.5045890363
5410305523,5072,-2,0,-6720.3527999759,-80268.3856125472,-32718.6568998641,-12643.2834209635,-80531.8040810670,-48217.6257589912,-80471.5009756125,-80457.5811304471,-80500.7764541685,-2417.5388432662
5410364533,5073,-2,0,-6718.1626145478,-80267.0836689871,-32692.1313207901,-12640.7160369339,-80533.7630802555,-48405.8600288421,-80469.6393179986,-80457.1795964519,-80500.0585600560,-2416.5289244299
5410364533,5073,-2,0,-6718.3451300001,-80267.8502338870,-32683.4192498649,-12642.0301481907,-80536.2331227106,-48367.3736037911,-80472.0363542728,-80459.0534217627,-80500.4600940511,-2419.0111345818
5410364533,5073,-2,0,-6719.5253965920,-80268.5437926059,-32701.4274411628,-12642.2613344304,-80534.6756575173,-48150.9346127046,-80471.6591556712,-80458.6640554643,-80501.3848390097,-2417.7213587186
5410364533,5073,-2,0,-6719.4402227142,-80267.7528923124,-32724.9719345152,-12641.2270802004,-80529.0541815851,-48039.3081620510,-80470.3937152017,-80457.2647703297,-80500.4357586575,-2415.5433409873
5410364533,5073,-2,0,-6718.8683409635,-80265.6113776715,-32720.6645698399,-12640.4118445133,-80527.9590888710,-48175.5620310743,-80468.3617098322,-80456.7780624568,-80499.0608089165,-2414.7159376033
5410364533,5073,-2,0,-6718.0531052764,-80266.6456319015,-32695.3070896609,-12640.0833166991,-80532.1691119717,-48379.3222820712,-80470.5153921699,-80456.5955470044,-80499.2189889752,-2416.6871044886
5410364533,5073,-2,0,-6718.4668069684,-80267.4243644982,-32681.8617846715,-12641.6529495892,-80535.0285207251,-48378.9694188634,-80471.1481124047,-80458.3233599533,-80499.1824858847,-2417.6726879313
5410364533,5073,-2,0,-6718.1747822446,-80266.3536071777,-32697.6919582382,-12641.4582664401,-80532.2542858495,-48172.1307405702,-80470.1016904779,-80456.9240748187,-80499.4623429117,-2416.6871044886
5410371706,5074,-2,0,-6719.1603656873,-80266.8159796570,-32722.0760226714,-12641.1175709290,-80528.9933431009,-48038.9918019336,-80469.7974980573,-80456.9484102123,-80498.8174549800,-2414.7524406938
5410371706,5074,-2,0,-6719.4280550174,-80268.0570847330,-32724.1688665249,-12642.0666512812,-80529.5652248516,-48156.3127347004,-80470.3937152017,-80458.3720307406,-80500.9833050145,-2416.2247320094
5410371706,5074,-2,0,-6718.5276454525,-80268.1300909139,-32700.7217147471,-12640.9593908703,-80532.8018322065,-48365.1712506662,-80470.9412615587,-80457.4229503884,-80499.8152061195,-2417.0156323028
5410371706,5074,-2,0,-6720.4136384600,-80269.3468605962,-32685.6094352930,-12642.9305577556,-80537.2308738501,-48394.8482632173,-80472.4865590552,-80459.1507633373,-80502.0053915477,-2419.4613393643
5410371706,5074,-2,0,-6718.7588316921,-80268.6533018773,-32696.3291761940,-12641.7624588606,-80534.6391544268,-48204.2291247891,-80469.8218334510,-80457.3499442075,-80500.3262493861,-2417.4049986012
5410371706,5074,-2,0,-6719.0265210222,-80268.6776372709,-32723.1467799918,-12641.4704341369,-80530.9645099863,-48047.8985560080,-80471.4888079157,-80457.7028074153,-80500.6912802908,-2416.1152227379
5410371706,5074,-2,0,-6718.9900179317,-80268.3247740631,-32728.6709143494,-12641.0080616576,-80530.1249389055,-48131.0647637928,-80471.7443295490,-80457.2526026329,-80500.5696033226,-2414.5455898478
5410371706,5074,-2,0,-6717.1648634083,-80266.7794765665,-32705.4792842049,-12640.1319874864,-80531.6824040988,-48348.2946551727,-80469.9191750256,-80457.0214163932,-80499.8395415132,-2415.2148131730
5410399300,5075,-2,0,-6718.9170117508,-80267.8989046742,-32688.6391918019,-12640.9837262640,-80535.5273962949,-48412.1263927059,-80470.6492368349,-80457.6906397185,-80499.8882123005,-2417.3198247234
5410399300,5075,-2,0,-6719.9269305871,-80268.3126063662,-32699.3345973093,-12642.3465083081,-80534.7608313950,-48236.9115584555,-80470.9655969523,-80458.4815400120,-80500.2289078115,-2418.5487621025
5410399300,5075,-2,0,-6720.5961539124,-80267.7285569187,-32724.7164128819,-12642.3100052177,-80530.3439574483,-48059.1293401755,-80469.5663118177,-80457.1795964519,-80500.1924047210,-2417.0399676965
5410399300,5075,-2,0,-6719.3063780491,-80267.4730352855,-32733.5623284722,-12641.9936451003,-80528.7134860740,-48115.3075964071,-80469.4081317590,-80455.7681436205,-80498.7201134055,-2416.1882289189
5410399300,5075,-2,0,-6718.2477884255,-80265.7573900334,-32711.9890020051,-12640.3996768165,-80528.9811754041,-48326.4658070724,-80469.5419764241,-80455.8776528919,-80498.8296226769,-2414.8984530557
5410399300,5075,-2,0,-6717.8097513399,-80265.2341790700,-32689.4665951859,-12640.3145029387,-80533.8604218301,-48413.9028764420,-80468.1670266830,-80455.2936034444,-80498.8661257673,-2416.5167567331
5410399300,5075,-2,0,-6719.1603656873,-80266.7551411729,-32696.2683377099,-12641.8232973448,-80535.1745330870,-48259.8233315731,-80469.8948396319,-80457.3012734202,-80499.9855538750,-2418.7556129485
5410399300,5075,-2,0,-6717.9435960050,-80266.4022779650,-32720.3360420257,-12640.6186953593,-80529.5652248516,-48062.6336368605,-80468.8849207956,-80455.8776528919,-80498.5619333468,-2415.7988626206
5410428428,5076,-2,0,-6717.7245774622,-80266.1589240286,-32731.3721430441,-12640.1441551832,-80527.2290270616,-48084.6571681101,-80468.0696851085,-80455.4639511999,-80497.6736914787,-2414.6429314224
5410428428,5076,-2,0,-6718.2477884255,-80266.9133212316,-32714.0818458587,-12641.1297386259,-80530.6603175657,-48295.6206956262,-80470.2598705366,-80456.6563854885,-80499.0243058260,-2415.9205395888
5410428428,5076,-2,0,-6718.6493224207,-80267.5217060727,-32690.1601539048,-12641.6772849829,-80534.3106266126,-48413.1971500263,-80470.8560876809,-80457.2160995424,-80500.6791125939,-2417.3684955107
5410428428,5076,-2,0,-6719.1847010809,-80268.3491094567,-32691.0118926824,-12642.2369990367,-80536.0141041678,-48277.6733428124,-80472.2553728156,-80458.5788815866,-80502.0175592445,-2417.6726879313
5410428428,5076,-2,0,-6719.7079120443,-80269.9187423469,-32717.0872669740,-12642.6750361224,-80533.1303600207,-48072.5259743776,-80472.6447391139,-80458.9804155817,-80501.4821805843,-2416.0908873443
5410428428,5076,-2,0,-6718.2477884255,-80268.7506434519,-32731.8466832202,-12641.5677757115,-80529.6260633357,-48067.1113492914,-80471.4888079157,-80457.8123166867,-80501.2144912542,-2415.0566331144
5410428428,5076,-2,0,-6718.1869499414,-80268.4464510313,-32717.7686579960,-12640.5578568752,-80531.4390501624,-48266.4060555543,-80471.3062924634,-80457.7149751121,-80500.1072308433,-2415.7136887428
5410428428,5076,-2,0,-6718.7466639953,-80268.3004386694,-32692.3868424234,-12640.5943599656,-80535.1988684806,-48408.1718912384,-80471.3062924634,-80458.4450369215,-80500.5452679289,-2416.7844460632
5410467503,5077,-2,0,-6717.8219190367,-80268.1057555202,-32690.7198679586,-12641.3609248655,-80536.5494828280,-48304.4301081260,-80471.6348202776,-80459.4549557578,-80501.4213421002,-2417.0399676965
5410467503,5077,-2,0,-6719.1481979904,-80270.0282516183,-32714.5320506411,-12642.4195144891,-80534.0186018888,-48089.5729176265,-80472.8394222631,-80459.3211110928,-80502.2974162714,-2417.0643030901
5410467503,5077,-2,0,-6718.3207946065,-80268.4829541217,-32731.9926955821,-12641.1419063227,-80529.8815849690,-48046.6452832352,-80471.0264354364,-80458.2016829851,-80500.2410755083,-2415.5068378968
5410467503,5077,-2,0,-6719.9147628903,-80269.4563698676,-32721.5893147984,-12641.8476327384,-80531.1470254386,-48235.2202485971,-80471.9146773045,-80458.2746891660,-80501.7742053080,-2417.0521353933
5410467503,5077,-2,0,-6718.2721238192,-80267.6068799505,-32696.7672132796,-12641.0080616576,-80533.2155338985,-48402.1732167047,-80470.5518952603,-80458.0556706232,-80499.9125476941,-2417.0764707870
5410467503,5077,-2,0,-6718.2721238192,-80267.0471658966,-32690.9997249856,-12640.9593908703,-80534.7851667887,-48325.7479129598,-80470.5762306540,-80456.1210068283,-80499.8273738164,-2417.7456941122
5410467503,5077,-2,0,-6718.7344962985,-80265.8912346985,-32712.1228466702,-12641.2757509877,-80531.1835285291,-48110.0511513795,-80469.4446348495,-80455.9749944665,-80498.8052872832,-2415.7745272269
5410467503,5077,-2,0,-6718.9778502349,-80266.0859178476,-32734.5357442181,-12641.9084712225,-80528.6283121962,-48041.4740120854,-80469.9191750256,-80455.7073051364,-80498.7444487991,-2415.1539746889
5410493986,5078,-2,0,-6718.3086269097,-80266.1589240286,-32727.5636539385,-12640.5943599656,-80528.0807658392,-48207.0520304520,-80469.1647778225,-80455.8776528919,-80497.9778838993,-2415.2634839603
5410493986,5078,-2,0,-6719.5497319856,-80267.5825445569,-32702.5590369674,-12641.9814774035,-80533.5318940159,-48393.7044997160,-80470.4910567762,-80457.5202919630,-80499.5596844862,-2417.4780047821
5410493986,5078,-2,0,-6719.6592412570,-80267.1931782585,-32693.5671090152,-12642.3221729145,-80535.0771915124,-48352.5168459703,-80470.7587461063,-80456.9484102123,-80499.2919951561,-2417.7943648995
5410493986,5078,-2,0,-6719.3307134428,-80266.8768181411,-32712.2445236384,-12641.4947695305,-80531.9744288226,-48134.9827621697,-80470.2233674461,-80457.4229503884,-80499.6326906672,-2416.6627690950
5410493986,5078,-2,0,-6718.7344962985,-80267.8867369774,-32735.6186692353,-12641.5556080147,-80529.7477403040,-48031.4234945097,-80470.1868643557,-80457.2404349361,-80499.9977215719,-2415.5311732904
5410493986,5078,-2,0,-6719.4888935015,-80266.9498243221,-32731.5911615869,-12641.0810678386,-80529.6747341230,-48177.6792103215,-80471.7078264585,-80457.1187579678,-80500.4479263543,-2415.7501918333
5410493986,5078,-2,0,-6718.7101609048,-80268.3977802440,-32706.4283645571,-12641.3122540782,-80534.2011173412,-48376.2803578655,-80471.2697893729,-80458.4328692247,-80500.9833050145,-2416.8331168505
5410493986,5078,-2,0,-6719.1725333841,-80268.7871465423,-32694.3215062182,-12642.1639928558,-80536.1114457424,-48366.1081633215,-80472.6082360234,-80458.7248939485,-80501.5795221588,-2417.4415016916
5410523006,5079,-2,0,-6718.6249870271,-80267.1566751681,-32710.6262199610,-12641.0932355354,-80532.9721799620,-48159.7196898108,-80470.1138581747,-80456.7658947600,-80500.0950631465,-2416.5775952172
5410523006,5079,-2,0,-6719.0143533254,-80267.1566751681,-32736.8962774017,-12641.0445647481,-80529.9667588468,-48035.3658282803,-80470.1746966588,-80456.4373669457,-80499.9125476941,-2416.5289244299
5410523006,5079,-2,0,-6718.5398131493,-80266.4387810555,-32736.3608987415,-12641.4947695305,-80527.8252442059,-48151.3239790030,-80469.9556781160,-80456.0114975569,-80499.5596844862,-2414.5212544541
5410523006,5079,-2,0,-6718.9413471445,-80266.9011535348,-32712.1715174575,-12641.4947695305,-80532.2056150622,-48359.4767685530,-80470.7952491968,-80457.2160995424,-80500.0950631465,-2416.4680859458
5410523006,5079,-2,0,-6719.2942103523,-80268.8114819360,-32697.2417534557,-12641.6286141956,-80536.3913027693,-48380.0523438806,-80470.6370691381,-80457.5932981439,-80500.5574356257,-2417.8187002932
5410523006,5079,-2,0,-6719.4158873206,-80268.3004386694,-32711.3441140735,-12642.2369990367,-80534.5418128522,-48185.1745115644,-80471.7321618522,-80458.8709063103,-80501.1414850732,-2417.6483525376
5410523006,5079,-2,0,-6718.4911423620,-80267.8380661901,-32735.2901414211,-12641.2514155941,-80529.8329141817,-48034.6235987741,-80471.5131433094,-80458.0678383200,-80500.4479263543,-2415.5433409873
5410523006,5079,-2,0,-6719.0021856286,-80267.3756937109,-32739.3663198568,-12641.3730925623,-80529.3462063088,-48129.8114910200,-80471.4523048252,-80457.5446273566,-80500.6182741098,-2414.7524406938
5410546236,5080,-2,0,-6719.1725333841,-80267.9597431584,-32718.1823596880,-12640.9958939608,-80532.7774968129,-48344.1941413434,-80470.6979076222,-80458.0069998359,-80500.9589696209,-2416.8209491537
5410546236,5080,-2,0,-6719.4280550174,-80267.9232400679,-32699.4562742775,-12642.2126636431,-80536.3304642852,-48392.3660530654,-80471.1602801015,-80458.3476953469,-80500.3140816893,-2417.9038741709
5410546236,5080,-2,0,-6718.6979932080,-80266.7916442634,-32708.1926805964,-12640.6186953593,-80534.1402788570,-48210.4103147752,-80470.0895227811,-80457.7636458994,-80500.0342246623,-2417.6605202345
5410546236,5080,-2,0,-6718.3694653938,-80267.3391906204,-32733.9881978610,-12641.8354650416,-80530.6359821720,-48037.7141937671,-80470.4180505953,-80457.1795964519,-80499.4623429117,-2415.8475334078
5410546236,5080,-2,0,-6718.9170117508,-80267.3635260140,-32740.7656049914,-12642.0909866749,-80528.6039768026,-48099.2949073881,-80470.1868643557,-80456.5955470044,-80499.3284982466,-2416.0787196475
5410546236,5080,-2,0,-6719.3550488364,-80267.7407246155,-32720.6402344462,-12642.2735021272,-80532.5828136637,-48316.1354324697,-80471.5496463998,-80458.2990245596,-80501.6160252493,-2416.5410921267
5410546236,5080,-2,0,-6718.7709993889,-80268.2761032758,-32699.8578082727,-12641.3730925623,-80536.2696258011,-48400.4819068463,-80471.6104848839,-80458.9317447944,-80501.1901558605,-2417.0399676965
5410546236,5080,-2,0,-6718.1261114573,-80266.4631164491,-32706.9637432173,-12641.0567324449,-80534.6878252141,-48237.5199432967,-80470.8317522873,-80457.7514782026,-80500.1924047210,-2416.7357752759
5410577339,5081,-2,0,-6718.5884839366,-80267.5095383759,-32732.7105896946,-12640.7160369339,-80531.4268824655,-48047.9472267952,-80471.5009756125,-80457.4351180852,-80500.3140816893,-2415.0079623271
5410577339,5081,-2,0,-6719.9269305871,-80268.3126063662,-32746.1315592903,-12642.6385330319,-80530.1857773896,-48085.5940807654,-80472.0120188791,-80458.1286768041,-80501.3970067065,-2416.3342412808
5410577339,5081,-2,0,-6718.9656825381,-80267.9110723711,-32728.3667219288,-12642.1153220685,-80531.0375161672,-48294.7811245454,-80471.4888079157,-80457.4594534789,-80500.3262493861,-2416.7601106696
5410577339,5081,-2,0,-6719.2577072619,-80267.1810105617,-32705.3941103271,-12641.7746265575,-80535.3448808425,-48405.3611532723,-80471.6834910649,-80458.2016829851,-80501.0441434986,-2417.8065325963
5410577339,5081,-2,0,-6718.9778502349,-80267.1688428649,-32708.2413513837,-12641.4339310464,-80535.3813839330,-48268.6205763761,-80470.5032244731,-80457.4351180852,-80498.9391319483,-2416.7601106696
5410577339,5081,-2,0,-6718.0044344891,-80266.8768181411,-32734.1098748292,-12641.1784094131,-80530.1736096928,-48065.8580765186,-80469.8583365414,-80457.0944225742,-80499.3163305498,-2415.7136887428
5410577339,5081,-2,0,-6718.3207946065,-80266.1589240286,-32748.4677570803,-12641.0080616576,-80527.1925239711,-48063.9964189047,-80469.6879887859,-80456.0601683442,-80499.1459827943,-2414.4725836668
5410577339,5081,-2,0,-6718.6128193302,-80267.3878614077,-32733.4406515040,-12641.3365894718,-80530.0884358150,-48268.8152595253,-80469.1526101257,-80456.4738700362,-80499.4866783053,-2416.2490674030
5410624173,5082,-2,0,-6718.1017760637,-80266.0372470603,-32708.7037238629,-12640.7160369339,-80533.2033662017,-48404.8136069153,-80469.5419764241,-80456.5590439140,-80499.6205229704,-2416.6019306109
5410624173,5082,-2,0,-6719.6470735602,-80267.5460414664,-32706.7447246744,-12642.6263653351,-80536.2331227106,-48291.5201817969,-80471.2089508888,-80457.4594534789,-80501.3605036160,-2418.6217682835
5410624173,5082,-2,0,-6718.3329623033,-80266.4996195396,-32729.7538393666,-12640.7038692370,-80531.4512178592,-48077.0523575957,-80469.6271503018,-80456.7293916695,-80499.5961875767,-2415.8962041951
5410624173,5082,-2,0,-6718.6736578144,-80267.8015630997,-32748.0175522979,-12641.6164464988,-80529.3827093993,-48046.3897616019,-80470.8195845905,-80458.4572046183,-80500.7886218654,-2415.7866949237
5410624173,5082,-2,0,-6718.0896083669,-80267.4000291045,-32736.1175448050,-12641.5799434083,-80530.3561251451,-48233.6749511006,-80471.0872739206,-80457.9218259581,-80501.1414850732,-2415.4338317159
5410624173,5082,-2,0,-6718.6371547239,-80267.1810105617,-32710.0908413008,-12641.5312726210,-80535.0163530283,-48394.3007168603,-80471.4888079157,-80459.1264279436,-80501.7985407017,-2417.3563278139
5410624173,5082,-2,0,-6718.5641485429,-80267.6798861314,-32703.5811235005,-12641.0080616576,-80536.4643089502,-48312.7528127529,-80471.9268450013,-80458.1165091073,-80500.6669448971,-2416.8331168505
5410624173,5082,-2,0,-6717.8097513399,-80266.4387810555,-32726.1765365007,-12640.6430307529,-80532.2786212431,-48096.9222065076,-80470.0408519938,-80456.6563854885,-80499.6691937577,-2416.3829120681
5410646922,5083,-2,0,-6718.2356207287,-80267.0471658966,-32747.2874904885,-12641.5677757115,-80527.3628717267,-48032.8957858253,-80470.2598705366,-80456.9119071218,-80499.6813614545,-2415.7501918333
5410646922,5083,-2,0,-6718.8805086603,-80266.9498243221,-32740.2545617248,-12641.8354650416,-80529.3583740056,-48207.8672661392,-80470.1260258715,-80456.8267332441,-80499.5596844862,-2416.0422165570
5410646922,5083,-2,0,-6718.5641485429,-80265.9764085762,-32715.6758141425,-12641.6651172861,-80532.8505029938,-48388.0100176028,-80470.2111997493,-80457.1309256646,-80498.9391319483,-2417.1859800584
5410646922,5083,-2,0,-6718.4424715747,-80267.0471658966,-32708.0223328409,-12641.2514155941,-80535.3692162362,-48335.2143810881,-80471.0386031333,-80458.0678383200,-80500.4235909607,-2417.4171662980
5410646922,5083,-2,0,-6718.9900179317,-80267.5582091632,-32729.2671314937,-12641.2392478973,-80533.3980493508,-48122.5838791072,-80470.6370691381,-80458.5788815866,-80500.9346342272,-2416.3342412808
5410646922,5083,-2,0,-6718.7709993889,-80267.3635260140,-32752.2762461859,-12641.5069372274,-80530.5143052038,-48034.5870956837,-80471.7078264585,-80457.9096582613,-80499.9977215719,-2415.0809685080
5410646922,5083,-2,0,-6717.8097513399,-80268.5316249090,-32749.1491481024,-12641.0567324449,-80530.0519327245,-48188.2529388606,-80470.5640629572,-80457.4472857820,-80499.6691937577,-2414.9106207525
5410646922,5083,-2,0,-6718.9656825381,-80267.2175136522,-32722.7574136934,-12640.6065276625,-80533.2763723826,-48381.9140014945,-80471.3427955538,-80458.1895152882,-80500.9102988336,-2416.1395581316
5410695948,5084,-2,0,-6719.2698749587,-80267.7042215251,-32711.7699834623,-12642.5533591541,-80536.0384395614,-48362.5551958492,-80472.3770497838,-80458.8222355230,-80501.0198081050,-2418.6582713739
5410695948,5084,-2,0,-6719.2333718682,-80267.6798861314,-32728.5735727748,-12641.3122540782,-80533.7874156492,-48148.6835887924,-80470.9655969523,-80456.8632363345,-80500.0220569655,-2417.6726879313
5410695948,5084,-2,0,-6718.8440055699,-80266.0615824540,-32750.9864703227,-12641.1175709290,-80529.3948770961,-48022.9669452177,-80469.6514856955,-80456.6807208822,-80499.6691937577,-2415.7380241364
5410695948,5084,-2,0,-6720.0121044649,-80267.4000291045,-32749.6236882785,-12641.8111296479,-80529.3948770961,-48149.3284767240,-80471.0021000428,-80456.9484102123,-80501.1414850732,-2416.6871044886
5410695948,5084,-2,0,-6719.5375642888,-80267.1080043808,-32723.6821586520,-12641.3852602591,-80532.4733043923,-48353.4780940193,-80471.1846154951,-80457.8366520804,-80501.0076404082,-2416.7479429727
5410695948,5084,-2,0,-6718.4424715747,-80267.2175136522,-32706.9029047331,-12641.8232973448,-80535.6125701726,-48361.8494694335,-80472.0241865759,-80458.7735647357,-80500.6669448971,-2417.4780047821
5410695948,5084,-2,0,-6717.5907327971,-80267.3878614077,-32718.9610922847,-12640.4483476038,-80534.2741235221,-48161.8977075421,-80472.0363542728,-80458.8344032199,-80500.4114232639,-2416.9912969092
5410695948,5084,-2,0,-6718.7466639953,-80267.7893954028,-32745.3649943905,-12640.7525400243,-80530.9280068958,-48015.2647931288,-80470.5883983508,-80457.3377765106,-80500.8981311368,-2415.1174715985
5410707054,5085,-2,0,-6719.2090364746,-80267.1323397744,-32747.8958753296,-12641.6651172861,-80529.1150200692,-48114.4193545390,-80470.6614045318,-80457.6298012344,-80500.7277833812,-2416.2368997062
5410707054,5085,-2,0,-6719.4037196237,-80268.1544263075,-32725.0449406962,-12641.9206389193,-80532.3272920304,-48328.5221478355,-80471.8781742141,-80458.5180431025,-80500.6182741098,-2417.2346508457
5410707054,5085,-2,0,-6719.7930859221,-80268.1422586107,-32706.0755013492,-12642.3221729145,-80535.9776010773,-48373.1897628725,-80471.4036340380,-80458.4207015279,-80501.3361682224,-2418.4027497407
5410707054,5085,-2,0,-6718.6493224207,-80267.7893954028,-32715.7488203234,-12640.6673661466,-80534.9920176346,-48186.0384180388,-80471.3549632507,-80458.7127262516,-80500.5817710194,-2416.6871044886
5410707054,5085,-2,0,-6720.3041291886,-80268.1544263075,-32742.4082440625,-12641.5434403178,-80531.6824040988,-48017.2237923173,-80472.7299129917,-80459.1872664277,-80501.2753297383,-2416.2125643125
5410707054,5085,-2,0,-6718.5398131493,-80267.3026875299,-32748.8571233786,-12641.6894526797,-80529.0420138882,-48088.3804833379,-80469.9070073287,-80456.8145655472,-80500.2410755083,-2415.7136887428
5410707054,5085,-2,0,-6719.0873595063,-80266.3292717841,-32728.5492373812,-12641.3487571687,-80530.9523422894,-48303.2133384437,-80470.5275598667,-80457.5324596598,-80499.6813614545,-2416.6262660045
5410707054,5085,-2,0,-6718.5763162398,-80265.9764085762,-32707.3166064251,-12641.2027448068,-80534.6756575173,-48377.4849598510,-80470.2355351430,-80457.6176335376,-80498.6714426182,-2417.1251415743
5410741681,5086,0,0,-6718.6979932080,-80266.8524827475,-32714.5685537316,-12640.9228877799,-80533.9090926174,-48215.8736106487,-80470.6857399254,-80458.1651798946,-80499.8152061195,-2417.1616446647
5410741681,5086,0,0,-6719.3915519269,-80266.5969611142,-32740.6195926295,-12642.2735021272,-80529.9910942404,-48031.4234945097,-80469.6028149082,-80455.4882865936,-80499.6326906672,-2416.1760612221
5410741681,5086,0,0,-6719.8295890125,-80266.0372470603,-32752.1424015208,-12642.2978375209,-80528.5796414090,-48068.7053175752,-80469.3229578812,-80456.8997394250,-80498.7322811023,-2416.2490674030
5410741681,5086,0,0,-6718.9413471445,-80265.7695577302,-32732.7835958755,-12640.6186953593,-80529.7964110913,-48281.6400119767,-80469.5906472113,-80456.3278576743,-80498.0752254738,-2415.8962041951
5410741681,5086,0,0,-6719.7322474379,-80266.7308057793,-32712.6460576336,-12642.0301481907,-80534.8460052728,-48388.4480546885,-80470.5640629572,-80457.5689627503,-80499.2919951561,-2418.1228927137
5410741681,5086,0,0,-6718.7709993889,-80266.8889858380,-32716.8195776438,-12642.4681852764,-80534.4201358840,-48243.9931580065,-80470.3937152017,-80456.5955470044,-80499.2311566720,-2417.2468185425
5410741681,5086,0,0,-6718.7831670858,-80264.7474711971,-32742.0553808546,-12640.7768754180,-80529.7842433944,-48046.0977368782,-80468.5685606782,-80455.6586343491,-80499.0608089165,-2416.1030550411
5410741681,5086,0,0,-6718.1017760637,-80266.0129116667,-32757.7638774530,-12640.9837262640,-80527.3142009394,-48059.4091972025,-80468.6659022528,-80455.5977958650,-80498.4524240754,-2415.6163471682
5410775357,5087,0,0,-6718.5398131493,-80265.3558560383,-32742.1283870356,-12641.3365894718,-80529.3218709152,-48266.0410246497,-80468.7997469179,-80456.4008638553,-80499.1459827943,-2415.9570426792
5410775357,5087,0,0,-6719.8052536189,-80266.5117872364,-32718.9854276783,-12642.1031543717,-80535.0771915124,-48395.9676913250,-80471.2454539793,-80457.8731551708,-80499.9733861782,-2418.9381284009
5410775357,5087,0,0,-6717.2378695892,-80265.5140360970,-32717.0629315803,-12640.5700245720,-80534.2011173412,-48277.4908273600,-80469.4933056368,-80456.6928885790,-80499.5110136990,-2417.0156323028
5410775357,5087,0,0,-6719.2698749587,-80267.2175136522,-32743.0409642973,-12642.3465083081,-80531.9135903384,-48068.0847650372,-80471.1359447079,-80457.8244843836,-80500.9589696209,-2416.4194151585
5410775357,5087,0,0,-6718.6614901175,-80266.7429734761,-32759.0658210131,-12641.1784094131,-80529.3218709152,-48040.7439502761,-80469.8096657541,-80456.5347085203,-80500.3505847797,-2415.0079623271
5410775357,5087,0,0,-6719.9269305871,-80267.8502338870,-32746.8129503124,-12641.4826018337,-80531.4512178592,-48236.7290430032,-80471.0264354364,-80458.1043414105,-80500.8007895622,-2416.3220735839
5410775357,5087,0,0,-6719.2942103523,-80266.7673088697,-32722.0638549745,-12641.6286141956,-80535.0650238156,-48392.9014317257,-80471.1602801015,-80459.2602726087,-80500.6426095035,-2417.6240171440
5410775357,5087,0,0,-6718.9778502349,-80266.5482903269,-32717.4888009691,-12641.0080616576,-80534.7121606077,-48301.7288794313,-80470.6979076222,-80457.3134411170,-80499.5718521831,-2417.1738123615
5410832177,5088,0,0,-6718.1869499414,-80266.3536071777,-32739.5731707027,-12641.1419063227,-80531.3538762846,-48087.4070675920,-80469.1647778225,-80457.0944225742,-80498.7931195864,-2416.6871044886
5410832177,5088,0,0,-6717.6759066749,-80266.2440979063,-32759.3091749496,-12640.8985523862,-80528.1537720202,-48035.5118406422,-80470.2963736271,-80456.7780624568,-80499.9733861782,-2414.8984530557
5410832177,5088,0,0,-6719.3063780491,-80267.2296813490,-32751.8747121907,-12642.1883282494,-80530.9401745926,-48211.7000906384,-80470.7465784095,-80457.9948321391,-80501.2023235573,-2416.7479429727
5410832177,5088,0,0,-6719.2455395650,-80267.7893954028,-32725.1666176644,-12641.6651172861,-80534.6999929109,-48383.4592989910,-80471.6226525808,-80458.0435029264,-80500.7764541685,-2417.5145078726
5410832177,5088,0,0,-6718.2964592128,-80267.4000291045,-32716.6127267979,-12641.4095956528,-80536.1601165297,-48322.5478086954,-80471.4279694316,-80458.0556706232,-80501.0441434986,-2417.8187002932
5410832177,5088,0,0,-6720.5474831251,-80268.8479850264,-32738.8552765902,-12643.3564271444,-80535.3205454489,-48108.8100463036,-80472.7299129917,-80459.2602726087,-80502.4799317237,-2418.4392528311
5410832177,5088,0,0,-6718.3938007874,-80266.7673088697,-32758.3114238101,-12640.4118445133,-80529.5287217611,-48021.6771693545,-80470.3207090207,-80456.5590439140,-80499.4988460021,-2415.2634839603
5410832177,5088,0,0,-6718.3694653938,-80266.8889858380,-32754.4664316140,-12641.4095956528,-80530.6359821720,-48184.7243067819,-80470.8682553777,-80458.0069998359,-80500.0220569655,-2416.0057134665
5410838541,5089,0,0,-6718.7588316921,-80267.3026875299,-32730.6420812347,-12641.1662417163,-80534.0064341920,-48381.7558214358,-80472.0971927569,-80457.3621119043,-80501.1171496796,-2416.6992721854
5410838541,5089,0,0,-6718.6736578144,-80267.7285569187,-32719.6303156099,-12641.2879186845,-80536.3061288915,-48353.3442493543,-80472.3283789965,-80459.0777571563,-80500.4722617480,-2417.7821972027
5410838541,5089,0,0,-6719.4645581078,-80267.6920538283,-32737.0666251572,-12641.8963035257,-80534.7729990918,-48139.0102698181,-80471.4644725221,-80457.9096582613,-80501.6160252493,-2417.7943648995
5410838541,5089,0,0,-6719.1360302936,-80267.6068799505,-32759.8323859129,-12641.8841358289,-80530.2466158737,-48026.3252295409,-80471.0386031333,-80457.1309256646,-80499.6935291513,-2416.1882289189
5410838541,5089,0,0,-6719.4645581078,-80266.8403150506,-32757.2650018833,-12641.3609248655,-80529.7112372135,-48158.8801187300,-80470.4180505953,-80456.9727456059,-80499.9125476941,-2416.2125643125
5410838541,5089,0,0,-6719.0873595063,-80265.7573900334,-32732.0900371566,-12641.6894526797,-80532.5341428764,-48362.8593882698,-80470.8439199841,-80456.8754040314,-80499.6326906672,-2416.9669615156
5410838541,5089,0,0,-6719.4888935015,-80266.4022779650,-32717.2211116390,-12641.1540740195,-80534.4931420649,-48368.5173672925,-80469.9070073287,-80457.7879812931,-80499.3650013371,-2418.1837311978
5410838541,5089,0,0,-6718.5763162398,-80264.9908251336,-32732.4429003645,-12641.0567324449,-80532.6679875415,-48164.0513898798,-80469.2864547908,-80456.0845037379,-80498.3064117135,-2416.6140983077
5410861837,5090,0,0,-6719.2090364746,-80265.2706821605,-32756.7782940104,-12641.7016203765,-80528.1659397170,-48024.0377025382,-80468.7997469179,-80455.4761188967,-80499.0486412197,-2416.8939553346
5410861837,5090,0,0,-6719.1847010809,-80266.5969611142,-32759.5646965828,-12642.3465083081,-80529.7112372135,-48133.7051540033,-80469.9070073287,-80458.1530121978,-80499.5718521831,-2416.9304584251
5410861837,5090,0,0,-6718.6128193302,-80265.9277377889,-32735.4361537829,-12641.1419063227,-80531.2808701037,-48346.5181714366,-80470.0043489033,-80456.6442177917,-80499.6570260608,-2416.3342412808
5410861837,5090,0,0,-6718.4546392715,-80266.5969611142,-32717.6226456342,-12641.0202293544,-80535.5030609012,-48381.1717719883,-80471.1481124047,-80458.3598630438,-80500.3019139924,-2417.5023401758
5410861837,5090,0,0,-6719.0630241127,-80268.2639355789,-32729.5591562175,-12641.2270802004,-80536.2452904074,-48194.6653150863,-80472.0971927569,-80459.2724403055,-80501.1414850732,-2417.4658370853
5410861837,5090,0,0,-6719.7930859221,-80269.5902145326,-32755.6832012963,-12642.7115392128,-80533.0208507493,-48035.2563190089,-80473.0341054122,-80460.7082285306,-80502.4069255428,-2418.0133834423
5410861837,5090,0,0,-6718.3207946065,-80267.8867369774,-32759.3213426464,-12641.1784094131,-80530.2344481769,-48111.4991073015,-80471.3549632507,-80458.1043414105,-80501.5795221588,-2415.1904777794
5410861837,5090,0,0,-6718.4546392715,-80267.6555507378,-32736.7989358271,-12640.4605153006,-80533.6779063778,-48327.6095705737,-80471.3792986443,-80457.8974905645,-80500.8251249558,-2416.7357752759
5410917828,5091,0,0,-6718.4181361811,-80268.1665940044,-32717.5009686659,-12640.8012108116,-80536.8050044613,-48400.0560374575,-80471.3914663411,-80458.6640554643,-80501.0319758018,-2417.1373092711
5410917828,5091,0,0,-6718.8683409635,-80268.6167987868,-32726.7484182514,-12641.7502911638,-80536.7928367644,-48229.3432510317,-80473.3382978328,-80459.7226450879,-80502.0053915477,-2417.8795387773
5410917828,5091,0,0,-6718.7344962985,-80268.5924633932,-32750.4267562688,-12641.7381234670,-80533.5075586223,-48045.1729919196,-80473.0462731091,-80459.2116018214,-80501.6646960366,-2416.4559182490
5410917828,5091,0,0,-6719.2212041714,-80268.4829541217,-32758.8224670766,-12641.8598004352,-80530.1127712086,-48093.1988912798,-80472.1580312410,-80459.2846080023,-80501.3848390097,-2415.4703348063
5410917828,5091,0,0,-6718.6614901175,-80269.2130159311,-32738.3320656268,-12640.9715585672,-80533.8239187397,-48305.0263252704,-80472.2918759060,-80459.2724403055,-80502.8084595380,-2416.3950797649
5410917828,5091,0,0,-6717.5542297066,-80267.2661844395,-32713.7289826508,-12640.3753414228,-80535.5638993853,-48397.3426410660,-80471.6834910649,-80458.8587386135,-80501.6038575525,-2416.3585766744
5410917828,5091,0,0,-6718.5641485429,-80268.2396001853,-32717.9025026611,-12640.6430307529,-80536.4521412534,-48249.6876401196,-80471.6469879744,-80458.5302107993,-80501.5308513716,-2416.8452845473
5410917828,5091,0,0,-6716.7633294132,-80266.5969611142,-32742.2865670943,-12640.1441551832,-80530.7576591403,-48054.5664538669,-80469.5663118177,-80457.3012734202,-80500.0220569655,-2415.3486578381
5410959429,5092,0,0,-6719.3793842301,-80267.6068799505,-32755.6953689931,-12642.0301481907,-80530.4778021133,-48071.4673847540,-80471.3062924634,-80457.7149751121,-80501.2388266478,-2416.7357752759
5410959429,5092,0,0,-6718.2964592128,-80266.3049363904,-32737.3586498810,-12640.8133785085,-80531.9379257321,-48279.5836712136,-80471.1602801015,-80457.3621119043,-80500.3140816893,-2416.5897629140
5410959429,5092,0,0,-6719.0143533254,-80267.0715012903,-32713.9845042841,-12640.9350554767,-80535.3935516298,-48403.1101293601,-80469.9800135097,-80457.6541366280,-80500.0585600560,-2416.7114398823
5410959429,5092,0,0,-6718.6858255112,-80266.9011535348,-32713.7654857413,-12640.8620492957,-80536.8658429454,-48274.5097416384,-80471.8903419109,-80457.8731551708,-80501.3848390097,-2417.7821972027
5410959429,5092,0,0,-6718.5641485429,-80268.0205816425,-32737.8331900571,-12641.0810678386,-80532.6558198446,-48064.2276051443,-80471.5496463998,-80458.7857324326,-80501.3240005256,-2416.5167567331
5410959429,5092,0,0,-6718.9778502349,-80266.5239549333,-32752.7994571493,-12641.0202293544,-80529.9545911500,-48052.5222808007,-80470.5762306540,-80457.3256088138,-80500.4965971416,-2415.8718688015
5410959429,5092,0,0,-6719.4158873206,-80267.5703768600,-32739.7678538519,-12641.9449743130,-80531.2930378005,-48251.0139190733,-80471.0386031333,-80457.7879812931,-80501.1171496796,-2417.0643030901
5410959429,5092,0,0,-6718.8926763572,-80266.2684333000,-32714.1426843428,-12640.9837262640,-80534.2741235221,-48399.2773048609,-80470.6492368349,-80456.3643607648,-80500.1315662369,-2416.9061230314
5410964757,5093,0,0,-6718.2599561224,-80264.8204773780,-32710.3098598436,-12640.4483476038,-80534.2376204316,-48305.5373685369,-80469.1526101257,-80456.7658947600,-80498.1238962611,-2417.9282095646
5410964757,5093,0,0,-6720.1946199172,-80267.0958366839,-32735.8498554749,-12641.8963035257,-80532.0961057908,-48094.7198533826,-80470.6492368349,-80456.8389009409,-80500.3505847797,-2417.5023401758
5410964757,5093,0,0,-6719.1847010809,-80265.4897007033,-32753.9675560443,-12640.6795338434,-80527.6670641472,-48045.7935444576,-80469.7974980573,-80454.9650756302,-80497.9292131120,-2416.2612350998
5410964757,5093,0,0,-6718.9048440540,-80265.6600484588,-32743.9292061654,-12641.4217633496,-80527.8617472964,-48229.5622695745,-80468.8605854020,-80455.2571003539,-80498.5862687404,-2416.4072474617
5410964757,5093,0,0,-6718.1382791541,-80265.4410299160,-32719.1436077370,-12641.1905771100,-80532.4002982114,-48402.4895768221,-80468.8484177051,-80455.6464666523,-80498.4280886817,-2416.6019306109
5410964757,5093,0,0,-6718.8075024794,-80265.7573900334,-32713.2787778684,-12641.4217633496,-80535.0285207251,-48333.2188788091,-80469.9070073287,-80457.0700871805,-80499.7178645449,-2417.5145078726
5410964757,5093,0,0,-6718.1626145478,-80265.5383714906,-32734.4262349466,-12640.8863846894,-80531.7189071893,-48116.0619936101,-80470.6857399254,-80458.0921737137,-80500.0220569655,-2417.2468185425
5410964757,5093,0,0,-6718.7101609048,-80265.1368374954,-32755.4276796630,-12640.7768754180,-80528.0077596583,-48042.4595955281,-80469.0309331575,-80455.5369573808,-80498.5862687404,-2415.4581671095
5410982528,5094,0,0,-6718.7588316921,-80265.3558560383,-32749.1126450119,-12641.0445647481,-80528.5066352280,-48207.0398627552,-80468.7145730401,-80455.8898205887,-80499.1946535816,-2415.9935457697
5410982528,5094,0,0,-6719.7687505284,-80266.7429734761,-32725.0692760898,-12642.5898622446,-80534.6513221236,-48393.1204502685,-80470.7222430159,-80457.8001489899,-80500.2045724179,-2417.7091910218
5410982528,5094,0,0,-6718.5641485429,-80266.7186380824,-32712.7555669050,-12641.3000863814,-80535.3205454489,-48355.1694038777,-80469.6879887859,-80456.8875717282,-80500.3262493861,-2417.6726879313
5410982528,5094,0,0,-6718.2356207287,-80265.5140360970,-32730.6420812347,-12641.4460987432,-80532.5949813605,-48139.5334807815,-80469.9435104192,-80456.7050562758,-80498.9878027356,-2417.0399676965
5410982528,5094,0,0,-6719.1847010809,-80266.0980855445,-32754.7219532473,-12641.6651172861,-80529.6138956389,-48029.2333090816,-80469.9800135097,-80456.4495346426,-80499.1581504911,-2415.6285148650
5410982528,5094,0,0,-6718.7101609048,-80265.2706821605,-32750.5240978434,-12641.3244217750,-80529.0420138882,-48169.9527228389,-80469.7731626637,-80456.1575099188,-80499.6813614545,-2415.9570426792
5410982528,5094,0,0,-6718.9535148413,-80266.3414394809,-32725.6898286278,-12641.2027448068,-80533.6414032873,-48373.0315828138,-80470.4667213826,-80457.1917641488,-80499.0608089165,-2417.2711539361
5410982528,5094,0,0,-6719.6349058634,-80265.9764085762,-32711.9038281274,-12641.7381234670,-80536.5738182216,-48367.7021316053,-80470.8317522873,-80458.5667138898,-80500.6061064130,-2418.6826067676
5411021991,5095,0,0,-6718.9778502349,-80265.0759990113,-32726.7849213418,-12641.3609248655,-80533.3007077763,-48161.5205089406,-80469.4446348495,-80456.7537270631,-80499.6448583640,-2416.9547938187
5411021991,5095,0,0,-6718.5154777557,-80265.2463467669,-32750.3172469974,-12641.3487571687,-80528.5066352280,-48028.2720610325,-80468.6415668592,-80454.6365478159,-80498.4159209849,-2415.6528502587
5411021991,5095,0,0,-6719.0751918095,-80265.4045268255,-32751.5826874670,-12641.1905771100,-80528.4457967439,-48140.3487164687,-80468.6659022528,-80455.1354233857,-80498.6227718309,-2416.2247320094
5411021991,5095,0,0,-6719.1968687777,-80266.0494147572,-32726.3833873467,-12641.9814774035,-80531.3052054973,-48348.2094812950,-80469.1526101257,-80456.3278576743,-80498.7931195864,-2416.7722783664
5411021991,5095,0,0,-6718.4789746652,-80265.5262037938,-32708.5212084106,-12641.0689001417,-80535.8194210186,-48375.4042836943,-80470.4058828985,-80457.2769380265,-80499.5961875767,-2416.8452845473
5411021991,5095,0,0,-6718.5641485429,-80265.0394959209,-32720.9444268668,-12641.6042788019,-80533.2642046858,-48179.4921971481,-80469.4933056368,-80457.4107826916,-80499.0729766133,-2417.0156323028
5411021991,5095,0,0,-6718.0774406700,-80264.6622973193,-32745.0729696667,-12640.2658321514,-80528.5553060153,-48016.2260411778,-80468.5563929814,-80454.8677340556,-80497.5885176009,-2415.6771856523
5411021991,5095,0,0,-6717.9314283082,-80263.5063661212,-32749.6601913690,-12640.6430307529,-80526.3286174967,-48099.8667891387,-80467.8993373530,-80453.6266289796,-80497.4060021486,-2414.8741176620
5411056687,5096,0,0,-6719.3307134428,-80263.1048321260,-32727.5758216353,-12641.7502911638,-80529.8572495754,-48315.4540414476,-80467.9601758371,-80454.6243801191,-80497.3086605740,-2416.0057134665
5411056687,5096,0,0,-6718.6858255112,-80263.1413352165,-32709.8596550611,-12641.4582664401,-80532.4733043923,-48375.9153269608,-80468.0940205021,-80455.3909450190,-80497.3208282708,-2418.1107250169
5411056687,5096,0,0,-6719.3307134428,-80263.4455276371,-32719.2774524021,-12641.1175709290,-80532.6558198446,-48204.9713542953,-80468.3617098322,-80455.5491250777,-80498.6227718309,-2417.7700295059
5411056687,5096,0,0,-6718.3572976970,-80263.9565709036,-32745.3163236032,-12641.4217633496,-80528.0929335360,-48034.6844372582,-80468.7145730401,-80454.4783677572,-80497.6250206914,-2415.5920117746
5411056687,5096,0,0,-6718.2599561224,-80264.2850987178,-32753.2253265381,-12641.8841358289,-80526.7058160982,-48090.6558426438,-80469.0309331575,-80455.5856281681,-80498.2334055325,-2415.1661423858
5411056687,5096,0,0,-6717.8827575209,-80264.6744650162,-32734.0855394356,-12640.9715585672,-80530.6116467784,-48303.2133384437,-80469.3594609717,-80455.5004542904,-80498.3064117135,-2416.1152227379
5411056687,5096,0,0,-6718.0044344891,-80264.6501296225,-32713.1814362938,-12641.1175709290,-80533.2885400794,-48391.2587926546,-80469.6514856955,-80456.3643607648,-80499.5110136990,-2418.0620542296
5411056687,5096,0,0,-6717.7002420685,-80264.0052416909,-32717.6348133310,-12640.1319874864,-80533.1181923239,-48234.1494912767,-80469.7731626637,-80455.6829697427,-80498.7079457086,-2416.3829120681
5411088465,5097,0,0,-6719.0873595063,-80265.7452223366,-32744.9634603953,-12641.8232973448,-80530.3074543578,-48041.7782045060,-80469.4933056368,-80456.2183484029,-80499.4623429117,-2416.7844460632
5411088465,5097,0,0,-6718.7466639953,-80265.8668993048,-32758.4331007783,-12642.2491667336,-80528.0685981424,-48068.9730069053,-80470.1503612652,-80456.6928885790,-80499.4258398212,-2416.3707443712
5411088465,5097,0,0,-6718.7831670858,-80265.3071852510,-32740.6560957200,-12642.0544835844,-80530.2587835705,-48278.3303984408,-80469.5906472113,-80455.5612927745,-80498.4645917722,-2415.8840364983
5411088465,5097,0,0,-6718.7344962985,-80264.9543220431,-32718.5352228959,-12641.8232973448,-80533.8725895269,-48389.1781164978,-80469.6149826050,-80456.8997394250,-80499.5110136990,-2417.1859800584
5411088465,5097,0,0,-6718.3694653938,-80264.9543220431,-32719.0097630720,-12640.7647077212,-80533.8969249206,-48252.7538997190,-80469.9678458128,-80456.8997394250,-80499.2068212784,-2417.7213587186
5411088465,5097,0,0,-6719.9756013744,-80266.4022779650,-32744.6714356716,-12642.5290237605,-80531.4025470719,-48048.9206425411,-80470.8925907714,-80457.4594534789,-80499.6570260608,-2417.7091910218
5411088465,5097,0,0,-6719.4158873206,-80266.0129116667,-32757.8855544213,-12641.6529495892,-80527.9225857805,-48039.5515159874,-80469.7366595732,-80457.2160995424,-80500.0342246623,-2415.5311732904
5411088465,5097,0,0,-6717.8705898240,-80265.2098436764,-32743.1748089623,-12639.9859751245,-80529.3340386120,-48241.9611526371,-80469.4324671526,-80456.0358329506,-80499.4866783053,-2415.6285148650
5411111767,5098,0,0,-6718.9291794476,-80265.6478807620,-32719.3382908862,-12641.6042788019,-80533.5805648032,-48388.2168684488,-80470.7952491968,-80457.3377765106,-80500.3019139924,-2417.1251415743
5411111767,5098,0,0,-6718.9535148413,-80264.9299866495,-32717.3062855168,-12640.8255462053,-80534.0429372825,-48279.0361248566,-80468.6293991623,-80456.8997394250,-80499.3163305498,-2417.7700295059
5411111767,5098,0,0,-6718.8683409635,-80265.0881667082,-32740.1693878471,-12640.7525400243,-80531.3417085878,-48060.3582775546,-80469.2621193971,-80455.3787773221,-80498.8296226769,-2416.2734027966
5411111767,5098,0,0,-6719.2577072619,-80265.1733405859,-32757.9585606022,-12642.0301481907,-80527.6427287536,-48023.1129575796,-80469.5419764241,-80456.5833793076,-80498.9391319483,-2416.1273904348
5411111767,5098,0,0,-6718.8318378731,-80265.0516636177,-32746.7277764346,-12641.4826018337,-80529.2488647342,-48210.6293333180,-80469.5663118177,-80456.3156899775,-80498.6957780118,-2416.3829120681
5411111767,5098,0,0,-6718.8075024794,-80265.3680237351,-32720.7010729304,-12641.0323970513,-80532.6071490574,-48374.7228926722,-80469.5784795145,-80456.4617023394,-80499.0486412197,-2416.4559182490
5411111767,5098,0,0,-6719.8660921030,-80265.2828498573,-32716.1503543186,-12642.2004959463,-80535.9897687741,-48302.4224381502,-80471.0629385269,-80457.1187579678,-80500.7521187749,-2419.0841407627
5411111767,5098,0,0,-6718.3938007874,-80264.9786574367,-32736.5434141938,-12640.6795338434,-80531.9987642162,-48085.8982731860,-80468.4468837100,-80456.7415593663,-80498.8417903737,-2415.9083718920
5411172844,5099,0,0,-6718.7101609048,-80265.3558560383,-32757.6422004848,-12640.8012108116,-80528.8108276486,-48016.2625442683,-80469.6879887859,-80456.4008638553,-80499.5231813958,-2415.4946702000
5411172844,5099,0,0,-6719.7565828316,-80266.0615824540,-32751.2298242591,-12641.6894526797,-80529.0176784946,-48185.7463933151,-80470.8074168936,-80457.6784720217,-80499.3771690339,-2415.9448749824
5411172844,5099,0,0,-6718.8318378731,-80265.2828498573,-32727.4663123639,-12641.3365894718,-80533.5440617127,-48371.4984530141,-80470.0773550843,-80456.5347085203,-80499.3406659434,-2416.7357752759
5411172844,5099,0,0,-6719.0630241127,-80265.7938931239,-32718.7664091355,-12641.9449743130,-80533.9942664952,-48325.9304284122,-80470.2598705366,-80457.5081242662,-80499.0729766133,-2417.4415016916
5411172844,5099,0,0,-6718.0531052764,-80264.1512540528,-32736.2513894701,-12640.6430307529,-80530.6116467784,-48108.2016614625,-80467.5221387514,-80455.3666096253,-80497.3573313613,-2416.0787196475
5411172844,5099,0,0,-6718.4546392715,-80264.3702725956,-32759.7837151257,-12641.6894526797,-80527.0708470029,-48010.1908635537,-80468.6659022528,-80454.8677340556,-80497.8683746279,-2415.7258564396
5411172844,5099,0,0,-6718.6858255112,-80264.2607633242,-32756.7174555263,-12641.3730925623,-80527.9469211742,-48157.6755167445,-80469.9921812065,-80456.2061807061,-80499.5840198799,-2415.1539746889
5411172844,5099,0,0,-6718.1382791541,-80264.2242602337,-32731.1531245013,-12640.6917015402,-80530.6238144752,-48352.2613243370,-80468.6172314655,-80454.9650756302,-80498.5984364372,-2415.8840364983
5411182028,5100,0,0,-6719.3672165333,-80264.5284526543,-32718.4987198054,-12641.1905771100,-80534.0307695856,-48343.2815640817,-80468.5928960719,-80456.3035222807,-80498.5497656499,-2419.0111345818
5411182028,5100,0,0,-6719.1238625968,-80264.0660801750,-32735.3996506925,-12641.7746265575,-80531.6824040988,-48137.0147675392,-80469.2864547908,-80456.2061807061,-80498.4402563785,-2417.4780047821
5411182028,5100,0,0,-6718.5884839366,-80263.7375523608,-32759.1996656782,-12641.2027448068,-80527.8009088123,-48006.9542561988,-80468.2400328640,-80455.3909450190,-80497.7953684469,-2415.8597011047
5411182028,5100,0,0,-6719.5010611983,-80264.4067756861,-32759.4430196146,-12640.9958939608,-80527.7765734187,-48127.0615915380,-80468.5077221941,-80455.3787773221,-80497.9657162024,-2415.7136887428
5411182028,5100,0,0,-6719.7687505284,-80265.3801914319,-32734.9981166973,-12641.8598004352,-80532.1326088813,-48336.3946476799,-80469.7731626637,-80456.7780624568,-80499.8517092100,-2417.0156323028
5411182028,5100,0,0,-6718.7344962985,-80264.1634217496,-32718.5473905927,-12641.5191049242,-80533.7509125587,-48354.0134726795,-80469.8583365414,-80456.2548514934,-80498.4767594690,-2417.0156323028
5411182028,5100,0,0,-6718.2234530319,-80264.3702725956,-32731.8953540075,-12641.0689001417,-80532.2056150622,-48155.8625299179,-80469.3351255781,-80455.8654851951,-80497.5641822073,-2416.9182907283
5411182028,5100,0,0,-6718.2112853351,-80264.9421543463,-32756.7296232231,-12640.5943599656,-80528.8960015264,-48007.1246039543,-80469.1526101257,-80455.9263236792,-80498.7931195864,-2415.5068378968
5411216218,5101,0,0,-6718.2599561224,-80264.7109681066,-32760.5624477223,-12641.1784094131,-80527.4845486949,-48101.5702666939,-80468.5320575877,-80456.1696776156,-80498.3915855912,-2415.2513162635
5411216218,5101,0,0,-6719.2455395650,-80265.1368374954,-32738.1495501745,-12641.9328066162,-80530.8793361085,-48314.0304209193,-80469.7853303605,-80457.0092486964,-80499.2433243688,-2416.4315828553
5411216218,5101,0,0,-6718.9048440540,-80264.2972664147,-32719.6303156099,-12641.4339310464,-80534.5053097617,-48364.2100026172,-80468.9700946734,-80455.8289821046,-80498.4524240754,-2417.7456941122
5411216218,5101,0,0,-6718.5763162398,-80263.7497200576,-32729.0602806477,-12641.7137880734,-80533.2642046858,-48182.4367797792,-80468.9457592797,-80455.6342989554,-80497.9170454151,-2416.6140983077
5411216218,5101,0,0,-6719.3307134428,-80264.2120925369,-32754.3569223426,-12641.5799434083,-80529.6503987294,-48008.0493489128,-80469.8096657541,-80456.1210068283,-80498.5741010436,-2416.0787196475
5411216218,5101,0,0,-6718.8926763572,-80262.9344843705,-32761.3411803190,-12641.1540740195,-80526.3529528904,-48071.6012294190,-80468.6050637687,-80454.4540323636,-80497.4790083295,-2414.8376145715
5411216218,5101,0,0,-6719.2212041714,-80265.1003344050,-32742.5785918180,-12641.7989619511,-80531.9014226416,-48290.8387907748,-80469.8948396319,-80457.1552610583,-80499.9368830878,-2416.8696199410
5411216218,5101,0,0,-6718.5763162398,-80265.5748745811,-32720.7375760208,-12641.2514155941,-80535.2232038743,-48368.8093920162,-80470.0895227811,-80457.7271428090,-80499.6813614545,-2417.1251415743
5411232458,5102,0,0,-6719.3063780491,-80266.5117872364,-32727.4663123639,-12643.0157316334,-80535.0893592092,-48210.3129732006,-80470.7709138032,-80457.8853228677,-80500.4844294448,-2418.2567373788
5411232458,5102,0,0,-6719.3672165333,-80266.0980855445,-32753.6876990174,-12641.5677757115,-80530.8915038053,-48022.1395418338,-80469.3594609717,-80456.5955470044,-80500.1315662369,-2416.0300488602
5411232458,5102,0,0,-6718.4181361811,-80264.4676141702,-32764.2614275565,-12640.4240122101,-80526.8761638538,-48051.9869021405,-80468.3008713481,-80455.3057711412,-80498.1360639580,-2414.6185960287
5411232458,5102,0,0,-6719.2820426555,-80264.4067756861,-32747.2874904885,-12642.1639928558,-80530.5508082943,-48261.8675046394,-80469.6879887859,-80456.7658947600,-80498.8782934642,-2415.7501918333
5411232458,5102,0,0,-6719.4280550174,-80264.4189433829,-32724.4122204614,-12641.8232973448,-80532.9235091748,-48372.9585766328,-80470.8074168936,-80457.9704967454,-80499.9247153909,-2417.2711539361
5411232458,5102,0,0,-6718.9535148413,-80264.6988004098,-32725.6411578405,-12641.7137880734,-80534.2984589157,-48233.2004109245,-80470.4667213826,-80457.1430933615,-80500.3140816893,-2416.6871044886
5411232458,5102,0,0,-6718.1747822446,-80264.9664897399,-32751.5218489829,-12641.9693097066,-80532.1447765781,-48028.7709366023,-80470.8195845905,-80457.2526026329,-80500.8616280463,-2415.9935457697
5411232458,5102,0,0,-6718.8318378731,-80265.5383714906,-32765.7093834784,-12641.4704341369,-80528.2997843820,-48031.5330037811,-80470.5153921699,-80456.7050562758,-80500.3505847797,-2415.2513162635
5411288687,5103,0,0,-6718.3816330906,-80265.3801914319,-32750.9864703227,-12641.0445647481,-80530.5386405975,-48239.3207624265,-80470.6492368349,-80457.3377765106,-80499.5718521831,-2415.5190055936
5411288687,5103,0,0,-6718.5884839366,-80265.6843838525,-32726.9431014005,-12641.3000863814,-80534.3958004903,-48373.5912968676,-80470.3937152017,-80457.7636458994,-80499.8152061195,-2416.8452845473
5411288687,5103,0,0,-6717.9557637018,-80266.0859178476,-32724.2418727058,-12640.9472231735,-80534.4809743681,-48260.0788532064,-80470.4423859890,-80457.7636458994,-80499.5840198799,-2416.9061230314
5411288687,5103,0,0,-6718.6128193302,-80265.5748745811,-32748.1148938725,-12641.3000863814,-80531.6824040988,-48047.1563265018,-80470.4667213826,-80457.1309256646,-80500.1315662369,-2416.2368997062
5411288687,5103,0,0,-6718.5033100588,-80265.4166945224,-32765.1131663341,-12640.8742169926,-80528.9325046168,-48015.4351408843,-80470.7830815000,-80456.9970809996,-80500.4965971416,-2414.8984530557
5411288687,5103,0,0,-6719.2942103523,-80267.7407246155,-32753.0428110857,-12642.2126636431,-80532.1691119717,-48206.5166517918,-80471.7808326395,-80458.9439124913,-80501.2144912542,-2417.5510109631
5411288687,5103,0,0,-6718.4303038779,-80266.4996195396,-32726.3955550435,-12640.6551984498,-80534.5296451554,-48368.0063240259,-80471.1724477983,-80457.8974905645,-80500.8859634399,-2415.7745272269
5411288687,5103,0,0,-6718.7831670858,-80266.6212965078,-32721.6136501921,-12640.7403723275,-80535.6855763536,-48283.7450235270,-80471.6104848839,-80458.6153846770,-80500.3749201734,-2417.0399676965
5411315623,5104,0,0,-6718.4181361811,-80266.3901102682,-32743.7710261067,-12641.7989619511,-80532.6923229351,-48066.3082813011,-80470.4788890794,-80457.9339936550,-80500.6669448971,-2416.2247320094
5411315623,5104,0,0,-6718.5398131493,-80265.3923591287,-32762.8013039377,-12641.1297386259,-80528.3971259566,-48007.6843180081,-80470.8195845905,-80455.8898205887,-80499.7787030291,-2414.8984530557
5411315623,5104,0,0,-6718.7466639953,-80266.0980855445,-32755.3911765726,-12641.5921111051,-80530.3561251451,-48181.4268609429,-80471.1602801015,-80457.3986149947,-80499.8273738164,-2415.7501918333
5411315623,5104,0,0,-6718.6249870271,-80265.3680237351,-32729.7781747603,-12641.7624588606,-80534.2254527348,-48357.9071356629,-80470.7830815000,-80457.2160995424,-80500.3870878702,-2416.7236075791
5411315623,5104,0,0,-6718.1504468510,-80265.1490051923,-32720.4942220844,-12640.1684905768,-80535.3570485393,-48304.6734620625,-80471.1359447079,-80457.5811304471,-80500.2897462956,-2417.3076570266
5411315623,5104,0,0,-6718.7831670858,-80265.6722161557,-32741.5321698912,-12641.3609248655,-80533.0938569303,-48090.1813024677,-80470.9047584682,-80458.0313352295,-80500.6547772003,-2416.7236075791
5411315623,5104,0,0,-6717.2987080734,-80264.2607633242,-32761.9130620697,-12640.2171613641,-80528.6526475899,-47994.9325717377,-80469.2742870939,-80455.9506590728,-80498.6349395277,-2414.5455898478
5411315623,5104,0,0,-6719.1968687777,-80265.2341790700,-32757.2893372770,-12641.2270802004,-80530.0032619373,-48147.0774528118,-80470.6249014413,-80457.6419689312,-80500.2410755083,-2416.5532598236
5411337759,5105,0,0,-6718.5398131493,-80265.6965515493,-32732.6862543010,-12640.9107200830,-80533.2763723826,-48344.3888244926,-80470.4302182921,-80457.0092486964,-80500.0707277528,-2416.2368997062
5411337759,5105,0,0,-6719.2820426555,-80266.7551411729,-32721.4676378302,-12642.5533591541,-80536.3669673756,-48323.4360505635,-80472.2067020283,-80459.1020925500,-80501.3970067065,-2418.6947744644
5411337759,5105,0,0,-6718.9413471445,-80265.9277377889,-32736.3608987415,-12642.1518251590,-80533.2277015953,-48107.5932766213,-80470.7709138032,-80457.5202919630,-80500.2289078115,-2417.0277999997
5411337759,5105,0,0,-6719.5375642888,-80267.0593335935,-32760.2095845145,-12642.2978375209,-80529.6017279421,-47990.4426916100,-80471.3549632507,-80457.5202919630,-80500.3262493861,-2416.1030550411
5411337759,5105,0,0,-6718.1139437605,-80265.0029928304,-32758.9441440449,-12640.7160369339,-80529.2732001279,-48118.6050422461,-80470.4423859890,-80456.8754040314,-80499.8273738164,-2413.9007019162
5411337759,5105,0,0,-6717.9435960050,-80264.7596388939,-32734.6087503990,-12639.9494720340,-80532.3394597273,-48322.6086471795,-80469.9556781160,-80457.5932981439,-80499.9247153909,-2415.4703348063
5411337759,5105,0,0,-6718.1017760637,-80265.0029928304,-32719.2774524021,-12641.1175709290,-80535.3570485393,-48335.4577350245,-80470.5397275635,-80457.6298012344,-80500.1559016306,-2416.3464089776
5411337759,5105,0,0,-6718.6128193302,-80264.8569804685,-32734.2437194943,-12641.7624588606,-80534.0551049793,-48137.0391029328,-80471.4401371284,-80457.4107826916,-80499.8273738164,-2417.4780047821
5411378369,5106,0,0,-6718.8318378731,-80265.1976759796,-32759.7715474288,-12641.1905771100,-80528.9933431009,-47991.7811382605,-80470.0165166001,-80456.7293916695,-80499.5718521831,-2415.5555086841
5411378369,5106,0,0,-6719.8417567094,-80265.8425639112,-32762.3267637616,-12641.7502911638,-80529.1636908565,-48093.1258850988,-80470.5883983508,-80457.4716211757,-80500.7642864717,-2415.5190055936
5411378369,5106,0,0,-6720.0121044649,-80266.1467563317,-32739.8530277297,-12641.7137880734,-80532.5098074828,-48308.1412556570,-80471.1481124047,-80457.3621119043,-80500.8981311368,-2416.2734027966
5411378369,5106,0,0,-6719.0751918095,-80265.8425639112,-32721.4676378302,-12640.8863846894,-80535.3327131457,-48349.1342262535,-80470.7222430159,-80457.9218259581,-80500.3019139924,-2416.7114398823
5411378369,5106,0,0,-6717.7245774622,-80264.1269186591,-32731.8588509170,-12640.3996768165,-80533.4102170477,-48159.9873791409,-80470.0043489033,-80457.4837888725,-80498.9878027356,-2416.9304584251
5411378369,5106,0,0,-6718.1382791541,-80264.4676141702,-32758.0680698736,-12641.1297386259,-80528.8960015264,-47995.1272548869,-80469.0309331575,-80455.5977958650,-80498.1482316548,-2415.6528502587
5411378369,5106,0,0,-6719.0508564159,-80264.2364279305,-32764.8089739135,-12640.9472231735,-80528.4457967439,-48067.8900818880,-80470.0530196906,-80456.0601683442,-80499.0608089165,-2415.4703348063
5411378369,5106,0,0,-6718.2964592128,-80264.0904155687,-32743.2356474465,-12640.6795338434,-80530.1127712086,-48281.8955336099,-80468.6780699496,-80455.3787773221,-80498.9634673419,-2415.1296392953
5411418570,5107,0,0,-6719.1481979904,-80264.9908251336,-32723.7551648329,-12641.5799434083,-80535.3692162362,-48358.8075452278,-80470.5883983508,-80457.5689627503,-80501.1049819828,-2417.6240171440
5411418570,5107,0,0,-6718.4059684842,-80264.3702725956,-32731.1896275917,-12641.4095956528,-80533.5197263191,-48193.0226760152,-80470.3328767175,-80455.8898205887,-80498.5619333468,-2417.3563278139
5411418570,5107,0,0,-6718.6858255112,-80264.4554464734,-32756.4132631057,-12641.4460987432,-80529.9424234531,-48003.3647856360,-80469.5054733336,-80456.3765284616,-80499.2798274593,-2416.2247320094
5411418570,5107,0,0,-6718.4789746652,-80264.4067756861,-32766.1595882609,-12641.6286141956,-80528.1172689297,-48043.8102098754,-80469.5663118177,-80456.3156899775,-80499.1824858847,-2415.0079623271
5411418570,5107,0,0,-6717.8219190367,-80264.0660801750,-32746.6060994664,-12640.3753414228,-80530.0397650277,-48258.9107543114,-80469.6514856955,-80455.9384913760,-80497.8805423247,-2414.6307637255
5411418570,5107,0,0,-6719.5132288951,-80266.1224209381,-32725.3247977231,-12642.3221729145,-80535.5882347790,-48361.7764632526,-80471.0507708301,-80457.8853228677,-80500.2045724179,-2418.4757559216
5411418570,5107,0,0,-6718.3086269097,-80264.7353035003,-32727.8435109654,-12640.9350554767,-80536.2087873170,-48215.6302567122,-80471.2576216761,-80458.3963661342,-80500.6061064130,-2417.3806632075
5411418570,5107,0,0,-6718.2721238192,-80265.0516636177,-32754.2839161617,-12640.9228877799,-80531.4633855560,-48018.6230774519,-80470.5640629572,-80456.6198823981,-80499.7787030291,-2415.0201300239
5411433019,5108,0,0,-6719.1847010809,-80266.1467563317,-32770.2235989997,-12642.3830113986,-80528.5553060153,-48029.7078492577,-80469.8948396319,-80457.2647703297,-80499.8882123005,-2415.1783100826
5411433019,5108,0,0,-6718.5154777557,-80265.2463467669,-32753.6876990174,-12640.7403723275,-80530.7819945339,-48234.9160561766,-80470.3937152017,-80457.6784720217,-80500.1072308433,-2416.4437505522
5411433019,5108,0,0,-6718.8926763572,-80266.0859178476,-32731.4208138314,-12642.0544835844,-80534.2497881285,-48367.1302498547,-80471.0264354364,-80457.9096582613,-80500.4357586575,-2418.1958988947
5411433019,5108,0,0,-6718.4668069684,-80265.2950175541,-32731.2382983790,-12641.0323970513,-80534.3958004903,-48248.0206656549,-80470.5518952603,-80457.8001489899,-80500.1680693274,-2417.0399676965
5411433019,5108,0,0,-6718.6371547239,-80264.8083096812,-32755.5250212376,-12640.4361799069,-80530.5751436879,-48036.2175670579,-80468.4833868004,-80455.2814357476,-80498.9269642515,-2415.3486578381
5411433019,5108,0,0,-6717.4690558289,-80264.4432787765,-32771.4282009852,-12640.7282046307,-80527.5575548758,-48014.7902529527,-80468.4225483163,-80454.8190632683,-80498.1847347453,-2414.8862853588
5411433019,5108,0,0,-6718.2599561224,-80264.4554464734,-32760.1487460303,-12641.7259557702,-80529.0055107978,-48211.0186996163,-80469.5906472113,-80456.2670191902,-80498.6714426182,-2415.6893533491
5411433019,5108,0,0,-6718.0409375796,-80264.0539124782,-32733.7083408341,-12641.3365894718,-80532.1082734876,-48361.7034570716,-80469.0552685511,-80456.6198823981,-80499.0608089165,-2417.2711539361
5411459638,5109,0,0,-6719.6470735602,-80264.3337695051,-32729.6686654889,-12642.2126636431,-80534.2132850380,-48270.2023769631,-80470.2842059302,-80456.6807208822,-80499.3163305498,-2418.5487621025
5411459638,5109,0,0,-6718.6249870271,-80263.9565709036,-32752.5804386065,-12642.2856698240,-80530.9766776831,-48056.3794406935,-80468.5807283750,-80455.6829697427,-80498.6349395277,-2417.3198247234
5411459638,5109,0,0,-6718.8196701762,-80263.1656706101,-32771.1726793519,-12641.4826018337,-80527.2533624553,-48000.8217370000,-80468.3982129227,-80455.0259141143,-80498.3550825008,-2416.3585766744
5411459638,5109,0,0,-6718.6979932080,-80262.8128074023,-32761.4506895904,-12641.3852602591,-80527.4237102108,-48177.1073285708,-80469.0431008543,-80454.9772433270,-80497.7345299628,-2415.9692103761
5411459638,5109,0,0,-6718.3938007874,-80263.1900060038,-32735.8985262622,-12640.9593908703,-80531.6459010083,-48354.5853544302,-80468.7389084337,-80455.9749944665,-80498.9026288578,-2416.5045890363
5411459638,5109,0,0,-6718.3207946065,-80263.7010492703,-32727.8678463591,-12640.5091860879,-80534.3349620062,-48293.9050503742,-80468.8727530988,-80456.5103731267,-80498.8052872832,-2417.6361848408
5411459638,5109,0,0,-6719.0265210222,-80264.8448127717,-32748.7111110168,-12641.7381234670,-80531.9500934289,-48075.9816002753,-80471.2454539793,-80457.1917641488,-80499.6813614545,-2416.8087814569
5411459638,5109,0,0,-6718.9048440540,-80264.0904155687,-32768.8121461683,-12640.7890431148,-80527.6913995409,-47992.7058832191,-80469.9921812065,-80456.4130315521,-80498.3915855912,-2415.8353657110
5411486568,5110,0,0,-6718.8561732667,-80264.1877571433,-32763.7747196836,-12641.7259557702,-80528.2146105043,-48152.5529163821,-80469.2377840035,-80456.0358329506,-80498.4889271658,-2416.0543842538
5411486568,5110,0,0,-6718.5398131493,-80263.9322355100,-32738.6240903506,-12641.1905771100,-80530.7941622307,-48342.2473098517,-80468.7754115242,-80455.9628267696,-80497.6736914787,-2416.7844460632
5411486568,5110,0,0,-6718.3816330906,-80262.7884720086,-32727.1864553370,-12640.8863846894,-80533.0086830525,-48313.3246945036,-80469.6758210891,-80455.8411498014,-80498.2090701389,-2417.7578618090
5411486568,5110,0,0,-6718.8318378731,-80263.3360183656,-32745.8760376570,-12641.3244217750,-80531.7067394925,-48103.7361167284,-80469.5298087272,-80455.5491250777,-80498.1117285643,-2416.8696199410
5411486568,5110,0,0,-6718.8075024794,-80264.4676141702,-32769.8707357919,-12642.1031543717,-80527.9712565678,-47992.9979079428,-80469.5663118177,-80455.8533174982,-80499.3771690339,-2415.6528502587
5411486568,5110,0,0,-6718.0774406700,-80263.8105585418,-32767.1330040067,-12640.6673661466,-80527.8130765091,-48126.7817345111,-80468.7997469179,-80455.6342989554,-80498.6471072245,-2414.6307637255
5411486568,5110,0,0,-6718.5641485429,-80264.2120925369,-32743.3329890210,-12641.1054032322,-80532.4611366955,-48335.4577350245,-80470.1746966588,-80456.8632363345,-80499.3893367307,-2417.1981477552
5411486568,5110,0,0,-6717.6150681908,-80264.2729310210,-32729.5834916111,-12640.6186953593,-80533.9090926174,-48339.2540564333,-80468.9822623702,-80455.6221312586,-80498.4645917722,-2416.7479429727
5411565953,5111,0,0,-6718.8561732667,-80265.2341790700,-32746.9102918870,-12641.4826018337,-80533.8847572238,-48137.1851152947,-80470.2355351430,-80456.5468762172,-80498.8539580705,-2416.8696199410
5411565953,5111,0,0,-6718.8561732667,-80264.6014588352,-32772.9856661785,-12641.4339310464,-80528.8108276486,-48003.7298165407,-80469.6879887859,-80456.5833793076,-80499.5718521831,-2415.6285148650
5411565953,5111,0,0,-6719.1360302936,-80266.0737501508,-32775.9302488097,-12642.0909866749,-80528.6404798931,-48115.9889874291,-80471.2211185856,-80456.9362425155,-80500.0707277528,-2415.9448749824
5411565953,5111,0,0,-6718.8561732667,-80264.3216018083,-32752.2884138827,-12640.4848506942,-80531.5363917369,-48324.9448449695,-80470.0165166001,-80456.4373669457,-80499.5840198799,-2416.4437505522
5411565953,5111,0,0,-6718.9656825381,-80265.3193529478,-32736.5677495875,-12641.4460987432,-80534.4444712776,-48362.7863820889,-80470.7465784095,-80457.9704967454,-80499.4136721244,-2417.6361848408
5411565953,5111,0,0,-6719.0751918095,-80265.1490051923,-32749.8548745181,-12641.0689001417,-80534.2862912189,-48175.6958757393,-80470.9169261650,-80457.2891057234,-80498.9756350387,-2417.3319924202
5411565953,5111,0,0,-6719.0021856286,-80264.1147509623,-32777.0375092206,-12641.7259557702,-80528.4701321376,-48017.2481277110,-80469.8218334510,-80456.2913545839,-80498.9512996451,-2416.0178811634
5411565953,5111,0,0,-6717.7002420685,-80263.7132169672,-32781.8802525561,-12640.3753414228,-80526.2312759221,-48099.2097335103,-80468.5077221941,-80454.5270385445,-80497.5398468136,-2414.6307637255
5411570391,5112,0,0,-6718.7101609048,-80263.8470616322,-32762.0225713411,-12642.1274897653,-80531.3660439814,-48319.3112013405,-80469.6758210891,-80456.6563854885,-80498.7809518896,-2417.0886384838
5411570391,5112,0,0,-6718.5398131493,-80263.2143413974,-32742.6515979990,-12641.9936451003,-80533.8239187397,-48383.8121621989,-80469.7366595732,-80455.8776528919,-80498.8782934642,-2418.0255511391
5411570391,5112,0,0,-6719.1481979904,-80263.5672046053,-32750.9986380195,-12641.5434403178,-80533.1546954144,-48208.1714585597,-80468.4103806195,-80456.4130315521,-80499.0364735229,-2417.0764707870
5411570391,5112,0,0,-6718.3086269097,-80263.2751798815,-32776.0397580811,-12641.2270802004,-80529.1515231596,-48025.0841244649,-80469.6393179986,-80455.3301065348,-80498.7687841928,-2415.7988626206
5411570391,5112,0,0,-6718.0896083669,-80263.2143413974,-32785.7374124490,-12640.5335214815,-80527.7644057218,-48073.5358932139,-80468.2643682576,-80455.3544419285,-80497.9778838993,-2415.1783100826
5411570391,5112,0,0,-6717.8462544304,-80263.3238506688,-32765.1618371214,-12641.0323970513,-80530.7819945339,-48285.0347993903,-80469.2986224876,-80456.5590439140,-80498.2455732294,-2416.1395581316
5411570391,5112,0,0,-6718.6979932080,-80264.5527880479,-32742.9801258132,-12641.6651172861,-80533.4832232286,-48381.8288276168,-80470.0895227811,-80457.6784720217,-80499.0608089165,-2417.8795387773
5411570391,5112,0,0,-6718.5033100588,-80264.2729310210,-32747.7255275741,-12641.7867942543,-80533.1181923239,-48232.1904920882,-80469.6879887859,-80456.7415593663,-80499.5961875767,-2416.9061230314
5411592911,5113,0,0,-6719.4888935015,-80264.2972664147,-32772.9248276944,-12641.2149125036,-80531.3052054973,-48036.5095917817,-80469.6393179986,-80456.0236652538,-80499.4015044275,-2416.5045890363
5411592911,5113,0,0,-6718.1139437605,-80264.4311110797,-32785.1655306983,-12640.9107200830,-80527.9834242646,-48055.4911988255,-80470.7344107127,-80456.6685531854,-80500.2775785988,-2416.0422165570
5411592911,5113,0,0,-6719.6714089538,-80265.5383714906,-32768.7026368969,-12642.1153220685,-80530.8550007149,-48266.0410246497,-80470.5762306540,-80457.5811304471,-80500.1802370242,-2416.6019306109
5411592911,5113,0,0,-6718.8683409635,-80264.1147509623,-32743.7953615003,-12641.4826018337,-80533.9090926174,-48386.3552108349,-80469.9800135097,-80457.3742796011,-80499.6935291513,-2417.4658370853
5411592911,5113,0,0,-6718.8196701762,-80264.7961419844,-32744.6471002779,-12641.8841358289,-80534.4201358840,-48259.6651515144,-80471.2576216761,-80458.5423784961,-80500.4965971416,-2418.0012157455
5411592911,5113,0,0,-6718.8683409635,-80263.4455276371,-32768.3984444763,-12640.8133785085,-80531.1348577418,-48052.5952869816,-80469.2134486098,-80455.8654851951,-80498.4402563785,-2415.5798440777
5411592911,5113,0,0,-6719.1725333841,-80263.3725214561,-32783.9852641065,-12641.3000863814,-80527.1438531839,-48038.9187957526,-80468.2887036513,-80455.7681436205,-80498.1847347453,-2415.1418069921
5411592911,5113,0,0,-6718.1139437605,-80263.6280430894,-32769.3353571317,-12641.2392478973,-80529.1150200692,-48232.2026597851,-80468.6293991623,-80455.8411498014,-80498.6957780118,-2416.5654275204
5411643383,5114,0,0,-6718.0652729732,-80264.1025832655,-32744.1725601018,-12641.3487571687,-80532.8870060843,-48381.2082750788,-80470.2598705366,-80457.5081242662,-80498.7079457086,-2417.1616446647
5411643383,5114,0,0,-6719.4280550174,-80265.1368374954,-32741.1671389866,-12641.7259557702,-80536.1722842265,-48282.2118937273,-80471.0629385269,-80457.8244843836,-80500.4600940511,-2418.5852651930
5411643383,5114,0,0,-6718.1869499414,-80264.3337695051,-32762.7891362409,-12641.1784094131,-80532.7166583288,-48065.3713686457,-80471.3306278570,-80457.8001489899,-80500.6182741098,-2416.7601106696
5411643383,5114,0,0,-6718.4303038779,-80265.0151605272,-32781.1745261404,-12641.4947695305,-80529.6747341230,-48021.5068215990,-80470.1746966588,-80457.4107826916,-80500.5817710194,-2415.2269808699
5411643383,5114,0,0,-6718.5519808461,-80265.3558560383,-32771.4038655916,-12640.7160369339,-80531.0131807735,-48205.2633790191,-80470.5518952603,-80457.3134411170,-80500.4479263543,-2415.7745272269
5411643383,5114,0,0,-6717.6759066749,-80264.2485956274,-32745.0729696667,-12641.0810678386,-80533.8239187397,-48371.2064282903,-80470.1381935684,-80456.1818453125,-80500.2897462956,-2417.5510109631
5411643383,5114,0,0,-6718.5154777557,-80264.1755894464,-32737.3708175778,-12640.3875091196,-80534.9920176346,-48301.1569976807,-80470.3572121112,-80457.0092486964,-80499.7178645449,-2417.5266755694
5411643383,5114,0,0,-6718.7953347826,-80263.2873475784,-32757.6422004848,-12640.7647077212,-80531.0375161672,-48086.7135088731,-80469.4324671526,-80456.4008638553,-80498.9391319483,-2416.5045890363
5411659714,5115,0,0,-6719.3185457460,-80263.9565709036,-32779.0451791964,-12641.6772849829,-80527.7765734187,-48012.1011919549,-80470.0408519938,-80455.6951374395,-80499.1581504911,-2416.2125643125
5411659714,5115,0,0,-6719.2090364746,-80264.5527880479,-32770.8928223250,-12641.6894526797,-80529.8450818785,-48174.6251184189,-80470.4058828985,-80456.3643607648,-80499.5475167894,-2416.5654275204
5411659714,5115,0,0,-6718.6979932080,-80263.9444032068,-32743.2964859306,-12641.0689001417,-80533.4345524413,-48359.7079547927,-80470.6127337445,-80457.6419689312,-80499.1216474006,-2417.7943648995
5411659714,5115,0,0,-6717.8340867336,-80263.9687386004,-32731.2139629854,-12640.6186953593,-80535.1015269061,-48317.8510777217,-80469.8826719351,-80456.4373669457,-80499.0243058260,-2417.1129738774
5411659714,5115,0,0,-6718.1382791541,-80263.9200678131,-32749.1004773151,-12640.1563228800,-80532.6558198446,-48100.1101430752,-80470.5883983508,-80457.1187579678,-80499.7300322418,-2416.1882289189
5411659714,5115,0,0,-6718.6736578144,-80264.7718065908,-32770.5156237235,-12641.6407818924,-80530.0032619373,-47995.3584411265,-80470.0286842970,-80457.8974905645,-80500.2045724179,-2414.9957946302
5411659714,5115,0,0,-6718.9656825381,-80265.8912346985,-32767.3155194591,-12641.9936451003,-80530.5264729006,-48136.5767304536,-80471.2211185856,-80457.7271428090,-80501.0198081050,-2416.1760612221
5411659714,5115,0,0,-6718.1261114573,-80263.9322355100,-32739.4879968250,-12640.9350554767,-80532.5098074828,-48334.6911701247,-80469.4568025463,-80456.2913545839,-80499.5231813958,-2416.2490674030
5411685586,5116,0,0,-6719.3307134428,-80264.9421543463,-32726.9431014005,-12641.5191049242,-80535.2718746616,-48330.6271593858,-80471.0386031333,-80458.3598630438,-80499.7787030291,-2418.0498865328
5411685586,5116,0,0,-6719.6105704697,-80264.8569804685,-32741.9337038864,-12642.2491667336,-80534.1037757666,-48126.1611819731,-80470.5397275635,-80458.1773475914,-80500.5817710194,-2418.4392528311
5411685586,5116,0,0,-6718.9048440540,-80265.0273282240,-32764.7968062167,-12641.0567324449,-80529.0176784946,-47991.8784798351,-80468.7875792210,-80456.7658947600,-80499.8273738164,-2415.9935457697
5411685586,5116,0,0,-6717.9192606113,-80263.9079001163,-32762.7526331505,-12640.6551984498,-80528.0564304456,-48104.0038060585,-80469.1282747321,-80455.8776528919,-80499.1094797038,-2415.3608255349
5411685586,5116,0,0,-6718.5398131493,-80263.8592293290,-32738.6119226537,-12641.7137880734,-80531.3903793751,-48315.2471906016,-80469.3837963653,-80456.4008638553,-80499.2554920657,-2417.0643030901
5411685586,5116,0,0,-6718.0044344891,-80262.5451180722,-32720.7254083240,-12640.9472231735,-80534.1889496443,-48340.5073292061,-80469.2377840035,-80456.0601683442,-80499.2919951561,-2416.6262660045
5411685586,5116,0,0,-6718.6858255112,-80263.0804967324,-32733.3554776262,-12640.5943599656,-80532.5098074828,-48146.4447325770,-80469.6758210891,-80457.4107826916,-80499.7421999386,-2417.0399676965
5411685586,5116,0,0,-6718.5154777557,-80264.4432787765,-32758.0072313895,-12642.0179804939,-80529.6625664262,-47991.9514860161,-80469.7244918764,-80456.9240748187,-80500.0463923592,-2416.0665519507
5411723565,5117,0,0,-6718.5884839366,-80263.9444032068,-32761.4506895904,-12641.0323970513,-80527.5940579663,-48081.8951009313,-80469.8583365414,-80456.0114975569,-80499.1703181879,-2415.8110303174
5411723565,5117,0,0,-6718.7223286016,-80263.8470616322,-32738.4415748982,-12641.8232973448,-80531.8770872480,-48294.5012675185,-80470.5762306540,-80457.1674287551,-80499.2919951561,-2417.1859800584
5411723565,5117,0,0,-6718.4424715747,-80263.7862231481,-32718.6812352578,-12641.8719681320,-80534.7973344855,-48351.6286041022,-80470.0408519938,-80457.1674287551,-80500.0585600560,-2418.0012157455
5411723565,5117,0,0,-6718.6736578144,-80263.8957324195,-32728.2085418701,-12641.6407818924,-80533.6779063778,-48174.5764476316,-80470.2477028398,-80457.3499442075,-80500.0220569655,-2417.6118494472
5411723565,5117,0,0,-6718.1869499414,-80263.3968568498,-32752.4709293351,-12640.5091860879,-80529.3218709152,-47996.2223476009,-80469.3351255781,-80456.1331745252,-80497.8683746279,-2416.1638935252
5411723565,5117,0,0,-6718.1017760637,-80262.4599441944,-32759.1023241036,-12640.6308630561,-80526.8153253696,-48052.7656347371,-80468.9944300670,-80454.7217216937,-80499.1703181879,-2414.8984530557
5411723565,5117,0,0,-6719.1603656873,-80263.5793723021,-32738.2712271427,-12641.6164464988,-80531.0010130767,-48268.6814148602,-80470.5883983508,-80456.8875717282,-80499.2798274593,-2416.7357752759
5411723565,5117,0,0,-6718.3694653938,-80263.5672046053,-32715.6393110520,-12641.3365894718,-80534.6026513363,-48355.2910808459,-80470.3572121112,-80457.0579194837,-80499.9612184814,-2418.4027497407
5411772814,5118,0,0,-6718.4181361811,-80264.3337695051,-32721.1391100160,-12640.9228877799,-80534.3592973999,-48196.9528420890,-80469.9556781160,-80456.8145655472,-80498.7809518896,-2417.2103154520
5411772814,5118,0,0,-6719.5618996824,-80264.5771234416,-32748.1757323566,-12642.3100052177,-80531.2565347100,-48008.6212306635,-80469.9313427224,-80455.9263236792,-80500.1924047210,-2417.5631786599
5411772814,5118,0,0,-6718.0531052764,-80263.3116829720,-32759.5890319765,-12640.6430307529,-80527.4480456044,-48035.9133746374,-80469.1282747321,-80456.4373669457,-80498.7931195864,-2415.0566331144
5411772814,5118,0,0,-6718.6858255112,-80263.3116829720,-32742.5055856371,-12641.5312726210,-80529.9302557563,-48242.8007237178,-80469.9800135097,-80456.9484102123,-80499.7178645449,-2416.1273904348
5411772814,5118,0,0,-6717.5420620098,-80262.9588197641,-32717.9755088420,-12640.4605153006,-80532.9843476589,-48356.9702230075,-80469.6758210891,-80456.2183484029,-80498.1725670484,-2416.6871044886
5411772814,5118,0,0,-6717.9679313986,-80264.3581048988,-32720.1413588765,-12640.8863846894,-80533.9212603142,-48225.4617557451,-80470.0651873874,-80457.2891057234,-80500.2045724179,-2417.2224831488
5411772814,5118,0,0,-6718.6249870271,-80263.7983908449,-32744.2577339796,-12641.2027448068,-80531.0131807735,-48020.9471075451,-80469.2012809130,-80456.8997394250,-80499.3163305498,-2415.9570426792
5411772814,5118,0,0,-6717.8949252177,-80262.4721118912,-32758.7737962893,-12640.6673661466,-80527.4358779076,-48015.4838116716,-80470.4788890794,-80456.3886961585,-80498.3429148040,-2415.2999870508
5411777889,5119,0,0,-6719.1238625968,-80263.7983908449,-32745.7056899015,-12641.4095956528,-80529.5408894580,-48220.7406893778,-80470.4180505953,-80456.6928885790,-80498.4280886817,-2416.8209491537
5411777889,5119,0,0,-6719.0508564159,-80263.0196582482,-32721.3216254683,-12641.6894526797,-80532.8870060843,-48360.7665444163,-80468.8727530988,-80456.4008638553,-80498.7201134055,-2417.5753463567
5411777889,5119,0,0,-6718.3694653938,-80261.8637270501,-32719.8980049400,-12641.1054032322,-80532.1812796686,-48250.0648387211,-80468.8362500083,-80455.2692680507,-80497.3816667549,-2416.6384337013
5411777889,5119,0,0,-6718.0287698827,-80261.8393916564,-32743.1991443560,-12640.9837262640,-80529.5773925484,-48034.9399588915,-80468.5807283750,-80454.7947278746,-80497.5641822073,-2415.6163471682
5411777889,5119,0,0,-6718.8805086603,-80262.8128074023,-32761.2803418349,-12640.6551984498,-80526.8761638538,-47996.4413661437,-80468.6415668592,-80454.7703924810,-80498.1847347453,-2415.1783100826
5411777889,5119,0,0,-6718.9048440540,-80262.0705778961,-32750.0860607578,-12641.0932355354,-80528.3241197757,-48180.1614204733,-80468.2400328640,-80455.4031127158,-80497.8805423247,-2416.2734027966
5411777889,5119,0,0,-6718.6249870271,-80263.0439936419,-32725.5194808722,-12641.6042788019,-80532.9356768716,-48348.0513012363,-80468.9092561893,-80456.3886961585,-80498.0022192929,-2416.9791292124
5411777889,5119,0,0,-6718.1869499414,-80262.5816211626,-32721.0782715319,-12640.9837262640,-80533.9455957079,-48277.5029950569,-80468.7389084337,-80455.9141559823,-80498.4767594690,-2417.3198247234
5411796455,5120,0,0,-6719.4767258047,-80263.6158753926,-32745.3649943905,-12641.3122540782,-80530.8306653212,-48068.8026591498,-80469.2742870939,-80456.6807208822,-80499.4866783053,-2417.4415016916
5411796455,5120,0,0,-6717.6880743717,-80263.1900060038,-32766.2447621386,-12641.3244217750,-80527.4602133013,-48005.9808404529,-80469.3959640622,-80456.2548514934,-80498.2942440167,-2415.9327072856
5411796455,5120,0,0,-6718.5033100588,-80262.8128074023,-32759.1388271940,-12641.8598004352,-80528.6161444994,-48175.7810496171,-80468.3617098322,-80454.7703924810,-80497.7710330533,-2416.4802536426
5411796455,5120,0,0,-6719.6592412570,-80263.6888815735,-32735.1319613624,-12641.6286141956,-80532.4368013018,-48354.2203235255,-80469.2864547908,-80456.4495346426,-80499.1946535816,-2417.4780047821
5411796455,5120,0,0,-6717.7610805526,-80261.9610686247,-32724.6190713074,-12641.0323970513,-80533.0816892335,-48302.7387982677,-80468.5807283750,-80456.6320500949,-80498.3915855912,-2417.0643030901
5411796455,5120,0,0,-6719.0995272032,-80262.7884720086,-32744.3185724637,-12640.5335214815,-80530.9645099863,-48088.5021603061,-80469.2864547908,-80455.5734604713,-80499.4015044275,-2416.7601106696
5411796455,5120,0,0,-6719.2698749587,-80262.4721118912,-32767.6440472733,-12642.7480423033,-80527.3993748171,-47992.6085416445,-80469.1161070352,-80456.0601683442,-80499.2798274593,-2415.7501918333
5411796455,5120,0,0,-6717.9557637018,-80261.6082054168,-32761.7305466173,-12641.8841358289,-80528.2632812916,-48138.0125186787,-80469.0187654607,-80456.3400253712,-80498.5254302563,-2415.8475334078
5411844793,5121,0,0,-6719.5253965920,-80263.2995152752,-32737.5289976365,-12641.7867942543,-80532.1812796686,-48337.2220510639,-80469.1161070352,-80457.1674287551,-80498.5497656499,-2417.5145078726
5411844793,5121,0,0,-6717.6394035844,-80262.6181242531,-32724.9962699089,-12640.2414967578,-80534.2132850380,-48320.4671325387,-80469.2012809130,-80456.2791868870,-80498.6957780118,-2417.2833216329
5411844793,5121,0,0,-6718.5398131493,-80262.6911304340,-32741.4591637103,-12641.2392478973,-80531.8405841575,-48105.3179173154,-80469.1647778225,-80456.0966714347,-80497.9900515961,-2416.5775952172
5411844793,5121,0,0,-6718.5884839366,-80261.9367332310,-32764.0302413169,-12640.9228877799,-80527.1560208807,-47979.0050565965,-80468.9335915829,-80455.0624172047,-80497.7466976596,-2415.3364901413
5411844793,5121,0,0,-6719.0995272032,-80263.0196582482,-32764.1397505883,-12642.0179804939,-80527.6913995409,-48104.9893895012,-80469.2621193971,-80455.5126219872,-80498.0873931707,-2415.7015210460
5411844793,5121,0,0,-6717.9314283082,-80261.8272239596,-32738.9039473775,-12641.5312726210,-80529.9667588468,-48312.9109928116,-80467.2909525118,-80455.1232556889,-80498.4037532881,-2416.9912969092
5411844793,5121,0,0,-6718.5641485429,-80260.8659759106,-32723.4631401092,-12641.1419063227,-80531.7189071893,-48330.6393270827,-80467.0719339690,-80455.3544419285,-80497.3086605740,-2417.5266755694
5411844793,5121,0,0,-6718.0652729732,-80261.0484913629,-32737.4438237587,-12640.8985523862,-80530.5751436879,-48134.6298989619,-80467.2666171182,-80454.1255045494,-80496.0797231949,-2417.3806632075
5411882876,5122,0,0,-6719.7200797411,-80261.7907208691,-32763.5922042312,-12641.7016203765,-80527.4723809981,-47986.1839977220,-80467.7776603847,-80453.8943183097,-80497.7710330533,-2416.5410921267
5411882876,5122,0,0,-6719.2090364746,-80260.6469573678,-32765.1131663341,-12640.7038692370,-80525.7445680492,-48079.6319093222,-80467.8628342625,-80454.3201876985,-80497.0166358502,-2414.8619499652
5411882876,5122,0,0,-6719.9390982839,-80261.6203731136,-32742.3230701847,-12642.1518251590,-80529.8815849690,-48295.7910433818,-80468.9214238861,-80454.8555663588,-80497.7466976596,-2416.7722783664
5411882876,5122,0,0,-6718.7466639953,-80261.6933792945,-32724.5217297328,-12642.1153220685,-80532.6801552383,-48344.4618306735,-80468.7510761306,-80455.5734604713,-80497.5763499041,-2417.8065325963
5411882876,5122,0,0,-6718.6614901175,-80261.8637270501,-32733.4163161103,-12640.7890431148,-80532.0961057908,-48157.9797091651,-80467.6924865070,-80455.2205972634,-80497.3329959676,-2417.3806632075
5411882876,5122,0,0,-6718.1991176383,-80261.6447085073,-32759.5160257956,-12641.0323970513,-80528.1051012329,-47988.4228539374,-80468.7754115242,-80454.9164048429,-80498.0752254738,-2415.2756516572
5411882876,5122,0,0,-6718.8440055699,-80261.3405160867,-32767.5345380019,-12641.1419063227,-80525.5255495064,-48056.4402791777,-80467.9480081402,-80454.0281629748,-80497.2478220899,-2415.2999870508
5411882876,5122,0,0,-6717.9922667923,-80260.5617834900,-32747.0198011584,-12640.8742169926,-80528.5188029249,-48270.4700662932,-80467.2179463309,-80453.8213121288,-80496.8097850043,-2415.5068378968
5411893238,5123,0,0,-6718.9413471445,-80262.1435840770,-32725.6898286278,-12641.4826018337,-80532.7896645097,-48351.4217532562,-80468.8727530988,-80455.4882865936,-80498.3185794103,-2417.9282095646
5411893238,5123,0,0,-6718.8805086603,-80261.4621930549,-32733.0026144184,-12641.3974279560,-80532.8505029938,-48192.0857633598,-80469.2621193971,-80456.2548514934,-80498.8782934642,-2418.0377188360
5411893238,5123,0,0,-6719.3185457460,-80260.6469573678,-32759.1388271940,-12641.2149125036,-80527.9347534773,-48002.0141712886,-80468.0818528053,-80454.4905354541,-80497.1748159089,-2416.3220735839
5411893238,5123,0,0,-6719.0021856286,-80260.9146466979,-32768.8121461683,-12641.3609248655,-80525.6958972619,-48033.5528414537,-80467.9966789275,-80455.3666096253,-80497.3086605740,-2414.7646083906
5411893238,5123,0,0,-6717.7002420685,-80261.5351992358,-32749.2343219802,-12641.1054032322,-80528.2754489884,-48246.0008279823,-80467.6194803260,-80454.2958523049,-80496.9192942757,-2415.4581671095
5411893238,5123,0,0,-6719.4645581078,-80262.4721118912,-32727.3446353957,-12641.1905771100,-80533.2398692921,-48354.6461929143,-80469.5419764241,-80456.1210068283,-80498.8174549800,-2416.7966137600
5411893238,5123,0,0,-6718.0774406700,-80261.9367332310,-32728.7074174399,-12640.5943599656,-80532.4002982114,-48210.7388425894,-80467.6316480228,-80455.1475910825,-80497.8440392342,-2417.0521353933
5411893238,5123,0,0,-6717.7975836431,-80261.5595346295,-32752.7629540588,-12640.6551984498,-80528.2024428075,-48008.6212306635,-80467.7168219006,-80453.3832750432,-80497.2234866962,-2415.4338317159
5411925220,5124,0,0,-6719.5253965920,-80262.3017641357,-32768.5931276255,-12642.7480423033,-80527.9712565678,-48014.8754268305,-80469.3959640622,-80455.4517835031,-80498.5497656499,-2416.4437505522
5411925220,5124,0,0,-6718.7101609048,-80261.7907208691,-32752.1789046113,-12641.0689001417,-80528.0685981424,-48214.4256547267,-80468.2522005608,-80454.8312309651,-80498.7931195864,-2416.1030550411
5411925220,5124,0,0,-6718.1261114573,-80261.6203731136,-32726.9309337037,-12640.9228877799,-80532.1082734876,-48346.0314635637,-80468.8362500083,-80455.4761188967,-80498.2820763198,-2417.3198247234
5411925220,5124,0,0,-6718.6249870271,-80262.0340748056,-32725.4464746913,-12641.1419063227,-80532.8018322065,-48232.5920260834,-80469.1769455194,-80455.4274481094,-80498.2699086230,-2417.4171662980
5411925220,5124,0,0,-6717.9922667923,-80261.6812115977,-32749.1004773151,-12641.1054032322,-80529.5165540643,-48019.6451639851,-80467.7289895974,-80455.2327649603,-80498.0022192929,-2415.8718688015
5411925220,5124,0,0,-6718.9778502349,-80262.3626026198,-32764.3952722215,-12641.6042788019,-80526.0974312571,-47990.2723438545,-80468.2887036513,-80454.9529079333,-80497.2234866962,-2415.9205395888
5411925220,5124,0,0,-6717.9679313986,-80261.5108638422,-32751.1203149877,-12641.2757509877,-80527.8495795996,-48180.9766561605,-80468.4468837100,-80455.1354233857,-80497.3816667549,-2415.1661423858
5411925220,5124,0,0,-6717.7975836431,-80261.3526837835,-32724.4122204614,-12640.7282046307,-80530.6116467784,-48335.1657103008,-80467.8384988688,-80454.8799017524,-80496.5420956742,-2416.4924213395
5412003039,5125,0,0,-6719.5740673793,-80262.5694534658,-32719.5208063385,-12641.7867942543,-80534.3227943094,-48248.8845721293,-80469.3107901844,-80455.9141559823,-80498.0873931707,-2417.9890480487
5412003039,5125,0,0,-6719.5984027729,-80261.7298823850,-32740.8507788692,-12642.0666512812,-80529.9789265436,-48036.1323931802,-80468.8240823115,-80455.3301065348,-80498.4524240754,-2417.7821972027
5412003039,5125,0,0,-6719.3672165333,-80262.8979812800,-32762.5214469108,-12642.5411914573,-80528.2876166852,-47977.9464669729,-80469.4446348495,-80455.5369573808,-80498.2699086230,-2416.1517258284
5412003039,5125,0,0,-6719.6470735602,-80263.1169998228,-32754.0283945284,-12642.3100052177,-80529.2245293406,-48150.9589480983,-80470.2963736271,-80457.4472857820,-80498.7201134055,-2416.7114398823
5412003039,5125,0,0,-6718.7953347826,-80262.6302919499,-32728.0625295082,-12642.4681852764,-80532.0961057908,-48326.8186702802,-80470.1138581747,-80455.5977958650,-80498.1847347453,-2417.6240171440
5412003039,5125,0,0,-6718.1626145478,-80260.4887773091,-32719.2287816148,-12640.4848506942,-80532.6193167542,-48270.9932772566,-80467.9480081402,-80455.3422742317,-80497.6858591755,-2416.3950797649
5412003039,5125,0,0,-6718.8440055699,-80260.6834604583,-32740.0963816661,-12641.3974279560,-80529.8207464849,-48055.1991741017,-80468.6293991623,-80455.5734604713,-80497.1748159089,-2415.7745272269
5412003039,5125,0,0,-6717.9679313986,-80261.6203731136,-32760.7814662651,-12641.1784094131,-80526.1339343476,-47966.6670120180,-80468.6172314655,-80455.3787773221,-80497.4911760263,-2415.2756516572
5412006483,5126,0,0,-6718.1991176383,-80260.5252803996,-32755.4155119662,-12641.0202293544,-80527.4480456044,-48123.3869470975,-80467.4004617832,-80454.4662000604,-80496.7124434297,-2415.4094963222
5412006483,5126,0,0,-6720.3041291886,-80262.3260995293,-32731.9683601884,-12642.4925206700,-80531.4877209496,-48318.4716302597,-80469.7123241796,-80457.6176335376,-80499.0851443102,-2417.9038741709
5412006483,5126,0,0,-6718.1626145478,-80262.6546273436,-32719.4843032481,-12641.1905771100,-80533.8117510428,-48291.5810202810,-80469.0674362479,-80456.7658947600,-80498.7931195864,-2417.0521353933
5412006483,5126,0,0,-6718.2477884255,-80262.1435840770,-32735.8863585654,-12641.0445647481,-80531.0496838640,-48080.6661635521,-80468.9092561893,-80455.3909450190,-80498.2212378357,-2417.1373092711
5412006483,5126,0,0,-6717.7975836431,-80261.9002301405,-32760.2582553017,-12639.8886335499,-80526.7666545823,-47962.4326535236,-80468.2035297735,-80455.1597587793,-80498.4767594690,-2414.2900682145
5412006483,5126,0,0,-6718.6249870271,-80261.6568762041,-32758.9198086512,-12641.4826018337,-80528.7134860740,-48089.8041038662,-80469.7001564828,-80456.1696776156,-80499.0243058260,-2415.9083718920
5412006483,5126,0,0,-6719.4037196237,-80263.5550369085,-32734.1707133134,-12641.3609248655,-80531.6580687052,-48295.0974846628,-80469.4202994558,-80456.8754040314,-80499.4136721244,-2417.3198247234
5412006483,5126,0,0,-6718.9170117508,-80264.0295770846,-32719.2287816148,-12641.6772849829,-80534.6026513363,-48306.1944241654,-80470.4545536858,-80458.0191675327,-80499.6570260608,-2417.3684955107
5412017847,5127,0,0,-6718.5763162398,-80263.7253846640,-32732.7227573914,-12641.3609248655,-80533.6292355905,-48103.7847875157,-80470.1990320525,-80456.5833793076,-80499.0608089165,-2417.6361848408
5412017847,5127,0,0,-6718.9900179317,-80263.2265090942,-32756.8147971009,-12641.7381234670,-80529.5043863675,-47960.5709959097,-80469.6879887859,-80455.9141559823,-80499.2676597625,-2415.2026454762
5412017847,5127,0,0,-6719.5010611983,-80262.1435840770,-32760.0757398494,-12641.6529495892,-80527.4723809981,-48065.9432503964,-80468.9214238861,-80455.3909450190,-80498.7444487991,-2415.6041794714
5412017847,5127,0,0,-6718.5154777557,-80262.0827455929,-32737.0666251572,-12641.3122540782,-80530.2952866610,-48275.2884742351,-80468.6659022528,-80455.5856281681,-80498.5984364372,-2416.2855704935
5412017847,5127,0,0,-6718.5884839366,-80261.2796776026,-32718.4378813213,-12641.1540740195,-80533.2520369890,-48314.2616071590,-80468.4103806195,-80456.1696776156,-80498.5497656499,-2417.8552033836
5412017847,5127,0,0,-6719.3307134428,-80262.2044225611,-32729.8146778507,-12641.8111296479,-80532.8748383875,-48130.5780559198,-80469.0796039448,-80456.3765284616,-80498.5741010436,-2417.3198247234
5412017847,5127,0,0,-6718.0531052764,-80262.0219071088,-32754.5516054918,-12641.1905771100,-80529.0663492819,-47966.2411426292,-80469.8218334510,-80455.2571003539,-80498.4280886817,-2415.8353657110
5412017847,5127,0,0,-6718.7953347826,-80262.3139318325,-32760.1487460303,-12641.5312726210,-80527.3628717267,-48038.9431311463,-80468.5077221941,-80456.1210068283,-80499.0973120070,-2415.3608255349
5412047462,5128,0,0,-6719.3185457460,-80264.5406203511,-32739.7921892456,-12642.4925206700,-80531.2321993164,-48259.1054374606,-80470.6735722286,-80457.0092486964,-80499.5110136990,-2417.3198247234
5412047462,5128,0,0,-6719.8174213157,-80264.4554464734,-32720.9200914732,-12641.9936451003,-80535.2232038743,-48333.6569158947,-80471.6469879744,-80458.7613970389,-80500.3262493861,-2418.6947744644
5412047462,5128,0,0,-6718.6614901175,-80263.3481860625,-32728.1720387796,-12640.8620492957,-80533.9942664952,-48164.8301224764,-80470.3693798080,-80456.3156899775,-80499.0243058260,-2417.1616446647
5412047462,5128,0,0,-6719.0386887190,-80262.8493104927,-32754.6002762791,-12641.3244217750,-80529.5773925484,-47982.6553656433,-80469.9313427224,-80456.7780624568,-80499.6935291513,-2415.3486578381
5412047462,5128,0,0,-6718.4303038779,-80263.6037076958,-32764.9671539722,-12640.5578568752,-80529.1028523724,-48028.8804458737,-80469.3716286685,-80455.9628267696,-80499.6813614545,-2415.8597011047
5412047462,5128,0,0,-6718.0166021859,-80263.2751798815,-32746.2775716522,-12640.2779998482,-80530.7211560498,-48239.3085947296,-80469.4324671526,-80456.7537270631,-80499.9003799973,-2415.8231980142
5412047462,5128,0,0,-6718.7831670858,-80264.2607633242,-32724.4122204614,-12641.7746265575,-80535.3570485393,-48338.9376963159,-80471.6834910649,-80458.1043414105,-80499.7056968481,-2417.4780047821
5412047462,5128,0,0,-6718.1017760637,-80263.0318259451,-32728.3423865352,-12641.7989619511,-80534.5053097617,-48195.1155198687,-80470.5518952603,-80456.9240748187,-80499.3163305498,-2416.9912969092
5412086611,5129,0,0,-6717.7245774622,-80262.5451180722,-32752.9941402985,-12640.3145029387,-80530.1127712086,-47998.8384024179,-80468.8970884924,-80455.4761188967,-80498.7566164959,-2415.1174715985
5412086611,5129,0,0,-6718.6979932080,-80262.3260995293,-32767.3398548527,-12641.3000863814,-80528.0564304456,-48011.6874902629,-80468.9457592797,-80455.9263236792,-80499.3771690339,-2416.6749367918
5412086611,5129,0,0,-6719.3550488364,-80263.4941984243,-32752.3492523668,-12641.6529495892,-80530.4291313260,-48220.3391553827,-80470.9290938619,-80456.5833793076,-80500.0220569655,-2416.7601106696
5412086611,5129,0,0,-6718.4668069684,-80263.2265090942,-32729.3279699778,-12641.2270802004,-80534.8460052728,-48348.0999720236,-80470.9534292555,-80458.0069998359,-80500.6182741098,-2417.7091910218
5412086611,5129,0,0,-6718.1626145478,-80263.1413352165,-32729.7173362762,-12641.0080616576,-80535.1015269061,-48224.9020416913,-80470.1138581747,-80457.8244843836,-80500.3384170829,-2417.6240171440
5412086611,5129,0,0,-6718.9656825381,-80263.0561613387,-32754.7949594282,-12641.4704341369,-80531.8405841575,-48020.2292134326,-80471.1724477983,-80458.3598630438,-80500.7156156844,-2416.7722783664
5412086611,5129,0,0,-6718.2599561224,-80263.6037076958,-32771.7080580121,-12641.0567324449,-80529.1515231596,-48003.9244996898,-80470.3450444144,-80457.1552610583,-80500.5209325353,-2414.7524406938
5412086611,5129,0,0,-6718.0287698827,-80264.9178189526,-32759.2361687686,-12641.2392478973,-80530.7211560498,-48196.9041713017,-80469.7488272700,-80457.7149751121,-80500.8372926526,-2416.1760612221
5412127793,5130,0,0,-6718.8926763572,-80264.7109681066,-32734.2558871911,-12641.2757509877,-80534.6513221236,-48348.7813630457,-80471.4523048252,-80458.0435029264,-80500.7764541685,-2417.1251415743
