steady_timestamp,sequence,battery,flags,EEG-ch1,EEG-ch2,EEG-ch3,EEG-ch4,EEG-ch5,EEG-ch6,EEG-ch7,EEG-ch8,EEG-ch9,EEG-ch10
6045023594,7803,-2,0,2609.9831362179,45956.5148260807,-3142.9282570627,18125.0255228480,56621.4280852084,53401.1619471390,40383.2229733003,55701.9517393892,38167.0838478474,22400.1823046792
6045023594,7803,-2,0,2604.0087970778,45952.2561321926,-3150.2897136406,18106.4211144058,56613.4825791830,53403.3156294767,40379.1224594710,55693.4708547036,38163.0928432895,22398.8195226350
6045023594,7803,-2,0,2594.4449873750,45953.5459080559,-3150.6182414548,18095.9933982285,56613.1783867625,53405.0312747287,40380.4365707279,55696.7683005426,38167.0108416665,22400.8636957013
6045023594,7803,-2,0,2598.5576689011,45954.0326159288,-3144.5222253465,18112.7118136632,56617.3519067727,53397.7184889382,40379.6213350407,55698.8733120929,38167.3150340871,22402.9322041612
6045023594,7803,-2,0,2592.0722864945,45953.0470324861,-3144.5100576497,18107.7230579658,56615.0522120732,53404.9582685478,40377.3824788253,55696.1599157014,38164.7719854511,22405.7551098241
6045023594,7803,-2,0,2585.4043886355,45957.5004095233,-3142.5388907644,18099.6802103659,56620.8927065482,53414.3152274046,40380.4487384247,55700.0900817752,38169.6877349675,22408.6510216680
6045023594,7803,-2,0,2600.3219849405,45962.2336435875,-3132.9385779711,18120.6694873854,56632.0139814444,53408.3287205678,40383.8313581415,55705.4682037710,38172.0604358480,22409.4662573551
6045023594,7803,-2,0,2607.5495968533,45959.4594087118,-3133.7903167487,18120.7181581727,56628.4123431848,53402.0380213103,40380.3270614565,55701.1851744893,38168.1546051679,22409.3810834773
6045053757,7804,-2,0,2588.5679898095,45958.1818005454,-3143.2446171801,18094.5576100034,56621.7322776290,53409.3386394041,40379.0494532901,55696.3911019411,38167.3150340871,22408.6996924552
6045053757,7804,-2,0,2588.0934496334,45960.3963213672,-3140.5312207886,18100.8848123513,56625.3095804949,53401.8068350707,40379.3901488011,55698.8611443961,38167.6313942045,22403.0903842199
6045053757,7804,-2,0,2599.3729045883,45955.2128825206,-3140.4095438204,18114.4031235216,56626.3681701185,53393.4841304438,40375.0462810353,55694.7849659604,38163.2023525609,22396.6050018132
6045053757,7804,-2,0,2591.1718769296,45949.9686051899,-3149.0486085647,18095.5431934461,56616.8286958093,53403.0844432371,40371.3838042916,55688.7862914267,38160.2334345361,22398.1989700970
6045053757,7804,-2,0,2588.3976420540,45952.9861940020,-3148.8052546282,18094.4967715193,56617.9359562202,53406.7104168903,40376.8836032556,55693.4708547036,38165.8670781651,22405.4630851003
6045053757,7804,-2,0,2600.4558296055,45951.8059274102,-3147.7831680951,18109.0371692227,56618.3131548217,53399.9938482440,40375.8250136320,55693.3613454322,38165.0153393875,22409.4297542646
6045053757,7804,-2,0,2602.6338473368,45951.5139026864,-3153.7940103256,18097.9158943265,56614.9913735891,53407.2092924600,40377.2121310698,55690.7574583120,38164.9301655098,22414.5036838398
6045053757,7804,-2,0,2599.2512276200,45954.8843547064,-3157.4808224630,18089.2889972791,56618.4226640931,53408.3287205678,40380.0350367327,55691.3780108500,38163.7498989179,22411.4252565436
6045092510,7805,-2,0,2615.7019537247,45956.8190185013,-3150.0463597042,18111.9574164602,56626.7697041137,53394.7617386102,40379.4996580725,55690.2464150455,38161.0365025264,22406.0471345478
6045092510,7805,-2,0,2610.0926454893,45946.2817930526,-3158.5515797834,18103.0141592953,56615.0887151637,53383.3727743839,40367.4658059146,55677.4338302909,38146.4839371262,22398.1502993098
6045092510,7805,-2,0,2582.4841413980,45941.2687019615,-3170.7557796968,18079.9198707254,56605.5370731576,53390.2961938762,40362.9272549997,55672.5302484713,38145.8755522850,22397.2985605322
6045092510,7805,-2,0,2580.3912975445,45943.0208503040,-3165.1464714614,18095.3120072064,56611.8277724151,53388.8360702574,40368.7434140810,55681.1084747314,38150.8156371952,22399.1115473588
6045092510,7805,-2,0,2595.5035769986,45941.2808696584,-3161.9950379843,18108.1245919610,56613.2513929434,53383.8959853473,40369.0841095921,55680.2689036507,38149.8057183589,22399.0872119651
6045092510,7805,-2,0,2592.5103235801,45941.2078634774,-3166.6430981707,18091.8077105214,56608.1287925809,53394.1411860722,40369.6438236459,55677.0931347799,38150.7669664079,22396.9578650211
6045092510,7805,-2,0,2597.6815947299,45946.8415071064,-3159.1234615341,18096.6261184633,56616.8408635062,53398.5823954126,40376.0318644780,55685.5375163750,38156.5831254892,22400.0362923173
6045092510,7805,-2,0,2605.1768959728,45944.2862907736,-3155.6800033332,18110.6311375065,56618.3253225186,53388.2155177194,40374.2797161355,55683.9922188785,38154.4051077579,22399.2818951143
6045127676,7806,-2,0,2589.8090948854,45939.5895598000,-3166.0103779359,18091.8320459151,56608.4208173047,53385.8793199294,40369.5343143745,55676.7889423593,38147.8710545640,22399.1115473588
6045127676,7806,-2,0,2580.9023408111,45939.5408890127,-3169.8918732224,18083.1078072930,56605.7317563068,53386.7675617975,40369.5343143745,55675.6208434643,38145.6078629549,22396.7753495688
6045127676,7806,-2,0,2596.7568497713,45938.1416038780,-3166.2415641755,18107.6743871785,56610.8665243661,53375.2812559966,40366.8574210735,55675.4504957088,38140.5217656829,22391.5310722381
6045127676,7806,-2,0,2604.9213743395,45937.2898651004,-3169.3443268653,18108.9154922545,56607.1310414414,53378.6517080166,40365.9935145990,55671.7758512682,38137.6501892327,22395.4247352214
6045127676,7806,-2,0,2590.9893614773,45938.5553055700,-3174.2965794723,18090.7491208978,56600.8160067903,53386.6702202229,40369.4004697095,55670.5712492828,38139.9985547196,22398.3206470653
6045127676,7806,-2,0,2591.4152308661,45940.2101123379,-3169.5998484986,18104.4012767332,56604.8921852260,53380.4160240559,40371.2499596266,55673.0047886474,38141.9818893017,22400.0727954078
6045127676,7806,-2,0,2593.9704471989,45938.8594979906,-3165.1951422487,18110.9596653207,56604.4541481404,53381.3651044081,40368.0255199685,55670.7172616447,38140.2419086560,22399.0020380874
6045127676,7806,-2,0,2581.0605208697,45938.9203364747,-3168.0910540926,18090.4935992645,56601.1688699982,53392.1456837932,40365.9448438117,55667.1277910819,38140.9598027686,22399.4035720825
6045146326,7807,-2,0,2588.8478468364,45946.9631840747,-3159.0382876563,18100.7631353831,56611.7425985373,53391.4764604680,40371.4446427757,55676.9592901148,38148.2847562560,22404.0637999657
6045146326,7807,-2,0,2601.0642144467,45944.1159430181,-3158.2352196660,18112.2129380935,56612.8133558578,53379.3939375228,40370.0453576411,55675.3531541342,38145.3401736248,22402.8957010707
6045146326,7807,-2,0,2589.3467224062,45942.0352668614,-3168.3100726354,18088.3399169269,56603.4929000914,53383.2389297188,40366.1151915673,55670.9971186716,38145.2549997471,22402.5793409533
6045146326,7807,-2,0,2582.4963090949,45944.2984584704,-3166.9716259849,18082.6454348137,56607.5325754366,53386.1835123500,40371.1161149615,55675.0367940168,38149.2460043050,22401.4477451488
6045146326,7807,-2,0,2600.7600220261,45944.0551045340,-3157.5903317344,18104.2187612808,56612.3509833785,53380.1118316354,40370.4590593331,55676.5455884228,38148.8688057035,22399.9754538332
6045146326,7807,-2,0,2603.0110459383,45937.0951819513,-3161.9950379843,18094.2169144924,56605.8412655782,53378.6638757134,40365.0079311564,55667.5779958643,38143.0526466221,22396.6050018132
6045146326,7807,-2,0,2589.6509148267,45937.0100080735,-3166.7161043516,18077.9608715369,56601.0228576363,53383.2145943252,40368.7677494747,55667.3346419279,38143.0404789253,22397.7000945273
6045146326,7807,-2,0,2591.0501999614,45936.1826046895,-3163.4551616030,18095.3241749032,56602.7141674947,53371.2294129546,40368.3662154795,55666.2517169106,38142.6876157174,22398.6978456668
6045180050,7808,-2,0,2593.7270932624,45931.4615383222,-3165.4141607915,18099.0718255247,56598.3581320321,53368.0901471743,40367.4414705210,55662.0416938099,38138.1125617120,22399.1115473588
6045180050,7808,-2,0,2584.6621591293,45932.2767740094,-3172.0212201664,18081.0149634395,56591.0088431511,53372.2271640941,40366.3220424133,55659.0971111787,38136.0197178585,22396.9213619306
6045180050,7808,-2,0,2590.2349642742,45934.9536673104,-3168.7846128115,18092.4769338467,56595.0363507994,53369.0392275265,40365.4094651515,55660.6424086753,38134.4987557556,22393.8916054217
6045180050,7808,-2,0,2600.5775065737,45933.6273883567,-3162.6034228254,18099.8505581214,56596.7641637483,53368.9297182551,40360.9560881143,55658.4400555503,38132.6370981417,22395.8141015198
6045180050,7808,-2,0,2586.0736119608,45932.0577554666,-3166.6674335643,18074.6025872138,56589.1715209308,53376.3885164075,40356.1011770820,55654.1813616623,38131.8948686355,22396.5319956323
6045180050,7808,-2,0,2582.2042843711,45936.2069400832,-3158.3568966342,18075.2596428422,56595.9002572739,53380.7688872638,40358.8267411703,55659.3039620247,38137.5285122645,22397.2377220480
6045180050,7808,-2,0,2601.6847669846,45936.5841386847,-3149.1581178361,18095.6405350206,56601.7285840521,53371.8864685830,40360.1773555177,55662.7839233161,38136.5915996091,22395.8506046102
6045180050,7808,-2,0,2602.7676920019,45932.9459973346,-3154.7674260715,18084.7991171514,56595.8637541834,53375.2690882998,40357.2814436738,55658.5252294281,38133.0142967432,22395.4977414024
6045211785,7809,-2,0,2593.7027578688,45937.4602128560,-3154.7795937683,18078.1433869893,56599.2950446875,53385.2709350883,40364.5212232835,55666.9817787200,38138.9521327928,22398.2111377939
6045211785,7809,-2,0,2599.1295506518,45938.0199269098,-3148.1360313030,18097.7942173583,56607.5690785271,53375.3542621776,40367.0399365258,55671.3134787890,38140.6921134385,22395.9357784880
6045211785,7809,-2,0,2596.7690174682,45933.3110282393,-3152.4433959783,18092.2944183943,56601.1810376950,53371.5944438593,40363.9615092296,55665.7893444314,38136.6524380933,22395.9479461848
6045211785,7809,-2,0,2587.3512201272,45933.3596990266,-3159.7683494657,18077.0726296688,56597.6524056164,53377.4714414248,40363.9980123201,55664.9862764410,38137.5771830518,22396.2521386054
6045211785,7809,-2,0,2599.9204509453,45937.6062252178,-3154.9621092206,18095.8595535635,56604.0769495389,53373.1884121431,40367.4293028242,55668.7704301530,38140.7164488321,22397.0430388989
6045211785,7809,-2,0,2612.3193340079,45937.5940575210,-3156.2397173870,18104.7419722442,56602.3491365900,53366.2649926508,40366.0178499927,55665.4608166171,38136.4455872473,22397.3350636226
6045211785,7809,-2,0,2597.6694270331,45935.0266734914,-3168.6629358433,18077.5106667545,56591.5685572049,53370.8157112626,40364.0710185010,55659.1457819660,38133.3063214669,22398.9898703905
6045211785,7809,-2,0,2595.2602230621,45937.2290266163,-3165.3168192170,18078.4232440162,56595.2675370391,53370.8278789594,40366.0178499927,55662.0903645972,38135.6303515601,22400.0241246205
6045255245,7810,-2,0,2607.0628889804,45933.9924192614,-3159.4398216515,18093.4138465020,56597.8835918560,53362.0062987628,40364.5820617676,55660.4112224356,38132.2112287529,22398.4301563367
6045255245,7810,-2,0,2601.6604315910,45931.2060166890,-3166.8621167135,18076.1357170135,56590.9358369701,53370.8522143531,40362.8420811219,55654.4125479019,38130.1913910803,22400.1458015887
6045255245,7810,-2,0,2590.4661505139,45933.8464068995,-3168.9427928702,18070.6845888368,56591.7632403541,53372.2271640941,40364.8619187945,55657.5518136822,38134.4865880588,22399.2453920238
6045255245,7810,-2,0,2594.9195275511,45930.6828057256,-3166.6796012611,18089.4350096409,56593.1016870046,53362.3348265770,40363.5964783249,55657.4544721077,38133.5861784939,22397.4810759845
6045255245,7810,-2,0,2591.0623676582,45925.2438452457,-3172.8607912472,18081.3556589505,56586.8961616249,53366.0703095017,40359.7149830384,55652.5995610753,38130.1427202930,22398.0164546447
6045255245,7810,-2,0,2586.8280091638,45930.6706380288,-3170.9261274523,18067.3993106946,56590.0840981925,53374.8310512142,40364.5820617676,55657.6734906505,38135.4721715014,22402.0317945963
6045255245,7810,-2,0,2604.4468341634,45936.4259586260,-3157.5294932503,18088.2912461396,56601.4000562378,53370.7792081722,40369.1084449857,55664.9741087442,38139.1589836388,22402.2751485327
6045255245,7810,-2,0,2611.9056323159,45934.9293319168,-3154.7187552842,18093.5111880766,56602.9818568248,53368.6498612281,40367.0521042226,55663.6599974873,38136.2265687044,22396.6901756910
6045271255,7811,-2,0,2592.4738204897,45935.7445676039,-3161.8976964097,18071.8040169445,56599.2707092938,53376.8143857963,40367.2954581591,55664.8402640792,38140.3879210179,22395.8506046102
6045271255,7811,-2,0,2588.6409959904,45937.7887406702,-3158.4907412993,18082.2925716059,56605.4397315831,53376.9360627646,40373.6348282039,55673.3089810679,38145.5470244708,22399.5982552317
6045271255,7811,-2,0,2600.2976495468,45934.3817855598,-3158.2960581501,18100.5441168403,56607.4595692557,53367.9684702061,40369.7655006142,55672.1895529602,38143.8800500061,22402.1413038677
6045271255,7811,-2,0,2596.1728003238,45932.4714571586,-3165.3533223074,18087.7315320857,56602.3613042869,53378.3110125056,40369.8993452792,55669.8046843829,38145.1333227788,22404.1246384498
6045271255,7811,-2,0,2595.2723907589,45937.2533620100,-3161.3136469622,18089.5566866092,56609.8687732266,53386.5850463452,40375.9588582970,55677.5676749560,38150.6574571365,22402.6280117406
6045271255,7811,-2,0,2605.4567529997,45936.9370018926,-3153.9156872939,18108.1854304451,56614.0301255401,53376.3763487107,40378.1125406347,55679.6726865063,38148.3090916496,22401.2773973933
6045271255,7811,-2,0,2595.7956017223,45933.6517237504,-3158.8922752944,18094.7157900621,56607.7759293731,53386.0983384722,40380.0107013391,55678.5654260955,38145.0968196884,22400.0727954078
6045271255,7811,-2,0,2585.5260656038,45943.3737135119,-3155.3514755190,18085.3831665989,56614.7480196526,53400.1520283027,40388.4672506310,55687.6668633190,38152.7503009900,22399.9146153491
6045301402,7812,-2,0,2602.2323133417,45949.6157419821,-3142.3442076152,18105.7883941710,56627.1955735025,53395.8933344147,40389.3798278927,55695.6245370412,38158.0919198953,22402.3603224105
6045301402,7812,-2,0,2613.5969421743,45949.4697296202,-3139.8741651602,18109.3291939465,56626.5993563582,53393.9708383167,40387.9075365772,55693.9332271828,38157.4226965700,22408.9795494822
6045301402,7812,-2,0,2602.7676920019,45949.8225928281,-3146.3230444763,18092.0875675483,56620.1261416484,53396.6355639209,40387.3478225233,55691.4996878182,38157.0820010590,22413.2504110670
6045301402,7812,-2,0,2602.7311889114,45948.5936554489,-3144.9237593417,18103.2696809286,56620.8440357609,53386.0861707754,40387.9318719708,55692.6921221069,38156.8508148193,22412.1431506561
6045301402,7812,-2,0,2606.1746471123,45940.5629755458,-3148.7930869314,18109.6820571543,56615.7336030953,53377.0820751264,40380.5947507866,55685.2211562576,38150.0369045985,22406.8380348413
6045301402,7812,-2,0,2594.2503042258,45937.4845482496,-3153.8305134161,18090.8951332597,56610.6353381265,53391.9388329473,40377.4433173094,55679.8552019587,38148.9053087940,22404.7451909878
6045301402,7812,-2,0,2595.4427385145,45944.9433464021,-3145.3374610337,18097.2101679108,56618.0454654916,53398.4972215348,40381.9818682244,55688.0683973142,38156.2180945845,22406.2539853938
6045301402,7812,-2,0,2607.0507212836,45945.9410975415,-3136.9295825290,18118.7956620747,56622.9977180986,53386.8770710689,40383.8800289288,55690.8669675834,38155.1595049609,22407.3977488952
6045395416,7813,-2,0,2595.6252539668,45943.0816887882,-3144.5708961338,18100.9821539259,56614.7845227431,53388.4102008686,40380.3878999406,55685.2211562576,38150.3410970191,22403.3945766404
6045395416,7813,-2,0,2586.8645122543,45947.5350658254,-3144.9724301290,18091.8320459151,56616.7435219316,53394.7130678229,40384.0382089875,55687.5208509571,38154.3321015770,22399.5860875349
6045395416,7813,-2,0,2605.4202499093,45948.9221832632,-3136.4915454434,18114.7924898200,56626.3560024217,53388.4710393527,40386.4352452616,55690.7574583120,38154.0644122469,22395.4977414024
6045395416,7813,-2,0,2613.4265944188,45945.9654329352,-3136.9782533163,18114.2327757661,56625.8571268520,53391.2696096220,40386.4839160489,55687.0341430842,38154.7336355721,22393.7334253630
6045395416,7813,-2,0,2599.3729045883,45948.2042891506,-3143.7921635372,18098.4026021995,56621.1603958783,53398.3268737793,40389.5258402546,55688.3482543411,38160.5619623503,22394.7920149866
6045395416,7813,-2,0,2600.7600220261,45948.3746369061,-3140.9935932679,18111.1786838635,56624.7133633506,53388.4953747464,40391.4240009590,55690.7939614025,38163.5917188593,22397.2012189576
6045395416,7813,-2,0,2601.8186116497,45938.8960010811,-3147.9900189411,18109.8037341225,56614.8575289240,53376.0599885933,40383.8191904447,55683.2864924628,38157.8850690493,22394.7676795930
6045395416,7813,-2,0,2589.3953931935,45933.7368976281,-3158.1500457882,18083.8135337087,56604.7705082578,53380.7445518701,40381.1544648404,55675.3166510437,38152.9328164423,22391.5310722381
6045398897,7814,-2,0,2591.6950878930,45936.0000892372,-3153.4533148146,18092.6351139054,56611.1585490898,53380.3186824813,40383.5758365082,55677.9083704670,38153.4073566184,22390.1561224971
6045398897,7814,-2,0,2603.8019462318,45935.0753442787,-3146.2013675081,18113.8555771646,56615.3807398874,53376.8752242805,40382.3590668259,55676.4117437578,38147.6520360212,22390.7280042478
6045398897,7814,-2,0,2592.7050067293,45936.2799462641,-3151.4578125356,18100.7631353831,56611.0733752121,53387.1690957927,40384.2450598335,55672.0800436888,38146.8489680309,22394.1592947518
6045398897,7814,-2,0,2591.8411002549,45945.4787250623,-3144.6195669211,18102.2110913050,56619.5420922008,53393.9830060135,40393.2369877856,55681.2666547901,38154.4051077579,22400.6325094616
6045398897,7814,-2,0,2616.7970464387,45946.2574576589,-3137.2702780401,18125.6095722956,56625.9057976393,53380.7323841733,40393.2004846951,55683.6393556706,38153.7723875231,22398.9168642096
6045398897,7814,-2,0,2621.5424481997,45940.7941617854,-3149.2676271075,18115.8510794435,56618.3983286995,53378.1163293564,40387.4694994915,55678.7236061542,38147.7372098990,22394.5243256565
6045398897,7814,-2,0,2609.5937699195,45940.7941617854,-3160.3645666100,18096.8816400966,56616.4880002983,53383.8108114695,40385.2063078825,55679.3198232985,38148.1265761973,22393.6969222726
6045398897,7814,-2,0,2616.6632017737,45942.8626702453,-3153.2464639686,18113.5027139567,56623.5209290620,53380.5133656305,40387.9805427581,55685.7808703115,38149.6110352097,22395.5342444928
6045404830,7815,-2,0,2620.2040015492,45940.1857769443,-3149.6934964963,18117.1286876100,56624.4335063237,53380.2091732099,40388.0170458486,55685.0751438957,38149.6597059970,22396.7875172656
6045404830,7815,-2,0,2606.1503117187,45938.7986595065,-3151.8350111371,18097.2223356076,56620.1018062547,53385.4656182375,40385.4618295157,55680.1715620761,38150.3532647159,22397.1768835639
6045404830,7815,-2,0,2610.4820117876,45942.2786207978,-3145.5443118797,18109.8159018194,56625.8327914583,53380.0874962417,40387.3964933106,55683.2743247659,38152.6772948091,22397.8947776765
6045404830,7815,-2,0,2621.7006282584,45940.2344477316,-3145.1914486718,18120.7059904759,56622.8030349494,53369.3312522502,40382.5415822782,55679.4536679635,38147.3356759038,22398.0894608256
6045404830,7815,-2,0,2606.9290443153,45936.4867971101,-3156.2518850839,18096.7234600379,56610.6840089137,53374.7823804269,40378.5262423267,55672.1773852634,38142.2130755413,22396.5684987228
6045404830,7815,-2,0,2599.3242338010,45938.6161440541,-3156.7994314409,18093.2556664433,56612.4483249531,53374.2713371603,40379.3171426202,55676.5090853324,38142.7849572920,22395.9844492753
6045404830,7815,-2,0,2616.4198478372,45940.0640999761,-3150.8980984818,18115.8145763531,56619.8706200151,53369.3312522502,40383.8191904447,55680.0377174110,38143.3081682554,22396.6050018132
6045404830,7815,-2,0,2619.5104428302,45942.1204407391,-3151.6524956848,18108.4531197752,56619.0918874184,53378.8828942562,40385.5226679999,55678.2247305844,38144.9143042360,22399.8902799554
6045433128,7816,-2,0,2614.2418301059,45948.6788293267,-3151.8106757435,18097.4291864536,56621.0143835164,53387.0474188244,40391.5456779272,55684.7709514752,38153.2978473470,22403.0052103421
6045433128,7816,-2,0,2619.9606476127,45949.2750464710,-3143.9990143832,18113.0646768711,56628.0838153706,53377.7026276644,40390.9616284797,55687.9710557396,38156.0964176163,22403.4189120341
6045433128,7816,-2,0,2611.9543031032,45943.6170674484,-3148.9269315965,18106.1047542884,56619.9801292865,53373.3222568082,40383.8800289288,55679.3684940858,38150.7547987110,22399.9997892268
6045433128,7816,-2,0,2596.7446820745,45943.6170674484,-3153.6236625701,18088.0843952936,56613.1053805815,53383.2754328093,40383.7948550510,55676.4969176356,38152.0689099679,22399.7077645031
6045433128,7816,-2,0,2610.7740365114,45945.9897683288,-3143.1351079087,18106.1777604693,56619.4812537167,53375.8896408378,40388.8322815357,55680.9867977632,38154.5997909071,22399.1967212365
6045433128,7816,-2,0,2621.1895849918,45938.7378210224,-3143.4636357230,18113.6852294091,56612.7160142832,53363.5515962593,40383.8313581415,55673.8930305154,38146.6664525785,22395.5950829769
6045433128,7816,-2,0,2603.1327229066,45931.8144015301,-3154.3293889858,18088.8387924966,56601.4608947220,53372.1784933068,40380.9962847817,55666.3125553948,38143.8678823093,22396.0087846689
6045433128,7816,-2,0,2599.4459107692,45937.2776974036,-3148.4280560267,18094.8739701208,56609.3212268696,53377.2402551851,40386.0945497505,55674.2702291170,38150.1220784762,22400.1701369824
6045493919,7817,-2,0,2612.2706632206,45940.3317893062,-3137.5136319765,18115.8267440499,56615.5997584302,53373.5777784414,40387.7006857312,55676.8254454498,38150.1585815667,22403.7352721515
6045493919,7817,-2,0,2607.6226030342,45938.9325041715,-3144.2302006228,18104.0119104348,56609.3820653537,53378.1650001437,40383.8921966256,55671.8245220555,38145.8025461041,22403.4067443373
6045493919,7817,-2,0,2604.0209647746,45940.9158387537,-3148.3672175426,18099.5341980040,56610.3433134027,53378.0068200850,40385.9728727823,55673.4428257330,38149.2460043050,22400.6081740680
6045493919,7817,-2,0,2614.6433641011,45937.3628712814,-3147.0774416794,18118.3576249891,56611.4992446009,53363.1622299610,40385.6930157554,55672.8466085887,38144.6466149059,22396.0939585467
6045493919,7817,-2,0,2608.0119693326,45930.6341349383,-3152.2000420418,18108.2462689292,56605.0381975879,53361.0572184106,40381.7993527720,55664.0493637857,38139.4875114530,22394.1349593582
6045493919,7817,-2,0,2596.2458065048,45931.6805568651,-3152.6989176116,18088.2912461396,56605.3910607958,53370.5480219325,40383.2716440876,55666.6289155121,38139.8768777513,22395.2057166786
6045493919,7817,-2,0,2608.8272050197,45935.3673690024,-3140.0810160062,18106.1899281661,56614.2004732956,53368.0779794775,40383.8556935351,55670.4252369209,38141.7628707589,22396.3494801800
6045493919,7817,-2,0,2617.5271082481,45934.3452824693,-3138.9615878985,18113.0890122647,56611.1463813930,53364.1964841910,40380.6434215739,55668.4053992483,38140.5095979861,22397.4202375004
6045502762,7818,-2,0,2602.9137043638,45934.9171642200,-3148.0751928188,18094.3750945511,56606.2793026638,53374.8675543047,40382.3347314323,55668.6000823975,38141.9818893017,22401.1800558187
6045502762,7818,-2,0,2603.7289400509,45939.9059199174,-3145.5808149701,18105.6910525964,56613.9814547528,53370.2681649056,40389.0391323817,55675.8885327944,38144.2085778203,22403.1512227040
6045502762,7818,-2,0,2614.8380472502,45937.3750389782,-3147.4424725841,18118.3697926859,56613.8841131782,53360.4488335695,40387.4938348852,55673.2968133711,38139.0251389737,22399.3549012952
6045502762,7818,-2,0,2609.8371238560,45935.5255490611,-3153.1856254845,18101.0064893196,56608.5789973634,53369.0392275265,40383.1256317257,55668.1620453118,38135.8737054966,22399.7199321999
6045502762,7818,-2,0,2609.0097204720,45938.8594979906,-3148.2333728775,18100.6292907181,56613.0202067038,53370.0004755755,40384.4397429826,55672.9682855569,38138.1125617120,22397.6757591337
6045502762,7818,-2,0,2622.4550254614,45939.4070443476,-3140.8840839965,18122.0079340360,56615.7457707921,53361.1910630757,40384.3667368017,55675.1949740755,38138.6114372817,22396.7145110847
6045502762,7818,-2,0,2613.6577806584,45933.9802515646,-3148.3672175426,18107.4553686357,56605.5127377640,53363.3204100197,40378.9399440187,55669.4396534782,38136.1170594330,22396.5319956323
6045502762,7818,-2,0,2601.2710652927,45938.6526471446,-3149.3162978948,18092.8054616609,56608.5546619697,53374.0158155271,40381.3248125960,55672.7979378014,38141.3613367637,22398.9168642096
6045530317,7819,-2,0,2615.0814011867,45941.3782112329,-3141.7114873804,18113.1376830520,56617.1207205331,53362.6755220881,40384.4519106794,55677.5433395623,38145.6443660454,22398.7221810604
6045530317,7819,-2,0,2623.1729195740,45932.9825004251,-3149.0486085647,18111.4463731936,56607.9462771286,53355.5817548403,40379.0616209869,55670.1697152876,38138.0517232279,22395.1327104977
6045530317,7819,-2,0,2611.6866137731,45932.7026433982,-3157.1644623456,18092.4282630594,56601.5947393870,53364.6588566702,40378.5262423267,55665.5703258885,38139.6943622990,22397.3837344099
6045530317,7819,-2,0,2616.1156554166,45934.6008041026,-3148.0751928188,18107.6865548754,56607.0702029573,53362.9067083277,40384.6465938286,55673.3211487648,38146.1675770088,22399.3549012952
6045530317,7819,-2,0,2623.2945965422,45928.2249309673,-3145.4226349114,18114.7073159422,56602.3491365900,53357.3704062733,40381.0936263563,55669.1354610577,38140.3027471401,22395.0718720136
6045530317,7819,-2,0,2618.1963315734,45931.8874077110,-3147.2356217381,18098.6459561359,56600.8403421840,53372.9937289939,40384.6952646159,55669.0624548767,38142.9553050475,22397.7852684051
6045530317,7819,-2,0,2623.8056398087,45942.6679870962,-3138.6452277811,18109.1223431005,56614.1518025083,53380.0266577576,40395.1716515805,55680.8772884918,38152.3365992980,22404.8425325624
6045530317,7819,-2,0,2637.9445035170,45944.2132845927,-3130.0791692177,18127.7267515427,56621.5132590862,53372.0203132481,40398.1770726957,55686.7056152700,38153.5898720708,22405.6090974622
6045558241,7820,-2,0,2626.1783406892,45939.6138951936,-3137.5744704606,18109.2196846750,56614.5776718971,53375.6219515077,40391.9958827097,55682.5685983502,38152.0080714838,22404.1489738435
6045558241,7820,-2,0,2614.0958177440,45943.8969244753,-3139.6429789205,18097.7942173583,56617.4492483473,53379.2844282514,40392.1905658588,55683.5663494897,38154.1374184278,22402.3846578041
6045558241,7820,-2,0,2627.0665825573,45949.3723880456,-3130.4198647288,18117.2746999718,56625.8327914583,53373.5047722605,40392.4217520985,55688.1292357983,38153.5290335867,22399.7686029872
6045558241,7820,-2,0,2632.6880584895,45946.6711593509,-3135.3112788516,18114.2936142502,56623.7156122111,53376.1208270774,40390.9129576924,55686.1945720034,38150.1585815667,22398.0529577352
6045558241,7820,-2,0,2621.8709760139,45949.0560279282,-3142.4415491898,18095.9203920476,56621.5132590862,53383.4336128680,40391.9958827097,55686.1824043066,38151.9715683933,22398.6248394859
6045558241,7820,-2,0,2626.7380547431,45951.1245363881,-3135.7249805436,18110.7284790811,56628.1811569451,53376.5345287694,40395.9382164803,55690.4289304978,38153.2613442566,22399.5009136571
6045558241,7820,-2,0,2633.2234371497,45948.9830217473,-3131.2107650222,18116.3986258006,56627.0130580501,53371.1077359864,40394.0643911696,55686.7907891478,38149.0999919431,22399.7199321999
6045558241,7820,-2,0,2628.1981783618,45953.0105293957,-3129.6046290416,18103.6712149238,56627.3050827739,53384.2975193424,40395.9260487835,55687.8372110745,38151.6065374887,22403.9786260879
6045606474,7821,-2,0,2637.0562616489,45962.3309851621,-3121.9511477400,18120.0002640602,56638.4871961542,53383.9689915282,40402.5331081583,55697.6930455011,38157.4105288732,22405.9497929733
6045606474,7821,-2,0,2648.6885798117,45957.8897758217,-3124.9565688553,18135.9764499887,56635.7981351563,53366.9828867634,40399.6493640113,55694.5902828113,38151.2780096744,22402.7131856184
6045606474,7821,-2,0,2633.4059526020,45952.0249459530,-3137.8664951844,18113.3567015948,56623.9467984508,53371.9229716735,40394.5754344361,55686.5961059986,38145.3401736248,22399.3549012952
6045606474,7821,-2,0,2620.4960262729,45952.5724923100,-3135.1165957024,18106.2020958630,56624.0684754190,53375.0257343634,40398.7246190528,55687.9832234364,38148.9174764908,22398.2963116716
6045606474,7821,-2,0,2630.0355005821,45950.4309776692,-3127.6334621563,18128.5663226235,56626.1856546662,53364.7683659416,40396.9846384071,55690.5019366788,38147.2139989356,22398.1624670066
6045606474,7821,-2,0,2629.1959295013,45946.0506068130,-3130.5293740002,18122.6406542708,56622.5475133161,53370.2681649056,40393.4073355411,55684.2477405118,38147.5546944466,22399.3549012952
6045606474,7821,-2,0,2615.7506245120,45947.4377242508,-3135.3964527293,18107.6135486944,56621.0022158196,53376.7413796154,40393.8818757172,55684.7222806879,38151.6065374887,22401.6789313884
6045606474,7821,-2,0,2624.5722047086,45951.5382380801,-3124.1778362586,18124.4536410974,56629.3979266274,53374.9162250920,40396.0842288422,55691.0981538231,38156.8386471225,22402.0561299899
6045625264,7822,-2,0,2624.7182170705,45950.2727976105,-3120.8803904196,18126.4613110732,56629.2519142656,53375.6584545982,40394.5997698298,55688.1535711919,38155.7557221053,22402.3724901073
6045625264,7822,-2,0,2609.8006207655,45953.6919204178,-3121.0264027814,18107.6135486944,56627.8891322214,53385.9888292008,40397.7998740942,55689.3095023901,38157.4226965700,22403.4797505182
6045625264,7822,-2,0,2617.3324250989,45960.5910045164,-3112.7767043355,18118.8565005588,56635.6156197040,53381.6449614350,40402.5209404615,55694.2374196034,38161.2068502820,22400.8880310949
6045625264,7822,-2,0,2631.6416365627,45957.9384466090,-3112.6550273673,18131.1702097436,56634.1189929947,53371.4971022847,40401.7908786521,55691.7917125420,38157.4470319637,22399.3062305079
6045625264,7822,-2,0,2620.7637156030,45953.2538833321,-3120.1989993975,18110.6919759906,56624.8472080156,53380.4646948432,40398.3595881481,55687.6060248349,38154.7823063594,22396.8726911433
6045625264,7822,-2,0,2616.1521585071,45957.4639064329,-3117.7046215488,18109.6698894575,56627.9864737960,53385.8549845358,40402.9954806376,55694.9309783223,38161.1095087074,22397.5054113781
6045625264,7822,-2,0,2630.9724132375,45957.0502047409,-3111.4990961691,18127.5807391809,56632.8535525252,53376.0356531997,40402.3505927060,55694.2009165129,38158.9801617633,22396.9213619306
6045625264,7822,-2,0,2634.4280391352,45957.2448878901,-3115.4535976365,18115.4373777516,56631.0770687890,53382.5697063936,40401.0364814491,55692.8746375592,38158.3961123159,22399.2940628111
6045651680,7823,-2,0,2628.2711845428,45963.2435624238,-3117.6924538520,18105.0948354521,56633.0604033711,53389.1280949812,40406.7187958654,55697.4618592615,38162.7278123848,22402.2143100486
6045651680,7823,-2,0,2634.9755854922,45962.8541961254,-3114.5531880716,18123.5775669261,56637.8788113130,53377.1794167010,40408.1302486969,55698.9341505771,38161.3285272502,22402.1413038677
6045651680,7823,-2,0,2629.7191404647,45956.0402859046,-3122.3770171288,18118.9538421334,56627.7796229500,53370.9495559277,40401.2798353856,55691.5483586055,38155.8043928926,22398.3206470653
6045651680,7823,-2,0,2618.0503192115,45956.4053168093,-3128.7042194767,18104.1335874031,56623.8981276635,53385.1979289073,40401.2920030824,55691.9498926007,38157.8607336556,22398.1989700970
6045651680,7823,-2,0,2629.2324325918,45962.4039913430,-3117.8506339107,18123.7357469848,56633.4254342758,53381.8153091906,40405.7088770291,55697.0116544790,38162.1437629373,22401.3990743615
6045651680,7823,-2,0,2636.4600445046,45957.5490803106,-3115.8672993285,18131.1702097436,56630.5903609161,53375.0257343634,40399.9413887351,55692.3270912022,38159.2235156998,22402.5550055597
6045651680,7823,-2,0,2620.6785417252,45954.8721870096,-3126.9764065279,18107.6622194817,56624.5795186855,53385.7576429612,40400.0265626128,55689.1878254219,38160.4646207758,22404.5748432323
6045651680,7823,-2,0,2617.0160649815,45960.2868120958,-3125.6257921805,18116.4594642847,56630.9553918208,53387.2664373672,40406.6822927750,55694.8579721414,38166.1104321016,22407.9574629490
6045680413,7824,-2,0,2627.8088120635,45959.6054210737,-3119.8826392801,18138.0327907518,56637.6476250734,53379.0167389213,40407.7165470049,55697.9729025280,38164.0784267322,22406.7893640540
6045680413,7824,-2,0,2629.7069727679,45956.8433538949,-3121.8051353781,18124.2589579482,56634.6422039581,53383.0807496602,40404.9058090388,55692.9476437402,38160.8174839836,22404.5018370513
6045680413,7824,-2,0,2633.9656666559,45960.7613522719,-3117.9966462725,18116.1796072578,56636.3943523006,53387.1934311863,40408.1910871810,55695.9287294618,38162.0585890596,22406.1079730320
6045680413,7824,-2,0,2646.4010528089,45961.9659542574,-3109.8686247948,18133.6889229860,56642.2105113820,53379.3087636450,40409.5538692252,55699.9319017165,38165.8184073778,22408.8335371203
6045680413,7824,-2,0,2634.2820267733,45955.4562364571,-3118.9213912311,18120.5478104172,56634.4718562026,53379.2722605546,40406.3415972639,55694.2130842098,38166.3051152508,22410.3544992232
6045680413,7824,-2,0,2614.8867180375,45952.9861940020,-3127.4752820976,18103.9145688602,56631.1500749699,53381.9126507652,40406.4997773226,55693.0693207084,38169.4322133343,22412.0214736879
6045680413,7824,-2,0,2625.6186266354,45953.0470324861,-3125.1999227917,18123.5775669261,56633.6687882123,53368.4916811694,40404.6746227992,55693.0449853148,38166.9865062728,22408.3224938537
6045680413,7824,-2,0,2637.1049324362,45948.1677860601,-3127.9984930610,18130.3428063597,56629.0207280259,53358.5506728651,40397.0211414975,55685.0508085021,38158.7003047364,22402.7131856184
6045729267,7825,-2,0,2623.4162735104,45945.7829174828,-3137.4041227051,18107.5527102103,56618.1184716726,53366.7760359174,40394.0278880791,55678.9426246970,38155.0499956895,22400.6568448553
6045729267,7825,-2,0,2622.9904041216,45947.3647180698,-3134.3013600153,18112.3102796681,56620.3816632816,53363.7949501958,40395.4880116979,55682.3009090201,38153.9427352787,22398.5518333049
6045729267,7825,-2,0,2632.8340708514,45943.7752475071,-3132.4762054918,18125.4878953273,56620.2721540102,53352.3694828790,40395.2446577614,55680.4270837094,38147.3721789943,22394.6825057152
6045729267,7825,-2,0,2625.1440864593,45939.6990690714,-3139.5699727396,18107.3823624548,56611.4992446009,53356.6768475544,40391.2293178098,55672.0922113857,38141.6411937907,22393.1493759155
6045729267,7825,-2,0,2625.5821235449,45941.4268820202,-3140.9449224806,18105.4355309631,56611.5600830850,53353.7200972264,40392.0202181033,55671.8975282365,38139.0008035801,22391.1782090302
6045729267,7825,-2,0,2640.5848937276,45936.4746294133,-3141.2491149012,18120.9858475028,56610.4771580678,53337.1598618504,40388.9174554135,55667.7726790135,38132.0895517847,22386.3841364820
6045729267,7825,-2,0,2635.0120885827,45929.4903714369,-3150.2532105502,18107.4188655453,56600.5848205507,53337.4032157868,40384.8777800683,55659.7298314135,38127.4658269919,22382.2349518654
6045729267,7825,-2,0,2617.5757790354,45929.0888374418,-3154.9621092206,18095.6040319302,56600.0251064969,53342.8178408730,40386.6907668949,55661.2264581228,38128.3784042537,22380.9086729116
6045752637,7826,-2,0,2627.1517564351,45931.8874077110,-3145.8241689066,18119.7325747301,56610.1607979504,53341.5037296162,40391.1198085384,55667.4563188961,38133.0264644400,22381.1155237576
6045752637,7826,-2,0,2635.4866287588,45929.1131728354,-3147.5763172491,18120.1219410284,56606.7660105368,53339.0093517675,40389.4406663769,55662.7352525288,38129.9480371438,22380.7383251561
6045752637,7826,-2,0,2626.5433715939,45931.4493706254,-3153.8183457193,18098.9744839501,56604.4663158372,53348.2689690497,40390.2802374576,55661.6888306020,38132.5519242639,22381.9915979289
6045752637,7826,-2,0,2629.1959295013,45933.3840344203,-3153.0882839099,18106.7618099168,56607.3500599843,53340.2504568434,40392.3974167048,55666.6167478153,38134.1458925477,22379.1321891755
6045752637,7826,-2,0,2637.1657709203,45928.3466079356,-3155.1202892793,18116.6541474339,56605.0381975879,53330.2607777518,40389.0026292912,55662.8325941034,38127.4293239015,22373.3525331846
6045752637,7826,-2,0,2628.1373398777,45927.5678753389,-3162.2992304049,18100.8239738672,56598.8935106923,53336.0039306522,40388.5889275992,55657.8803414964,38124.2657227275,22371.0406707882
6045752637,7826,-2,0,2629.9016559170,45933.8829099900,-3154.0251965653,18111.8844102793,56608.3356434269,53343.5357349856,40396.9481353166,55667.0304495073,38130.6659312564,22373.4742101528
6045752637,7826,-2,0,2646.0968603884,45935.9757538436,-3143.4758034198,18137.8502752994,56615.1860567382,53339.9219290292,40402.1315741632,55672.6032546522,38135.2531529586,22377.4165439235
6045775497,7827,-2,0,2639.9400057960,45936.5354678974,-3147.0166031952,18125.9624355034,56609.6375869870,53351.5907502824,40401.3528415665,55673.5279996108,38139.4631760594,22385.5810684917
6045775497,7827,-2,0,2629.0499171394,45941.7919129249,-3145.0332686131,18116.7149859180,56613.3000637307,53360.6800198091,40406.3659326576,55678.5289230050,38149.6597059970,22395.6680891579
6045775497,7827,-2,0,2641.4122971115,45945.6977436051,-3130.2981877605,18140.0161253339,56624.8715434093,53352.8196876615,40408.9698197777,55684.7222806879,38154.7823063594,22399.9267830459
6045775497,7827,-2,0,2648.9197660513,45944.6878247688,-3128.8015610513,18136.1589654410,56622.1338116241,53356.1901396815,40405.0761567943,55683.6636910643,38152.0324068774,22403.2120611881
6045775497,7827,-2,0,2641.9111726813,45947.8027551555,-3130.7848956334,18118.7591589842,56620.2721540102,53366.1919864699,40409.5903723156,55686.2067397003,38155.9382375576,22404.5261724450
6045775497,7827,-2,0,2644.4663890141,45948.5206492680,-3129.5924613448,18128.5784903203,56624.2753262650,53355.9467857450,40410.2352602473,55688.0075588301,38156.9359886971,22403.2728996722
6045775497,7827,-2,0,2644.6732398601,45942.3151238883,-3134.7393971009,18130.6104956898,56616.8408635062,53344.9593555139,40403.9080578993,55681.0476362473,38149.9638984176,22397.2742251385
6045775497,7827,-2,0,2631.0940902057,45935.9514184499,-3144.9359270385,18106.1655927725,56606.8633521113,53350.4348190842,40396.3032473850,55671.0944602462,38143.3325036490,22390.5333210986
6045806299,7828,-2,0,2638.1026835757,45938.0807653939,-3140.6528977569,18115.0966822405,56611.9007785960,53351.0675393190,40398.5177682068,55675.8155266135,38146.7151233658,22387.6982477389
6045806299,7828,-2,0,2652.7525905505,45935.5620521516,-3132.6100501569,18132.5451594846,56615.4537460683,53342.6718285112,40396.7899552579,55674.4892476598,38143.1499881967,22386.6396581153
6045806299,7828,-2,0,2641.7773280162,45932.4106186744,-3137.5257996734,18111.2030192572,56606.2306318766,53347.1982117293,40394.7822852821,55669.2328026323,38140.1323993846,22390.1074517098
6045806299,7828,-2,0,2628.3806938142,45934.4547917407,-3137.6353089448,18099.3395148548,56605.4640669767,53350.3739806001,40397.0941476785,55671.4838265445,38142.9796404412,22391.8839354459
6045806299,7828,-2,0,2642.8845884271,45935.3065305183,-3130.7970633303,18117.4572154242,56611.5844184786,53345.8232619883,40398.4690974195,55673.3454841584,38145.0116458106,22392.3949787125
6045806299,7828,-2,0,2650.4650635478,45936.0609277213,-3132.3788639173,18113.2228569298,56612.6795111927,53352.3329797886,40398.5177682068,55671.3986526667,38146.4230986421,22394.7190088057
6045806299,7828,-2,0,2644.3325443490,45939.3948766508,-3134.2161861375,18100.6414584149,56614.5290011098,53355.8251087768,40400.3915935175,55673.7470181536,38151.1563327062,22397.8826099797
6045806299,7828,-2,0,2650.2460450050,45940.6359817267,-3128.5947102053,18116.8123274926,56619.1892289930,53345.0688647853,40400.2334134588,55677.0809670831,38151.7038790632,22396.8483557497
6045841148,7829,-2,0,2646.9851022564,45931.6927245619,-3134.3500308026,18114.5248004898,56611.1950521803,53337.7074082074,40391.8863734383,55670.0723737130,38143.1013174094,22390.9713581842
6045841148,7829,-2,0,2630.3275253058,45926.3511056566,-3144.8507531608,18090.3110838122,56601.7529194457,53345.8232619883,40386.8854500440,55663.9641899079,38138.6114372817,22385.8365901249
6045841148,7829,-2,0,2637.1536032235,45931.7535630460,-3138.6695631747,18106.6523006454,56612.0589586547,53348.7313415290,40393.6506894776,55672.4207391999,38142.3712556000,22387.2602106532
6045841148,7829,-2,0,2649.2361261687,45931.2546874763,-3138.3897061478,18123.6262377134,56614.6506780780,53339.7150781832,40391.3874978685,55671.9583667206,38140.3027471401,22386.6153227216
6045841148,7829,-2,0,2638.4312113899,45930.4637871828,-3145.2036163686,18105.1800093298,56607.0336998669,53344.6308276997,40390.3897467290,55668.1377099182,38140.6921134385,22389.9371039543
6045841148,7829,-2,0,2632.8949093355,45933.3475313298,-3141.0665994488,18101.3471848306,56608.4694880920,53345.6407465360,40394.8066206758,55672.1652175666,38148.0779054100,22391.1052028493
6045841148,7829,-2,0,2644.3690474395,45930.3907810018,-3135.3721173357,18122.2877910629,56610.3189780091,53337.5857312392,40394.6241052234,55674.1607198455,38149.9638984176,22390.0466132257
6045841148,7829,-2,0,2645.3302954885,45926.7039688645,-3141.8453320455,18116.8001597957,56604.1621234167,53343.1585363841,40395.8530426025,55671.9340313269,38148.4916071020,22389.8884331670
6045871747,7830,-2,0,2642.8480853366,45933.1285127870,-3141.1761087202,18112.0182549443,56609.2725560823,53358.5993436524,40405.0883244912,55678.8939539097,38156.0599145258,22392.7721773140
6045871747,7830,-2,0,2657.0112844386,45935.0875119755,-3127.9984930610,18132.0097808244,56616.9747081712,53353.2333893535,40406.5849512004,55684.5032621451,38158.2866030444,22393.2223820965
6045871747,7830,-2,0,2659.2744760476,45934.8806611295,-3124.7862210997,18126.4856464668,56613.4339083957,53353.5740848645,40402.6304497329,55680.1472266824,38155.7800574989,22394.9136919549
6045871747,7830,-2,0,2645.6709909996,45936.5841386847,-3129.4464489829,18103.6712149238,56608.6155004538,53360.8381998678,40400.2090780652,55677.4946687750,38157.4226965700,22394.6216672311
6045871747,7830,-2,0,2653.0811183647,45941.0496834187,-3127.6699652468,18119.7690778205,56614.6385103812,53352.0409550648,40401.5475247157,55681.4126671520,38158.9923294602,22392.2002955633
6045871747,7830,-2,0,2663.8982008403,45939.3827089540,-3130.0304984304,18134.8083510937,56615.9891247285,53346.0544482279,40399.7223701922,55676.8497808434,38153.7237167358,22390.3386379494
6045871747,7830,-2,0,2647.5448163103,45937.8130760638,-3138.1098491209,18117.4693831210,56611.0977106057,53352.1017935489,40398.5907743877,55674.1363844519,38151.1928357967,22388.0389432499
6045871747,7830,-2,0,2639.9035027055,45942.9478441231,-3131.2472681127,18119.9515932729,56619.0553843279,53354.3041466739,40405.2221691562,55681.0963070346,38155.8652313767,22389.8397623797
6045900439,7831,-2,0,2652.7282551569,45943.5683966611,-3123.6911283857,18135.5384129031,56625.0662265585,53344.4483122473,40406.3659326576,55685.4523424972,38154.6362939976,22387.5157322865
6045900439,7831,-2,0,2653.4096461790,45939.3827089540,-3130.9430756921,18117.7492401479,56620.0166323769,53344.3022998854,40400.7444567254,55679.2224817239,38148.5402778893,22387.1020305945
6045900439,7831,-2,0,2653.0081121838,45941.2808696584,-3132.5005408855,18113.3323662012,56621.2212343624,53345.5190695677,40402.4357665838,55680.4149160125,38149.2946750923,22388.2701294895
6045900439,7831,-2,0,2663.2654806055,45941.4877205043,-3126.7695556819,18133.8714384383,56624.7133633506,53338.8511717088,40402.0342325886,55680.7312761299,38146.7394587595,22386.9195151422
6045900439,7831,-2,0,2653.8476832646,45935.3795366992,-3132.0625037999,18127.0575282175,56616.7191865379,53339.1431964325,40397.3496693118,55672.8222731950,38142.3590879032,22387.3453845310
6045900439,7831,-2,0,2635.1094301573,45938.7256533255,-3135.0800926119,18109.2683554623,56614.5655042003,53348.2202982624,40401.1094876301,55675.5113341929,38146.8854711213,22388.9271851180
6045900439,7831,-2,0,2646.6687421391,45943.7630798102,-3122.7177126398,18130.5861602961,56625.8936299424,53343.6209088634,40406.3902680512,55682.2279028392,38151.4240220363,22391.2025444239
6045900439,7831,-2,0,2659.6760100428,45940.9401741473,-3121.8051353781,18139.2495604341,56623.7764506952,53335.8092475030,40402.8494682757,55678.8696185160,38146.7272910626,22390.5333210986
6045929293,7832,-2,0,2647.2649592834,45937.9225853352,-3132.3423608268,18118.0290971749,56616.5366710856,53341.7714189463,40400.8296306031,55676.5334207260,38147.0923219673,22391.5067368444
6045929293,7832,-2,0,2642.6168990970,45937.2655297068,-3136.1995207197,18122.2026171851,56617.3032359854,53337.7195759042,40401.3285061729,55678.7966123351,38146.9706449991,22388.1727879149
6045929293,7832,-2,0,2648.9562691418,45932.3254447967,-3137.9516690622,18137.1202134901,56617.8021115552,53330.9665041675,40398.2744142703,55678.6505999732,38143.6975345537,22383.6707400905
6045929293,7832,-2,0,2644.3812151363,45931.7657307428,-3142.9160893659,18120.4017980553,56612.3631510753,53340.7493324131,40397.7755387006,55676.2413960023,38144.1842424267,22384.6076527458
6045929293,7832,-2,0,2647.8003379436,45938.5918086605,-3134.4717077708,18119.8299163047,56617.2058944108,53347.5267395435,40404.2365857136,55681.0963070346,38150.5601155619,22388.1362848245
6045929293,7832,-2,0,2666.3439079017,45942.2664531010,-3125.4432767282,18143.5204220189,56625.0662265585,53339.3865503690,40408.1424163937,55683.7366972452,38151.0224880411,22388.0389432499
6045929293,7832,-2,0,2660.6737611823,45941.0496834187,-3132.0990068903,18131.0728681691,56620.1991478293,53340.8588416845,40406.0009017529,55677.5311718655,38149.6475383002,22385.5689007948
6045929293,7832,-2,0,2645.1721154298,45945.9045944511,-3131.3324419905,18115.1575207246,56620.1261416484,53348.2568013529,40407.6192054303,55682.3252444137,38154.4781139389,22387.8077570103
6045960169,7833,-2,0,2655.7093408785,45950.4918161533,-3119.0674035930,18133.8957738320,56628.5705232435,53343.0855302031,40407.2541745256,55686.7542860573,38157.8485659588,22387.5278999833
6045960169,7833,-2,0,2662.0608786201,45946.7076624414,-3119.9556454610,18136.7186794949,56624.5430155951,53339.5690658213,40401.4258477475,55681.2179840029,38153.2856796502,22386.1651179392
6045960169,7833,-2,0,2646.9242637723,45945.3083773067,-3128.4608655403,18116.1674395609,56619.7732784405,53348.5731614703,40403.3726792391,55679.0643016652,38150.4019355032,22384.0722740856
6045960169,7833,-2,0,2644.7097429506,45948.0826121824,-3123.1800851191,18123.3950514738,56624.7011956538,53342.6718285112,40409.2496768046,55683.4203371278,38151.9594006965,22383.4395538508
6045960169,7833,-2,0,2645.1356123394,45943.4102166024,-3120.4301856371,18131.4865698610,56620.8683711546,53335.8214151998,40408.7264658412,55678.9791277874,38147.0558188769,22380.1421080118
6045960169,7833,-2,0,2633.6858096290,45939.6382305873,-3129.2152627433,18111.6410563428,56611.1098783026,53340.6519908386,40406.0130694497,55672.8466085887,38144.0503977616,22381.4562192687
6045960169,7833,-2,0,2641.1202723878,45943.8239182944,-3127.8038099118,18118.6009789255,56618.1428070662,53340.0801090879,40411.3425206581,55680.5244252839,38149.8665568430,22381.6387347210
6045960169,7833,-2,0,2662.0000401360,45943.4832227833,-3123.8249730507,18140.7583548401,56624.2753262650,53331.8912491260,40411.1478375090,55683.7366972452,38148.8931410971,22378.5846428185
6046003654,7834,1,0,2655.6850054849,45938.7743241128,-3131.1012557508,18123.8695916499,56616.6583480538,53338.6808239532,40404.2730888040,55676.5090853324,38144.5492733313,22378.6698166962
6046003654,7834,1,0,2643.1522777572,45941.9987637709,-3128.8502318386,18111.7992364015,56617.5465899219,53350.9580300476,40405.0639890975,55679.8795373523,38149.9152276303,22383.2083676112
6046003654,7834,1,0,2652.3388888585,45945.7099113019,-3116.8042119839,18131.0120296849,56627.4510951358,53344.6673307901,40407.2298391320,55684.1747343308,38152.8111394741,22386.8221735676
6046003654,7834,1,0,2653.8963540519,45943.9212598689,-3115.0763990350,18128.4203102616,56623.3992520937,53341.2238725892,40404.3947657722,55679.1494755430,38148.4307686179,22387.1993721691
6046003654,7834,1,0,2639.8791673119,45943.6779059325,-3121.3549305957,18108.2462689292,56615.9039508508,53343.6452442570,40406.0374048433,55676.5212530292,38145.9485584660,22385.6175715821
6046003654,7834,1,0,2641.4366325052,45942.7653286708,-3120.2720055784,18120.9493444124,56614.0301255401,53331.8669137324,40407.6800439144,55676.7646069657,38145.2306643534,22382.4052996209
6046003654,7834,1,0,2644.4298859236,45934.5886364057,-3124.1656685618,18125.2080383004,56606.0116133337,53323.1791782008,40404.7111258896,55670.9849509748,38140.5339333798,22378.6819843930
6046003654,7834,1,0,2633.9656666559,45930.3542779114,-3132.4153670077,18104.9244876965,56597.5063932545,53334.2517823097,40403.2388345741,55664.6577486268,38141.8723800303,22378.4021273661
6046021279,7835,1,0,2639.3924594389,45935.0510088850,-3125.8448107233,18114.3179496439,56606.3888119352,53337.7074082074,40408.3614349365,55673.6496765790,38149.7205444811,22380.2394495864
6046021279,7835,1,0,2653.4826523599,45933.6030529631,-3120.6735395736,18133.5429106241,56611.7791016278,53330.7596533215,40405.2100014594,55674.5257507502,38149.1364950336,22380.7018220657
6046021279,7835,1,0,2644.6124013760,45932.2767740094,-3127.1224188897,18118.6009789255,56608.2504695492,53342.0512759732,40402.9103067598,55673.0169563442,38150.6696248333,22384.8753420759
6046021279,7835,1,0,2630.4857053645,45935.5620521516,-3127.9376545769,18111.7870687047,56611.1098783026,53346.7115038564,40405.0274860070,55677.0687993862,38155.6218774402,22386.0069378805
6046021279,7835,1,0,2638.9422546565,45937.9469207289,-3120.6492041799,18133.7619291669,56615.8066092762,53342.9638532349,40404.7597966769,55678.7722769414,38158.1284229857,22384.1574479634
6046021279,7835,1,0,2644.9530968870,45935.4525428802,-3122.8028865176,18127.3130498508,56611.2558906644,53343.2802133523,40402.0950710727,55671.0579571557,38156.0599145258,22385.0456898314
6046021279,7835,1,0,2638.0540127884,45936.4259586260,-3123.1314143318,18111.7992364015,56609.1387114172,53348.5974968639,40403.4700208137,55669.8046843829,38159.5763789077,22388.1362848245
6046021279,7835,1,0,2642.9089238208,45935.2821951246,-3115.5631069079,18129.0651981933,56612.1563002293,53342.5744869366,40404.7354612833,55671.5690004223,38159.7832297537,22387.8077570103
6046073992,7836,1,0,2641.1811108719,45931.2303520826,-3115.7091192698,18132.6546687560,56608.7006743316,53339.6177366086,40402.1072387695,55669.5369950528,38154.1009153374,22389.3652222036
6046073992,7836,1,0,2624.7912232514,45931.2060166890,-3123.4842775397,18113.7095648027,56605.5614085513,53348.5974968639,40404.8328028579,55670.5104107987,38154.5024493325,22391.5554076317
6046073992,7836,1,0,2627.6141289143,45936.4624617165,-3120.4301856371,18122.6163188771,56614.9670381954,53343.2315425650,40407.6313731272,55678.3829106431,38157.1063364526,22391.6649169031
6046073992,7836,1,0,2640.4145459721,45932.5566310363,-3121.6469553194,18132.6911718465,56618.8241980883,53332.1711061530,40403.5795300851,55677.4094948973,38150.9129787697,22387.7834216166
6046073992,7836,1,0,2627.5654581270,45927.0568320723,-3135.4451235166,18109.0006661322,56609.1995499014,53334.2639500065,40397.8728802752,55671.6298389064,38146.2770862802,22386.5909873280
6046073992,7836,1,0,2622.5645347328,45930.9504950557,-3135.7858190277,18105.1070031489,56610.5258288550,53339.9949352101,40402.8129651853,55678.9669600906,38151.4970282172,22388.5864896069
6046073992,7836,1,0,2638.9422546565,45933.5787175694,-3128.0228284546,18125.2202059972,56616.8165281125,53336.9043402171,40405.8670570878,55682.7511138025,38155.1716726578,22390.1439548003
6046073992,7836,1,0,2646.5714005645,45935.7080645134,-3126.3315185962,18121.8619216741,56616.4393295110,53347.2590502134,40408.2640933619,55683.9070450007,38157.4957027510,22394.6094995343
6046082622,7837,1,0,2646.0968603884,45942.4002977661,-3124.2386747427,18116.8488305830,56621.8052838099,53354.2554758866,40416.0027485413,55688.9688068791,38164.0540913385,22398.1259639161
6046082622,7837,1,0,2655.5024900325,45941.8892544995,-3114.5288526780,18136.3293131966,56626.2708285439,53343.4992318951,40415.6863884239,55689.0904838473,38162.6913092944,22395.1813812850
6046082622,7837,1,0,2649.7715048289,45936.7909895307,-3115.0885667319,18137.5460828789,56620.9170419418,53339.3500472785,40411.7562223501,55684.9778023211,38159.0653356411,22393.4657360329
6046082622,7837,1,0,2629.1837618045,45933.9924192614,-3125.0052396425,18119.4405500063,56613.8476100877,53346.1396221057,40410.5516203647,55682.8241199835,38160.0630867806,22393.2467174901
6046082622,7837,1,0,2639.5993102849,45936.4259586260,-3121.1845828401,18133.1413766290,56621.0387189101,53341.8687605208,40413.8612339005,55688.3604220379,38162.7156446880,22393.2832205806
6046082622,7837,1,0,2661.6836800186,45934.5156302248,-3119.9921485515,18142.1941430652,56620.9778804260,53337.3910480900,40410.9166512693,55682.9457969517,38159.2478510935,22394.2323009328
6046082622,7837,1,0,2654.3222234407,45935.2821951246,-3126.0638292661,18119.5622269745,56614.1639702051,53343.8520951030,40410.5759557583,55677.9205381638,38160.1847637488,22394.9258596517
6046082622,7837,1,0,2649.3699708337,45942.3394592820,-3119.4689375881,18125.3905537527,56619.7367753500,53348.4758198957,40418.3876171186,55685.5618517686,38167.1203509379,22398.7830195445
6046118906,7838,1,0,2657.3519799496,45943.5683966611,-3111.8641270738,18147.2559049436,56625.4920959473,53342.9151824476,40422.1717708306,55687.2531616270,38169.1523563073,22400.2309754665
6046118906,7838,1,0,2651.6331624428,45941.7432421376,-3116.2688333237,18139.1157157690,56618.9702104502,53347.7214226927,40422.6219756130,55683.7001941547,38167.9234189282,22401.5207513297
6046118906,7838,1,0,2646.6930775327,45944.3471292577,-3117.4247645219,18133.0440350544,56621.8417869004,53348.6461676512,40423.8752483858,55683.6636910643,38170.3569582928,22401.6059252075
6046118906,7838,1,0,2657.9725324876,45942.9235087295,-3113.2269091179,18151.3929218634,56627.7187844659,53339.6055689118,40421.8797461068,55684.9534669275,38169.7364057548,22399.1115473588
6046118906,7838,1,0,2653.1297891520,45936.3651201419,-3115.8794670253,18140.1378023021,56621.9634638686,53341.0900279242,40417.4993752506,55679.8552019587,38163.4578741942,22397.1160450798
6046118906,7838,1,0,2640.0495150674,45938.0685976971,-3116.0984855682,18120.2801210871,56621.4159175116,53350.9336946539,40420.8454918769,55682.4225859883,38165.6602273191,22399.1967212365
6046118906,7838,1,0,2649.6376601638,45943.4710550865,-3105.5490924227,18135.7574314459,56629.1910757814,53341.8079220367,40423.8022422048,55689.5528563266,38168.1181020774,22396.6901756910
6046118906,7838,1,0,2661.5254999599,45940.7333233013,-3104.5026704959,18142.2184784589,56628.4488462752,53333.1445218988,40420.2249393389,55685.8903795829,38160.5254592599,22393.1858790060
6046148288,7839,1,0,2651.0856160858,45937.4723805528,-3116.1958271427,18119.0025129207,56620.2234832229,53336.1012722268,40417.6575553093,55680.5730960712,38154.3077661833,22389.9857747416
6046148288,7839,1,0,2649.2969646528,45936.7788218339,-3121.4887752607,18125.5000630241,56620.7345264895,53331.4045412531,40419.6043868009,55681.8872073281,38153.8697290977,22388.1971233086
6046148288,7839,1,0,2662.4989157057,45933.9315807773,-3122.5108617938,18141.5370874368,56621.6471037512,53324.2864386117,40418.8864926884,55682.0818904773,38150.8278048920,22390.2169609812
6046148288,7839,1,0,2662.6692634612,45933.2866928457,-3127.3779405230,18124.7700012148,56616.9625404744,53333.8624160114,40418.3389463313,55679.3806617826,38154.0400768532,22393.3440590647
6046148288,7839,1,0,2664.4944179847,45938.1172684844,-3122.8393896081,18119.6595685491,56621.5132590862,53338.7781655278,40421.6485598672,55683.1648154945,38158.6759693428,22395.1570458913
6046148288,7839,1,0,2674.8126248905,45936.7179833498,-3115.3927591524,18137.6069213630,56624.0928108126,53326.2941085875,40419.2393558962,55683.1648154945,38157.4713673573,22395.9236107912
6046148288,7839,1,0,2661.5376676567,45929.5877130115,-3122.2796755542,18126.0841124716,56613.4825791830,53325.7587299273,40412.7053027023,55674.2093906328,38151.8742268188,22395.5220767960
6046148288,7839,1,0,2638.2851990280,45930.6219672415,-3126.8790649533,18114.1962726756,56612.9715359165,53333.8015775272,40416.4894564143,55674.9881232295,38155.0621633864,22395.9357784880
6046200435,7840,1,0,2646.8877606819,45935.0875119755,-3122.9854019699,18137.4487413043,56622.2433208955,53330.4919639914,40421.6485598672,55683.4933433087,38160.5254592599,22396.2034678181
6046200435,7840,1,0,2657.6561723702,45932.7391464887,-3125.6501275742,18140.6975163560,56619.2257320835,53325.3085251448,40418.5579648741,55679.1859786334,38156.6439639734,22395.0110335294
6046200435,7840,1,0,2644.3812151363,45929.4051975592,-3129.5924613448,18120.1219410284,56610.6475058233,53328.3504493506,40416.2826055683,55676.1440544277,38156.3641069464,22394.6825057152
6046200435,7840,1,0,2640.7187383926,45929.1740113195,-3121.6226199258,18129.4667321884,56613.7624362100,53322.6559672374,40418.0590893044,55679.5631772349,38157.2766842081,22394.6216672311
6046200435,7840,1,0,2640.7552414831,45921.2163375973,-3122.7663834271,18136.1589654410,56605.9629425464,53316.2922617990,40412.6201288246,55672.8587762855,38153.1396672883,22392.6870034363
6046200435,7840,1,0,2628.8308985966,45919.5615308294,-3131.8556529539,18116.7149859180,56599.0881938415,53324.0309169784,40409.7850554648,55668.2715545832,38152.6042886281,22393.9159408154
6046200435,7840,1,0,2635.0972624604,45924.3677710745,-3127.0129096183,18118.5279727446,56602.6776644043,53324.1890970371,40410.2960987314,55670.8267709161,38156.6682993670,22394.9015242580
6046200435,7840,1,0,2657.1937998909,45922.6642935193,-3118.2278325122,18138.8723618326,56605.6465824290,53313.2746729869,40408.4709442079,55668.5270762165,38153.1274995915,22392.0664508983
6046205352,7841,1,0,2648.2627104229,45917.1158237680,-3126.5870402295,18121.7280770090,56595.9124249707,53316.1219140435,40403.9080578993,55658.6712417899,38146.0093969501,22390.1926255876
6046205352,7841,1,0,2632.1040090420,45918.3934319344,-3131.4541189587,18105.5207048409,56594.9146738312,53326.6591394922,40406.9743174987,55660.6180732816,38149.4771905446,22391.5554076317
6046205352,7841,1,0,2640.8525830577,45922.9806536367,-3123.8006376571,18128.1891240220,56603.6024093628,53320.5266202934,40409.6268754061,55667.2373003533,38152.3122639044,22394.9988658326
6046205352,7841,1,0,2643.4686378746,45922.3722687955,-3127.1102511929,18130.9025204135,56601.6677455679,53317.7523854178,40407.9477332445,55663.4044758541,38149.2460043050,22397.9799515542
6046205352,7841,1,0,2630.6803885137,45921.5205300179,-3134.0945091693,18115.8754148372,56600.4996466729,53325.2355189639,40407.6070377335,55664.5360716586,38150.0247369017,22398.1381316129
6046205352,7841,1,0,2632.0188351642,45923.1144983017,-3128.3756916625,18130.7808434453,56605.3302223117,53315.9515662880,40406.8891436210,55668.6609208816,38150.6574571365,22396.4224863609
6046205352,7841,1,0,2636.7399015315,45919.9387294309,-3127.3292697357,18139.9917899403,56603.4807323946,53310.6464504732,40403.0928222122,55665.7285059472,38145.3766767153,22394.2201332359
6046205352,7841,1,0,2627.6627997016,45922.8468089716,-3132.0381684062,18121.6794062217,56598.3459643353,53323.2156812913,40403.1293253027,55663.6843328810,38147.5303590530,22394.6581703216
6046236786,7842,1,0,2634.0751759273,45928.0302478182,-3124.9444011584,18126.5708203446,56606.8633521113,53323.3738613500,40408.2884287556,55670.6807585542,38149.5380290288,22393.8064315440
6046236786,7842,1,0,2648.7980890831,45926.3389379598,-3117.1205721013,18141.5127520431,56611.4627415104,53313.1286606251,40406.6214542908,55669.3544796005,38146.9828126959,22391.7135876904
6046236786,7842,1,0,2637.2752801917,45922.4452749764,-3122.8150542144,18125.0498582417,56603.4807323946,53319.2368444302,40404.9301444325,55662.1146999908,38143.7462053410,22391.7379230841
6046236786,7842,1,0,2627.4681165524,45926.7891427422,-3122.3161786447,18120.3287918744,56605.2572161307,53325.5883821718,40411.0139928439,55668.5635793070,38150.5236124714,22393.1615436124
6046236786,7842,1,0,2642.3857128574,45928.3222725419,-3114.4680141939,18142.0481307033,56613.9206162687,53319.4071921857,40414.5547926194,55675.2071417723,38153.1274995915,22393.2345497933
6046236786,7842,1,0,2646.1333634788,45924.9761559156,-3118.6171988105,18137.6799275439,56611.2558906644,53319.8087261809,40412.5592903404,55673.3819872489,38151.5091959141,22394.0376177836
6046236786,7842,1,0,2637.7498203678,45926.7648073486,-3120.6613718768,18124.4171380069,56611.5722507818,53326.7199779763,40413.0703336070,55674.5014153566,38154.3564369706,22396.5441633291
6046236786,7842,1,0,2648.7129152053,45927.1906767374,-3111.5842700468,18141.3545719844,56616.1229693936,53316.2435910117,40412.9486566388,55676.3509052737,38155.3663558069,22398.1868024002
6046321756,7843,1,0,2652.2902180713,45922.0924117686,-3112.5820211863,18139.3103989182,56609.3942330505,53310.8046305319,40407.6313731272,55671.1796341239,38151.4605251268,22395.1083751040
6046321756,7843,1,0,2633.7101450226,45918.2230841789,-3123.2165882096,18112.7239813601,56597.5672317386,53317.4846960877,40404.6016166182,55665.9475244901,38150.1950846572,22392.0786185951
6046321756,7843,1,0,2635.4744610619,45923.6255415683,-3117.6802861551,18123.4315545642,56606.3766442384,53320.7334711394,40411.0504959344,55674.5014153566,38156.0477468290,22393.9281085122
6046321756,7843,1,0,2654.0301987169,45927.9815770309,-3109.8077863107,18146.5258431342,56614.9305351050,53321.8772346408,40415.3700283065,55678.5045876113,38158.9436586729,22397.8582745860
6046321756,7843,1,0,2647.3623008580,45929.1740113195,-3112.9105490005,18131.7299237975,56612.0589586547,53330.4554609009,40413.7517246291,55675.3044833469,38161.2920241597,22398.1259639161
6046321756,7843,1,0,2639.5749748913,45933.9802515646,-3106.1453095670,18127.3617206381,56615.5145845525,53332.0372614879,40413.7152215386,55677.4216625941,38166.0130905270,22396.3251447863
6046321756,7843,1,0,2646.7539160168,45935.4525428802,-3096.3624813213,18143.3135711729,56618.6416826359,53324.4811217609,40411.3546883550,55678.8331154256,38164.4677930305,22396.3373124831
6046321756,7843,1,0,2642.8480853366,45931.8752400142,-3100.5238336348,18127.2035405794,56610.9638659407,53325.9777484701,40404.7719643738,55670.9971186716,38159.4668696363,22395.2787228595
6046326480,7844,1,0,2640.0251796737,45936.6328094720,-3103.6022609310,18112.3711181522,56612.8376912514,53333.3878758353,40406.5362804131,55672.5424161681,38159.3816957585,22394.2323009328
6046326480,7844,1,0,2655.2713037929,45936.3772878387,-3101.5215847743,18131.2310482277,56618.4713348804,53320.7213034426,40408.0815779096,55675.8155266135,38158.5907954650,22391.0321966683
6046326480,7844,1,0,2654.3343911375,45930.6097995446,-3107.6419362762,18130.0872847264,56612.0346232611,53318.1539194129,40404.7232935865,55671.5203296350,38153.4803627994,22390.7888427319
6046326480,7844,1,0,2636.6182245633,45932.4957925522,-3112.6915304577,18113.8190740741,56611.1342136962,53333.8137452241,40410.3082664282,55674.3675706915,38157.8850690493,22393.4779037297
6046326480,7844,1,0,2644.3447120459,45939.6990690714,-3101.6189263489,18133.6159168050,56621.8296192036,53332.5969755418,40417.0370027713,55682.4347536851,38162.1559306341,22396.0087846689
6046326480,7844,1,0,2661.7201831090,45938.3484547240,-3095.6324195120,18149.4947611590,56622.4988425288,53321.4635329488,40416.9031581062,55680.2567359538,38159.0410002475,22396.5563310260
6046326480,7844,1,0,2650.8544298461,45931.4372029286,-3106.9605452541,18126.9966897334,56610.6353381265,53324.3229417022,40410.4177756996,55670.5955846764,38154.4172754547,22398.0651254320
6046326480,7844,1,0,2643.9188426571,45930.0865885813,-3108.6883582030,18127.3373852444,56610.8543566693,53323.8118984356,40411.5250361105,55673.0899625251,38158.1284229857,22398.6978456668
6046337459,7845,1,0,2646.6322390486,45923.2483429668,-3111.2314068390,18137.8137722090,56610.2581395249,53314.8564735739,40406.1712495084,55670.7659324319,38154.1617538215,22395.5464121896
6046337459,7845,1,0,2635.7421503921,45917.2618361299,-3122.9610665763,18118.2602834145,56601.7650871425,53317.7645531146,40401.0486491459,55664.1223699666,38150.2437554445,22392.7600096172
6046337459,7845,1,0,2631.2644379612,45922.0924117686,-3123.5937868111,18110.4729574478,56603.6145770596,53320.8064773203,40404.8206351610,55667.9673621627,38151.5822020950,22388.2214587022
6046337459,7845,1,0,2645.3546308822,45922.9441505462,-3112.6793627609,18133.0440350544,56611.3532322390,53312.0700710015,40408.1789194842,55672.2868945348,38151.3875189458,22385.9217640027
6046337459,7845,1,0,2642.6168990970,45922.0315732845,-3110.7690343597,18133.7740968637,56608.9196928744,53313.4450207425,40407.5096961589,55670.4860754050,38150.1829169604,22390.4116441304
6046337459,7845,1,0,2625.6551297258,45923.1875044826,-3113.8109585654,18118.9903452239,56606.2184641797,53319.2003413397,40411.3303529613,55670.8267709161,38153.4073566184,22392.3828110157
6046337459,7845,1,0,2633.8318219908,45924.9883236124,-3107.7757809413,18136.5970025267,56612.1928033198,53311.3765122826,40413.1798428784,55676.9836255085,38155.2081757482,22391.7865938714
6046337459,7845,1,0,2649.7958402225,45921.3015114751,-3105.3422415767,18147.1342279753,56610.5866673392,53309.6000285464,40410.3326018218,55672.9926209505,38154.0400768532,22392.7478419204
6046366776,7846,1,0,2641.4853032925,45921.3988530497,-3106.1939803543,18124.6726596402,56603.2617138518,53322.6924703279,40408.9576520808,55670.7294293415,38155.6097097434,22392.2611340475
6046366776,7846,1,0,2638.6989007200,45923.1875044826,-3099.0393746224,18126.1084478653,56605.9994456369,53321.3175205869,40410.0405770981,55674.2702291170,38159.2235156998,22390.7401719446
6046366776,7846,1,0,2644.1986996840,45920.4376050007,-3095.4499040596,18138.5194986247,56604.8678498324,53313.6883746789,40407.6435408240,55669.6708397179,38155.4880327752,22386.9438505358
6046366776,7846,1,0,2635.4014548810,45919.8170524627,-3099.3435670430,18123.2733745055,56599.9764357096,53323.5563768023,40407.4731930685,55666.3125553948,38154.7579709658,22391.1295382429
6046366776,7846,1,0,2635.1702686414,45927.4705337643,-3094.4399852233,18125.3053798750,56606.7903459304,53328.0462569300,40413.9585754751,55672.2017206571,38161.0121671328,22394.8771888644
6046366776,7846,1,0,2652.5335720077,45930.4272840923,-3084.6449892808,18152.3420022156,56616.4636649046,53320.8551481076,40414.8103142527,55675.7303527357,38161.4623719152,22392.1637924729
6046366776,7846,1,0,2651.0856160858,45929.5633776179,-3087.6017396088,18144.9318748504,56611.7060954469,53319.5653722444,40413.8734015973,55674.2215583297,38157.1671749367,22394.9258596517
6046366776,7846,1,0,2636.0098397222,45931.1695135985,-3094.8658546121,18127.0818636111,56609.9174440139,53325.0651712084,40413.1068366975,55674.1363844519,38158.4447831031,22393.3805621552
6046401748,7847,1,0,2646.1333634788,45932.0577554666,-3087.3462179755,18145.9052905962,56614.5290011098,53315.4161876278,40412.0604147707,55676.8741162371,38160.3672792012,22390.0344455289
6046401748,7847,1,0,2655.7701793626,45923.6255415683,-3089.9501050957,18145.8687875057,56608.1409602778,53304.0637264920,40404.0540702612,55667.4198158056,38149.4406874542,22386.8465089612
6046401748,7847,1,0,2650.4528958510,45922.2992626146,-3097.7009279719,18124.6118211561,56601.5217332061,53312.5567788744,40405.0761567943,55664.0493637857,38149.0026503685,22390.5819918859
6046401748,7847,1,0,2655.0157821596,45925.7548885123,-3093.5030725680,18136.3536485902,56604.7096697737,53305.8402102281,40409.6755461934,55668.8556040307,38149.7327121779,22392.8208481013
6046401748,7847,1,0,2656.8896074703,45920.8513066926,-3093.3692279029,18147.4749234864,56600.7916713967,53294.8771153906,40407.1203298606,55661.6523275116,38144.4397640599,22390.6306626732
6046401748,7847,1,0,2636.8372431061,45917.0914883743,-3102.7018513661,18127.1305343984,56590.7168184273,53303.3701677731,40404.6867904960,55652.7577411340,38140.4000887147,22386.8465089612
6046401748,7847,1,0,2632.8340708514,45921.4840269274,-3098.3336482067,18131.4987375579,56596.4113005404,53307.0934830009,40407.4853607653,55656.2498701222,38143.8435469156,22385.4593915234
6046401748,7847,1,0,2650.2703803986,45922.3844364923,-3090.9113531447,18154.8242123674,56605.5614085513,53302.3237458463,40408.5196149952,55659.9488499564,38144.3180870917,22386.4206395724
6046432834,7848,1,0,2644.5272274982,45919.8657232500,-3097.7252633655,18141.0625472607,56600.8403421840,53305.1588192060,40403.1049899090,55654.0840200877,38143.0648143189,22387.5765707706
6046432834,7848,1,0,2631.0454194184,45921.7273808639,-3099.8302749159,18125.9259324129,56600.1346157683,53310.0380656320,40404.8693059483,55657.2476212617,38146.8976388182,22388.8298435434
6046432834,7848,1,0,2640.1590243388,45922.2870949177,-3092.7486753649,18147.9981344498,56603.4685646977,53301.0218022862,40406.8404728337,55663.7451713651,38150.1220784762,22388.9393528148
6046432834,7848,1,0,2646.9485991660,45920.0725740960,-3093.6125818394,18153.0720640249,56600.5483174602,53301.4963424623,40407.0229882860,55661.5549859370,38149.5866998160,22389.8640977733
6046432834,7848,1,0,2638.7354038105,45921.8490578321,-3095.4620717564,18142.2063107620,56600.5726528539,53314.8564735739,40412.0117439834,55663.5261528223,38155.9990760417,22392.7721773140
6046432834,7848,1,0,2647.7638348531,45923.1023306049,-3089.5972418878,18157.4767702748,56608.2017987619,53306.1322349519,40415.3821960034,55666.9209402359,38160.6836393186,22393.3683944583
6046432834,7848,1,0,2654.3830619248,45917.0549852839,-3092.7730107586,18159.9224773362,56603.7727571183,53300.2065665991,40408.9576520808,55661.6279921179,38158.0919198953,22392.2611340475
6046432834,7848,1,0,2639.7818257373,45917.6025316409,-3099.1488838938,18138.0936292359,56600.0981126778,53313.7370454662,40413.1311720911,55660.7640856435,38162.8616570499,22396.3859832704
6046464444,7849,1,0,2637.3117832822,45923.6620446587,-3093.9167742599,18144.8345332758,56608.3599788206,53320.0520801173,40419.9329146151,55670.8267709161,38170.2474490214,22398.0042869479
6046464444,7849,1,0,2651.9616902570,45927.3001860088,-3084.8031693395,18165.8238102954,56615.6971000048,53319.9547385427,40419.4462067422,55673.8321920313,38170.4299644737,22396.4468217545
6046464444,7849,1,0,2648.2627104229,45928.1154216959,-3087.3827210660,18152.5853561520,56613.2757283370,53325.6492206559,40417.7427291870,55671.9096959333,38170.5394737451,22396.8361880529
6046464444,7849,1,0,2640.2928690038,45933.4570406012,-3087.5774042152,18145.2482349678,56615.7214353984,53326.3427793748,40420.3344486103,55678.9304570001,38173.4718886795,22394.5243256565
6046464444,7849,1,0,2646.0481896011,45931.1330105080,-3084.7179954618,18161.6867933756,56617.6074284060,53305.8645456218,40418.6431387519,55677.8231965893,38164.9423332066,22389.4017252941
6046464444,7849,1,0,2646.6079036549,45927.7747261849,-3087.6504103961,18156.9292239178,56612.1441325325,53306.5094335534,40417.6697230061,55671.2404726080,38157.6417151128,22391.0565320620
6046464444,7849,1,0,2637.9080004265,45931.6197183809,-3091.2642163525,18141.3910750749,56611.1098783026,53314.4306041851,40420.4561255785,55669.0746225736,38155.9869083449,22391.9204385364
6046464444,7849,1,0,2647.0094376501,45933.2015189679,-3084.7544985523,18155.6759511450,56618.1671424599,53307.3490046342,40422.2812801020,55672.9074470728,38157.5565412351,22389.1583713576
6046495538,7850,1,0,2645.0747738552,45928.1275893928,-3088.5021491737,18153.2424117805,56613.5190822735,53305.7185332599,40414.9806620082,55666.6289155121,38154.5511201198,22384.6684912299
6046495538,7850,1,0,2624.3045153785,45928.0424155150,-3097.4210709449,18130.5861602961,56607.0336998669,53317.5820376623,40412.8756504578,55664.4508977808,38157.4591996605,22384.3034603252
6046495538,7850,1,0,2626.8962348018,45934.8563257358,-3087.4678949438,18141.7317705859,56616.3298202396,53314.3575980042,40417.5358783410,55673.0169563442,38162.8251539594,22383.9505971174
6046495538,7850,1,0,2647.0702761342,45930.9504950557,-3079.2425318915,18160.6282037520,56617.3762421664,53301.7883671861,40415.7958976953,55670.3157276495,38159.1383418221,22381.4805546623
6046495538,7850,1,0,2644.7949168283,45926.5336211090,-3085.0465232760,18143.5082543221,56608.7736805125,53306.7406197930,40413.6908861450,55664.7550902014,38156.6074608829,22381.6874055083
6046495538,7850,1,0,2641.3879617179,45928.2736017546,-3084.9491817014,18139.2982312214,56610.1729656472,53308.1642403213,40417.0613381649,55669.7803489893,38159.8319005410,22381.8334178702
6046495538,7850,1,0,2651.1464545699,45925.9739070551,-3082.9901825129,18155.1284047880,56612.5943373149,53298.1988966233,40415.5403760621,55668.8799394244,38157.5565412351,22381.1520268481
6046495538,7850,1,0,2650.9031006334,45924.2825971967,-3090.3029683035,18142.3401554271,56608.2991403365,53303.0051368684,40413.1798428784,55664.0980345730,38154.7458032690,22382.2349518654
6046554361,7851,1,0,2650.5989082129,45930.0744208844,-3089.5242357068,18134.4798232795,56611.2072198771,53315.3188460532,40422.0865969528,55670.1697152876,38161.1216764042,22385.8122547313
6046554361,7851,1,0,2666.5750941414,45936.8639957116,-3077.3808742776,18159.8494711553,56623.0828919763,53314.0899086741,40428.1826130611,55678.1030536162,38168.6048099503,22387.7834216166
6046554361,7851,1,0,2665.1271382195,45933.3840344203,-3079.8144136421,18160.2996759378,56619.3230736580,53311.8632201555,40424.7634902538,55675.5721726770,38165.5020472605,22388.3796387609
6046554361,7851,1,0,2644.9530968870,45934.3574501661,-3085.0830263665,18138.0692938422,56614.3951564447,53317.7767208114,40423.2303604542,55674.5622538407,38167.2541956030,22387.0290244136
6046554361,7851,1,0,2647.0702761342,45935.9514184499,-3079.0965195296,18148.7160285623,56619.0918874184,53310.3909288399,40421.9770876814,55678.0178797384,38168.2276113488,22382.5513119827
6046554361,7851,1,0,2663.7886915689,45934.5399656184,-3074.8134902479,18162.6358737278,56621.1968989688,53305.6090239885,40420.1275977643,55675.4261603151,38167.7044003854,22382.7824982224
6046554361,7851,1,0,2660.8806120282,45933.2623574520,-3082.3574622781,18144.6885209139,56616.8773665966,53315.5865353833,40419.8842438279,55672.3720684126,38166.5606368840,22385.3133791616
6046554361,7851,1,0,2664.6404303465,45939.1636904112,-3079.1816934073,18149.3000780098,56624.9932203775,53320.4657818093,40427.8419175501,55678.4315814304,38173.1798639557,22389.9492716511
6046560436,7852,1,0,2669.1424781710,45936.3894555355,-3077.7215697886,18163.2685939626,56626.7332010232,53307.9330540817,40427.2213650121,55679.6605188095,38169.5903933930,22385.6540746726
6046560436,7852,1,0,2657.7413462479,45932.6904757014,-3086.8960131931,18147.7791159069,56617.1328882299,53310.7316243509,40424.2402792905,55671.0336217620,38163.5795511624,22383.7072431809
6046560436,7852,1,0,2655.6850054849,45941.3052050520,-3085.6184050267,18144.4938377648,56623.3140782160,53321.9989116090,40430.8473386653,55678.6992707605,38167.8504127473,22385.2525406774
6046560436,7852,1,0,2677.1853257710,45947.0970287397,-3073.6697267466,18170.5935474500,56634.4475208090,53314.4914426692,40435.4467280644,55684.3450820864,38171.7684111243,22384.1939510538
6046560436,7852,1,0,2677.4773504947,45942.5584778248,-3075.9937568397,18167.7219709998,56627.9378030087,53312.3012572411,40429.7279105576,55679.8308665650,38169.4565487279,22381.6752378115
6046560436,7852,1,0,2657.6926754606,45943.4102166024,-3080.5323077547,18148.0103021466,56623.0463888859,53321.3418559805,40431.5165619906,55681.2544870933,38171.1600262831,22382.8433367065
6046560436,7852,1,0,2659.2866437444,45943.4345519960,-3076.7116509523,18160.8837253853,56627.3294181675,53311.1818291334,40433.2078718490,55685.6105225559,38172.5714791146,22383.9262617237
6046560436,7852,1,0,2667.2929882539,45936.8031572275,-3080.6539847229,18165.2397608479,56624.1049785095,53304.4530927903,40424.3741239555,55678.7479415478,38165.4533764732,22381.4927223592
6046588210,7853,1,0,2658.7756004779,45936.4137909292,-3084.9613493982,18141.0503795639,56619.5299245040,53315.2823429627,40421.4417090212,55674.0147074837,38167.2176925125,22383.9140940269
6046588210,7853,1,0,2661.0874628742,45943.0451856977,-3077.4173773680,18145.0535518186,56625.2122389203,53315.7203800483,40424.1794408064,55681.1328101251,38174.2141181857,22387.4670614992
6046588210,7853,1,0,2670.8094526358,45941.1956957806,-3073.6697267466,18159.5939495220,56625.3582512822,53309.3080038227,40422.9505034272,55681.3031578806,38173.8734226746,22386.4206395724
6046588210,7853,1,0,2659.2379729572,45939.0541811398,-3084.9978524887,18146.5866816183,56620.4059986753,53317.6185407527,40424.2402792905,55677.9083704670,38174.1167766111,22385.7514162472
6046588210,7853,1,0,2655.7458439690,45942.4368008565,-3088.5751553547,18148.0833083275,56627.0495611406,53319.5532045476,40430.6526555162,55682.7267784089,38176.1244465869,22388.0146078562
6046588210,7853,1,0,2670.8946265135,45941.9987637709,-3081.2988726545,18174.5115458270,56633.3889311854,53308.3589234705,40432.2101207095,55684.6492745069,38174.1167766111,22388.2944648832
6046588210,7853,1,0,2663.5331699356,45933.3110282393,-3082.7468285765,18164.3150158893,56624.5916863824,53308.1034018372,40426.0897692076,55677.6163457433,38167.8504127473,22388.2457940959
6046588210,7853,1,0,2644.2960412586,45936.0122569340,-3080.0334321850,18144.3964961902,56622.8030349494,53316.6572927037,40429.8739229195,55680.5122575871,38173.6544041318,22392.1272893824
6046638215,7854,1,0,2648.2383750292,45936.3894555355,-3070.9319949614,18157.0265654924,56626.2099900598,53308.0425633531,40430.0077675845,55683.4933433087,38175.4065524743,22388.8663466339
6046638215,7854,1,0,2660.6859288791,45933.4205375107,-3072.5746340325,18160.8837253853,56623.6061029397,53305.8888810154,40425.0798503713,55677.1296378703,38170.5029706547,22385.9460993963
6046638215,7854,1,0,2661.5863384440,45935.3795366992,-3076.5048001063,18147.1707310658,56622.1094762305,53322.4977871787,40427.3187065867,55678.0057120416,38174.8468384205,22389.1462036608
6046638215,7854,1,0,2673.3403335749,45943.1060241818,-3066.8923196162,18161.4677748328,56631.7097890238,53321.0498312568,40432.9888533062,55687.9345526491,38183.8265986758,22392.5774941648
6046638215,7854,1,0,2678.5237724215,45939.1150196239,-3066.3569409560,18168.2208465695,56630.6755347938,53310.0258979352,40430.0686060687,55684.2964112991,38176.6233221566,22389.9492716511
6046638215,7854,1,0,2660.0167055538,45938.5674732668,-3076.3222846540,18144.0679683760,56622.9612150081,53316.2679264054,40429.1073580196,55683.1404801009,38174.3844659412,22388.1362848245
6046638215,7854,1,0,2655.2104653088,45941.2930373552,-3077.3930419744,18143.2162295983,56626.4168409058,53314.7956350898,40433.9135982647,55688.8592976077,38177.0613592422,22386.1894533328
6046638215,7854,1,0,2677.8423813994,45942.4002977661,-3070.2019331520,18165.7021333271,56634.0824899043,53305.4265085361,40431.8694251984,55689.4798501456,38176.1122788901,22385.0335221346
6046671703,7855,1,0,2678.8036294484,45938.3362870272,-3075.0446764875,18156.9900624019,56627.5849398008,53309.6486993337,40427.4525512517,55682.6294368343,38172.6201499019,22385.3255468584
6046671703,7855,1,0,2667.3538267381,45940.8428325727,-3077.9649237251,18148.0589729339,56626.0883130916,53315.5987030801,40428.5841470563,55682.6659399248,38174.1411120047,22383.5733985159
6046671703,7855,1,0,2677.3800089202,45943.6170674484,-3068.6931387460,18166.8823999190,56634.6665393518,53313.0556544441,40430.9811833304,55685.8903795829,38176.0149373155,22382.4661381050
6046671703,7855,1,0,2680.9329763925,45943.0086826072,-3065.8093945989,18164.8625622464,56633.0360679775,53315.1363306008,40430.5796493352,55682.7024430153,38172.8026653542,22384.2304541443
6046671703,7855,1,0,2672.8171226116,45948.5449846617,-3065.6633822371,18147.1950664594,56633.3280927012,53324.7366433941,40431.3462142351,55684.6371068101,38176.6598252471,22390.3021348590
6046671703,7855,1,0,2677.2948350424,45949.6035742852,-3060.2609248477,18159.5696141284,56638.4020222764,53317.9349008701,40433.7554182060,55689.8692164440,38179.6652463624,22393.0155312505
6046671703,7855,1,0,2684.1695837474,45944.9433464021,-3062.3537687012,18168.9874114693,56636.5403646625,53308.7239543752,40430.7134940003,55688.9323037886,38177.6089055993,22392.1881278665
6046671703,7855,1,0,2669.6413537408,45942.2786207978,-3071.9175784041,18152.4880145774,56629.5561066861,53319.5045337603,40433.8284243869,55688.2874158570,38176.6233221566,22391.7014199936
6046686631,7856,1,0,2670.5660986993,45950.0416113709,-3067.6102137287,18161.2730916836,56641.1762571520,53321.3053528901,40441.6522534441,55698.8124736088,38183.8752694631,22392.6139972553
6046686631,7856,1,0,2685.7270489407,45950.2119591264,-3061.7575515569,18182.2380333095,56647.9901673729,53312.2769218475,40440.2894713999,55701.1121683084,38182.8896860204,22389.5355699591
6046686631,7856,1,0,2678.8401325389,45948.8491770822,-3068.8878218951,18167.7949771807,56643.3664425802,53317.1926713639,40436.9798578641,55695.9165617650,38180.8941837415,22388.0024401594
6046686631,7856,1,0,2666.3925786890,45949.8104251312,-3071.4187028343,18157.4037640939,56642.2956852597,53319.9547385427,40439.8027635270,55698.3257657359,38184.5323250915,22389.3287191131
6046686631,7856,1,0,2670.9311296040,45946.1114452971,-3068.0604185112,18173.4042854161,56644.0965043895,53310.1962456907,40438.4521491797,55699.2383429976,38182.2813011793,22386.7248319930
6046686631,7856,1,0,2671.1258127532,45938.8108272033,-3073.6940621402,18165.4222763002,56634.8977255914,53313.6153684980,40435.4832311549,55692.4366004736,38180.0424449639,22385.1065283156
6046686631,7856,1,0,2667.6458514618,45940.5994786363,-3076.3952908349,18151.3320833792,56634.3258438407,53319.4315275793,40438.4278137860,55691.6213647865,38183.4737354679,22387.2358752596
6046686631,7856,1,0,2684.0357390823,45946.5129792922,-3068.3767786286,18173.8909932890,56644.1208397832,53318.0930809288,40444.4264883197,55698.6664612470,38188.1826341384,22388.0389432499
6046721741,7857,1,0,2688.3066006672,45946.7685009255,-3070.4696224821,18179.6341461894,56641.3101018171,53309.3810100036,40441.7009242314,55695.0648229874,38184.5201573947,22385.7027454599
6046721741,7857,1,0,2663.4601637547,45942.5828132184,-3080.7148232070,18153.9116351057,56630.0793176495,53310.0258979352,40436.9190193800,55685.7321995242,38179.3123831545,22383.4152184572
6046721741,7857,1,0,2660.1140471284,45941.9014221963,-3078.0744329965,18158.5475275953,56633.2550865203,53306.8622967612,40437.0041932577,55688.1049004046,38177.9252657167,22383.0988583398
6046721741,7857,1,0,2675.8833822109,45939.5652244063,-3075.4218750891,18175.2781107268,56637.0270725354,53303.0903107461,40436.0916159960,55686.6204413922,38175.9419311345,22383.8289201492
6046721741,7857,1,0,2670.9067942104,45936.5841386847,-3084.3164614666,18156.4790191354,56629.7507898353,53311.6076985222,40432.7820024602,55681.0354685505,38174.8711738141,22385.3863853425
6046721741,7857,1,0,2667.4755037063,45939.0176780493,-3082.7589962733,18150.7602016286,56631.2960873318,53316.0975786499,40433.4390580886,55685.4401748004,38180.7360036828,22386.2502918169
6046721741,7857,1,0,2676.7959594727,45939.5165536190,-3073.3777020228,18166.5903751952,56633.9364775424,53305.3900054457,40433.0861948807,55688.2874158570,38178.8621783720,22386.8100058708
6046721741,7857,1,0,2671.7828683816,45936.2677785673,-3075.9937568397,18154.0089766803,56627.8647968277,53307.5071846929,40429.0586872323,55684.4302559641,38174.6643229681,22386.0677763646
6046740349,7858,1,0,2661.0387920869,45941.2200311742,-3074.6188070987,18144.4816700679,56629.6656159575,53312.7636297204,40433.3052134236,55685.9512180670,38177.2317069978,22385.5567330980
6046740349,7858,1,0,2670.4687571247,45941.7675775313,-3069.6057160077,18166.7972260412,56636.0414890928,53300.1335604182,40433.1713687585,55687.0463107810,38175.8689249536,22382.2349518654
6046740349,7858,1,0,2671.3569989928,45934.4669594375,-3075.0081733971,18171.4939570149,56631.7949629015,53297.7973626282,40430.4579723670,55677.7258550147,38168.6413130408,22379.8135801976
6046740349,7858,1,0,2652.3510565554,45933.3596990266,-3083.4647226890,18152.2324929441,56623.7156122111,53305.9740548932,40430.5066431543,55675.1463032882,38169.4687164247,22382.8433367065
6046740349,7858,1,0,2652.3875596458,45934.0289223519,-3079.8509167326,18158.7057076540,56626.7088656296,53298.1015550487,40431.0906926018,55679.7943634746,38170.0527658722,22382.8676721001
6046740349,7858,1,0,2666.1735601462,45930.2934394272,-3079.2060288010,18164.2663451020,56625.5042636441,53285.8243489544,40424.6783163761,55675.8641974008,38164.5042961210,22380.7991636402
6046740349,7858,1,0,2659.6395069523,45927.5070368548,-3084.9856847919,18142.5713416667,56618.7146888169,53292.6625945689,40421.2348581752,55671.8245220555,38163.2388556514,22380.5071389165
6046740349,7858,1,0,2654.2370495629,45928.0910863023,-3083.8784243810,18143.6542666840,56620.1869801325,53295.1204693271,40422.8531618526,55673.5158319139,38166.2929475539,22381.0911883640
6046787208,7859,1,0,2658.5322465414,45923.5647030842,-3080.8486678721,18160.1293281822,56619.6881045627,53288.1483790476,40420.8454918769,55671.6298389064,38164.8814947225,22379.4850523834
6046787208,7859,1,0,2651.7913425015,45920.5227788784,-3083.4768903858,18149.3974195844,56612.8133558578,53300.0970573277,40419.5557160136,55667.2251326565,38168.7264869185,22383.3543799731
6046787208,7859,1,0,2649.1996230782,45927.7625584881,-3077.9040852409,18148.4605069290,56620.5155079467,53310.8167982287,40425.8099121806,55674.9759555327,38177.6332409929,22387.3332168342
6046787208,7859,1,0,2670.1523970073,45934.6494748899,-3063.0351597233,18178.0280102088,56633.6566205155,53304.5626020617,40432.2101207095,55686.0607273384,38186.0654548912,22393.2345497933
6046787208,7859,1,0,2669.7873661026,45929.8432346448,-3066.2230962909,18172.5890497289,56627.6214428913,53300.3890820514,40429.6062335894,55681.1571455187,38182.2326303920,22391.5189045413
6046787208,7859,1,0,2650.5380697287,45931.4128675349,-3074.9716703066,18148.4726746259,56621.7687807194,53309.0281467957,40431.3340465382,55680.4149160125,38183.5467416489,22389.7302531083
6046787208,7859,1,0,2655.1252914310,45936.6449771688,-3069.6422190982,18162.0518242803,56630.0306468622,53306.5216012502,40438.1114536686,55686.7907891478,38185.2502192041,22386.9073474454
6046787208,7859,1,0,2670.4809248215,45937.8617468511,-3066.3691086528,18171.4087831371,56633.5349435472,53299.7928649071,40434.3759707440,55685.3184978322,38179.8112587242,22384.8266712886
6046818217,7860,1,0,2665.8085292415,45938.9446718684,-3073.5967205656,18151.5511019221,56629.2154111751,53305.2804961743,40430.7013263034,55680.9989654600,38176.7084960344,22383.0380198557
6046818217,7860,1,0,2668.4610871489,45942.9478441231,-3069.1920143157,18157.9999812382,56634.9342286819,53307.7870417198,40433.4268903918,55686.0607273384,38180.5413205336,22386.8951797485
6046818217,7860,1,0,2679.1078218690,45941.5485589885,-3065.3591898165,18175.3146138173,56638.5358669415,53301.9952180321,40432.6238224015,55689.1026515441,38179.8599295115,22389.2192098417
6046818217,7860,1,0,2668.7652795695,45939.6260628904,-3074.8013225511,18160.1049927886,56633.3159250044,53310.4882704145,40431.4800589001,55686.6204413922,38178.2659612277,22388.6716634847
6046818217,7860,1,0,2665.9423739066,45945.7585820892,-3077.9405883314,18159.0220677713,56640.3001829808,53313.6032008012,40436.4688145975,55693.2640038576,38183.0600337760,22390.2777994653
6046818217,7860,1,0,2681.3710134781,45945.6004020305,-3071.4795413184,18182.2988717936,56647.7711488301,53300.6567713815,40436.1281190865,55693.9575625765,38181.3200531303,22386.1286148487
6046818217,7860,1,0,2682.8189694000,45942.7896640644,-3070.1897654552,18172.3578634893,56641.3101018171,53305.1709869029,40431.7720836239,55686.4014228494,38177.9252657167,22386.4571426629
6046818217,7860,1,0,2671.7707006848,45947.6810781872,-3064.2884324961,18156.9657270083,56639.0955809953,53314.7834673930,40435.2277095216,55686.8759630255,38185.1163745390,22392.3219725316
6046841509,7861,1,0,2672.0992284990,45951.0150271167,-3054.4812688568,18173.9883348636,56640.9450709124,53302.4332551177,40437.3448887688,55689.9422226249,38187.9271125051,22393.0520343409
6046841509,7861,1,0,2670.5904340930,45942.7531609739,-3056.5132742262,18176.8842467074,56634.7882163200,53292.6139237816,40431.2975434478,55681.1449778219,38182.2326303920,22387.8685954944
6046841509,7861,1,0,2663.6548469039,45941.3173727488,-3064.6412957039,18158.6570368667,56629.0815665100,53297.8947042027,40429.4602212275,55675.5721726770,38177.5602348120,22384.9970190442
6046841509,7861,1,0,2670.2619062787,45941.4633851107,-3064.4222771611,18164.9234007305,56631.1987457572,53290.6305891994,40430.0564383718,55675.4261603151,38177.9009303230,22381.1155237576
6046841509,7861,1,0,2679.7527098006,45934.2114378042,-3072.4772924579,18172.3335280956,56622.4380040447,53276.1753653738,40423.7292360239,55668.3567284610,38168.7629900090,22373.9974211162
6046841509,7861,1,0,2663.0707974564,45924.5016157395,-3088.2952983277,18150.0179721224,56608.4938234856,53283.9383559468,40419.7017283755,55662.5040662892,38163.9080789766,22369.3128578394
6046841509,7861,1,0,2657.0477875290,45927.8599000626,-3087.0541932518,18154.0333120739,56614.3099825670,53291.3484833120,40428.1461099706,55669.8290197766,38170.3812936864,22366.4534490860
6046841509,7861,1,0,2673.6688613892,45928.1275893928,-3081.0190156276,18179.4272953434,56624.0076369349,53285.6053304116,40431.1515310859,55674.8664462613,38171.7562434274,22362.1460844107
6046869290,7862,1,0,2674.6301094382,45927.4948691580,-3084.3772999507,18168.6710513519,56622.1459793210,53291.2876448279,40432.8550086411,55673.5036642171,38175.3700493839,22367.1591755017
6046869290,7862,1,0,2665.2366474909,45930.6341349383,-3084.4989769190,18154.6295292183,56621.7566130226,53298.7464429803,40435.9456036341,55677.1296378703,38180.0667803575,22372.5251298006
6046869290,7862,1,0,2668.9842981123,45932.6904757014,-3075.3488689081,18172.4065342766,56626.5385178740,53287.7346773556,40435.4345603676,55680.2324005602,38181.5512393699,22374.6301413510
6046869290,7862,1,0,2663.1924744246,45927.2880183120,-3078.0257622092,18170.6908890246,56620.4181663721,53283.1231202597,40426.8441664106,55671.9948698111,38173.9342611587,22372.7563160403
6046869290,7862,1,0,2651.9981933475,45930.5002902732,-3082.4913069432,18152.9138839662,56619.0918874184,53298.9167907359,40425.4083781855,55671.2891433953,38174.1289443079,22377.4530470139
6046869290,7862,1,0,2665.0297966449,45938.0442623035,-3070.4696224821,18171.3479446530,56630.5538578256,53299.9997157531,40430.8595063621,55680.9746300664,38180.0424449639,22380.5679774006
6046869290,7862,1,0,2678.1830769105,45940.2101123379,-3064.4831156452,18185.8883423564,56634.9098932882,53297.0429654251,40430.2997923083,55683.0674739199,38179.7382525433,22384.7780005013
6046869290,7862,1,0,2659.4569915000,45940.6603171204,-3070.3479455139,18163.4511094149,56626.0274746075,53304.3557512157,40430.4701400638,55680.9502946728,38178.6309921324,22387.8564277975
6046908447,7863,1,0,2650.6597466970,45941.8770868027,-3065.9797423545,18160.5917006615,56628.8503802704,53302.2629073622,40433.2200395458,55684.6736099006,38182.3786427539,22387.9416016753
6046908447,7863,1,0,2666.0883862685,45937.9347530321,-3060.8328065984,18176.5435511964,56631.0040626081,53289.0244532188,40431.4435558096,55682.9457969517,38177.8765949294,22381.7969147797
6046908447,7863,1,0,2662.5719218866,45929.8554023416,-3066.5151210147,18161.9788180993,56620.7466941863,53291.7743527008,40428.1096068802,55673.8686951218,38173.3745471049,22378.9253383295
6046908447,7863,1,0,2656.4150672942,45932.4836248554,-3064.6169603103,18155.6516157514,56621.4037498148,53301.0704730735,40431.3097111446,55677.5676749560,38176.4164713106,22381.8577532638
6046908447,7863,1,0,2664.6039272561,45933.2501897552,-3059.0684905590,18173.5502977779,56626.2221577566,53295.3273201731,40433.9501013552,55680.9867977632,38178.6431598292,22383.2813737921
6046908447,7863,1,0,2663.0221266691,45927.1420059501,-3066.5151210147,18162.7940537865,56619.8949554087,53294.9501215716,40427.6959051882,55674.6230923248,38174.7129937554,22383.6099016063
6046908447,7863,1,0,2654.8697697977,45928.6142972657,-3074.2902792845,18145.0292164250,56617.9602916139,53297.0794685156,40428.8761717800,55673.5279996108,38176.5868190661,22382.6729889510
6046908447,7863,1,0,2665.7720261511,45930.3907810018,-3072.7206463944,18163.7918049259,56623.5209290620,53285.8121812576,40429.7157428608,55674.9272847454,38174.6764906649,22377.9154194932
6046938007,7864,1,0,2671.2231543277,45923.7837216270,-3074.2902792845,18174.2681918905,56620.8440357609,53278.8279232812,40428.0000976088,55670.3157276495,38167.2541956030,22375.1655200112
6046938007,7864,1,0,2654.5534096803,45920.3280957293,-3086.4093053202,18153.3154179614,56613.9084485718,53285.2281318101,40428.4137993007,55664.6820840205,38164.5164638178,22375.3480354636
6046938007,7864,1,0,2656.7070920180,45924.0879140475,-3081.9802636766,18162.4655259722,56621.1603958783,53288.3065591063,40435.9821067246,55672.4694099872,38171.1235231926,22377.2218607743
6046938007,7864,1,0,2672.1113961958,45922.9806536367,-3073.6697267466,18179.8409970354,56624.0441400253,53283.4881511644,40435.2277095216,55673.8808628186,38173.1555285621,22377.0150099283
6046938007,7864,1,0,2664.3362379260,45923.8323924143,-3072.5137955484,18169.2551007994,56622.3528301670,53297.5053379044,40438.0506151845,55675.4991664961,38177.4872286310,22379.8500832881
6046938007,7864,1,0,2658.7025942969,45933.1893512711,-3064.9819912150,18171.8711556164,56629.3370881433,53304.0272234015,40444.6820099530,55684.2720759054,38188.8518574637,22385.2768760711
6046938007,7864,1,0,2669.3128259265,45932.8364880632,-3058.8251366226,18187.5918199116,56631.2109134541,53289.9248627837,40440.8856885443,55684.4910944482,38188.2313049257,22385.1186960124
6046938007,7864,1,0,2660.5520842140,45925.0491620966,-3067.7318906970,18166.3591889556,56619.7976138341,53284.9482747831,40429.0586872323,55673.3819872489,38180.1032834480,22382.4539704082
6046962745,7865,1,0,2650.7084174843,45926.1077517201,-3071.2240196851,18147.9007928752,56617.7047699806,53292.6139237816,40428.4137993007,55672.4329068967,38180.2127927194,22383.3300445794
6046962745,7865,1,0,2666.3804109922,45928.3587756324,-3063.3515198407,18165.4709470875,56625.7962883678,53283.0866171692,40429.5940658926,55675.3653218310,38176.4894774916,22380.0691018309
6046962745,7865,1,0,2673.5958552082,45923.2970137540,-3066.7584749511,18167.2230954300,56623.0707242795,53278.4020538924,40427.8905883373,55670.4374046177,38169.9310889040,22378.7549905740
6046962745,7865,1,0,2658.1915510304,45924.6476281014,-3073.4750435974,18149.4217549780,56620.6006818244,53292.8329423244,40431.4922265969,55673.1873040997,38169.9432566008,22382.0037656257
6046962745,7865,1,0,2657.5709984924,45930.3177748209,-3065.8580653862,18164.3271835862,56631.2595842413,53291.7743527008,40440.1312913412,55682.2035674455,38176.1731173742,22383.0866906430
6046962745,7865,1,0,2666.4047463859,45928.2249309673,-3060.2122540604,18177.4196253676,56631.9409752634,53282.9406048073,40436.9311870768,55680.4027483157,38174.0316027333,22380.6653189752
6046962745,7865,1,0,2658.5444142382,45926.5092857153,-3063.4123583248,18158.3163413556,56625.6746113996,53291.0686262851,40432.3804684650,55675.5235018897,38173.2528701367,22381.0425175767
6046962745,7865,1,0,2655.5268254262,45929.7823961607,-3060.4069372095,18159.1194093459,56628.0838153706,53291.5188310675,40434.6679954677,55678.9426246970,38176.7084960344,22381.7239085988
6046992866,7866,1,0,2664.2510640482,45929.2105144100,-3058.1559132973,18180.1816925464,56628.5218524562,53282.0645306361,40433.2078718490,55677.6771842274,38177.3290485723,22382.3322934399
6046992866,7866,1,0,2651.0612806921,45921.7273808639,-3070.3236101202,18164.3028481925,56616.9382050807,53277.9396814131,40428.3772962103,55667.0061141137,38170.8680015594,22380.7018220657
6046992866,7866,1,0,2638.4068759963,45920.7174620276,-3076.5169678031,18150.7115308413,56612.7525173737,53279.8986806016,40426.9901787725,55663.9763576047,38169.3713748501,22378.8644998454
6046992866,7866,1,0,2657.3519799496,45919.1721645311,-3068.6201325650,18171.0194168388,56618.9215396629,53271.5516405811,40423.3277020287,55665.6189966758,38166.8891646983,22376.9298360505
6046992866,7866,1,0,2664.1902255641,45912.6989498213,-3071.1023427169,18165.4952824812,56613.2027221561,53270.8215787717,40415.9540777540,55659.4013035993,38161.9612474850,22374.1921042654
6046992866,7866,1,0,2654.5169065898,45915.4975200905,-3073.9982545608,18146.6840231929,56610.8300212756,53281.2371272521,40420.3952870944,55661.5063151497,38165.2708610208,22377.3557054393
6046992866,7866,1,0,2658.4349049668,45919.7318785849,-3064.6412957039,18160.4821913901,56617.8994531298,53272.3303731777,40426.6008124741,55666.8966048423,38168.1181020774,22377.1123515029
6046992866,7866,1,0,2666.4534171732,45916.2397495967,-3061.4776945300,18170.6543859341,56617.2058944108,53267.5728037200,40425.9072537552,55661.8591783576,38163.0928432895,22375.5062155223
6047021684,7867,1,0,2660.9049474219,45918.1744133916,-3064.0450785596,18156.8805531305,56615.0643797700,53280.2028730222,40431.6869097461,55661.1777873355,38165.3316995049,22374.2407750527
6047021684,7867,1,0,2661.3429845075,45921.3866853528,-3060.7841358111,18165.5804563589,56621.3672467243,53278.6454078288,40435.6414112136,55666.9574433264,38168.5683068598,22373.7784025734
6047021684,7867,1,0,2671.1379804500,45919.1478291374,-3056.1969141088,18179.7193200672,56622.1824824114,53273.8878383711,40433.6945797219,55667.4198158056,38168.5804745567,22375.7617371555
6047021684,7867,1,0,2658.8729420525,45914.8891352494,-3060.5164464810,18158.6448691698,56610.1851333440,53281.6508289441,40427.9392591246,55660.5815701911,38169.2375301851,22378.6089782121
6047021684,7867,1,0,2652.8864352156,45919.2938414993,-3057.9247270577,18149.5434319463,56612.1197971389,53286.7612616097,40429.2533703815,55666.1543753361,38174.6034844840,22380.2272818896
6047021684,7867,1,0,2670.5782663961,45922.2627595241,-3045.8057010220,18170.5813797531,56619.7611107437,53279.1321157018,40427.1605265280,55668.6609208816,38175.7472479854,22379.1930276596
6047021684,7867,1,0,2671.5395144451,45919.0748229565,-3050.5997735703,18162.5020290627,56613.4217406989,53278.1221968655,40418.8134865074,55661.9200168417,38171.1965293736,22377.2096930775
6047021684,7867,1,0,2656.7192597148,45923.8202247174,-3053.5565238982,18147.0733894912,56613.3122314275,53288.0632051698,40420.3952870944,55663.6356620937,38174.0559381270,22380.6896543688
6047073180,7868,1,0,2661.4524937789,45926.0712486297,-3046.5600982250,18165.2640962415,56620.8562034577,53282.1010337266,40423.9482545667,55669.5856658401,38175.8932603472,22383.2813737921
6047073180,7868,1,0,2667.1104728016,45921.2650083846,-3048.2027372961,18169.9364918215,56617.2789005918,53276.8202533054,40423.3398697256,55664.0371960889,38173.0825223811,22380.8478344275
6047073180,7868,1,0,2658.8121035683,45922.0680763749,-3053.9337224997,18154.1549890422,56612.3753187721,53279.2294572763,40426.4913032027,55660.7762533403,38172.4132990559,22379.6188970484
6047073180,7868,1,0,2661.4889968694,45922.9076474557,-3051.6826985875,18166.8945676158,56615.0887151637,53272.0748515445,40431.6260712620,55663.6478297905,38170.8436661657,22377.3070346521
6047073180,7868,1,0,2669.5561798630,45918.7219597486,-3052.3397542159,18182.0433501604,56612.9106974323,53260.1991794453,40432.1249468317,55662.1268676877,38165.0153393875,22375.7374017619
6047073180,7868,1,0,2651.5601562619,45913.1856576942,-3067.9144061493,18159.0342354682,56600.7551683062,53262.0730047560,40426.3331231440,55654.5707279606,38158.4082800127,22375.8712464270
6047073180,7868,1,0,2644.6610721633,45916.5196066237,-3070.7373118122,18151.3077479856,56602.2761304091,53267.6214745073,40428.2434515452,55658.2575400980,38160.7688131963,22377.3922085298
6047073180,7868,1,0,2662.6449280676,45914.1104026527,-3066.2595993814,18170.1068395770,56607.3378922874,53258.6417142519,40424.9581734030,55656.6270687237,38159.4547019394,22375.9199172142
6047094079,7869,1,0,2662.6205926739,45910.4722613027,-3071.5525474994,18160.8958930821,56601.8015902330,53264.0320039445,40420.3222809135,55651.9790085373,38157.5930443255,22373.1456823386
6047094079,7869,1,0,2648.1653688483,45910.9954722661,-3071.2970258661,18145.3942473297,56601.0350253332,53270.7120695003,40422.4637955543,55653.1227720387,38161.2190179788,22371.4665401770
6047094079,7869,1,0,2651.0612806921,45913.3316700561,-3060.6381234492,18162.2465074294,56607.1918799256,53264.7133949666,40424.2402792905,55660.2895454674,38166.3416183412,22371.6612233262
6047094079,7869,1,0,2649.0657784132,45909.1094792585,-3059.4943599478,18160.3361790282,56603.7240863310,53261.7688123354,40421.3078643561,55659.4013035993,38163.9567497639,22371.4057016929
6047094079,7869,1,0,2642.2153651019,45912.7962913958,-3062.3537687012,18145.6619366598,56604.3203034753,53276.7837502149,40425.0311795840,55662.6257432574,38168.3127852265,22374.7761537129
6047094079,7869,1,0,2655.6363346976,45921.4718592306,-3053.3740084459,18167.8436479680,56614.4803303225,53278.4872277701,40432.8063378538,55674.3675706915,38176.1731173742,22379.4120462024
6047094079,7869,1,0,2670.4444217311,45922.6764612161,-3050.2469103624,18183.6373184442,56619.2622351739,53275.7494959850,40433.8162566901,55677.4459979877,38177.3533839660,22379.1686922660
6047094079,7869,1,0,2659.0797928985,45922.7007966097,-3057.9368947545,18161.5651164073,56613.7989393004,53285.5201565338,40437.7950935512,55674.7447692931,38177.9130980199,22381.8090824765
6047135396,7870,1,0,2651.7791748047,45925.9252362678,-3054.5056042504,18159.7886326712,56616.8773665966,53281.5413196727,40444.1222958991,55678.0665505257,38180.4439789590,22382.1254425939
6047135396,7870,1,0,2661.2699783266,45918.2109164821,-3049.8210409736,18174.0613410445,56616.1716401809,53265.3582828982,40440.1434590381,55673.1751364029,38173.4597209827,22376.8081590823
6047135396,7870,1,0,2652.5822427950,45910.7277829360,-3057.5475284562,18159.9346450331,56604.2838003849,53268.7530703118,40431.9789344699,55663.6843328810,38166.4024568253,22373.0970115513
6047135396,7870,1,0,2646.6809098359,45912.4434281880,-3058.6061180798,18152.4150083965,56605.2328807371,53276.5647316721,40434.4733123186,55666.1057045488,38170.4908029579,22371.8924095658
6047135396,7870,1,0,2658.7025942969,45915.1933276700,-3049.2004884356,18170.1555103643,56611.0368721216,53269.3979582434,40436.1767898738,55669.5613304465,38172.4011313591,22374.3381166273
6047135396,7870,1,0,2655.5633285166,45911.9932234055,-3049.8697117609,18163.0982462070,56604.4541481404,53270.3835416861,40429.7035751640,55663.3193019763,38168.1424374710,22376.6986498109
6047135396,7870,1,0,2644.6124013760,45916.6291158951,-3051.8773817367,18150.8818785968,56605.7074209132,53277.4164704497,40432.1371145286,55664.2318792380,38170.7706599848,22378.7428228772
6047135396,7870,1,0,2659.0676252016,45923.5525353873,-3043.4573355352,18173.9518317731,56618.2401486408,53272.8535841411,40436.0186098151,55672.5545838649,38173.0338515938,22379.1930276596
6047144167,7871,1,0,2669.9212107677,45920.4254373038,-3048.6772774722,18177.3709545803,56617.3154036823,53264.4213702428,40430.7134940003,55669.6343366274,38168.3979591043,22378.2804503979
6047144167,7871,1,0,2656.4272349911,45915.5218554842,-3062.6822965154,18147.3532465181,56606.8755198082,53270.9675911336,40427.4647189485,55664.7429225046,38165.5263826541,22375.7495694587
6047144167,7871,1,0,2653.7016709027,45917.3835130981,-3061.1248313221,18149.3244134035,56611.7547662342,53269.9333369036,40429.8860906163,55670.5834169796,38171.1235231926,22373.0483407640
6047144167,7871,1,0,2667.5850129777,45914.9986445208,-3054.9801444265,18167.2230954300,56614.5898395939,53262.8517373527,40428.6206501467,55670.0237029257,38170.1136043563,22372.3182789547
6047144167,7871,1,0,2660.4669103363,45912.2122419483,-3059.7620492779,18153.6439457756,56605.9021040623,53265.8571584679,40428.6449855404,55663.8060098492,38166.9621708792,22374.3624520209
6047144167,7871,1,0,2652.4849012204,45913.8427133226,-3060.9301481729,18148.5213454131,56605.7925947909,53268.3758717103,40432.4169715555,55664.3657239031,38168.9576731582,22375.8712464270
6047144167,7871,1,0,2661.7688538963,45912.6502790340,-3056.0752371406,18168.2086788727,56609.4064007473,53261.9634954846,40435.4953988517,55664.4752331745,38168.5561391630,22377.1488545934
6047144167,7871,1,0,2660.0410409475,45910.5574351804,-3059.7742169748,18159.8616388521,56604.5879928055,53266.5020463995,40434.9235171010,55662.7839233161,38170.2839521119,22377.8545810091
6047176260,7872,1,0,2648.9562691418,45912.9301360609,-3063.0959982074,18144.5060054616,56606.7781782336,53272.6589009920,40437.2353794974,55666.3490584852,38174.7616645427,22378.0614318551
6047176260,7872,1,0,2657.2059675877,45912.4312604912,-3057.7543793021,18161.5164456201,56612.1441325325,53258.6295465551,40435.6535789104,55666.6532509058,38173.8125841905,22372.4034528324
6047176260,7872,1,0,2661.6350092313,45907.0774738891,-3061.8670608283,18163.5971217768,56608.2991403365,53260.3573595040,40430.0442706750,55662.0051907194,38167.8504127473,22371.9167449595
6047176260,7872,1,0,2648.0315241832,45907.1261446764,-3071.4917090152,18143.7516082586,56601.2175407855,53270.2740324147,40429.6184012862,55662.2850477464,38169.7607411485,22375.9807556984
6047176260,7872,1,0,2648.5182320561,45909.1946531363,-3067.3181890050,18149.7989535796,56606.5226566003,53260.1870117484,40429.8739229195,55666.2760523043,38169.9310889040,22376.2119419380
6047176260,7872,1,0,2662.8274435199,45908.6471067792,-3061.6115391950,18160.5308621774,56607.6542524048,53257.2059260268,40426.6616509582,55665.4973197076,38166.6336430650,22376.1024326666
6047176260,7872,1,0,2659.8341901015,45910.1559011853,-3066.1135870195,18144.7980301853,56604.6244958959,53271.1136034954,40428.3407931198,55664.8037609887,38168.4831329821,22379.4850523834
6047176260,7872,1,0,2664.9202873735,45919.4641892548,-3058.3262610528,18149.9571336383,56615.3807398874,53276.9419302736,40438.0871182750,55675.0124586232,38178.2781289245,22385.4350561298
6047211759,7873,1,0,2677.3313381329,45921.0946606291,-3048.7137805627,18168.2208465695,56622.0851408368,53264.7133949666,40441.9321104710,55677.4946687750,38178.8013398879,22387.6374092547
6047211759,7873,1,0,2665.7476907574,45913.3925085402,-3053.8607163188,18151.3807541665,56611.3897353295,53262.4623710543,40436.8946839863,55668.0282006468,38171.6467341560,22385.7027454599
6047211759,7873,1,0,2648.6642444180,45914.9743091272,-3053.3131699618,18142.2306461557,56612.0467909579,53268.8747472800,40440.9465270284,55668.0768714341,38173.5570625572,22385.7757516408
6047211759,7873,1,0,2661.9270339550,45916.4709358364,-3044.6862729143,18167.2230954300,56617.6074284060,53259.3839437581,40440.4963222459,55670.7294293415,38171.5007217942,22384.4373049903
6047211759,7873,1,0,2673.8513768415,45914.9743091272,-3046.3532473791,18169.0239145598,56613.8719454814,53261.3307752498,40436.7000008372,55665.2783011648,38165.8670781651,22384.9240128632
6047211759,7873,1,0,2667.1956466794,45918.4786058122,-3052.1937418541,18152.4393437901,56609.4185684442,53273.2186150458,40438.1601244559,55667.5901635612,38170.3447905960,22384.7293297141
6047211759,7873,1,0,2671.0893096627,45921.2285052942,-3047.1928184598,18163.7674695323,56614.8940320145,53268.9234180673,40441.9077750774,55674.1728875424,38177.3898870565,22385.8000870345
6047211759,7873,1,0,2675.2384942793,45917.2009976458,-3044.3942481906,18171.0437522324,56613.2027221561,53265.1027612649,40436.8946839863,55671.6906773905,38175.9906019218,22385.9947701836
6047288446,7874,1,0,2658.8972774461,45913.2099930878,-3048.7867867436,18150.0666429097,56607.9949479159,53270.3835416861,40432.0276052571,55665.4729843140,38176.0271050123,22386.9316828390
6047288446,7874,1,0,2654.8210990104,45912.7597883054,-3044.3455774033,18151.8066235553,56608.9075251776,53263.6669730398,40431.3948850224,55665.0106118347,38176.6354898534,22384.4738080808
6047288446,7874,1,0,2664.7621073148,45909.3771685886,-3043.2626523860,18165.6412948430,56607.5204077398,53250.2460034441,40427.7932467628,55660.8979303085,38170.1136043563,22381.2493684227
6047288446,7874,1,0,2650.6597466970,45902.2103951599,-3053.7755424410,18143.6786020776,56596.4478036309,53251.7304624565,40424.3741239555,55651.4314621803,38160.1969314456,22377.0150099283
6047288446,7874,1,0,2642.4100482510,45909.5231809505,-3053.6295300792,18139.0670449817,56602.6411613138,53260.3573595040,40432.3561330714,55657.6004844695,38165.9035812556,22379.5215554738
6047288446,7874,1,0,2657.1207937100,45914.6336136161,-3043.8101987431,18165.8481456890,56612.9472005228,53257.5587892347,40436.5174853848,55663.5139851255,38169.6877349675,22381.3832130877
6047288446,7874,1,0,2659.7003454364,45913.3316700561,-3047.3509985185,18163.4876125054,56611.4384061168,53258.5565403742,40433.2565426363,55661.4819797560,38168.6899838281,22383.0623552493
6047288446,7874,1,0,2650.6597466970,45916.3249234745,-3048.8841283182,18149.4825934622,56610.0634563758,53270.1280200528,40436.3714730229,55664.3778915999,38174.5548136967,22388.4891480323
6047293623,7875,1,0,2657.1816321941,45918.3204257535,-3041.9972119164,18164.3393512830,56613.0445420974,53262.7178926876,40439.2552171700,55667.5414927739,38178.6431598292,22390.3751410399
6047293623,7875,1,0,2663.8251946594,45911.8958818310,-3043.7615279558,18167.0527476745,56607.5325754366,53259.5056207264,40434.4489769249,55660.6910794626,38173.3502117112,22385.1551991029
6047293623,7875,1,0,2658.1185448494,45912.1149003738,-3049.2126561324,18147.1707310658,56603.7119186342,53269.3371197593,40434.3638030472,55659.4499743866,38175.0171861760,22381.1885299386
6047293623,7875,1,0,2665.5895106987,45918.4542704185,-3045.0634715158,18157.1117393701,56613.3487345180,53266.5142140964,40436.3349699325,55665.4851520108,38177.7670856580,22378.1831088233
6047293623,7875,1,0,2678.3899277565,45916.5561097141,-3044.0535526795,18168.8657345011,56613.7259331195,53255.9161501636,40433.6215735409,55664.2075438444,38171.9144234861,22378.0005933710
6047293623,7875,1,0,2665.1758090067,45915.9963956603,-3053.4105115364,18148.8620409242,56607.1918799256,53263.1559297732,40431.3948850224,55658.0141861615,38168.6169776471,22380.3367911610
6047293623,7875,1,0,2654.6750866485,45921.3866853528,-3054.6394489155,18145.5280919947,56610.4771580678,53266.7819034265,40436.8095101086,55661.8226752671,38172.2429513004,22383.3300445794
6047293623,7875,1,0,2668.9477950219,45922.6034550351,-3045.5136762983,18168.6953867456,56619.1892289930,53258.4713664964,40439.7175896492,55664.9011025633,38171.9022557893,22383.6585723936
6047312506,7876,1,0,2671.0528065722,45917.3956807949,-3046.4505889536,18160.6038683583,56612.3753187721,53260.5642103499,40435.4953988517,55661.9078491448,38169.7972442390,22384.4251372935
6047312506,7876,1,0,2663.6548469039,45918.7462951423,-3046.9251291297,18148.3144945672,56609.1752145077,53266.3195309472,40438.6955031161,55664.0493637857,38173.7639134032,22388.2579617927
6047312506,7876,1,0,2668.7044410854,45918.4907735090,-3042.9097891782,18164.1446681338,56611.3045614517,53255.4051068970,40437.4422303434,55667.9308590722,38176.3069620392,22386.7978381740
6047312506,7876,1,0,2668.3637455744,45913.5506885989,-3047.9472156629,18164.8868976400,56604.9286883165,53252.2171703294,40433.4877288759,55662.0051907194,38171.6102310656,22382.6851566478
6047312506,7876,1,0,2657.1694644973,45915.1568245795,-3054.3352564949,18148.0224698434,56601.3878885410,53263.3627806192,40434.4003061376,55661.5914890275,38173.7152426159,22382.4174673177
6047312506,7876,1,0,2671.2596574182,45920.1942510642,-3045.4163347237,18164.6557114004,56613.4217406989,53260.0409993866,40440.0582851603,55666.8357663581,38177.9374334135,22381.2980392100
6047312506,7876,1,0,2687.1750048626,45917.2861715235,-3044.1022234668,18175.4241230887,56614.6871811685,53254.4681942417,40438.5251553606,55662.9786064653,38174.0437704302,22379.8865863785
6047312506,7876,1,0,2671.4300051737,45915.7287063302,-3052.6439466365,18151.3564187729,56607.3622276811,53262.1946817242,40434.4124738344,55657.4301367140,38172.3524605718,22379.4850523834
6047337058,7877,1,0,2661.0387920869,45918.9409782914,-3050.5876058734,18149.0202209829,56610.7205120042,53259.7611423596,40439.9001051016,55663.3436373700,38174.7129937554,22379.4363815961
6047337058,7877,1,0,2675.2506619761,45919.5371954358,-3044.4429189778,18169.8148148533,56618.0211300980,53254.8697282368,40444.0006189309,55668.0890391309,38176.4408067043,22379.7527417135
6047337058,7877,1,0,2678.4629339374,45918.7584628391,-3047.8255386946,18163.1104139039,56616.2811494523,53261.5619614894,40447.1398847112,55664.8645994728,38174.6521552713,22383.0258521588
6047337058,7877,1,0,2670.5174279120,45922.0194055876,-3049.5898547340,18154.8972185484,56615.7457707921,53260.8197319832,40449.3544055330,55668.3323930674,38177.9982718976,22385.4472238266
6047337058,7877,1,0,2671.8315391689,45919.0626552597,-3050.2225749687,18169.3646100709,56615.9769570317,53247.9584764414,40444.4994945007,55667.0426172041,38175.9662665282,22382.5269765891
6047337058,7877,1,0,2666.3074048113,45911.7255340754,-3054.7854612773,18160.2875082409,56606.8146813241,53251.7669655470,40436.6148269594,55659.0484403915,38172.0361004544,22380.1421080118
6047337058,7877,1,0,2658.8607743556,45914.4510981638,-3054.1527410426,18141.4275781654,56606.5348242971,53266.2830278567,40435.7022496977,55661.2264581228,38177.1952039073,22382.9285105843
6047337058,7877,1,0,2675.4818482158,45919.1356614406,-3041.2549824102,18157.9391427541,56617.1450559267,53263.0220851082,40438.2209629400,55669.6221689306,38182.3178042698,22381.2615361195
6047378553,7878,1,0,2687.4670295864,45919.2938414993,-3034.5262460672,18167.3326047014,56618.2401486408,53258.4713664964,40436.8946839863,55669.0989579672,38182.1109534238,22380.5801450974
6047378553,7878,1,0,2669.7021922249,45915.5218554842,-3041.3766593785,18146.8422032516,56612.0346232611,53267.1347666343,40436.8460131990,55665.4608166171,38180.4683143527,22380.4706358260
6047378553,7878,1,0,2666.6359326255,45919.1843322279,-3037.2639778523,18153.4857657169,56618.9337073597,53267.0130896661,40444.6576745594,55672.7614347109,38181.7215871254,22382.8676721001
6047378553,7878,1,0,2676.0172268760,45916.9941467998,-3035.2441401797,18167.9774926330,56621.2577374529,53258.6417142519,40442.8933585200,55672.3112299285,38178.2172904404,22380.5801450974
6047378553,7878,1,0,2670.3592478533,45916.2154142031,-3040.8291130214,18155.7611250228,56615.5875907334,53266.8670773042,40441.2263840553,55669.1354610577,38177.9617688071,22382.9650136747
6047378553,7878,1,0,2666.2709017208,45919.8657232500,-3038.3955736568,18151.6119404062,56616.6948511443,53269.5926413926,40442.9541970041,55673.0047886474,38182.2082949984,22382.9771813715
6047378553,7878,1,0,2679.1443249595,45920.5349465752,-3031.6668373138,18171.6643047704,56620.2599863134,53257.0964167554,40443.6477557231,55675.1219678946,38183.2668846219,22381.3102069068
6047378553,7878,1,0,2670.7851172421,45914.1104026527,-3039.3933247963,18164.7895560654,56609.8809409234,53255.2104237479,40440.3259744904,55668.0525360404,38176.6963283376,22380.3124557673
6047400786,7879,1,0,2658.4349049668,45917.4930223695,-3045.0999746063,18153.8629643184,56608.6398358475,53266.0396739203,40445.5580841243,55667.0912879914,38178.8013398879,22382.8433367065
6047400786,7879,1,0,2676.3700900839,45921.7395485607,-3039.5028340677,18180.3520403020,56617.4735837410,53262.7665634749,40449.7437718314,55672.5302484713,38179.9816064797,22382.8798397970
6047400786,7879,1,0,2695.4977094895,45924.7206342823,-3035.6821772653,18190.1835393349,56621.2090666656,53262.7057249908,40450.0844673424,55671.3256464858,38179.2515446704,22385.8000870345
6047400786,7879,1,0,2687.1263340753,45926.7891427422,-3037.0814624000,18169.1942623153,56617.7534407679,53268.8139087959,40451.2890693279,55668.9772809990,38179.6895817560,22384.3764665062
6047400786,7879,1,0,2685.9338997867,45931.1208428112,-3028.7344223794,18177.5169669422,56624.4700094141,53264.2875255778,40455.4260862477,55675.7181850389,38182.9626922014,22383.1353614302
6047400786,7879,1,0,2692.4314498901,45929.6120484052,-3027.7610066336,18190.1470362444,56626.8792133851,53255.7092993176,40453.3454100909,55675.7181850389,38179.6774140592,22380.2394495864
6047400786,7879,1,0,2682.8068017032,45926.4727826248,-3036.7164314953,18168.8413991075,56619.8584523182,53259.9193224183,40450.5833429121,55669.7803489893,38175.4187201711,22378.6941520899
6047400786,7879,1,0,2682.5634477667,45929.6972222829,-3036.6799284048,18163.2929293562,56621.2699051497,53259.4082791518,40450.9605415136,55670.7659324319,38175.8080864695,22379.9109217722
6047430888,7880,1,0,2692.3949467997,45925.8278946932,-3032.3847314263,18174.3046949810,56619.7854461373,53246.1576573116,40446.4098229019,55666.7870955708,38172.2794543908,22377.8910840996
6047430888,7880,1,0,2679.3511758055,45915.7043709365,-3040.1355543025,18154.8850508515,56604.8556821356,53244.0891488517,40437.6004104021,55655.6293175842,38164.4312899400,22376.3822896935
6047430888,7880,1,0,2663.8495300530,45916.7872959538,-3044.0170495890,18142.5591739699,56603.2982169422,53251.6209531851,40438.2209629400,55654.7775788066,38168.1424374710,22376.8689975664
6047430888,7880,1,0,2678.4994370279,45918.6732889613,-3037.1666362777,18168.1235049949,56610.2946426154,53245.4032601086,40439.1092048081,55658.8050864550,38169.6147287866,22377.7329040409
6047430888,7880,1,0,2684.9361486472,45917.7485440028,-3034.3437306148,18172.3335280956,56608.8831897840,53246.6565328813,40437.6855842798,55654.4977217797,38167.3880402680,22377.2705315616
6047430888,7880,1,0,2669.7751984058,45919.0991583501,-3033.8570227419,18156.1261559275,56607.9584448254,53258.1428386822,40440.6788376983,55658.1115277361,38169.2253624883,22377.5868916790
6047430888,7880,1,0,2672.4520917069,45927.2515152215,-3021.8110028872,18174.0126702572,56620.0896385579,53256.6583796698,40449.4152440171,55669.9993675321,38175.0658569633,22381.5048900560
6047430888,7880,1,0,2679.9595606466,45929.6242161020,-3016.6762348279,18183.2601198426,56625.5529344314,53257.8508139584,40450.5590075185,55673.6740119726,38175.3335462934,22384.4373049903
6047464483,7881,1,0,2674.6057740445,45933.6273883567,-3019.5843143686,18160.3605144219,56622.7543641621,53265.8449907711,40448.9042007506,55672.0557082952,38175.4308878680,22387.5157322865
6047464483,7881,1,0,2680.7504609401,45939.2245288953,-3015.2282789060,18160.7498807202,56629.1667403878,53263.8373207953,40451.0700507850,55674.2580614201,38178.4728120737,22387.0655275041
6047464483,7881,1,0,2691.9569097140,45937.7035667924,-3014.4982170966,18177.8698301501,56627.8769645246,53250.6962082265,40445.5094133370,55670.2913922559,38172.5228083273,22384.2669572348
6047464483,7881,1,0,2680.1664114926,45931.9117431047,-3026.3617214990,18163.0252400261,56615.8796154571,53252.3510149945,40440.4719868523,55659.2552912374,38166.7796554269,22383.3178768826
6047464483,7881,1,0,2672.1357315895,45933.9315807773,-3026.4468953767,18157.3064225193,56616.1473047872,53257.9603232298,40443.9154450532,55660.8857626117,38170.2231136277,22384.8631743791
