steady_timestamp,sequence,battery,flags,EEG-ch1,EEG-ch2,EEG-ch3,EEG-ch4,EEG-ch5,EEG-ch6,EEG-ch7,EEG-ch8,EEG-ch9,EEG-ch10
4126456380,26944,-2,0,-8144.1193406220,43939.7434130717,13549.0346047665,32142.6746353565,53012.7933999444,15205.2406578212,47428.9399863217,59584.5177832281,62340.0144057515,15994.0967782462
4126456380,26944,-2,0,-8144.4722038299,43939.1471959274,13554.6317453050,32141.4456979774,53011.1507608733,15204.9973038848,47410.8587888428,59584.9801557073,62342.0220757273,15998.0634474105
4126456380,26944,-2,0,-8144.3748622553,43937.3950475849,13550.7745854122,32139.1460032779,53012.9880830936,15189.1914657118,47424.0850752894,59586.5254532039,62337.7633818393,15995.4108895031
4126456380,26944,-2,0,-8146.4433707152,43928.9141628993,13543.1697748978,32132.5632792966,53008.9970785356,15181.6474936816,47427.7840551235,59579.6263691052,62328.3577521951,15987.5748927491
4126456380,26944,-2,0,-8147.4411218547,43924.6433013144,13546.8687547320,32129.1076533989,53001.6356219577,15193.6813458394,47407.4396660356,59572.8489619749,62327.7006965667,15985.5550550765
4126456380,26944,-2,0,-8144.0219990474,43929.5468831341,13554.9359377256,32133.7922166758,53005.0425770682,15201.3713302315,47414.7402841293,59580.3807663083,62334.5389421812,15990.2761214438
4126456380,26944,-2,0,-8141.7709751352,43937.6018984309,13561.3726493450,32138.3916060748,53015.8839949374,15204.9242977038,47435.3888656379,59587.8030613703,62341.8760633654,15996.6641622759
4126456380,26944,-2,0,-8141.7101366511,43938.2589540593,13565.7773555949,32136.7611347006,53016.5897213531,15200.7751130872,47423.5983674164,59587.2433473164,62341.9490695464,15996.9318516060
4126525421,26945,-2,0,-8145.2022656393,43933.8785832030,13562.9057791446,32131.5168573699,53011.7591457144,15189.2401364991,47415.0931473372,59582.4979455555,62335.9260596190,15988.3414576490
4126525421,26945,-2,0,-8145.9444951454,43932.7713227921,13559.2067993105,32131.8332174873,53014.8984114948,15184.0323622589,47432.8701523955,59584.1405846266,62331.7038688214,15986.8569986366
4126525421,26945,-2,0,-8146.7840662262,43925.4098662143,13556.0431981365,32129.2171626703,53009.8853204037,15181.9638537990,47421.3230081106,59576.8764696233,62325.0116355688,15983.4865466166
4126525421,26945,-2,0,-8148.1103451799,43925.9209094808,13559.2798054914,32129.3753427290,53007.1719240122,15193.9368674727,47405.8335300550,59574.8079611634,62323.8070335834,15985.2265272623
4126525421,26945,-2,0,-8145.3726133948,43934.8276635552,13569.2938199767,32134.9359801771,53018.5487205416,15198.8769523828,47426.9323163459,59584.3596031694,62331.9472227579,15991.6997419721
4126525421,26945,-2,0,-8141.2112610813,43940.9358473603,13575.1951529358,32136.6637931260,53024.3527119262,15204.0847266231,47434.9994993395,59586.9148195022,62338.9679838247,15992.5636484465
4126525421,26945,-2,0,-8138.5343677803,43942.1282816490,13581.7048707361,32136.2622591308,53021.4324646887,15205.7151979973,47416.3829232004,59585.6128759421,62338.6759591010,15991.7119096689
4126525421,26945,-2,0,-8135.3829343031,43945.4500628817,13584.5642794895,32141.1658409505,53024.0241841120,15201.0671378110,47421.9192252549,59588.7521417224,62339.5155301818,15993.8169212193
4126534328,26946,-2,0,-8138.4856969930,43945.4622305785,13584.2114162816,32139.7422204222,53024.2432026548,15196.9179531943,47430.7773085420,59586.7931425340,62338.3839343772,15996.6641622759
4126534328,26946,-2,0,-8142.6835523969,43942.8096726711,13587.2898435778,32134.9116447835,53020.5320551238,15197.8061950624,47410.5789318159,59581.1594989049,62335.1351593255,15997.1265347551
4126534328,26946,-2,0,-8145.8228181772,43943.2477097567,13588.7012964093,32131.6872051254,53019.1571053828,15197.9157043338,47410.1408947303,59583.1428334871,62334.6971222399,15992.9286793512
4126534328,26946,-2,0,-8147.5141280356,43945.5595721531,13588.2389239300,32133.1838318346,53023.8903394469,15193.7056812331,47428.9034832312,59586.0265776341,62332.4095952372,15991.0426863437
4126534328,26946,-2,0,-8150.9454185397,43944.7078333755,13589.6138736710,32135.0454894485,53021.2621169331,15198.0252136052,47417.3320035526,59581.7678837461,62330.3775898677,15989.7042396931
4126534328,26946,-2,0,-8145.5551288471,43944.8903488278,13594.3227723415,32139.4258603048,53018.9380868400,15197.0031270721,47403.5703384459,59581.7070452620,62331.0103101025,15987.1003525730
4126534328,26946,-2,0,-8138.7655540199,43947.0561988623,13596.2696038332,32141.2388471314,53022.2477003758,15193.8273582013,47421.1039895677,59584.6516278931,62333.3586755894,15992.4663068719
4126534328,26946,-2,0,-8139.2279264992,43945.0120257960,13599.1655156770,32136.0554082848,53019.5099685906,15196.6380961674,47420.8241325408,59582.1694177412,62332.5556075990,15997.6254103249
4126562940,26947,-2,0,-8140.4690315751,43943.0165235171,13606.9528416437,32131.9305590618,53016.6018890500,15204.5105960119,47403.0471274825,59579.4438536529,62336.1937489491,16000.8133468925
4126562940,26947,-2,0,-8141.4911181083,43945.6934168181,13610.4328029351,32131.6628697317,53019.5221362875,15200.6777715126,47415.5920229069,59584.7489694677,62339.0409900057,16000.4118128973
4126562940,26947,-2,0,-8145.0197501869,43941.8970954094,13609.3742133115,32129.9228890861,53019.9723410699,15193.4866626903,47421.6393682280,59582.3397654968,62337.3375124505,15996.1896220998
4126562940,26947,-2,0,-8147.6601403975,43936.0809363280,13609.3620456146,32125.4938474425,53014.7767345265,15194.6060907980,47400.1268802450,59576.9251404106,62333.9913958242,15991.7119096689
4126562940,26947,-2,0,-8143.4501172967,43941.2522074777,13612.8298392092,32131.8332174873,53017.9038326100,15197.2829840990,47407.0746351309,59580.9648157558,62336.3762644014,15993.2937102559
4126562940,26947,-2,0,-8139.7998082499,43947.8227637621,13616.0907819577,32134.3640984264,53024.3648796230,15197.7575242751,47424.9611494606,59585.2478450374,62339.1991700644,15997.4550625693
4126562940,26947,-2,0,-8140.6880501179,43946.6911679576,13618.3661412636,32131.4438511889,53018.0863480624,15198.8039462019,47408.7781126861,59580.1617477655,62338.1770835312,15993.2693748623
4126562940,26947,-2,0,-8142.5010369446,43944.3793055612,13619.9479418506,32129.9228890861,53014.4847098028,15196.1635559913,47400.1633833355,59579.6750398925,62336.1815812523,15989.1323579425
4126591442,26948,-2,0,-8143.5717942650,43945.9489384514,13619.7654263983,32129.6673674528,53018.1228511528,15191.5763342891,47420.3374246679,59585.6493790326,62338.6637914042,15996.2017897966
4126591442,26948,-2,0,-8148.0373389990,43943.7587530233,13619.8871033665,32126.2969154328,53017.3562862530,15188.5587454770,47416.7722894988,59582.7291317951,62336.0112334968,16000.0954527799
4126591442,26948,-2,0,-8150.3613690922,43938.9768481718,13619.9114387601,32121.8435383956,53011.5279594748,15189.2279688022,47399.1169614087,59578.1784131833,62333.0666508656,15995.6177403491
4126591442,26948,-2,0,-8149.3271148622,43940.2787917319,13621.3228915916,32124.0945623079,53015.1174300376,15184.3000515890,47412.0147200410,59580.7701326066,62331.9837258484,15992.3689652974
4126591442,26948,-2,0,-8149.8746612193,43936.0687686312,13618.8650168334,32122.4154201463,53013.4991263601,15178.7759172313,47414.0345577136,59578.8111334181,62326.2649083416,15987.3072034190
4126591442,26948,-2,0,-8153.8169949899,43929.9362494324,13620.2886373616,32120.6754395006,53006.5635391710,15185.9061875696,47392.1692065228,59572.5812726448,62323.1743133486,15983.2310249833
4126591442,26948,-2,0,-8147.1004263436,43938.1616124847,13630.4243288151,32127.0878157263,53015.2391070058,15196.9787916785,47407.4761691260,59581.4880267192,62331.5700241564,15995.8732619824
4126591442,26948,-2,0,-8140.1648391546,43947.4333974638,13642.9205534523,32133.3785149838,53026.2630403274,15200.3005729111,47430.9111532070,59591.9765813805,62339.8562256928,16008.9657037639
4126640497,26949,-2,0,-8139.9336529149,43946.6303294735,13649.7466313700,32131.5898635508,53023.2697869089,15199.1811448034,47415.4338428483,59586.8539810181,62339.8562256928,16008.0287911085
4126640497,26949,-2,0,-8145.6646381185,43943.6249083582,13650.6957117222,32129.0103118243,53017.8673295195,15191.9657005874,47405.3589898789,59584.4812801376,62338.8463068565,15999.5965772102
4126640497,26949,-2,0,-8147.2707740992,43940.5829841525,13646.6925394674,32124.9706364791,53017.9160003068,15182.6695802147,47418.5122701445,59581.8408899270,62333.6993711004,15991.6510711848
4126640497,26949,-2,0,-8149.3636179527,43934.4991357410,13644.4293478584,32116.1612239793,53011.6739718367,15186.5389078044,47407.0137966468,59575.9760600584,62329.0634786109,15987.5870604459
4126640497,26949,-2,0,-8145.2996072138,43935.9470916629,13653.8228098057,32117.2684843902,53012.2336858905,15199.0107970479,47397.5716639122,59578.2027485770,62334.0035635210,15994.1819521240
4126640497,26949,-2,0,-8141.9048198002,43940.0111024018,13658.1545098746,32122.1964016035,53019.6803163462,15194.9832893995,47414.7767872198,59583.5808705727,62337.1063262108,15998.8178446135
4126640497,26949,-2,0,-8141.6614658638,43935.6672346360,13657.2541003097,32120.3225762928,53017.5874724926,15189.1549626213,47413.8642099581,59579.0301519609,62332.1419059071,15995.4595602904
4126640497,26949,-2,0,-8139.1184172278,43935.7037377265,13660.2960245155,32121.6731906401,53016.3707028103,15197.1126363435,47396.9267759806,59576.4627679313,62332.3122536626,15991.4807234293
4126664369,26950,-2,0,-8134.5920340096,43942.9800204266,13666.0635128095,32127.8057098389,53025.6668231831,15197.5871765196,47411.2603228380,59583.6660444505,62333.8453834623,15996.4938145203
4126664369,26950,-2,0,-8135.9183129633,43944.0507777470,13667.0004254649,32125.7858721663,53026.6889097162,15189.3861488609,47420.5321078171,59582.0842438635,62330.4870991391,15998.3433044374
4126664369,26950,-2,0,-8141.5762919860,43936.6041472914,13667.0125931617,32119.1301420041,53016.8087398960,15186.2225476870,47396.1480433839,59573.2139928796,62325.2793248989,15994.3036290922
4126664369,26950,-2,0,-8145.1779302456,43933.6960677507,13668.5578906582,32118.1567262583,53012.3796982524,15186.0035291442,47392.4855666402,59572.2892479210,62323.3689964977,15991.5415619134
4126664369,26950,-2,0,-8146.3460291406,43933.7447385380,13669.4217971327,32119.1423097009,53013.6694741156,15182.6939156083,47411.3089936253,59572.0945647718,62323.7096920088,15992.8191700798
4126664369,26950,-2,0,-8149.5217980114,43929.0845106548,13670.7845791768,32114.8957835097,53005.8456450585,15183.3753066304,47399.1777998928,59565.2319837637,62319.8646998127,15989.2540349107
4126664369,26950,-2,0,-8148.0860097863,43931.2503606893,13676.7954214074,32115.7231868937,53005.4927818506,15191.4424896240,47390.4170581803,59566.6556042920,62324.0747229135,15996.2747959775
4126664369,26950,-2,0,-8144.3505268616,43937.7600784895,13684.1082071980,32120.2860732023,53014.1926850790,15191.9048621033,47410.7979503587,59574.2969178968,62328.4185906792,16005.3762332011
4126685492,26951,-2,0,-8147.7209788816,43933.0876829095,13685.4466538485,32117.1711428156,53010.0069973719,15181.3554689578,47404.3247356489,59568.1035602139,62321.7385251235,16000.5699929560
4126685492,26951,-2,0,-8149.7651519479,43929.6563924055,13684.2785549535,32114.7254357542,53005.3711048824,15178.7272464441,47386.2192027764,59562.5185873722,62318.9521225510,15992.3933006910
4126685492,26951,-2,0,-8144.6547192822,43935.7280731201,13685.3736476676,32119.2274835787,53013.9493311426,15182.7425863956,47402.9254505143,59569.5271807422,62322.3225745709,15991.4442203388
4126685492,26951,-2,0,-8141.1869256877,43938.2832894529,13689.8635277952,32117.8890369282,53017.7334848545,15179.6763267962,47411.3941675030,59571.1819875101,62324.5249276959,15994.7416661778
4126685492,26951,-2,0,-8146.0175013264,43930.5081311831,13690.5570865141,32110.6492573185,53007.8289796406,15175.6853222383,47388.2877112363,59560.6569297583,62318.7696070987,15993.8412566129
4126685492,26951,-2,0,-8151.8823311950,43924.6311336176,13687.6368392766,32106.8164328193,53000.6378708183,15169.4919645554,47389.0299407425,59556.9214468336,62313.7686837044,15990.8358354977
4126685492,26951,-2,0,-8153.8291626867,43922.3071035244,13686.8702743768,32107.2909729954,52999.8956413121,15169.2972814063,47405.0304620646,59556.7997698654,62313.1116280760,15994.5226476350
4126685492,26951,-2,0,-8149.1445994099,43923.7915625368,13696.6044318351,32108.9944505506,53001.4287711118,15177.3766320967,47393.7388394129,59557.8096887017,62314.6447578757,15996.7615038504
4126717261,26952,-2,0,-8141.6736335606,43927.4297038869,13706.1804092348,32113.3869891037,53005.6022911220,15174.7605772798,47392.7045851830,59561.3869915677,62315.9101983453,15994.8633431461
4126717261,26952,-2,0,-8138.1571691788,43928.7559828406,13704.1970746526,32117.0494658474,53010.6032145163,15166.0728417482,47412.8907942123,59565.5483438811,62314.4500747265,15991.2982079769
4126717261,26952,-2,0,-8141.6127950765,43923.3291900575,13704.4282608923,32112.9611197149,53006.7582223202,15171.0007589615,47403.1444690571,59561.1071345407,62310.8727718606,15990.8480031945
4126717261,26952,-2,0,-8143.6934712332,43922.1367557689,13711.8992267416,32111.1481328883,53002.7185469750,15175.9651792652,47385.5134763606,59558.2598934842,62311.3838151271,15987.3558742063
4126717261,26952,-2,0,-8144.8250670377,43925.6532201507,13716.6811315930,32111.5740022771,53005.0304093713,15171.3414544725,47400.8812774480,59560.5960912742,62313.3671497093,15986.2729491891
4126717261,26952,-2,0,-8147.1734325246,43923.8158979305,13718.0804167276,32106.3297249464,53001.8546405006,15169.8448277633,47402.4022395509,59558.1382165159,62312.4302370539,15990.1301090819
4126717261,26952,-2,0,-8154.8269138262,43918.8149745362,13721.9010735300,32100.1485349603,52994.7243701623,15177.7051599109,47380.0136773967,59553.0886223344,62313.1116280760,15993.3180456495
4126717261,26952,-2,0,-8155.6178141197,43921.8325633483,13727.3278663131,32102.5212358408,52999.5549458010,15182.2193754322,47388.4702266886,59560.9124513916,62317.2486449958,15998.5379875866
4126752628,26953,-2,0,-8154.6078952834,43920.9321537834,13730.1021011887,32102.5820743249,53000.6865416056,15181.7326675593,47399.4089861324,59560.7786067265,62317.5041666291,16001.6164148828
4126752628,26953,-2,0,-8150.3857044858,43923.4386993289,13738.8020044171,32103.1904591661,52999.6036165883,15189.1062918340,47386.2435381700,59560.5839235773,62320.1810599301,16001.8719365161
4126752628,26953,-2,0,-8143.1824279666,43928.7803182342,13746.5649949901,32106.4635696114,53000.6865416056,15192.0022036779,47389.3706362535,59563.1756430006,62324.2450706690,16001.6529179733
4126752628,26953,-2,0,-8138.7533863231,43933.6717323570,13746.4311503251,32109.8826924187,53007.6221287946,15182.8277602734,47412.8299557281,59565.6943562430,62325.1576479307,16000.3509744132
4126752628,26953,-2,0,-8140.8097270862,43928.1354303026,13747.9642801248,32106.3418926432,53002.6333730972,15182.4383939750,47401.3436499273,59561.0219606630,62322.2739037837,15997.8687642613
4126752628,26953,-2,0,-8149.6678103733,43919.7518871916,13745.2752191269,32098.2868773464,52994.5296870131,15172.9962612404,47381.8144965265,59556.7024282908,62318.7696070987,15993.0868594099
4126752628,26953,-2,0,-8155.5569756356,43917.0628261937,13741.1016991166,32095.2206177470,52996.5616923826,15168.9930889857,47395.3571430904,59557.5663347653,62316.0075399198,15993.8777597034
4126752628,26953,-2,0,-8156.1653604767,43916.3449320812,13743.1580398797,32090.9497561622,52997.0727356491,15173.3734598420,47394.6270812810,59556.5077451417,62314.5352486043,15995.6299080459
4126776861,26954,-2,0,-8150.4587106668,43918.5351175093,13750.1301301593,32094.0646865489,52995.2840842162,15178.6542402631,47379.8676650348,59553.7943487501,62315.1801365359,15993.8047535225
4126776861,26954,-2,0,-8148.7917362020,43920.4211105169,13751.5902537780,32098.7370821289,52999.8348028280,15173.0205966341,47397.1579622202,59558.2112226969,62316.0197076167,15989.3148733948
4126776861,26954,-2,0,-8148.9499162607,43923.7550594463,13755.6785999105,32101.9128509996,53003.7893042954,15175.9165084780,47412.0512231315,59560.6447620614,62318.5505885558,15993.4032195273
4126776861,26954,-2,0,-8149.3757856495,43923.6942209622,13764.0864784152,32102.4847327503,53002.6455407941,15184.2757161953,47398.8857751691,59560.4135758218,62319.5726750890,15996.5911560949
4126776861,26954,-2,0,-8144.9345763091,43931.3477022639,13772.2996737707,32107.7898485651,53010.9074069368,15193.5961719617,47408.3765786909,59569.7827023755,62326.5204299749,16000.5456575624
4126776861,26954,-2,0,-8141.1260872036,43936.2391163867,13776.1081628762,32110.3450648979,53018.8285775686,15181.5258167133,47427.8327259108,59573.6520299652,62329.3311679410,16000.5943283497
4126776861,26954,-2,0,-8147.8426558498,43926.6996420775,13772.4213507389,32102.0345279679,53006.5027006869,15170.0760140029,47406.7826104071,59562.5915935531,62317.7231851719,15988.1954452871
4126776861,26954,-2,0,-8152.5150514298,43919.5572040424,13771.2167487534,32097.8731756544,52997.1579095269,15169.6988154014,47392.5464051243,59558.0773780318,62313.7078452203,15981.4058704599
4126809663,26955,-2,0,-8149.8259904320,43924.9718291286,13774.2708406560,32100.1363672635,53003.1079132733,15179.8710099454,47413.6208560216,59564.8912882527,62317.4919989322,15986.3094522795
4126809663,26955,-2,0,-8143.5717942650,43932.3941241906,13787.5457978898,32104.6019119975,53013.0610892745,15194.0098736537,47418.4635993572,59573.6033591779,62326.0337221020,15999.3897263642
4126809663,26955,-2,0,-8130.7105387231,43941.9579338935,13802.9744374613,32114.0805478226,53021.5176385664,15198.8526169892,47410.6397703000,59581.9625668953,62334.9283084795,16007.8706110498
4126809663,26955,-2,0,-8124.8335411576,43947.4699005543,13804.3493872023,32118.7651110994,53027.6866608557,15181.3554689578,47425.0463233384,59586.1239192087,62334.2104143670,16005.1693823551
4126809663,26955,-2,0,-8131.6717867721,43938.9890158687,13794.1650249615,32111.1603005851,53018.4148758766,15164.5518796453,47421.8705544676,59575.3920106109,62322.6754377788,15993.9994366716
4126809663,26955,-2,0,-8140.2986838196,43928.7803182342,13789.4074555037,32101.7303355473,53004.2638444715,15163.3107745694,47393.0817837845,59563.3338230593,62314.5352486043,15987.4045449936
4126809663,26955,-2,0,-8142.9877448175,43927.7217286106,13789.0545922958,32101.4626462172,53003.5702857526,15162.6902220314,47397.0727883424,59565.7186916366,62312.9169449268,15988.1102714093
4126809663,26955,-2,0,-8144.9345763091,43930.5689696672,13788.6408906039,32102.3387203885,53009.6054633768,15163.5419608090,47413.9858869263,59569.4541745613,62312.5762494158,15991.1886987055
4126835986,26956,-2,0,-8146.1270105978,43929.0723429580,13794.5300558662,32103.5554900707,53007.3179363741,15171.8159946486,47399.6766754625,59566.8502874411,62314.1093792155,15996.3964729458
4126835986,26956,-2,0,-8140.5177023624,43932.4427949779,13804.3858902928,32107.5951654160,53009.0457493229,15171.4387960471,47398.1435456628,59571.3766706593,62319.1711410938,16001.5555763987
4126835986,26956,-2,0,-8137.7799705773,43931.1651868115,13804.2277102341,32105.7335078021,53008.2670167262,15155.9614856883,47414.6916133421,59570.7561181213,62316.7010986388,16000.7038376211
4126835986,26956,-2,0,-8140.9679071449,43922.0272464975,13800.6747427618,32098.5423989797,52998.4598530870,15151.6906241035,47402.6942642746,59561.4965008391,62307.7821768675,15994.7781692683
4126835986,26956,-2,0,-8144.6912223727,43916.5274475335,13799.8838424683,32095.0137669010,52992.8140417611,15151.6784564066,47386.8884261016,59554.4879074690,62304.5820726031,15986.2607814922
4126835986,26956,-2,0,-8144.9710793996,43917.9389003650,13799.3971345953,32094.8190837519,52995.6977859082,15147.5779425773,47403.7893569887,59555.3761493371,62302.5135641432,15983.4378758293
4126835986,26956,-2,0,-8147.2586064023,43913.5706972055,13800.6990781554,32090.9010853749,52991.3295827487,15149.5369417658,47400.0538740640,59549.6208287399,62299.2769567883,15984.9588379322
4126835986,26956,-2,0,-8146.0175013264,43912.2809213423,13809.7883476821,32089.1246016387,52988.7987018095,15162.3860296108,47379.1619386191,59548.7325868718,62303.1706197716,15990.6046492580
4126869760,26957,-2,0,-8143.5596265682,43918.3160989665,13816.2980654824,32094.4175497567,52996.5860277762,15163.6758054741,47390.5995736326,59554.7190937087,62307.6604998993,15995.6542434396
4126869760,26957,-2,0,-8148.2806929355,43918.9731545949,13814.5945879272,32093.6996556442,52999.2264179868,15157.8353109991,47404.5802572822,59554.2567212294,62306.5775748821,15996.2139574934
4126869760,26957,-2,0,-8152.3812067648,43913.0231508485,13814.2052216289,32088.4797137071,52992.3638369787,15153.6739586856,47385.4648055733,59546.4328921723,62301.9781854830,15989.1566933361
4126869760,26957,-2,0,-8154.5713921929,43908.8861339287,13813.9618676924,32085.5959695601,52986.3043239608,15149.9019726705,47382.7270737882,59543.8776758394,62298.3765472234,15980.7123117410
4126869760,26957,-2,0,-8152.1135174347,43910.6991207553,13818.2570646709,32089.6843156926,52991.0253903281,15155.2435915758,47402.0980471303,59546.7370845928,62300.0435216881,15984.5694716339
4126869760,26957,-2,0,-8151.2374432634,43912.2930890391,13824.7059439871,32088.9055830959,52989.4800928316,15163.8218178359,47395.1989630317,59545.3012963677,62300.5910680452,15984.4356269688
4126869760,26957,-2,0,-8144.4965392235,43919.1069992600,13833.2354994599,32094.6974067836,52994.0186437466,15168.9200828048,47391.3296354420,59552.4072313123,62308.6217479483,15987.3680419031
4126869760,26957,-2,0,-8141.4181119273,43925.0935060969,13835.4621879785,32098.6397405543,53002.2440067989,15165.2089352738,47411.4550059871,59558.1990550000,62311.0674550097,15989.5460596344
4126903048,26958,-2,0,-8144.5938807981,43922.8059790942,13836.1679143943,32094.5270590281,52999.3480949550,15159.9646579431,47403.6068415363,59553.5753302073,62308.4757355864,15990.1909475661
4126903048,26958,-2,0,-8147.7574819721,43919.0339930790,13837.6158703162,32091.8866688175,52997.1944126174,15158.1638388133,47380.8410807806,59551.6284987157,62307.9038538358,15986.9300048175
4126903048,26958,-2,0,-8149.8016550383,43920.1412534899,13835.4135171913,32091.2782839764,52998.5085238742,15155.5721193900,47390.6725798136,59556.3130619925,62308.2567170436,15986.0417629494
4126903048,26958,-2,0,-8150.3613690922,43922.0029111038,13837.9078950400,32091.9110042112,53003.1444163638,15157.5432862753,47397.9245271200,59556.5929190194,62308.8529341880,15988.9985132774
4126903048,26958,-2,0,-8150.3857044858,43920.6401290597,13841.9110672947,32090.7672407098,52997.4742696443,15161.2300984127,47381.3642917440,59553.4049824518,62308.7799280070,15987.1125202698
4126903048,26958,-2,0,-8148.9134131702,43924.9231583413,13847.5568786205,32095.3666301089,52999.7739643438,15164.7343950977,47388.4215559013,59557.0309561050,62310.1062069607,15985.4942165924
4126903048,26958,-2,0,-8148.9742516544,43930.1796033689,13853.0566775845,32101.1097830093,53007.1232532249,15166.5352142275,47408.4252494782,59563.0417983356,62312.4545724475,15991.8457543340
4126903048,26958,-2,0,-8150.6047230286,43931.6153915940,13861.0021836099,32101.0732799189,53007.6099610978,15170.8425789028,47397.0362852520,59562.7741090055,62313.4644912838,15995.6299080459
4126939740,26959,-2,0,-8151.2009401730,43931.9317517114,13864.1292816934,32098.1652003782,53005.6874649998,15164.7343950977,47389.4436424344,59560.9002836947,62312.7587648681,15995.8367588919
4126939740,26959,-2,0,-8149.8016550383,43930.2161064593,13859.7732462308,32096.0358534342,53008.6807184182,15157.2147584611,47405.6753499963,59560.8516129074,62310.5685794400,15997.3820563884
4126939740,26959,-2,0,-8148.6700592338,43924.2052642288,13857.6925700741,32090.8280791939,53001.8303051069,15157.2755969452,47395.3084723031,59555.3274785498,62308.9624434594,15995.3987218063
4126939740,26959,-2,0,-8153.9265042613,43917.4400247952,13857.8264147391,32089.4044586657,52994.3106684703,15160.8163967207,47376.6310576799,59550.9592753904,62307.5388229311,15987.2585326317
4126939740,26959,-2,0,-8153.3424548138,43923.7915625368,13861.9634316589,32096.0480211310,53004.1178321096,15171.4874668344,47396.5860804695,59561.0827991471,62314.8029379344,15988.2927868617
4126939740,26959,-2,0,-8149.7164811606,43929.6442247086,13865.7597530677,32100.0390256889,53009.8488173132,15170.5992249663,47407.0259643436,59563.0539660324,62316.5550862769,15992.3689652974
4126939740,26959,-2,0,-8144.6912223727,43929.3400322881,13872.1112908092,32099.2602930922,53006.7338869266,15175.4784713923,47391.9136848895,59559.4644954696,62316.7984402133,15992.8435054735
4126939740,26959,-2,0,-8139.4469450420,43931.2138575988,13875.0680411372,32102.8010928677,53007.2936009804,15170.2341940616,47399.2386383769,59560.7542713329,62316.8106079102,15994.2306229113
4126989774,26960,-2,0,-8140.5907085434,43925.6410524539,13871.9896138410,32098.5058958892,53001.6599573514,15161.1814276254,47408.5104233560,59555.1206277038,62310.8727718606,15995.8610942855
4126989774,26960,-2,0,-8147.3316125833,43919.9222349471,13871.6975891173,32096.3400458547,52993.9943083529,15162.8484020901,47388.2755435394,59547.7348357323,62306.5775748821,15992.8921762607
4126989774,26960,-2,0,-8146.9544139818,43922.7573083069,13873.9972838168,32098.1043618941,52994.6391962846,15162.2156818553,47390.3318843025,59550.6064121825,62309.0476173371,15992.1256113609
4126989774,26960,-2,0,-8147.5871342165,43924.9718291286,13871.2473843348,32097.3012939038,52998.9222255662,15153.9903188030,47407.1476413118,59552.9791130630,62308.0742015913,15992.1986175418
4126989774,26960,-2,0,-8147.3924510674,43921.3458554754,13872.6710048631,32093.2251154681,52997.5229404316,15158.5532051116,47395.0042798825,59547.8200096101,62303.9736877620,15988.2927868617
4126989774,26960,-2,0,-8144.3261914680,43920.4819490010,13878.6818470936,32093.2007800744,52994.6513639814,15162.5685450632,47380.3422052109,59547.0169416198,62304.2900478794,15983.6690620690
4126989774,26960,-2,0,-8138.3640200248,43925.2030153683,13883.6219320037,32099.1142807304,53001.7086281387,15159.6848009161,47402.6820965778,59551.6771695029,62307.8308476548,15990.3977984120
4126989774,26960,-2,0,-8140.0553298831,43922.7208052164,13882.5511746833,32098.8587590971,52999.5549458010,15156.9349014342,47404.1908909839,59548.1850405148,62303.5721537668,15992.4541391751
4126995480,26961,-2,0,-8138.2788461470,43923.4508670258,13889.0122216963,32099.0047714590,52995.5517735463,15165.3792830293,47386.5842336811,59545.9948550866,62301.9295146957,15994.2427906081
4126995480,26961,-2,0,-8135.3099281222,43928.4031196327,13893.1370709193,32103.1904591661,53000.3945168818,15162.1548433712,47397.9853656042,59552.8087653075,62304.7889234491,15993.5857349797
4126995480,26961,-2,0,-8136.7092132568,43927.6000516424,13890.6913638579,32101.7546709410,53000.2485045199,15157.1904230674,47407.3544921578,59550.6915860603,62299.2282860010,15989.4000472726
4126995480,26961,-2,0,-8138.7533863231,43923.8645687177,13892.1879905671,32099.9416841143,52993.7996252038,15163.3594453567,47388.6892452314,59547.0534447102,62297.7194915950,15981.5762182154
4126995480,26961,-2,0,-8135.6627913301,43930.6054727577,13901.4962786367,32105.7821785893,53002.2075037084,15169.3216167999,47396.3670619267,59555.5830001831,62303.2071228621,15982.6834786263
4126995480,26961,-2,0,-8136.3563500490,43934.0489309586,13904.1123334536,32105.6239985306,53008.8388984769,15161.2422661095,47412.3310801584,59558.4789120270,62306.0786993123,15986.1512722208
4126995480,26961,-2,0,-8146.2730229597,43927.3566977059,13902.6157067444,32096.5955674880,53001.2097525689,15155.9128149010,47391.4269770166,59551.4703186570,62303.0976135907,15982.0872614820
4126995480,26961,-2,0,-8151.8823311950,43922.3801097054,13902.7860544999,32091.8745011207,52993.4710973895,15152.4450213065,47375.5724680563,59547.3819725244,62299.4838076343,15973.4481967377
4127030394,26962,-2,0,-8150.9210831460,43922.1245880721,13900.4255213162,32091.7528241525,52996.2209968715,15147.7726257265,47392.5464051243,59548.1242020306,62297.7073238981,15969.5788691480
4127030394,26962,-2,0,-8147.6966434880,43920.3846074264,13898.5273606119,32092.6288983237,52996.1236552969,15149.7924633991,47390.1128657597,59548.9637731114,62296.1133556143,15967.8388885023
4127030394,26962,-2,0,-8141.3694411400,43925.0813384000,13902.7860544999,32097.1917846323,53001.1732494785,15161.6924708919,47381.3034532599,59551.5068217474,62299.9583478104,15973.0831658330
4127030394,26962,-2,0,-8131.4040974420,43937.7479107927,13911.6076346965,32107.5343269318,53013.4991263601,15168.8957474111,47403.8015246855,59562.0197118024,62307.1251212391,15985.3238688369
4127030394,26962,-2,0,-8127.7537883952,43944.8295103437,13921.5121399104,32114.6037587860,53021.0065952999,15170.5140510886,47416.2125754449,59566.2784056905,62311.4933243985,15994.9485170238
4127030394,26962,-2,0,-8129.0313965616,43943.8682622947,13928.1678700725,32114.4942495146,53015.1782685217,15169.7109830982,47397.6446700931,59563.0661337292,62312.3937339634,15999.9737758117
4127030394,26962,-2,0,-8125.3202490306,43945.3527213071,13930.4432293784,32113.2409767418,53014.7280637392,15164.7587304913,47402.5604196096,59563.4555000276,62313.5740005553,15999.0125277627
4127030394,26962,-2,0,-8124.7361995831,43943.6492437519,13925.8073368889,32108.9214443697,53013.0489215777,15156.7888890723,47415.3730043641,59559.8051909807,62308.7677603102,15995.5082310777
4127059484,26963,-2,0,-8132.3531777942,43932.3941241906,13922.6315680181,32101.0854476157,53000.7960508770,15158.0786649355,47391.9015171927,59547.8321773069,62301.7591669402,15988.6943208568
4127059484,26963,-2,0,-8135.8088036919,43930.5689696672,13924.1038593337,32103.2999684375,53000.6378708183,15163.0552529361,47387.8131710602,59548.1607051211,62302.7325826860,15989.4973888471
4127059484,26963,-2,0,-8137.1229149488,43930.1431002784,13921.0619351279,32103.7136701294,53002.4021868576,15157.4459447007,47404.6167603727,59550.8741015126,62300.2747079278,15988.9863455806
4127059484,26963,-2,0,-8137.2202565234,43926.7848159553,13919.6991530838,32101.0732799189,52999.2264179868,15157.6771309404,47397.3648130662,59545.4108056391,62296.6122311841,15983.0606772278
4127059484,26963,-2,0,-8133.3995997210,43927.4662069773,13925.4058028937,32099.9051810239,52997.9609775172,15162.6537189409,47382.9582600278,59546.6519107151,62297.6951562013,15980.8339887092
4127059484,26963,-2,0,-8129.3720920726,43933.1606890905,13931.2706327624,32103.3121361343,53004.2273413810,15164.8317366722,47401.3193145336,59552.5289082805,62300.9317635562,15988.8890040060
4127059484,26963,-2,0,-8130.6010294517,43933.6473969634,13936.3080592471,32102.6794158995,53005.1885894300,15167.9588347557,47402.7551027587,59551.4338155665,62303.1949551653,15996.6276591854
4127059484,26963,-2,0,-8136.5388655013,43928.0502564248,13938.9241140640,32097.6419894148,52998.2530022410,15165.9268293863,47380.9140869616,59546.3233829009,62302.1972040258,15996.9440193028
4127104305,26964,-2,0,-8139.9823237022,43926.8821575298,13933.5338243715,32098.2382065591,52998.6788716298,15159.7213040066,47388.8595929869,59546.9317677420,62299.3377952724,15994.6199892096
4127104305,26964,-2,0,-8142.4158630668,43925.6897232412,13927.2796282045,32096.0601888278,52999.0195671408,15154.8177221870,47400.5649173306,59546.3598859913,62295.8821693747,15991.8335866371
4127104305,26964,-2,0,-8145.1414271551,43921.8082279547,13928.5572363709,32094.6609036932,52994.1403207148,15160.6582166620,47382.2160305216,59544.1210297759,62296.2350325826,15985.6767320447
4127104305,26964,-2,0,-8142.3428568859,43926.3954496569,13935.7970159805,32100.2093734444,52999.1655795027,15164.8074012786,47382.9217569374,59549.1706239574,62301.1386144022,15984.9710056290
4127104305,26964,-2,0,-8142.2576830081,43929.8389078578,13937.6465058976,32099.9538518112,53000.9298955420,15155.9614856883,47399.9321970958,59548.7690899623,62300.7857511943,15990.5316430771
4127104305,26964,-2,0,-8148.5240468719,43922.3071035244,13935.8456867678,32092.1421904508,52991.7067813502,15151.6054502257,47381.0235962330,59537.7451566407,62291.1489353106,15990.1666121724
4127104305,26964,-2,0,-8148.8890777766,43920.1655888836,13934.9209418093,32088.7474030372,52986.1948146894,15148.3080043867,47366.5197016200,59532.8050717306,62286.7807321511,15987.7209051110
4127104305,26964,-2,0,-8147.1004263436,43921.5162032309,13933.7041721270,32092.2151966318,52992.4368431596,15141.9808020388,47386.1826996859,59535.2264433983,62286.8172352416,15983.9854221864
4127113972,26965,-2,0,-8147.4532895515,43918.9853222918,13931.4774836084,32089.9520050227,52989.9181299172,15141.5792680436,47384.6495698862,59528.8018994758,62282.4003612949,15974.9813265374
4127113972,26965,-2,0,-8149.7286488574,43917.1845031620,13933.8623521857,32091.0227623431,52986.7788641369,15142.4188391244,47368.1015022070,59528.7532286885,62282.3760259012,15970.2724278669
4127113972,26965,-2,0,-8150.6168907255,43916.5639506240,13930.8082602831,32092.8357491697,52986.6815225624,15136.7243570113,47378.6143922620,59530.0916753390,62281.2200947031,15971.9394023316
4127113972,26965,-2,0,-8149.2784440749,43912.3904306137,13926.3183801555,32088.8204092182,52984.8442003421,15136.1403075638,47386.2192027764,59526.5387078667,62277.9226488640,15971.9028992412
4127113972,26965,-2,0,-8149.3514502559,43907.3165010385,13927.8028391679,32083.4909580097,52977.2150544341,15141.4819264690,47366.5927078010,59519.6396237681,62276.1948359152,15970.0290739304
4127113972,26965,-2,0,-8145.8958243582,43908.2169106034,13932.2440485082,32086.5085468218,52977.1785513436,15137.6734373634,47368.5152038990,59521.8419768931,62278.1416674069,15972.5964579601
4127113972,26965,-2,0,-8146.4920415025,43908.7157861732,13932.1345392368,32087.8956642596,52976.6796757739,15129.7400990349,47383.1407754802,59521.3065982329,62274.4791906631,15974.9691588406
4127113972,26965,-2,0,-8147.8061527594,43907.0488117084,13934.0205322444,32086.2895282790,52974.4408195585,15135.4345811480,47367.5904589404,59517.2425874940,62273.1042409222,15974.8839849628
4127161610,26966,-2,0,-8147.1734325246,43909.2024940461,13938.9971202450,32087.1534347534,52974.7936827663,15140.6788584787,47363.9279821967,59518.5445310541,62273.6517872792,15970.8808127080
4127161610,26966,-2,0,-8145.7133089058,43914.5927837387,13939.9340329003,32090.3900421083,52982.5810087330,15137.6004311825,47387.7888356665,59524.9082364925,62276.3043451866,15974.5676248454
4127161610,26966,-2,0,-8151.3712879285,43909.1538232588,13934.5559109046,32084.0506720636,52977.8234392752,15134.9113701846,47379.5634726142,59518.0699908780,62271.5467757288,15973.3386874663
4127161610,26966,-2,0,-8152.8800823345,43904.8586262803,13936.2472207630,32080.9114062832,52972.3844787954,15138.4521699601,47362.0054860987,59516.1231593863,62270.1353228974,15972.0245762094
4127161610,26966,-2,0,-8151.7241511363,43908.5697738113,13936.0768730075,32087.1899378439,52978.4926626005,15136.7851954954,47379.5513049174,59520.7225487854,62269.9041366577,15972.2557624490
4127161610,26966,-2,0,-8149.8259904320,43910.4679345157,13937.3909842643,32090.6090606511,52981.8387792268,15136.9312078572,47388.2998789331,59522.2070077978,62267.4827649900,15974.6162956327
4127161610,26966,-2,0,-8147.1977679182,43909.6405311317,13942.5257523236,32090.6333960448,52977.8234392752,15138.9023747426,47371.7396435571,59517.6319537924,62264.9153809603,15974.3121032121
4127161610,26966,-2,0,-8142.4401984604,43911.9888966186,13947.9038743194,32094.1133573361,52981.5467545031,15142.0903113102,47380.0866835776,59521.5256167757,62270.0014782323,15977.3661951147
4127180223,26967,-2,0,-8142.7565585778,43911.9402258313,13947.9038743194,32094.7460775709,52982.6783503076,15137.9167912999,47393.3373054178,59520.3088470934,62271.8509681494,15980.9556656774
4127180223,26967,-2,0,-8148.3780345100,43903.7270304758,13946.6749369402,32087.7253165041,52975.6210861503,15139.4255857059,47370.9122401731,59515.0767374595,62269.7702919927,15978.4977909192
4127180223,26967,-2,0,-8148.2563575418,43906.1484021435,13948.7434454001,32087.7618195946,52978.2371409672,15146.5558560442,47365.5706212678,59516.0623209022,62273.0312347412,15979.8119021761
4127180223,26967,-2,0,-8147.5506311261,43910.3827606379,13946.1882290673,32087.7496518977,52982.4106609775,15140.7883677501,47384.1628620133,59518.8852265651,62272.6053653524,15979.0696726699
4127180223,26967,-2,0,-8147.9643328181,43907.5720226718,13943.5965096440,32085.7541496188,52976.6066695930,15145.3634217555,47372.3966991855,59513.7504585058,62269.9528074450,15979.0088341858
4127180223,26967,-2,0,-8143.5109557809,43905.0533094295,13944.1197206074,32090.1588558687,52974.4286518616,15153.4671078396,47360.5696978736,59514.5535264962,62271.7779619685,15977.3905305083
4127180223,26967,-2,0,-8140.2865161228,43906.9514701339,13941.5523365778,32095.5734809549,52975.9496139645,15149.4274324944,47378.3710383256,59520.8320580568,62274.1141597585,15976.6117979116
4127180223,26967,-2,0,-8146.3703645343,43899.1033056831,13926.8659265125,32087.3724532962,52968.3813065406,15147.3710917313,47373.0294194203,59513.2272475424,62267.8842989851,15972.9979919552
4127235648,26968,-2,0,-8151.1766047793,43893.4696620540,13913.7734847310,32080.8870708896,52959.3407078012,15157.7258017277,47349.4727583711,59509.0050567449,62264.4773438747,15969.6397076321
4127235648,26968,-2,0,-8150.1666859430,43898.7261070816,13900.9608999764,32085.1335970808,52964.9743514302,15167.1557667654,47362.3705170034,59517.9604816066,62271.3520925796,15968.5324472212
4127235648,26968,-2,0,-8149.2297732876,43899.2249826513,13880.5800077980,32087.6401426263,52967.7242509122,15171.4022929566,47374.8667416406,59521.2335920519,62276.6085376072,15973.3873582536
4127235648,26968,-2,0,-8149.2054378940,43894.8567794919,13855.7822416729,32087.3116148121,52959.2068631361,15178.4960602044,47358.1604939027,59518.3985186922,62276.4625252453,15971.7447191825
4127235648,26968,-2,0,-8146.6015507739,43895.7693567536,13825.7645336107,32092.0448488762,52958.9270061092,15179.0922773487,47362.1880015511,59521.6107906535,62277.8374749863,15966.1232432503
4127235648,26968,-2,0,-8146.8570724072,43895.5990089981,13787.2902762565,32094.3810466662,52961.9324272245,15173.4464660229,47381.1696085948,59524.2146777736,62276.4625252453,15964.5171072696
4127235648,26968,-2,0,-8149.5461334050,43890.9509488117,13751.2738936606,32092.9939292284,52959.2920370139,15180.0535253978,47370.0118306082,59520.3575178807,62274.4913583600,15965.9042247075
4127235648,26968,-2,0,-8153.3546225106,43889.1622973787,13719.5648757400,32094.3445435758,52955.4957156051,15182.8520956670,47357.8441337853,59520.8198903600,62275.9758173724,15969.0069873973
4127240261,26969,-2,0,-8156.9684284670,43887.7386768504,13684.0473687139,32096.5712320944,52956.8950007398,15176.4397194413,47373.5891334742,59521.5134490789,62275.6351218613,15969.7370492067
4127240261,26969,-2,0,-8159.3898001348,43883.7720076862,13650.5375316635,32094.5635621186,52952.5511329740,15180.7349164198,47368.3083530530,59520.0654931569,62273.0920732253,15966.4882741550
4127240261,26969,-2,0,-8152.8192438504,43887.1911304934,13629.9619563359,32100.6230751364,52955.1671877909,15195.5795065438,47355.8973022936,59522.9614050008,62281.6094610014,15969.4328567861
4127240261,26969,-2,0,-8144.7520608568,43895.0757980347,13610.5788152969,32109.8340216314,52964.0496064717,15196.8206116198,47374.4043691613,59534.6180585572,62293.1809406800,15971.9272346348
4127240261,26969,-2,0,-8146.1148429010,43894.3335685285,13588.1902531427,32109.8583570250,52963.3438800559,15196.4920838055,47379.0524293477,59535.3967911538,62295.2616168367,15972.7181349283
4127240261,26969,-2,0,-8151.1035985984,43889.9531976722,13569.6223477909,32109.4324876362,52958.1726089062,15204.5957698896,47357.4547674869,59532.6955624592,62298.6442365535,15968.7027949767
4127240261,26969,-2,0,-8149.7529842510,43894.5647547681,13553.8530127084,32118.9232911581,52962.5773151561,15202.7949507598,47366.0573291407,59539.9353420688,62302.7204149892,15968.0944101356
4127240261,26969,-2,0,-8150.6898969064,43894.6864317363,13531.4887859478,32123.1576496525,52963.9035941098,15198.2563998449,47383.3597940230,59539.8623358879,62300.4085525928,15967.9118946832
4127273270,26970,-2,0,-8149.8868289161,43892.0825446162,13515.6586123812,32125.1288165378,52956.2014420209,15203.5980187501,47369.4521165543,59534.6423939508,62296.8799205142,15969.8587261749
4127273270,26970,-2,0,-8147.3924510674,43894.8324440982,13506.3503243116,32131.0788202842,52958.4037951458,15207.0658123447,47367.1767572485,59538.6577339024,62299.0457705487,15971.0146573731
4127273270,26970,-2,0,-8143.8638189887,43900.1253922162,13498.2831413180,32136.5299484609,52966.2032888093,15206.3235828385,47385.0511038814,59546.1165320549,62302.9759366225,15971.9759054221
4127273270,26970,-2,0,-8145.0805886710,43899.1884795608,13490.7270015910,32136.0310728912,52965.9477671761,15206.0923965988,47375.6941450245,59541.5293103526,62302.0755270576,15970.0290739304
4127273270,26970,-2,0,-8148.4997114783,43897.3633250374,13484.6309854827,32133.9138936440,52962.0176011022,15207.3456693716,47359.7544621865,59538.0615167581,62302.1363655417,15966.5004418518
4127273270,26970,-2,0,-8148.8647423830,43901.8897082555,13480.5061362597,32137.5520349940,52968.9410205945,15211.1663261740,47379.4904664333,59544.7537500107,62307.5996614152,15974.4337801803
4127273270,26970,-2,0,-8151.2374432634,43899.5656781623,13478.8634971886,32136.0432405880,52969.2817161055,15211.1541584772,47381.4494656218,59544.4008868028,62310.6415856209,15979.0818403667
4127273270,26970,-2,0,-8152.1500205251,43896.6089278344,13478.9730064600,32136.8828116688,52966.6656612886,15217.5665347029,47362.5043616684,59541.8335027732,62312.5519140221,15979.5077097555
4127306718,26971,-2,0,-8148.7674008084,43898.8477840498,13478.0604291983,32141.7498903980,52971.9464417098,15211.0081461153,47373.6743073519,59548.0146927592,62314.1702176996,15983.2431926802
4127306718,26971,-2,0,-8150.1788536398,43899.0302995021,13468.6426318573,32140.8373131362,52973.9054408983,15203.3059940264,47384.4548867370,59545.6176564851,62310.2157162321,15981.7830690614
4127306718,26971,-2,0,-8151.3712879285,43896.0005429932,13464.2987640915,32138.3307675907,52968.7098343549,15205.0946454594,47364.1470007395,59540.8235839369,62305.7136684076,15973.1683397108
4127306718,26971,-2,0,-8148.2320221482,43898.8112809593,13463.5443668885,32142.0419151217,52969.7197531912,15206.6156075622,47363.7089636539,59542.7339123381,62307.6483322025,15968.6906272799
4127306718,26971,-2,0,-8147.0274201627,43898.7017716879,13457.3145061152,32143.4290325595,52972.4574849763,15196.5772576833,47379.6121434015,59543.1354463332,62304.9714389014,15967.7415469277
4127306718,26971,-2,0,-8155.2406155182,43890.7806010562,13447.7871995028,32137.2113394830,52961.8350856499,15193.3649857220,47363.3561004461,59534.6058908604,62297.2936222062,15962.5216049907
4127306718,26971,-2,0,-8159.5114771030,43888.3105586011,13443.3216547688,32135.0333217517,52955.7025664511,15198.5727599623,47350.4461741169,59532.1236807085,62295.2859522304,15961.4630153671
4127306718,26971,-2,0,-8157.1387762226,43890.2817254864,13440.0120412329,32136.7733023974,52961.8350856499,15193.8760289886,47370.7662278112,59537.5261380979,62296.6365665777,15964.2250825459
4127348025,26972,-2,0,-8155.6299818165,43888.3227262979,13442.0562142992,32135.7512158642,52962.6381536402,15192.9269486364,47369.6467997035,59535.6888158776,62294.2760333941,15970.1994216860
4127348025,26972,-2,0,-8152.3203682807,43890.7075948752,13449.0039691851,32137.1870040894,52961.7255763785,15198.4997537813,47353.9504708019,59538.3413737850,62297.5613115363,15976.6361333053
4127348025,26972,-2,0,-8144.3383591648,43901.5855158349,13455.4285131076,32145.3636963544,52971.8369324384,15202.4907583393,47373.9054935915,59548.6474129940,62305.3243021093,15981.7709013646
4127348025,26972,-2,0,-8139.5442866166,43906.5012653514,13456.9008044232,32146.6656399144,52976.0104524486,15199.0716355320,47385.8055010844,59552.4680697964,62304.5820726031,15980.2012684744
4127348025,26972,-2,0,-8142.4280307636,43902.6441054585,13456.8521336359,32142.4069460264,52970.0726163990,15199.7773619477,47366.1425030185,59546.5302337468,62303.4991475859,15975.8695684054
4127348025,26972,-2,0,-8147.7088111848,43900.8311186319,13454.6376128141,32140.8981516204,52969.9144363403,15192.9269486364,47365.7653044170,59546.9561031356,62304.6064079967,15969.1043289719
4127348025,26972,-2,0,-8153.0139269996,43897.7405236389,13449.7096956008,32138.8904816446,52970.2186287609,15186.7579263472,47378.1885228732,59545.1309486122,62301.5523160942,15968.4229379498
4127348025,26972,-2,0,-8156.6399006528,43892.9829541811,13445.8038649207,32136.9193147593,52965.1203637921,15193.0851286951,47363.2344234778,59540.6045653941,62300.8222542848,15974.1660908502
4127369032,26973,-2,0,-8157.5281425209,43893.1411342398,13445.1103062017,32139.9125681777,52962.0662718895,15188.9359440785,47359.0852388612,59540.8114162401,62299.6541553898,15974.1660908502
4127369032,26973,-2,0,-8153.6101441439,43901.4395034731,13446.1567281285,32145.8990750146,52971.5570754114,15184.9571072174,47383.1772785706,59546.1773705390,62301.2481236736,15976.3806116720
4127369032,26973,-2,0,-8150.9332508429,43901.7193605000,13445.8160326175,32144.7553115132,52970.7175043306,15183.1197849971,47376.0713436260,59543.3422971792,62297.9993486219,15975.0786681120
4127369032,26973,-2,0,-8150.2396921239,43899.0059641085,13446.9232930284,32142.0784182122,52965.4367239095,15182.6209094274,47356.6030287093,59539.5946465578,62294.6653996924,15971.5135329428
4127369032,26973,-2,0,-8151.5173002904,43899.5291750719,13445.7795295270,32141.7863934884,52968.0892818169,15183.9471883811,47369.3304395861,59543.3544648761,62295.5536415605,15973.1683397108
4127369032,26973,-2,0,-8151.8579958014,43902.2060683729,13447.6046840504,32143.2221817135,52970.9243551766,15189.2766395895,47376.9839208878,59543.4518064506,62297.8655039568,15978.4856232224
4127369032,26973,-2,0,-8146.7110600453,43904.9438001581,13451.9607195131,32145.6192179877,52968.9288528977,15192.7809362745,47361.0685734433,59541.0182670860,62298.8145843090,15981.6492243963
4127369032,26973,-2,0,-8143.7056389300,43907.3773395227,13451.9972226035,32147.9067449904,52970.8148459052,15184.4095608604,47365.8626459916,59543.2327879078,62299.4473045438,15980.3594485331
4127399478,26974,-2,0,-8143.7664774141,43906.1849052340,13448.4077520408,32149.7197318170,52971.3988953527,15182.5479032465,47377.8964981495,59544.9606008567,62298.5590626757,15981.7343982741
4127399478,26974,-2,0,-8147.7818173657,43901.3908326858,13449.1743169406,32149.5858871519,52967.0063567997,15185.6628336331,47361.1780827148,59542.4297199175,62299.5081430279,15982.0994291788
4127399478,26974,-2,0,-8147.8183204562,43901.1961495366,13450.8169560117,32151.6057248245,52966.2032888093,15188.6317516579,47359.4746051595,59546.7857553801,62303.0124397129,15981.0043364647
4127399478,26974,-2,0,-8148.8525746861,43906.1484021435,13450.6344405594,32154.7084875144,52973.6255838713,15186.6484170758,47380.6463976315,59551.2513001141,62305.6284945299,15983.3527019516
4127399478,26974,-2,0,-8150.2153567303,43902.8996270918,13448.5294290090,32151.3988739786,52972.0924540716,15190.9071109638,47370.6810539335,59548.3432205735,62303.4991475859,15977.4148659020
4127399478,26974,-2,0,-8146.4312030184,43902.8752916982,13452.3257504177,32153.9662580082,52971.5935785019,15194.0585444410,47359.4624374627,59550.0588658255,62307.2346305105,15978.6559709779
4127399478,26974,-2,0,-8143.7178066269,43903.2646579965,13449.8800433563,32157.6895732360,52971.9586094066,15182.1950400386,47378.1155166923,59553.8065164470,62305.8353453759,15977.0133319068
4127399478,26974,-2,0,-8146.6867246516,43898.4340823578,13443.5650087052,32154.5746428493,52966.5926551077,15179.8588422486,47380.7437392060,59550.3022197620,62302.9516012288,15974.4337801803
4127456368,26975,2,0,-8145.4699549694,43898.1177222404,13444.4289151797,32156.6431513092,52965.6192393618,15190.9557817511,47367.3106019135,59549.8763503731,62305.7258361045,15975.5775436817
4127456368,26975,2,0,-8143.5961296586,43904.5909369502,13447.7141933219,32160.3664665371,52975.6332538471,15191.5398311986,47381.5346394995,59558.3937381492,62312.1017092397,15979.0210018826
4127456368,26975,2,0,-8145.2022656393,43903.0943102410,13444.8426168716,32158.5291443168,52978.6021718719,15189.2523041959,47389.6991640677,59561.8006932596,62312.1868831174,15982.5131308708
4127456368,26975,2,0,-8145.5672965439,43901.0501371747,13445.9498772825,32157.4948900868,52979.4295752559,15197.5628411260,47369.9996629114,59561.1558053280,62314.4865778170,15987.5870604459
4127456368,26975,2,0,-8142.2576830081,43905.3331664564,13452.0215579972,32162.5931550557,52986.0609700244,15192.0508744652,47375.0735924866,59567.8967093679,62319.7551905413,15988.9011717028
4127456368,26975,2,0,-8144.1558437125,43905.7712035420,13451.2914961878,32159.5755662436,52987.4967582495,15179.6884944931,47394.4202304350,59567.9088770648,62315.4964966533,15983.9732544895
4127456368,26975,2,0,-8149.4974626177,43899.1519764704,13448.7119444613,32150.8269922279,52976.8378558326,15178.0215200283,47377.1664363401,59555.5951678799,62309.8385176306,15973.5942090996
4127456368,26975,2,0,-8149.8138227351,43899.0668025926,13450.6952790435,32149.9022472693,52972.9563605461,15181.7691706498,47363.8184729253,59553.0886223344,62308.0255308040,15969.6032045416
4127467626,26976,2,0,-8152.1500205251,43899.1398087735,13449.4420062707,32149.4885455774,52972.7373420033,15181.7204998625,47376.9595854941,59553.7821810533,62307.0886181486,15974.2512647280
4127467626,26976,2,0,-8156.5912298655,43895.9032014186,13447.9697149551,32144.4511190927,52970.1091194895,15178.5082279012,47372.3845314887,59551.9935296203,62305.2026251411,15980.0552561125
4127467626,26976,2,0,-8161.4339732011,43889.1257942883,13446.9962992093,32141.2996856155,52965.1203637921,15177.6808245173,47354.8387126700,59546.3355505977,62301.3576329450,15979.1548465476
4127467626,26976,2,0,-8157.5159748241,43893.9442022301,13448.9309630041,32144.4997898799,52972.2019633430,15177.3401290062,47373.1632640853,59551.0201138745,62304.2170416984,15983.9245837022
4127467626,26976,2,0,-8153.1842747551,43897.3511573406,13453.9440540952,32145.9964165892,52979.7702707669,15183.1076173003,47382.8122476659,59554.3540628040,62310.4347347749,15988.4022961331
4127467626,26976,2,0,-8151.2982817475,43899.4926719814,13460.2955918368,32144.7918146037,52976.4849926247,15185.1152872761,47362.8328894827,59552.5410759774,62311.1769642811,15988.2076129839
4127467626,26976,2,0,-8153.6831503248,43901.3543295953,13460.1739148685,32144.4267836990,52978.0059547276,15173.3856275388,47366.1546707153,59553.3441439677,62310.6537533178,15983.4257081325
4127467626,26976,2,0,-8158.7205768095,43897.4363312183,13453.0193091367,32136.6151223387,52976.7405142580,15160.7068874493,47375.0005863056,59549.9736919477,62302.9881043193,15978.1692631050
4127507645,26977,2,0,-8165.2546300035,43889.1744650755,13447.1301438744,32126.6619463375,52966.6169905013,15160.2566826668,47354.4615140685,59538.7672431738,62293.1931083768,15973.3751905567
4127507645,26977,2,0,-8163.8796802625,43890.8657749339,13451.2306577037,32130.6042801081,52968.8558467167,15168.8470766238,47352.4051733054,59542.9650985777,62296.8190820301,15973.8497307328
4127507645,26977,2,0,-8161.7746687121,43896.1343876583,13454.4185942713,32135.9337313166,52973.9176085951,15168.7984058365,47372.5913823347,59550.0101950382,62300.5910680452,15979.3495296968
4127507645,26977,2,0,-8161.8841779835,43893.6643452032,13455.6231962568,32134.6561231502,52971.1068706290,15170.0030078220,47365.2055903631,59549.4018101971,62301.6253222751,15984.7398193894
4127507645,26977,2,0,-8160.0711911569,43893.0316249684,13458.1297418023,32135.2523402945,52968.6611635676,15170.8547465996,47352.7337011196,59546.1895382358,62300.8222542848,15984.8249932671
4127507645,26977,2,0,-8157.7593287605,43897.1078034041,13458.5677788879,32138.3185998939,52974.5138257394,15168.8714120175,47370.3768615129,59549.4261455907,62302.3067132972,15986.8326632429
4127507645,26977,2,0,-8160.7525821790,43896.6089278344,13459.0301513672,32136.3230976149,52972.5791619446,15169.5041322523,47373.1875994790,59544.5590668615,62300.2260371405,15988.1102714093
4127507645,26977,2,0,-8161.9206810740,43893.6400098096,13463.6052053726,32135.6417065928,52968.1501203010,15172.9110873627,47355.5931098730,59541.0304347829,62300.8587573753,15987.9885944411
4127523806,26978,2,0,-8162.1275319200,43895.3799904552,13464.2622610011,32136.8706439720,52968.7950082326,15171.6334791963,47363.5872866857,59544.9240977662,62301.5158130037,15987.9277559570
4127523806,26978,2,0,-8166.6295797445,43892.4840786114,13459.9062255384,32131.3951804016,52969.8414301594,15164.2963580120,47375.4021203008,59543.5248126316,62298.8754227931,15984.8858317512
4127523806,26978,2,0,-8171.2046337499,43884.9279388843,13455.1486560807,32122.0138861511,52961.9324272245,15162.9579113615,47352.7458688165,59534.7275678286,62293.1079344991,15976.4901209434
4127523806,26978,2,0,-8169.0631191090,43885.0131127621,13456.6696181835,32123.4253389826,52961.6404025007,15171.5361376217,47349.8864600631,59537.3557903423,62295.5171384700,15976.4901209434
4127523806,26978,2,0,-8164.2933819544,43890.4034024547,13459.9670640226,32129.8377152083,52968.6733312644,15173.1909443896,47370.2916876351,59542.3567137366,62300.3477141087,15980.9556656774
4127523806,26978,2,0,-8164.8895990988,43888.7607633836,13462.4249387808,32128.8886348561,52965.6922455428,15176.1233593239,47361.1294119275,59539.9718451593,62301.9295146957,15984.1070991546
4127523806,26978,2,0,-8164.4028912259,43890.1357131246,13466.9878250894,32130.6164478050,52964.6579913128,15180.2725439406,47354.5101848558,59541.3467949003,62305.2877990188,15985.7862413161
4127523806,26978,2,0,-8160.0711911569,43898.0082129690,13469.3483582730,32137.1870040894,52973.8932732014,15179.1896189233,47378.6752307461,59550.0588658255,62308.2323816500,15992.4419714783
4127578063,26979,2,0,-8157.4064655527,43897.9352067881,13469.7498922682,32137.4181903290,52977.5314145515,15180.0778607914,47379.9041681253,59551.9448588330,62306.5045687011,15995.3257156253
4127578063,26979,2,0,-8155.8003295720,43896.1952261424,13472.4024501756,32136.9193147593,52974.2461364093,15181.0391088404,47359.7909652769,59548.2458789989,62307.7335060802,15995.5325664713
4127578063,26979,2,0,-8159.7183279490,43894.3335685285,13470.0175815983,32133.8408874630,52972.0924540716,15167.3139468241,47364.9744041235,59543.1232786364,62302.3188809940,15986.3337876732
4127578063,26979,2,0,-8168.2600511187,43887.2641366743,13464.4082733629,32123.9485499460,52965.7895871174,15161.7533093760,47368.6125454736,59533.5959720240,62294.3733749687,15980.9921687679
4127578063,26979,2,0,-8170.0121994612,43885.5363237255,13465.9170677690,32121.8800414861,52961.1536946278,15173.8723354117,47351.6629437992,59529.6414705566,62293.9110024894,15981.7222305773
4127578063,26979,2,0,-8165.9238533287,43890.0383715500,13469.4943706349,32126.6741140343,52965.2055376699,15171.8646654359,47356.6516994966,59534.3382015302,62297.6951562013,15981.4058704599
4127578063,26979,2,0,-8164.7070836464,43891.7905198925,13468.7764765224,32128.8521317656,52966.6291581981,15165.7686493276,47374.8302385501,59537.6356473693,62296.2228648857,15985.5307196829
4127578063,26979,2,0,-8169.6228331629,43884.1978770750,13467.3041852068,32122.1477308162,52957.7224041237,15159.1250868623,47355.9094699904,59530.6635570897,62289.0804268507,15984.9953410227
4127589048,26980,2,0,-8172.0320371338,43881.7156669231,13468.2654332558,32119.3248251533,52953.6705610817,15161.9236571316,47345.3844122386,59530.2376877009,62287.5472970510,15980.8096533156
4127589048,26980,2,0,-8166.9459398618,43890.7562656625,13472.3416116915,32124.7029471490,52966.9455183155,15173.6776522625,47368.4908685053,59541.5536457463,62295.3102876240,15985.6037258638
4127589048,26980,2,0,-8159.8035018268,43898.1298899372,13480.8103286803,32128.6452809197,52974.9275274314,15171.2562805948,47367.1889249453,59544.6929115266,62299.4594722406,15992.2351206323
4127589048,26980,2,0,-8162.1031965263,43895.3556550616,13481.5038873992,32123.6930283127,52970.6201627561,15165.1359290928,47346.3091571971,59539.7041558292,62295.9916786461,15987.3802096000
4127589048,26980,2,0,-8163.2104569372,43898.3489084800,13481.2361980691,32125.5425182298,52975.6210861503,15165.5252953912,47359.0852388612,59544.2548744410,62297.5004730522,15984.9101671449
4127589048,26980,2,0,-8164.1838726830,43900.1983983971,13480.0680991741,32125.4451766552,52976.5701665025,15169.3094491031,47365.6679628424,59545.8001719375,62297.0867713602,15987.3802096000
4127589048,26980,2,0,-8158.4407197826,43907.0123086180,13488.3786361041,32131.3951804016,52980.3664879112,15179.6276560089,47355.6417806603,59549.9736919477,62303.7059984318,15994.1697844272
4127589048,26980,2,0,-8156.2261989608,43909.0321462906,13486.8941770917,32131.9792298491,52981.2303943857,15166.8394066480,47361.1902504116,59550.1440397033,62303.0124397129,15987.5262219618
4127620334,26981,2,0,-8161.1906192646,43903.1551487251,13481.4795520055,32127.9882252912,52976.1199617200,15159.2954346178,47369.1600918306,59543.7438311744,62296.6974050618,15983.6203912817
4127620334,26981,2,0,-8168.0045294854,43895.6355120885,13484.5093085144,32122.3789170558,52967.2375430393,15164.9047428532,47350.4705095106,59537.6599827629,62294.1300210322,15987.3923772968
4127620334,26981,2,0,-8164.6584128591,43899.8333674924,13491.6030757622,32124.9219656918,52970.1212871863,15171.8159946486,47349.6917769139,59541.5658134431,62299.3986337565,15995.3378833222
4127620334,26981,2,0,-8157.0779377384,43906.4647622609,13495.4237325646,32127.2581634818,52977.0568743754,15172.5460564580,47372.1776806427,59546.8830969547,62303.6451599477,16001.3487255527
4127620334,26981,2,0,-8152.0526789506,43908.8009600509,13501.2033885555,32127.0269772422,52977.9572839403,15177.3887997935,47365.1447518790,59546.1165320549,62306.5654071852,16001.8476011224
4127620334,26981,2,0,-8153.0139269996,43907.5111841877,13505.3404054753,32124.3135808507,52973.3092237539,15181.8543445275,47349.6674415203,59544.0966943822,62308.4270647992,15994.3766352731
4127620334,26981,2,0,-8151.3956233221,43914.2642559244,13511.5459308550,32130.6651185923,52983.6882691439,15190.4325707877,47371.3867803492,59554.6095844373,62315.5451674406,15998.6353291612
4127620334,26981,2,0,-8150.8724123587,43915.0794916116,13511.7284463074,32129.3023365481,52986.5355102005,15177.5713152459,47375.0492570929,59553.7456779628,62312.4302370539,15993.6222380701
4127649639,26982,2,0,-8154.2063612882,43908.1195690289,13506.9830445464,32123.6930283127,52978.2371409672,15170.6965665409,47354.3398371003,59545.6419918788,62303.6573276446,15985.7132351352
4127649639,26982,2,0,-8152.3203682807,43908.8739662319,13502.7851891425,32123.8025375841,52981.3764067475,15165.4279538166,47365.8261429011,59547.0656124071,62299.2039506074,15988.2927868617
4127649639,26982,2,0,-8151.5659710776,43905.9050482071,13499.3417309416,32121.6731906401,52979.8311092510,15163.9678301978,47376.6067222862,59546.4450598691,62294.3855426655,15993.1476978940
4127649639,26982,2,0,-8155.2527832150,43899.2736534386,13499.5120786971,32118.9962973391,52972.2871372208,15171.7186530740,47357.3087551251,59539.6433173451,62294.5193873305,15993.1842009845
4127649639,26982,2,0,-8156.3965467164,43899.8090320988,13502.9312015044,32119.1301420041,52971.7639262574,15171.3779575630,47358.6958725629,59539.6311496482,62295.9430078588,15988.8890040060
4127649639,26982,2,0,-8154.0725166232,43904.0677259868,13505.7906102578,32122.5249294177,52977.8599423657,15172.3878763993,47379.9406712157,59545.1796193995,62300.4815587738,15990.1787798692
4127649639,26982,2,0,-8153.9386719581,43903.3011610870,13509.5017577888,32121.0283027085,52974.4164841648,15177.8146691823,47369.3426072829,59543.0016016682,62300.6032357420,15992.4541391751
4127649639,26982,2,0,-8153.1599393615,43903.0943102410,13514.2714949433,32122.8169541415,52973.4552361158,15175.7583284193,47359.2799220104,59542.5513968857,62304.4360602412,15993.8290889161
4127703900,26983,2,0,-8154.8269138262,43901.4151680794,13509.4409193046,32119.2639866692,52971.8856032257,15157.5432862753,47374.0515059534,59540.7992485432,62300.7370804071,15991.1278602214
4127703900,26983,2,0,-8160.3875512743,43894.9176179760,13505.4134116562,32114.3725725463,52966.4709781394,15160.2080118795,47371.3989480460,59534.5815554667,62297.8533362600,15988.8525009155
4127703900,26983,2,0,-8163.2712954213,43892.6300909733,13508.5770128302,32109.7123446632,52962.9788491513,15159.5874593416,47353.5367691099,59532.4157054322,62296.7582435459,15987.5018865682
4127703900,26983,2,0,-8162.4073889469,43896.4142446852,13509.4530870015,32111.4644930057,52968.4908158121,15151.4229347734,47365.8139752043,59536.7595731980,62295.5293061668,15987.1490233603
4127703900,26983,2,0,-8164.4272266195,43895.2583134870,13504.8050268151,32108.2522210444,52966.6778289854,15156.3995227740,47372.3236930046,59535.5793066062,62290.6743951345,15988.6578177664
4127703900,26983,2,0,-8160.1441973378,43899.7481936147,13517.2039098777,32112.8516104435,52968.8193436263,15175.3689621209,47358.9878972866,59537.0881010122,62298.7780812186,15994.9850201143
4127703900,26983,2,0,-8158.6962414159,43903.8000366567,13521.4504360689,32117.1954782093,52971.7152554701,15164.2841903152,47363.2465911747,59538.7185723865,62299.4351368470,15995.3500510190
4127703900,26983,2,0,-8162.4438920374,43900.3565784558,13514.9407182686,32112.5352503261,52967.9067663645,15147.0303962203,47374.2461891026,59532.6347239750,62291.2341091883,15992.7096608084
4127714393,26984,2,0,-8168.3817280870,43889.3083097406,13509.9519625712,32104.6749181785,52954.7534860989,15146.7870422838,47353.7436199559,59520.6617103013,62281.7919764537,15984.3504530910
4127714393,26984,2,0,-8166.4957350794,43890.1722162150,13514.7703705131,32105.4049799878,52953.9869211991,15153.4671078396,47347.3312437302,59525.0785842480,62284.4932051484,15986.2851168859
4127714393,26984,2,0,-8164.5245681941,43891.1699673545,13514.9042151781,32106.9259420907,52957.4182117032,15153.6617909888,47367.2619311262,59528.0353345760,62286.7563967575,15993.3910518305
4127714393,26984,2,0,-8164.4515620131,43890.1113777309,13518.5301888314,32105.8916878607,52957.6980687301,15159.1494222559,47363.3439327492,59527.5364590062,62288.2773588604,15998.0877828041
4127714393,26984,2,0,-8162.1275319200,43895.0392949442,13529.3229359133,32108.0697055921,52962.2609550387,15161.2666015031,47355.9216376872,59533.4256242685,62294.5315550274,16003.8309357046
4127714393,26984,2,0,-8162.7602521548,43896.5602570471,13527.2665951502,32104.9547752054,52966.7508351664,15146.5315206505,47371.5449604079,59535.1047664301,62293.5581392815,15997.1143670583
4127714393,26984,2,0,-8168.1870449378,43890.2573900928,13521.1949144356,32097.1187784514,52962.1392780705,15142.7473669386,47371.6544696793,59529.3251104392,62287.8271540779,15989.2783703043
4127714393,26984,2,0,-8171.0099506007,43884.7819265225,13522.9470627781,32094.2593696980,52955.4713802115,15153.6861263824,47349.4849260679,59527.3417758571,62287.8028186843,15985.4333781083
4127748132,26985,2,0,-8167.6638339744,43889.1744650755,13528.7145510722,32098.7005790384,52958.3551243585,15159.6482978257,47358.8540526216,59535.7496543617,62295.0425982939,15990.3977984120
4127748132,26985,2,0,-8164.6097420718,43895.7085182695,13534.7132256059,32103.2999684375,52969.1722068341,15158.8452298354,47378.6143922620,59544.0601912918,62302.6960795955,15998.7691738262
4127748132,26985,2,0,-8167.1771261015,43894.0293761079,13535.4676228089,32100.5744043491,52964.6944944033,15159.8916517621,47362.5286970621,59542.0890244065,62298.7537458249,15996.3964729458
4127748132,26985,2,0,-8165.8265117541,43896.7671078931,13540.6753970491,32104.2612164865,52967.6390770344,15168.7010642619,47361.2510888957,59546.7370845928,62302.6717442019,15993.5613995860
4127748132,26985,2,0,-8162.1275319200,43903.0578071505,13546.1873637099,32109.2499721839,52974.6963411918,15167.4112883987,47381.9848442820,59554.3175597135,62307.1494566327,15993.3788841337
4127748132,26985,2,0,-8166.1307041747,43892.4475755209,13538.4973793178,32100.4162242904,52964.3537988922,15154.2215050426,47364.1348330427,59542.8434216095,62296.4175480349,15985.1413533845
4127748132,26985,2,0,-8163.7945063847,43890.6224209975,13538.4730439242,32099.1872869113,52960.1802788820,15161.8993217379,47353.6706137750,59540.7505777559,62296.1985294921,15987.0638494826
4127748132,26985,2,0,-8156.2383666577,43897.6310143675,13541.5636389172,32105.1859614450,52970.2186287609,15158.6140435957,47379.6121434015,59548.5987422067,62299.2647890915,15993.1355301972
4127771578,26986,2,0,-8155.8246649657,43896.2073938392,13540.6510616555,32103.4703161930,52969.0992006532,15156.3751873803,47381.0357639298,59544.3035452282,62295.5293061668,15990.1301090819
4127771578,26986,2,0,-8154.2428643787,43897.1443064946,13547.0025993971,32107.6925069905,52967.8459278804,15166.9245805258,47366.1425030185,59546.1165320549,62299.7514969644,15990.4708045930
4127771578,26986,2,0,-8146.9179108913,43907.0974824957,13556.6029121904,32115.7110191969,52978.7725196274,15167.4964622765,47381.8144965265,59557.9191979731,62305.8596807695,15994.7781692683
4127771578,26986,2,0,-8150.8115738746,43904.6031046470,13557.1382908506,32110.7465988931,52976.9717004976,15158.6505466862,47387.2656247031,59555.3518139435,62304.4968987253,15999.4262294547
4127771578,26986,2,0,-8157.7471610637,43899.4561688909,13560.2653889341,32101.0976153125,52968.2109587851,15164.2598549216,47365.2664288473,59544.2305390473,62299.8488385390,16003.8796064919
4127771578,26986,2,0,-8158.6962414159,43895.3434873648,13558.7687622248,32098.0070203195,52963.7575817479,15150.3643451498,47362.9667341477,59539.4364664991,62296.4905542158,15996.9683546964
4127771578,26986,2,0,-8163.8796802625,43889.8680237944,13548.7304123459,32093.4684694045,52959.0243476838,15138.5738469283,47373.9784997725,59533.8149905669,62286.1966827036,15985.2386949591
4127771578,26986,2,0,-8168.4182311774,43881.7400023167,13547.8786735683,32088.4188752230,52951.1031770521,15155.2679269694,47358.0144815408,59526.6968879254,62283.8239818232,15986.4798000351
4127814711,26987,2,0,-8150.2396921239,43903.0334717569,13575.7061962024,32109.2499721839,52970.9486905703,15194.9467863090,47370.7662278112,59547.8443450037,62309.4856544228,16004.2568050934
4127814711,26987,2,0,-8141.8561490129,43917.2331739493,13586.3164278320,32118.0107138964,52983.0312135155,15171.8403300423,47397.9245271200,59556.7754344718,62316.3482354309,16007.3595677832
4127814711,26987,2,0,-8156.9927638607,43899.9915475511,13570.2550680257,32096.9240953022,52963.6237370829,15136.2011460479,47376.4242068339,59535.5184681221,62295.2494491399,15993.7439150384
4127814711,26987,2,0,-8174.0032040192,43877.6029853969,13548.6817415586,32074.9248994464,52935.7840467520,15114.1776147983,47337.8891109956,59510.6598635128,62268.5778577040,15978.4977909192
4127814711,26987,2,0,-8185.8788761183,43861.1765946860,13528.8483957372,32065.0690650198,52920.1120532440,15099.6128817013,47337.5362477878,59499.5142532230,62253.6724290959,15969.9682354463
4127814711,26987,2,0,-8188.9329680209,43855.3969386951,13525.5144468077,32064.6796987214,52917.6420107890,15124.6296663693,47343.0603821454,59497.3727385822,62250.8130203425,15980.3351131395
4127814711,26987,2,0,-8174.9036135841,43871.2027768681,13550.8597592899,32078.4778669187,52931.2698312307,15155.5842870868,47338.8990298319,59510.8667143588,62270.2448321688,16000.0224465990
4127814711,26987,2,0,-8162.2127057977,43891.1577996577,13575.2194883295,32093.1642769840,52952.3929529153,15165.6713077530,47359.4624374627,59530.4688739406,62291.1854384010,16011.8737833045
4127843487,26988,2,0,-8158.0756888779,43895.4286612425,13576.4605934054,32093.5171401918,52954.5588029498,15133.1470541453,47374.3556983740,59532.2696930704,62288.0948434080,16002.9791969270
4127843487,26988,2,0,-8173.0541236670,43874.7314089467,13559.5231594279,32075.0709118082,52927.0598081299,15105.3803699954,47339.8237747905,59509.1510691068,62266.5093492441,15983.0363418342
4127843487,26988,2,0,-8181.1699774479,43861.6146317716,13545.1774448736,32065.7139529514,52910.5117404507,15105.3195315112,47322.6429868765,59498.1149680884,62256.2641485192,15972.9371534711
4127843487,26988,2,0,-8181.8878715604,43859.3879432530,13538.9840871907,32064.3390032104,52908.4188965972,15100.2577696329,47339.2275576462,59495.9856211443,62251.8229391788,15973.9470723074
4127843487,26988,2,0,-8180.7562757559,43860.7507252971,13544.9584263308,32064.3755063009,52907.7496732719,15109.4808838247,47335.8327702326,59493.7589326257,62252.6990133501,15995.1188647793
4127843487,26988,2,0,-8183.0194673650,43860.5560421480,13548.6330707713,32061.9176315426,52904.1602027092,15104.3704511591,47320.7569938689,59493.2722247528,62252.4069886263,15997.5402364471
4127843487,26988,2,0,-8184.6499387392,43860.2031789401,13545.8588358957,32062.4043394156,52904.9389353058,15095.0134923022,47333.3262246870,59495.4502424841,62250.3993186505,15985.8592474971
4127843487,26988,2,0,-8182.8126165190,43863.3789478109,13553.4879818037,32066.9550580273,52908.1755426607,15116.9518496740,47339.0937129811,59500.0617995800,62258.2474831013,15989.3027056980
4127872479,26989,2,0,-8179.7220215259,43865.5813009359,13564.7674367586,32068.0866538319,52905.5959909343,15112.0604355512,47323.6650734096,59497.7134340932,62259.4520850868,15997.2360440265
4127872479,26989,2,0,-8183.1046412427,43863.6466371410,13561.4821586164,32064.5336863596,52905.6203263279,15099.6615524886,47331.9999457333,59493.7102618384,62256.2519808224,16000.0711173863
4127872479,26989,2,0,-8189.5170174684,43855.3604356046,13551.5046472215,32058.4011671608,52899.5243102196,15082.0670628826,47338.8868621351,59486.8598485271,62245.0698674421,15992.7826669893
4127872479,26989,2,0,-8189.9915576445,43848.8385501075,13546.3820468591,32055.2132305932,52892.1385182481,15090.4262706000,47320.9881801086,59480.6908262379,62240.9571859159,15980.5662993791
4127872479,26989,2,0,-8182.6301010666,43852.4645237607,13550.6772438376,32060.6643587699,52896.4337152266,15094.9283184244,47323.9449304365,59486.2514636860,62243.4880668551,15977.8285675939
4127872479,26989,2,0,-8180.7197726654,43855.3117648173,13552.6849138134,32060.5548494985,52900.9235953543,15095.2933493291,47341.6610970108,59487.5412395492,62244.7778427183,15979.2765235159
4127872479,26989,2,0,-8178.7486057801,43854.8737277317,13558.5375759852,32061.4309236697,52902.5053959412,15106.5971396776,47332.3893120317,59487.7602580920,62247.6980899558,15983.7177328562
4127872479,26989,2,0,-8177.6778484597,43858.6457137468,13564.5240828221,32061.5526006380,52904.9876060931,15109.8945855167,47322.6673222701,59491.4227348357,62254.2321431498,15987.6357312332
4127910170,26990,2,0,-8179.3934937117,43856.5893729837,13555.4469809922,32058.2186517085,52901.0087692320,15081.2396594986,47334.0562864964,59488.1982951777,62247.9779469828,15981.3206965821
4127910170,26990,2,0,-8187.8987137910,43845.9304705668,13545.2261156609,32050.0541271403,52891.7734873434,15077.2121518502,47326.8408422804,59477.2230326434,62237.9030940134,15974.4337801803
4127910170,26990,2,0,-8185.7815345438,43846.9525570999,13553.4149756227,32052.0496294192,52893.9393373779,15101.0851730169,47315.3180333891,59479.8147520666,62244.1572901804,15973.6550475837
4127910170,26990,2,0,-8169.0631191090,43871.2879507458,13577.7990400559,32073.6472912800,52918.9196189554,15125.6517529024,47347.3190760334,59503.8581209888,62266.4971815473,15995.6664111364
4127910170,26990,2,0,-8163.5024816610,43875.6074831180,13582.1794109122,32073.8784775196,52920.8056119629,15097.5930440287,47354.1816570416,59502.0573018590,62264.9883871413,15999.6695833911
4127910170,26990,2,0,-8174.1735517747,43857.4046086708,13567.0062929740,32060.1654832001,52902.0065203715,15086.3379244675,47322.0954405195,59483.0878625120,62249.0973750905,15981.1746842203
4127910170,26990,2,0,-8174.3804026207,43855.9444850521,13569.0748014339,32060.2141539874,52903.1867869633,15099.4425339458,47324.5046444904,59486.7503392557,62252.6260071691,15981.0408395552
4127910170,26990,2,0,-8173.8206885668,43858.8890676832,13573.7106939234,32058.0361362561,52908.8325982892,15100.9878314423,47339.5195823699,59487.7845934857,62256.3979931843,15988.6699854632
4127934430,26991,2,0,-8173.2001360288,43860.2275143338,13583.2866713231,32057.4034160213,52909.2341322843,15110.8923366561,47326.8408422804,59487.7724257889,62261.0703887643,15994.8268400556
4127934430,26991,2,0,-8169.0509514122,43863.7439787156,13588.3849362919,32061.6377745157,52913.0912921772,15107.8139093599,47325.8187557473,59492.1041258578,62268.3223360707,15990.8115001040
4127934430,26991,2,0,-8166.4835673826,43867.9540018163,13587.1681666096,32068.1474923160,52919.8930347012,15099.6737201854,47346.7958650700,59497.1293846457,62268.7603731564,15985.6280612574
4127934430,26991,2,0,-8170.1947149136,43864.5957174932,13584.5642794895,32066.2006608243,52915.3179806958,15086.0337320469,47337.3780677291,59491.7390949531,62259.2452342408,15978.0232507431
4127934430,26991,2,0,-8179.8802015846,43856.2121743822,13577.1906552148,32057.0992236008,52903.5396501712,15070.3860739326,47314.5636361861,59478.9995163795,62245.9702770070,15965.3566783504
4127934430,26991,2,0,-8186.5846025341,43854.4113552524,13570.0360494829,32052.1834740843,52901.8726757064,15072.2477315465,47326.8651776741,59476.0549337484,62239.4848946004,15962.5337726875
4127934430,26991,2,0,-8180.7076049686,43861.8093149207,13579.7823746381,32057.3669129309,52912.6167520011,15097.2036777303,47339.2518930398,59484.6088246149,62249.4015675111,15969.5788691480
4127934430,26991,2,0,-8167.9801940918,43874.8287505213,13601.5503842543,32069.6562867220,52923.8475361687,15113.7395777127,47329.7124187306,59496.3263166554,62265.7184489506,15987.0516817857
4127969698,26992,2,0,-8162.8819291230,43879.4768107077,13607.5003880007,32072.9780679547,52927.6316898806,15092.7137976027,47337.9134463893,59500.9378737513,62270.2204967751,15993.8290889161
4127969698,26992,2,0,-8170.4380688500,43872.5168881249,13599.4575404008,32066.7238717877,52923.6771884132,15079.4388403688,47345.6642692655,59495.0243730953,62263.0172202559,15987.3923772968
4127969698,26992,2,0,-8176.9842897408,43864.3280281631,13598.3381122931,32059.8612907796,52916.8997812828,15084.1842421298,47325.6484079918,59485.8255942972,62256.8360302699,15974.8961526596
4127969698,26992,2,0,-8172.7377635496,43868.9639206526,13606.2106121375,32064.7527049024,52920.4527487551,15098.7489752269,47330.6614990828,59491.6417533785,62262.9077109845,15974.2390970312
4127969698,26992,2,0,-8168.3573926933,43872.3343726726,13608.3156236879,32068.0623184382,52925.2224859097,15081.2031564082,47348.8765412268,59494.1848020145,62261.4719227594,15980.6028024696
4127969698,26992,2,0,-8179.1988105625,43858.5848752627,13598.1555968407,32057.6589376546,52908.2607165385,15066.0422061668,47330.4789836305,59480.9463478712,62249.8882753840,15975.0543327183
4127969698,26992,2,0,-8179.8680338878,43858.1103350866,13603.8135758634,32058.9122104274,52903.6734948362,15080.8016224130,47317.6785665727,59480.9463478712,62252.6868456533,15978.5951324938
4127969698,26992,2,0,-8172.0928756180,43869.6088085842,13615.4093909356,32066.2493316116,52917.9827063000,15089.2216686145,47343.3767422628,59492.4448213689,62262.5061769894,15992.2472883291
4127998735,26993,2,0,-8167.7733432458,43871.3487892299,13619.4125631904,32063.3899228582,52920.5014195424,15080.1689021782,47342.6710158471,59491.1185424152,62260.7540286469,15994.1941198208
4127998735,26993,2,0,-8169.8783547962,43865.8124871755,13616.8330114639,32059.2529059384,52914.0160371357,15068.6217578932,47321.1220247736,59486.3001344733,62253.6480937023,15983.1823541960
4127998735,26993,2,0,-8171.6913416228,43864.8999099138,13611.9659327347,32059.5449306622,52912.8114351503,15063.1462943229,47330.3938097527,59486.5799915002,62250.1072939268,15973.9957430947
4127998735,26993,2,0,-8172.7864343369,43864.0360034393,13613.9249319232,32059.7882845986,52913.2008014486,15068.7799379519,47340.7120166586,59487.6872519111,62249.2555551492,15973.5455383123
4127998735,26993,2,0,-8169.6471685565,43867.0414245546,13624.3526481005,32061.7837868776,52912.3125595805,15085.7538750199,47327.2667116692,59485.6065757544,62252.1392992962,15977.6095490511
4127998735,26993,2,0,-8159.9981849759,43879.2699598617,13640.8155419019,32070.6662055583,52924.0543870147,15096.4492805273,47337.9012786925,59499.0032099564,62263.2362387987,15988.7794947346
4127998735,26993,2,0,-8154.0725166232,43886.1447085666,13649.6127867049,32077.9789913489,52933.9588922285,15089.0148177685,47360.2411700594,59505.1600645488,62268.2980006771,15993.9629335812
4127998735,26993,2,0,-8156.9562607702,43879.5619845854,13646.3761793500,32071.5909505169,52926.8772926776,15076.9322948233,47344.2649841309,59496.8738630124,62262.3723323243,15983.8029067340
4128053655,26994,2,0,-8165.2789653971,43867.9905049068,13638.6983626547,32063.0857304376,52914.6852604610,15064.6064179417,47323.4095517763,59487.8454319698,62252.3461501422,15977.5730459607
4128053655,26994,2,0,-8168.9779452313,43865.1189284566,13632.2494833386,32060.5183464080,52915.7925208719,15059.4594821856,47338.6070051082,59488.5268229919,62248.7080087922,15974.0930846693
4128053655,26994,2,0,-8167.0919522237,43866.3722012294,13639.0877289531,32059.4597567844,52919.1751405887,15072.7587748130,47337.3902354259,59487.1518732509,62249.6814245380,15976.2711024006
4128053655,26994,2,0,-8165.5344870304,43871.9206709806,13651.2432580792,32060.0316385351,52922.1927294008,15083.5515218950,47323.5555641382,59489.8531019456,62256.5683409398,15977.0011642100
4128053655,26994,2,0,-8159.7548310395,43883.4313121751,13663.1310978752,32068.1839954065,52934.2874200428,15089.7083764874,47343.2307299009,59502.2276496145,62268.0789821343,15987.4775511745
4128053655,26994,2,0,-8158.8909245651,43884.2830509527,13663.2284394498,32070.1429945949,52936.2099161408,15073.1968118987,47350.1176463027,59502.3371588859,62264.4530084810,15989.3635441821
4128053655,26994,2,0,-8162.7237490643,43875.6074831180,13656.5970446813,32063.6332767947,52923.8475361687,15062.5865802691,47326.3906374980,59489.2933878917,62251.5187467583,15977.3905305083
4128053655,26994,2,0,-8162.1396996168,43876.2037002623,13656.3536907448,32066.2371639148,52926.8894603744,15067.1007957904,47333.7155909854,59492.6760076085,62251.8229391788,15970.7834711335
4128063819,26995,2,0,-8160.3267127902,43878.2478733285,13661.6223034692,32066.6021948195,52932.4500978225,15073.9633767985,47350.2028201805,59494.8296899462,62253.4047397658,15979.0331695794
4128063819,26995,2,0,-8165.2667977003,43873.2834530248,13668.9107538661,32060.2506570779,52926.1472308682,15076.4455869504,47331.1847100462,59488.3321398427,62255.3029004702,15990.7871647104
4128063819,26995,2,0,-8165.7535055732,43870.2415288190,13672.5732306098,32058.9122104274,52922.0710524325,15071.3716573752,47326.8286745836,59486.9815254954,62258.0527999522,15990.0205998105
4128063819,26995,2,0,-8163.1252830594,43872.4682173376,13670.2126974262,32063.0005565599,52926.7921187998,15069.6316767296,47349.5457645520,59488.6241645665,62257.0063780254,15984.0219252768
4128063819,26995,2,0,-8162.4438920374,43870.8012428729,13672.3907151575,32061.8567930585,52926.6704418316,15072.2477315465,47344.0946363753,59484.7061661895,62253.9036153355,15982.9024971691
4128063819,26995,2,0,-8159.3898001348,43875.1086075482,13681.7355063175,32065.0690650198,52929.6515275532,15081.6046904033,47332.7300075427,59489.2325494076,62258.6855201870,15987.8547497760
4128063819,26995,2,0,-8157.5889810050,43879.1239474998,13685.7386785722,32071.5544474264,52936.2464192313,15074.7177740015,47350.2514909677,59494.8296899462,62261.9586306323,15990.9453447691
4128063819,26995,2,0,-8159.7061602522,43878.2235379349,13684.2420518630,32070.5323608933,52936.1612453535,15068.9624534043,47350.8963788994,59491.1063747183,62259.2208988472,15990.7019908326
4128091076,26996,2,0,-8162.3222150691,43870.7769074793,13681.9058540730,32063.9374692152,52925.8552061445,15063.2314682007,47326.1107804710,59482.5768192455,62249.9856169586,15978.0840892272
4128091076,26996,2,0,-8162.3708858564,43871.4948015918,13681.3218046255,32062.8180411075,52927.6681929711,15062.8421019023,47334.5308266725,59485.7039173290,62250.0221200490,15972.6937995347
4128091076,26996,2,0,-8162.2492088882,43874.5002227071,13685.8968586309,32062.5746871711,52931.5131851671,15073.7078551652,47344.2771518277,59490.3398098185,62252.5286655946,15975.7235560436
4128091076,26996,2,0,-8161.4826439883,43877.6394884874,13697.3709967350,32063.0613950440,52934.3117554364,15086.1067382278,47325.7700849600,59492.8220199704,62259.8779544756,15982.2089384502
4128091076,26996,2,0,-8162.8089229420,43880.8639281455,13702.3232493419,32064.2538293326,52933.8858860476,15077.6380212390,47324.5654829745,59497.6282602154,62264.6111885397,15990.6654877421
4128091076,26996,2,0,-8168.7224235980,43877.5786500033,13693.8910354436,32060.3236632588,52931.3915081989,15057.6099922685,47339.6777624286,59493.7832680194,62257.5052535951,15988.9255070965
4128091076,26996,2,0,-8174.7210981317,43869.6574793715,13689.2064721668,32054.7995289012,52922.8132819387,15057.1597874860,47328.3253012928,59482.9296824533,62248.8296857604,15981.0651749488
4128091076,26996,2,0,-8171.7765155006,43869.3897900414,13693.1366382406,32058.1334778307,52921.7303569215,15057.1841228797,47321.4018818006,59482.4429745804,62247.7710961368,15975.1273388993
4128124142,26997,2,0,-8171.0586213880,43868.2338588433,13689.9365339762,32058.6445210973,52922.6064310927,15052.3657149378,47336.1612980468,59483.0148563311,62244.2546317550,15971.4283590651
4128124142,26997,2,0,-8170.4502365469,43868.8057405939,13693.9883770182,32059.3745829066,52925.8673738413,15067.9160314775,47335.1027084232,59485.6187434512,62247.9049408018,15982.5861370517
4128124142,26997,2,0,-8165.6926670891,43875.7413277830,13708.1150730296,32064.6066925405,52931.0021419006,15076.6159347059,47322.0832728226,59491.7999334372,62258.9897126075,15993.6100703733
4128124142,26997,2,0,-8164.7314190401,43877.9801839984,13707.5310235821,32065.0934004134,52936.1490776567,15061.5036552518,47335.3947331469,59495.7909379952,62259.1965634535,15985.3238688369
4128124142,26997,2,0,-8164.7192513432,43878.5642334459,13704.2335777431,32063.8157922470,52938.0715737547,15060.8709350170,47342.4885003947,59495.3285655159,62256.9820426318,15975.0421650215
4128124142,26997,2,0,-8165.3398038812,43875.8143339640,13707.8352160027,32060.3966694398,52933.4356812652,15062.6839218437,47322.2171174877,59489.9139404297,62254.1226338784,15968.6662918863
4128124142,26997,2,0,-8164.7314190401,43876.8972589812,13711.0109848735,32061.6012714252,52935.4555189378,15062.9394434769,47326.2081220456,59493.9901188654,62255.8869499177,15973.7402214614
4128124142,26997,2,0,-8166.1915426588,43875.3397937879,13705.4016766381,32060.3358309557,52935.9543945075,15047.2674499690,47341.6002585266,59492.1771320388,62249.1703812714,15971.4648621555
4128170677,26998,2,0,-8172.8472728210,43865.2771085153,13698.5755987204,32051.9036170574,52922.8376173324,15052.8037520234,47321.9007573703,59481.3113787759,62238.4506403704,15957.7640355329
4128170677,26998,2,0,-8166.0942010842,43874.1473594992,13712.4467730986,32059.5814337526,52930.1260677293,15078.7452816499,47321.9615958544,59490.3884806058,62250.0707908363,15970.5522848938
4128170677,26998,2,0,-8157.8931734256,43883.1149520577,13724.4076190756,32068.0258153478,52942.8413109093,15079.2806603101,47347.4894237889,59499.8427810372,62259.6467682360,15990.0327675074
4128170677,26998,2,0,-8159.1707815920,43879.5376491918,13727.1331831639,32064.4850155723,52936.9034748597,15073.9268737081,47339.9697871524,59493.1383800878,62257.9189552871,15995.7637527110
4128170677,26998,2,0,-8164.4393943163,43872.6385650932,13724.5779668311,32057.6832730483,52925.4901752398,15059.6785007284,47318.2626160202,59481.0193540521,62248.9878658191,15986.2486137954
4128170677,26998,2,0,-8166.5200704730,43872.2126957044,13719.1025032608,32055.7729446471,52926.5731002570,15060.7492580488,47332.7056721491,59481.4452234409,62246.0797862784,15973.5820414027
4128170677,26998,2,0,-8165.0234437638,43874.5853965848,13719.3945279845,32057.6832730483,52930.3329185753,15058.1697063223,47341.4542461648,59483.2825456612,62243.4880668551,15967.8023854118
4128170677,26998,2,0,-8164.8774314019,43871.3122861395,13721.7063903809,32056.5638449405,52924.9426288827,15060.0800347235,47321.3167079228,59479.0481871668,62241.6385769380,15968.0579070451
4128178412,26999,2,0,-8168.6494174171,43870.5700566333,13724.1642651391,32056.3934971850,52925.6605229953,15060.4937364155,47326.1472835615,59480.4961430887,62244.2181286645,15972.5721225664
4128178412,26999,2,0,-8166.5200704730,43876.0211848099,13729.7857410713,32059.7882845986,52932.9733087859,15068.3784039568,47342.8656989962,59485.8986004781,62247.0410343274,15981.9899199074
4128178412,26999,2,0,-8163.0036060912,43878.3087118127,13735.6992417272,32061.6377745157,52933.7885444730,15072.4302469988,47330.4424805400,59485.2902156370,62251.4944113646,15985.1048502941
4128178412,26999,2,0,-8160.9594330250,43882.8715981213,13741.3693884467,32063.2560781932,52937.8890583024,15076.8106178551,47331.1238715621,59489.0622016521,62256.8847010572,15988.4631346172
4128178412,26999,2,0,-8161.7503333185,43886.0838700825,13744.3018033811,32065.1664065944,52941.9165659507,15072.4910854829,47350.6895280534,59494.9391992176,62261.3745811848,16000.6551668338
4128178412,26999,2,0,-8169.7566778279,43876.0090171131,13738.8993459917,32055.2740690773,52930.7344525705,15058.5712403175,47331.5375732541,59481.8345897393,62251.6404237265,15993.7682504320
4128178412,26999,2,0,-8176.6679296234,43865.5447978454,13732.8398329739,32046.4281534870,52917.2404767938,15049.7739955145,47308.3337754127,59470.0319238210,62240.6651611922,15972.6694641410
4128178412,26999,2,0,-8174.7332658285,43869.5114670097,13732.1949450422,32049.5309161769,52923.7988653814,15059.6054945474,47327.0720285200,59474.1811084376,62241.1031982778,15966.0624047662
4128209359,27000,2,0,-8170.3285595786,43873.3442915089,13736.3806327493,32053.6801007935,52930.6127756022,15060.2625501759,47333.0098645696,59476.7606601641,62241.8940985713,15965.5513614996
4128209359,27000,2,0,-8165.0842822479,43878.4668918714,13744.8250143444,32057.9387946815,52932.9489733922,15072.6614332385,47321.9859312481,59481.3600495632,62246.6516680291,15974.0809169725
4128209359,27000,2,0,-8161.7625010153,43885.9743608111,13753.8169422966,32061.2849113078,52939.2640080433,15077.4798411803,47336.0882918658,59488.2226305713,62255.8626145240,15992.6244869306
4128209359,27000,2,0,-8160.3388804870,43889.9410299754,13759.5479275002,32061.9176315426,52944.3987761026,15076.9322948233,47347.4772560921,59492.9315292418,62259.6832713264,16005.8872764676
4128209359,27000,2,0,-8164.2568788640,43885.0252804589,13758.3919963020,32055.9311247058,52939.3005111338,15069.8020244851,47325.5632341140,59488.5754937792,62259.0627187885,16001.9936134843
4128209359,27000,2,0,-8166.2402134461,43881.0342759010,13749.5460807118,32055.3592429551,52935.6988728742,15057.7560046304,47325.1130293316,59484.8643462482,62251.4700759710,15988.3414576490
4128209359,27000,2,0,-8166.7269213190,43880.4867295440,13745.8227654839,32058.3768317672,52938.5096108403,15056.7217504004,47342.9873759645,59485.2537125465,62248.3551455843,15984.0827637609
4128209359,27000,2,0,-8169.4768208010,43877.2987929764,13750.4464902766,32056.0771370676,52935.0418172458,15057.3788060288,47331.5375732541,59482.1996206439,62246.5786618481,15985.8835828907
4128287521,27001,2,0,-8172.5430804004,43870.8377459634,13749.4244037435,32051.4899153654,52925.6118522080,15048.2165303212,47316.2914491349,59477.6123989417,62242.3443033538,15981.9412491201
4128287521,27001,2,0,-8171.0099506007,43869.4627962224,13746.1512932982,32049.1415498785,52927.1814850982,15050.0660202383,47334.3483112202,59479.9120936412,62242.5511541997,15981.3815350662
4128287521,27001,2,0,-8164.7192513432,43873.4659684771,13752.4663279493,32052.7431881381,52932.9733087859,15068.3784039568,47337.9012786925,59481.9440990107,62246.5908295450,15985.2265272623
4128287521,27001,2,0,-8158.2460366334,43881.9225177691,13766.3861731147,32061.1754020364,52938.7773001704,15082.0792305794,47331.0386976843,59490.4979898772,62256.5926763334,15986.9421725143
4128287521,27001,2,0,-8154.4983860120,43888.4444032662,13770.4866869440,32067.7946291081,52943.8633974424,15068.8164410424,47346.3699956812,59496.4358259268,62262.3358292338,15981.8074044550
4128287521,27001,2,0,-8162.8940968198,43877.3596314605,13758.1973131529,32056.3934971850,52932.4379301257,15044.1403518855,47342.7196866344,59484.9981909132,62249.2677228460,15970.7713034366
4128287521,27001,2,0,-8174.1735517747,43861.3712778351,13745.4212314888,32040.4416466501,52913.5780000501,15039.8329872102,47311.5095442835,59465.3595282410,62232.7804936509,15965.5270261059
4128287521,27001,2,0,-8171.7035093196,43864.5227113123,13747.9399447311,32042.2302980831,52916.1453840798,15056.1255332561,47319.1021871010,59468.6326386864,62233.6200647317,15975.2490158675
4128290522,27002,2,0,-8163.1252830594,43872.2491987948,13758.5258409671,32051.1370521575,52924.9791319732,15063.4139836530,47340.5051658126,59476.1644430198,62241.8089246935,15989.0471840647
4128290522,27002,2,0,-8165.3033007907,43867.7228155767,13762.2369884981,32049.6282577515,52919.6740161584,15059.5689914570,47323.0931916589,59471.5163828334,62241.2127075492,15985.2265272623
4128290522,27002,2,0,-8168.0897033632,43863.9629972584,13761.3609143268,32049.6160900546,52917.9340355127,15057.6708307526,47316.9363370665,59471.0905134446,62241.0301920969,15982.4036215994
4128290522,27002,2,0,-8166.1550395684,43868.0635110877,13762.6993609774,32052.9622066810,52924.7966165209,15061.9416923375,47337.7674340274,59477.0770202815,62244.5101533882,15990.5438107739
4128290522,27002,2,0,-8163.6241586292,43869.0004237431,13766.8972163813,32051.4169091844,52925.1129766383,15063.7181760736,47330.7953437479,59474.5461393423,62244.7413396279,15993.6100703733
4128290522,27002,2,0,-8163.5754878419,43868.0391756941,13766.3740054179,32052.7188527445,52922.8862881197,15058.8632650412,47315.6952319906,59471.9787553127,62238.8886774560,15979.2521881222
4128290522,27002,2,0,-8166.0455302969,43867.0900953419,13761.8841252902,32052.2443125684,52925.3319951811,15056.2837133148,47330.6493313860,59473.5605558997,62237.1851999008,15975.2976866548
4128290522,27002,2,0,-8168.4060634806,43863.4397862950,13762.0909761362,32052.1104679033,52923.3973313862,15059.3134698237,47330.8075114447,59471.7719044667,62236.0901071868,15981.0043364647
4128307552,27003,2,0,-8168.4547342679,43863.0869230872,13766.3375023274,32049.4944130864,52917.4351599430,15062.9881142642,47310.2927746012,59467.2455212486,62236.5403119692,15981.8195721519
4128307552,27003,2,0,-8167.4813185221,43867.9783372100,13768.5276877555,32051.7089339082,52920.7934442661,15060.3112209632,47321.6817388275,59473.2685311759,62241.0910305810,15984.4234592720
4128307552,27003,2,0,-8166.5079027762,43872.6020620027,13770.5110223377,32052.8770328032,52924.9304611859,15058.4008925620,47337.1468814894,59475.9332567801,62244.0356132121,15989.6068981186
4128307552,27003,2,0,-8169.9148578866,43870.1928580318,13772.7012077658,32048.6791773993,52919.1751405887,15056.7947565813,47318.8466654677,59468.9124957133,62241.6507446348,15988.2927868617
4128307552,27003,2,0,-8168.8197651726,43871.9450063743,13775.9621505144,32049.7742701133,52919.5036684029,15053.4486399550,47318.7128208027,59471.0905134446,62240.1906210161,15985.8714151939
4128307552,27003,2,0,-8170.2068826104,43871.1176029903,13772.6647046753,32046.3308119124,52919.4915007061,15049.3359584289,47335.6380870834,59471.6015567112,62236.7593305120,15985.5428873797
4128307552,27003,2,0,-8169.3916469233,43872.2735341885,13777.5804541918,32044.4691542985,52919.6496807648,15060.1287055108,47327.2545439724,59468.6083032927,62236.5524796660,15989.5095565440
4128307552,27003,2,0,-8163.8188417784,43876.6295696511,13786.3168605107,32048.5088296438,52923.3486605989,15065.7015106557,47319.2360317661,59472.9035002712,62241.3465522143,15993.9751012780
4128338869,27004,2,0,-8167.0311137396,43875.6561539053,13782.0094958354,32046.0631225823,52922.3995802467,15052.0250194268,47335.2973915724,59470.4821286034,62237.0148521453,15990.5073076834
4128338869,27004,2,0,-8175.8161908458,43865.2649408185,13772.7012077658,32036.9860207524,52912.7627643630,15046.2210280422,47327.1450347010,59461.2711821085,62229.8359110198,15981.5640505186
4128338869,27004,2,0,-8177.8846993057,43865.8854933564,13778.5660376345,32039.9914418677,52910.6942559031,15069.0841303725,47309.9520790902,59463.0233304510,62232.3789596558,15986.9908433016
4128338869,27004,2,0,-8164.1108665021,43885.5606591191,13799.3484638081,32055.7242738598,52930.9656388101,15079.1224802514,47336.4533227705,59480.6664908443,62250.0951262300,16003.7822649173
4128338869,27004,2,0,-8163.3929723895,43885.4511498477,13800.0298548301,32053.4002437666,52932.3040854606,15058.9362712222,47345.2018967862,59478.2086160860,62245.5687430118,16000.0467819926
4128338869,27004,2,0,-8171.2411368403,43871.6529816505,13788.7869029657,32042.2302980831,52916.8267751018,15049.5306415781,47316.2549460444,59461.9282377369,62235.7615793725,15984.7276516926
4128338869,27004,2,0,-8174.4169057111,43867.2482754006,13783.3479424859,32040.9283545231,52913.5780000501,15054.1300309771,47314.8191578193,59459.6893815215,62234.8246667172,15978.0475861368
4128338869,27004,2,0,-8170.8639382388,43870.9229198411,13784.6620537428,32043.8364340637,52918.2990664174,15056.7339180972,47333.7034232885,59463.7533922604,62237.2703737786,15984.5208008466
4128373081,27005,2,0,-8171.6791739260,43867.3456169752,13789.6264740465,32039.6020755694,52914.8312728229,15061.8565184597,47318.4572991694,59458.3752702646,62235.5547285265,15988.4266315267
4128373081,27005,2,0,-8174.0032040192,43867.4186231561,13792.6927336459,32037.8742626205,52911.2904730474,15051.3314607078,47310.9011594424,59456.4892772571,62234.0337664237,15986.1269368272
4128373081,27005,2,0,-8177.2763144645,43865.4474562708,13787.9838349754,32037.6065732904,52913.0791244804,15046.2088603454,47327.5709040898,59458.8498104407,62232.9143383160,15978.3152754669
4128373081,27005,2,0,-8180.8414496336,43860.1058373655,13786.4385374789,32035.8179218574,52909.8060140350,15052.5847334806,47321.7912480989,59454.3477626162,62231.9652579638,15981.3328642789
4128373081,27005,2,0,-8175.2929798824,43860.6168806321,13794.4935527757,32038.5678213394,52909.0759522256,15062.9759465674,47310.6091347186,59453.8610547433,62236.8201689961,15992.7218285052
4128373081,27005,2,0,-8169.6715039502,43866.7007290436,13798.6184019987,32042.0477826308,52916.3400672289,15062.7325926309,47330.2356296940,59461.1008343530,62239.1076959988,15998.4771491025
4128373081,27005,2,0,-8164.7314190401,43871.5799754696,13803.1691206105,32042.5953289878,52923.5433437481,15065.8718584113,47340.3956565412,59463.8263984413,62242.0644463268,15997.2117086329
4128373081,27005,2,0,-8163.3077985118,43873.9648440469,13807.6468330413,32042.4371489291,52921.4261645009,15065.5311629002,47321.8642542798,59460.7114680546,62243.2325452218,15990.6533200453
4128409486,27006,2,0,-8163.8918479593,43872.5412235186,13805.6634984592,32044.2623034525,52919.1021344077,15060.9196058043,47326.4271405884,59460.5776233896,62239.9107639892,15986.4676323382
4128409486,27006,2,0,-8163.3564692991,43870.3023673032,13801.7941708695,32046.1239610665,52917.7393523636,15054.6532419405,47339.9697871524,59460.3707725436,62236.6619889374,15987.3193711158
4128409486,27006,2,0,-8165.2424623066,43866.8345737086,13801.2344568156,32045.7224270713,52913.6631739279,15060.3842271441,47323.4582225636,59456.5987865285,62234.5083065998,15986.2729491891
4128409486,27006,2,0,-8160.2658743061,43874.1595271960,13806.6612495986,32053.7287715808,52921.9250400707,15071.6880174926,47327.3032147597,59467.4280367009,62240.9206828255,15985.4333781083
4128409486,27006,2,0,-8154.6930691611,43883.0541135736,13810.2872232519,32061.0293896746,52934.1535753777,15072.3207377274,47352.1496516721,59478.3181253574,62248.4646548557,15990.7019908326
4128409486,27006,2,0,-8157.0170992543,43877.0797744335,13811.0902912422,32053.2298960111,52926.2689078364,15066.2612247096,47337.1468814894,59469.8737437623,62243.9261039407,15991.0183509500
4128409486,27006,2,0,-8167.2136291920,43867.8931633322,13808.2430501856,32042.1694595990,52912.4464042456,15066.1882185287,47312.2396060929,59458.0102393599,62236.0536040963,15987.9399236538
4128409486,27006,2,0,-8167.8950202140,43869.8521625207,13807.3669760144,32044.4813219954,52917.2891475811,15063.9128592228,47330.5276544178,59461.7700576782,62238.5966527323,15990.7628293167
4128435484,27007,2,0,-8171.0099506007,43869.5114670097,13803.3029652755,32042.9846952861,52919.3333206474,15068.3784039568,47333.3140569902,59460.2977663627,62235.8710886440,15993.0625240163
4128435484,27007,2,0,-8174.8184397063,43866.9927537673,13799.1294452652,32041.3542239119,52914.8921113070,15072.2842346370,47315.3058656923,59460.0057416389,62235.5303931329,15990.8236678008
4128435484,27007,2,0,-8171.5696646546,43867.7106478799,13790.7093990638,32045.4547377412,52916.6564273463,15071.6880174926,47328.8485122562,59465.4690375124,62234.6178158712,15989.5338919376
4128435484,27007,2,0,-8167.3596415538,43864.4618728281,13777.4709449204,32047.2798922646,52915.2449745149,15077.8448720850,47339.4709115826,59465.0918389109,62233.5227231571,15987.4167126904
4128435484,27007,2,0,-8165.5588224240,43861.9188241922,13767.0918995304,32048.2289726168,52909.6478339763,15090.9981523506,47321.7912480989,59462.5244548812,62236.6863243311,15987.9520913506
4128435484,27007,2,0,-8162.5047305215,43866.8467414054,13751.7971046240,32052.8161943191,52912.5924166075,15097.0698330653,47326.3663021043,59467.5740490628,62240.9693536128,15992.5636484465
4128435484,27007,2,0,-8161.7503333185,43868.7083990194,13725.8312396038,32056.6976896056,52918.6640973221,15102.3992842737,47346.7228588891,59475.0815180025,62243.7070853979,15997.3090502075
4128435484,27007,2,0,-8164.5854066782,43864.2306865885,13698.1497293316,32055.9919631899,52917.5325015176,15110.1987779372,47332.8395168141,59475.1545241835,62246.8706865719,15997.8444288677
4128464260,27008,2,0,-8162.0910288295,43865.2162700312,13672.0500196464,32060.3966694398,52916.6320919527,15115.0293535759,47322.0711051258,59479.8269197635,62249.7665984158,15993.9629335812
4128464260,27008,2,0,-8156.2870374450,43871.4948015918,13642.3730070953,32065.2029096848,52924.3220763448,15114.2992917666,47340.4564950253,59487.7237550016,62252.8450257120,15994.0724428526
4128464260,27008,2,0,-8158.5867321445,43867.7958217576,13607.0380155215,32059.2164028479,52920.5865934201,15113.6909069254,47332.8395168141,59481.8102543456,62247.3452267480,15992.1986175418
4128464260,27008,2,0,-8159.9616818855,43866.5790520753,13577.5556861195,32060.6278556794,52916.8267751018,15122.5124871221,47315.7804058684,59479.1333610446,62247.9536115891,15993.9751012780
4128464260,27008,2,0,-8158.2095335430,43869.4627962224,13548.5965676809,32068.3665108588,52919.4306622220,15121.0888665938,47331.1360392589,59486.5313207129,62251.9081130566,15992.8191700798
4128464260,27008,2,0,-8159.3289616507,43867.0292568578,13518.3841764695,32071.8951429375,52918.0070416937,15118.2902963245,47338.1324649321,59485.8986004781,62251.8472745725,15989.5825627249
4128464260,27008,2,0,-8162.4317243405,43861.4077809256,13493.0145285937,32071.3110934899,52908.8569336828,15122.4759840316,47319.0048455264,59480.8368385998,62250.5940017997,15978.9601633985
4128464260,27008,2,0,-8159.0126015333,43866.3843689262,13473.4367044056,32078.6603823710,52914.6487573705,15123.8996045599,47328.0941150532,59487.7845934857,62256.5561732429,15978.6803063715
4128520429,27009,2,0,-8160.2658743061,43864.4862082218,13447.6533548377,32079.4877857550,52914.4297388277,15117.3412159723,47340.0792964238,59482.1874529471,62253.1248827389,15984.1679376387
4128520429,27009,2,0,-8166.1915426588,43854.7155476730,13426.4085561849,32073.2457572848,52902.9677684205,15122.7315056649,47320.1972798151,59471.7597367699,62250.5088279219,15989.0593517615
4128520429,27009,2,0,-8164.5732389814,43854.0463243477,13414.4720456016,32077.2245941459,52901.6293217700,15129.5089127952,47312.0327552469,59474.4731331614,62255.0352111401,15995.5690695618
4128520429,27009,2,0,-8160.1076942474,43860.0815019719,13403.4967830673,32085.8879942838,52910.0493679715,15129.6549251571,47334.9445283645,59483.2217071771,62261.7517797863,16007.1283815436
4128520429,27009,2,0,-8161.8111718026,43861.5537932875,13392.8378806504,32089.4166263625,52910.8281005681,15123.6805860171,47332.7786783300,59482.0657759789,62261.9707983292,16003.3563955285
4128520429,27009,2,0,-8168.2965542092,43856.1270005044,13376.9103655092,32086.6180560932,52904.7442521567,15114.2506209793,47316.8511631888,59476.3226230785,62252.9788703770,15980.8218210124
4128520429,27009,2,0,-8175.7796877553,43850.4081829976,13360.3501301331,32083.4057841320,52903.6248240489,15106.8404936141,47326.0012711996,59472.5141339729,62247.1262082052,15971.9028992412
4128520429,27009,2,0,-8180.9266235114,43845.2247441511,13352.6723134379,32080.4733691976,52901.6293217700,15107.5462200298,47322.3874652432,59470.0562592147,62243.8044269725,15978.8628218239
4128553597,27010,2,0,-8184.4552555901,43842.4991800627,13349.0098366941,32078.9402393979,52893.3796233240,15112.2672863971,47301.1913373776,59465.9314099917,62242.4659803220,15984.8371609640
4128553597,27010,2,0,-8182.1920639810,43848.2423329632,13345.5055400091,32086.4355406409,52898.6360683515,15113.8247515905,47314.2837791591,59472.9643387553,62249.5597475698,15990.6046492580
4128553597,27010,2,0,-8183.0194673650,43848.5343576869,13336.6596244189,32086.3138636726,52903.4423085966,15109.2496975851,47329.0796984958,59475.3613750295,62250.3506478632,15987.0516817857
4128553597,27010,2,0,-8183.1411443332,43847.1837433396,13334.4329359003,32086.8979131201,52901.0452723225,15117.6940791802,47314.7339839416,59474.3636238900,62252.6625102596,15987.3558742063
4128553597,27010,2,0,-8181.4254990811,43849.8363012470,13337.9980710694,32089.9033342354,52901.6049863763,15113.8612546809,47310.5969670218,59477.6732374258,62255.7166021622,15990.3004568375
4128553597,27010,2,0,-8179.7220215259,43851.2842571689,13336.5622828443,32090.0980173846,52904.9997737899,15110.0527655754,47327.0233577328,59478.5128085066,62255.6314282844,15994.8755108429
4128553597,27010,2,0,-8180.5980956972,43848.2301652663,13331.8777195674,32087.1169316629,52900.4612228750,15108.7264866217,47315.8899151398,59472.4776308824,62249.9491138681,15994.3522998795
4128553597,27010,2,0,-8182.6666041571,43844.6406947036,13324.9421323784,32084.6347215111,52892.7712384829,15101.1946822883,47305.1823419356,59467.1846827644,62244.9846935643,15987.8060789888
4128561875,27011,2,0,-8186.3655839913,43841.2215718963,13314.9281178931,32082.3471945084,52891.9681704926,15098.0189134175,47319.1508578883,59467.8052353024,62241.4073906984,15986.4554646414
4128561875,27011,2,0,-8185.2948266708,43840.4550069965,13315.9258690326,32084.5008768460,52893.9515050747,15110.2596164214,47320.0634351500,59469.2775266180,62243.9869424249,15988.5361407981
4128561875,27011,2,0,-8182.5814302793,43843.1684033880,13323.7983688770,32086.1313482203,52894.2191944048,15122.4759840316,47304.7078017595,59471.2000227160,62250.7765172521,15991.4685557325
4128561875,27011,2,0,-8173.4556576621,43858.1590058739,13334.9196437732,32098.6640759479,52909.2949707684,15140.9465478088,47327.1085316105,59484.8156754609,62264.1609837573,16006.3861520374
4128561875,27011,2,0,-8168.5642435393,43866.6155551658,13340.8939829132,32101.3896400363,52917.0092905542,15134.6315131577,47340.6146750840,59491.4592379262,62271.6197819098,16017.7629485668
4128561875,27011,2,0,-8178.3835748754,43856.7475530424,13335.9052272158,32090.5360544702,52906.5207358928,15114.3601302507,47311.7407305231,59479.4010503747,62263.4552573416,16009.4524116368
4128561875,27011,2,0,-8189.7482037080,43846.4293461365,13324.2485736595,32081.3251079752,52897.4801371534,15101.4015331343,47304.1602554024,59472.8669971807,62251.0807096726,15993.8534243098
4128561875,27011,2,0,-8191.4151781728,43842.6208570310,13317.0209617466,32080.8140647087,52899.3782978577,15101.7422286453,47317.6055603918,59472.0639291904,62246.2744694276,15990.3612953216
4128587344,27012,2,0,-8190.0767315223,43843.2535772658,13318.9556255415,32080.4733691976,52899.5851487037,15120.8820157478,47307.4211981510,59471.1756873224,62245.5565753150,15995.7394173173
4128587344,27012,2,0,-8183.2263182109,43853.5109456875,13327.3148332588,32089.8059926608,52907.9078533306,15126.4426531959,47307.6158813002,59481.3722172600,62255.3515712575,16004.1594635188
4128587344,27012,2,0,-8178.9432889293,43860.1180050624,13328.2882490047,32094.4662205440,52916.3035641385,15121.5147359826,47328.2766305055,59487.0058608890,62258.0527999522,16002.1882966335
4128587344,27012,2,0,-8177.7995254279,43861.2617685637,13329.6753664425,32095.7438287104,52916.3887380162,15123.5710767457,47324.5168121872,59487.7602580920,62258.0406322553,15999.6817510879
4128587344,27012,2,0,-8175.7188492712,43866.4573751071,13338.2900957931,32102.0831987552,52920.0025439726,15130.5553347220,47313.6023881370,59494.0022865622,62261.7031089991,16004.6096683012
4128587344,27012,2,0,-8179.2839844403,43868.1000141782,13338.8498098470,32103.6893347358,52921.8033631024,15119.8234261242,47329.9192695766,59496.3384843522,62259.8536190820,16007.1405492404
4128587344,27012,2,0,-8182.3259086460,43862.6002152142,13332.7416260419,32098.5910697670,52918.8831158649,15113.7882485000,47331.6227471318,59490.6561699359,62251.8959453598,16007.4325739642
4128587344,27012,2,0,-8180.6954372718,43858.9499061674,13333.4960232449,32094.6122329059,52912.3977334583,15118.8500103784,47307.6037136033,59483.9882720769,62249.2190520587,15999.5844095134
4128636630,27013,2,0,-8175.1834706110,43862.3325258841,13336.4406058760,32100.7447521046,52915.2814776053,15123.3763935965,47313.6875620148,59487.6872519111,62253.6845967927,15997.4915656598
4128636630,27013,2,0,-8168.8806036567,43868.6840636257,13338.9958222089,32106.8772713034,52924.1638962861,15124.7513433375,47329.7975926084,59494.5741683129,62259.0992218789,16004.1107927315
4128636630,27013,2,0,-8170.8030997547,43867.0170891610,13338.4361081550,32104.6749181785,52921.4626675914,15127.5134105163,47314.0160898290,59490.7413438137,62258.5638432187,16004.8530222377
4128636630,27013,2,0,-8168.5399081457,43871.9571740711,13343.0720006446,32108.1305440762,52927.9967207853,15135.2155626052,47315.5005488414,59495.9612857507,62263.8324559431,16001.4338994305
4128636630,27013,2,0,-8164.9869406734,43878.8075873824,13343.9724102094,32109.7488477536,52935.6136989965,15132.8915325120,47338.5096635336,59500.4024950911,62266.0226413712,15996.8831808187
4128636630,27013,2,0,-8169.0509514122,43872.2248634012,13339.8962317738,32104.4193965452,52928.8727949566,15123.1573750537,47329.2622139482,59493.0288708164,62260.0483022311,15992.9651824417
4128636630,27013,2,0,-8177.3493206455,43863.1234261776,13334.8344698954,32097.8853433513,52917.4473276398,15119.4097244322,47311.2418549534,59485.0711970942,62254.2686462402,15994.5348153318
4128636630,27013,2,0,-8177.3736560391,43866.9197475864,13334.0679049956,32102.7402543836,52921.7060215278,15124.1672938900,47331.5254055572,59490.4128159994,62255.8991176145,16006.1427981009
4128663566,27014,2,0,-8173.8085208700,43867.6619770926,13335.2360038906,32103.2756330438,52921.5721768628,15129.3750681302,47337.2685584577,59489.6949218869,62257.5539243824,16011.3505723411
4128663566,27014,2,0,-8167.7611755490,43870.7039012983,13337.5478662869,32108.8362704919,52920.3067363932,15131.8329428884,47323.9692658302,59491.1672132025,62261.5692643340,16008.3208158322
4128663566,27014,2,0,-8164.1352018957,43872.8575836360,13335.7105440667,32112.4257410547,52920.0512147599,15124.7270079438,47332.2919704571,59493.8319388067,62263.8202882463,16006.7146798516
4128663566,27014,2,0,-8169.1117898963,43869.3046161637,13332.9484768879,32108.1670471666,52917.4108245493,15120.4561463590,47338.0837941448,59492.7125106990,62258.7828617616,16005.4370716852
4128663566,27014,2,0,-8172.6039188845,43865.4596239676,13338.5091143359,32105.3684768974,52913.7970185929,15131.2853965314,47318.7371561963,59488.1252889967,62260.6810224659,16006.9580337881
4128663566,27014,2,0,-8169.7810132216,43871.4217954109,13342.5122865907,32108.2157179539,52919.9295377917,15124.4958217042,47321.1950309546,59492.3109767038,62262.0438045101,16005.7655994994
4128663566,27014,2,0,-8169.1239575932,43874.3785457388,13337.2071707759,32108.2278856508,52924.7966165209,15117.2560420945,47340.2983149666,59493.2478893592,62261.1190595516,16004.7070098758
4128663566,27014,2,0,-8169.1604606836,43870.3145350000,13335.4793578270,32103.1174529851,52922.0953878262,15115.1875336346,47326.1716189551,59487.0788670699,62255.5340867098,16005.1085438710
4128682483,27015,2,0,-8174.3682349238,43863.4641216887,13331.2449993327,32099.1872869113,52913.0547890867,15112.9243420256,47311.5217119803,59482.3943037931,62250.6305048902,15998.3068013470
4128682483,27015,2,0,-8174.7332658285,43864.4862082218,13326.1710697575,32102.3143849948,52915.9750363242,15112.5714788177,47331.4037285890,59486.9085193144,62251.0928773694,15997.9052673518
4128682483,27015,2,0,-8172.2875587671,43866.0436734151,13328.7019506967,32103.0809498947,52916.9727874637,15125.3597281786,47333.3505600807,59488.8431831093,62255.1690558051,16004.4149851521
4128682483,27015,2,0,-8168.0775356664,43870.1685226381,13339.6163747468,32108.5564134650,52919.5888422806,15132.0641291281,47320.1607767246,59491.4835733198,62263.1510649210,16007.2987292991
4128682483,27015,2,0,-8164.5854066782,43876.2523710496,13344.5077888697,32111.6226730644,52924.7236103399,15121.9041022809,47333.6060817140,59498.3461543280,62264.3434992096,16007.0310399690
4128682483,27015,2,0,-8169.0631191090,43871.5678077727,13337.9494002821,32105.4293153815,52921.0976366867,15110.0162624849,47338.0229556607,59492.5178275498,62257.5417566856,16000.0224465990
4128682483,27015,2,0,-8172.3849003417,43866.2383565643,13338.0954126440,32100.9150998602,52916.0967132925,15117.9496008135,47317.9219205092,59489.3785617695,62255.0595465337,15995.9706035569
4128682483,27015,2,0,-8170.2068826104,43869.5479701001,13339.9449025611,32101.9736894838,52922.0102139484,15115.9175954440,47325.5632341140,59493.5399140829,62256.0086268859,15995.3500510190
4128709543,27016,2,0,-8170.6205843024,43869.7548209461,13338.0224064630,32097.2161200260,52926.4635909856,15111.5858953751,47337.8282725115,59492.4934921562,62252.9545349834,15998.4163106184
4128709543,27016,2,0,-8174.2465579556,43866.2140211707,13341.2103430306,32092.1665258445,52921.6816861342,15110.6003119324,47320.5988138102,59488.4538168109,62250.8373557362,16001.9936134843
4128709543,27016,2,0,-8174.7210981317,43865.2041023343,13345.7367262488,32090.0615142941,52917.7636877572,15109.5903930961,47312.9209971150,59488.2104628745,62252.2853116581,16001.2635516749
4128709543,27016,2,0,-8176.3028987187,43865.5204624517,13342.5001188939,32090.0980173846,52918.0800478746,15106.2199410761,47330.3573066622,59489.5367418282,62251.5795852424,16000.5456575624
4128709543,27016,2,0,-8179.5516737704,43864.7782329455,13343.4248638524,32086.5450499123,52915.0259559720,15110.5029703578,47321.3410433164,59483.3677195389,62251.7134299074,16003.3198924380
4128709543,27016,2,0,-8183.1289766364,43861.6267994684,13344.2522672364,32082.0916728751,52910.5239081476,15110.2231133309,47302.9069826297,59480.2406214555,62252.2366408708,16001.3243901590
4128709543,27016,2,0,-8182.2772378588,43864.7904006424,13346.3207756963,32084.2210198191,52918.2017248428,15112.2064479130,47320.7813292626,59485.2902156370,62257.7607752284,16000.0102789022
4128709543,27016,2,0,-8185.0879758249,43864.0238357425,13348.2676071879,32084.4278706651,52920.9029535375,15116.4529741042,47324.6263214586,59486.9206870112,62258.8071971552,16001.5799117923
4128761791,27017,2,0,-8181.1091389638,43866.1045118992,13354.7529895946,32086.7275653646,52920.3310717868,15123.0478657823,47305.4865343561,59488.4051460236,62262.9442140750,16011.0950507079
4128761791,27017,2,0,-8180.0627170370,43865.6664748136,13352.0152578094,32084.8659077507,52919.0656313173,15107.1203506410,47311.6677243422,59486.3488052606,62260.2794884708,16009.5984239986
4128761791,27017,2,0,-8184.5404294678,43860.2031789401,13343.8629009380,32078.2223452854,52914.1133787103,15102.6426382102,47320.6474845975,59481.0193540521,62255.1568881083,16000.0711173863
4128761791,27017,2,0,-8187.5945213704,43856.3095159568,13344.3617765078,32073.5986204927,52907.2751330958,15114.6278195808,47303.0894980820,59475.2396980612,62252.5408332914,15992.2594560260
4128761791,27017,2,0,-8184.0537215949,43861.2496008669,13351.2000221223,32079.1470902439,52911.5581623775,15123.3642258997,47307.4455335446,59480.9098447807,62257.7607752284,15995.4595602904
4128761791,27017,2,0,-8177.0816313154,43868.1851880560,13355.8602500055,32085.7784850124,52921.0489658994,15120.8576803541,47329.7610895179,59489.1230401362,62263.2484064956,16003.9891157633
4128761791,27017,2,0,-8176.6922650170,43867.2239400070,13358.2451185828,32082.2863560242,52917.8610293318,15118.3876378991,47319.6619011549,59485.3023833338,62257.9797937712,16006.2766427660
4128761791,27017,2,0,-8175.9622032076,43866.9927537673,13362.0779430820,32082.5053745671,52916.2305579575,15118.2537932340,47309.9155759997,59483.0391917247,62257.0915519032,16005.3762332011
4128779374,27018,2,0,-8176.4245756869,43867.9418341195,13360.0581054094,32083.7586473398,52917.8245262413,15107.5583877267,47324.7114953364,59482.5768192455,62252.6260071691,16003.5632463745
4128779374,27018,2,0,-8179.2596490467,43863.5614632632,13357.7219076194,32082.1281759655,52912.3368949742,15106.6336427681,47322.8620054193,59478.2572868733,62249.4380706015,16004.2446373966
4128779374,27018,2,0,-8179.2839844403,43859.5217879180,13359.2063666318,32079.7919781755,52904.7077490662,15110.7219889006,47301.8727283997,59473.5118851124,62247.6615868654,16006.2158042819
4128779374,27018,2,0,-8177.6656807629,43862.5028736397,13358.3667955510,32082.6148838385,52909.4653185240,15106.6823135554,47315.0016732717,59478.7804978367,62248.8053503667,16006.5564997929
4128779374,27018,2,0,-8177.6535130660,43863.3059416300,13355.1058528024,32080.7410585277,52911.4729884997,15105.9765871397,47325.7944203536,59477.2108649465,62245.0211966548,16001.6772533669
4128779374,27018,2,0,-8174.2465579556,43864.4375374345,13361.8954276296,32081.2764371879,52909.2462999811,15118.7891718942,47309.9885821806,59476.0792691420,62246.6638357259,16000.0832850831
4128779374,27018,2,0,-8169.6106654661,43872.2491987948,13372.3109761101,32088.4310429198,52912.5072427297,15118.3633025054,47315.8777474429,59483.3190487517,62252.1879700835,16004.0864573379
4128779374,27018,2,0,-8173.7963531732,43870.8620813570,13369.9382752296,32085.1335970808,52913.3954845978,15104.6989789733,47331.2942193176,59484.4019737689,62249.8517722935,16005.7534318026
4128810663,27019,2,0,-8186.2925778103,43856.3703544409,13355.9575915800,32072.9415648642,52899.8163349434,15094.7458029721,47308.3702785032,59470.2144392733,62236.7836659057,16000.2779682323
4128810663,27019,2,0,-8190.9528056935,43855.2509263332,13354.0715985725,32074.0488252751,52898.9159253785,15105.4533761763,47302.4202747568,59468.8638249260,62236.1631133677,16001.5312410050
4128810663,27019,2,0,-8183.8347030521,43863.5979663537,13357.2838705337,32080.7775616182,52908.9421075606,15102.3384457896,47324.6871599427,59474.0594314694,62240.0202732606,16006.3739843406
4128810663,27019,2,0,-8183.4575044506,43858.2441797516,13353.9499216043,32073.8054713387,52902.9069299364,15092.6407914217,47315.5613873255,59467.0021673121,62233.5957293381,15999.1950432150
4128810663,27019,2,0,-8183.2384859078,43851.2355863816,13352.8913319807,32069.4129327856,52895.3751256030,15092.3731020916,47295.6793707169,59462.0620824020,62231.8800840860,15994.4374737573
4128810663,27019,2,0,-8182.7031072476,43852.9390639368,13351.2608606064,32067.4782689907,52897.6991556962,15090.4384382968,47307.9444091144,59465.7853976298,62232.1721088098,15992.2837914196
4128810663,27019,2,0,-8181.9365423477,43856.3703544409,13354.8503311692,32067.7216229272,52902.9921038142,15100.4767881757,47315.3180333891,59468.0364215420,62235.9927656122,16003.1617123793
4128810663,27019,2,0,-8176.5584203520,43863.0625876935,13368.2104622807,32071.3962673677,52906.9222698880,15118.0469423880,47301.3130143459,59471.6988982857,62243.8530977598,16014.3924965469
4128839572,27020,2,0,-8171.6061677450,43870.7282366920,13376.4236576362,32078.0641652267,52912.7627643630,15112.8878389351,47309.2463526744,59478.3667961447,62249.9734492617,16019.8071216331
4128839572,27020,2,0,-8175.8161908458,43868.8909144717,13369.9626106233,32076.2998491874,52912.0327025536,15098.1405903857,47321.9980989449,59479.7660812794,62249.0487043032,16020.6101896234
4128839572,27020,2,0,-8183.4696721474,43855.9688204457,13359.3280436000,32067.4782689907,52899.4391363419,15090.4019352063,47300.7411325952,59468.6813094737,62237.2947091722,16008.5520020719
4128839572,27020,2,0,-8182.8977903967,43856.2365097758,13357.9652615558,32069.4007650887,52900.6315706305,15097.8242302683,47298.8308041940,59470.2752777575,62236.2239518518,16001.8962719097
4128839572,27020,2,0,-8174.8549427968,43864.8147360360,13361.5060613313,32076.4215261556,52912.4950750329,15102.3992842737,47324.0909427984,59480.3622984237,62241.1762044588,16005.8021025899
4128839572,27020,2,0,-8174.2830610461,43863.8899910775,13366.1419538208,32072.2966769326,52911.2174668665,15105.2100222398,47315.8655797461,59478.6223177780,62241.8454277840,16009.6592624828
4128839572,27020,2,0,-8176.2177248409,43862.8679045443,13371.6417527848,32070.6175347710,52907.1047853403,15108.7386543185,47300.3030955096,59476.9918464037,62245.1915444103,16004.6948421790
4128839572,27020,2,0,-8170.2555533977,43871.7016524378,13378.3339860374,32077.9668236521,52918.4937495666,15107.4975492425,47322.9228439034,59487.6872519111,62252.2731439613,16004.0742896410
4128879674,27021,2,0,-8163.9891895339,43875.1329429419,13376.9225332060,32081.5927973053,52921.2071459581,15097.1671746399,47328.4713136547,59485.4118926052,62246.2744694276,16001.2878870686
4128879674,27021,2,0,-8163.6119909324,43872.1396895234,13375.5475834650,32080.3881953199,52915.0381236689,15096.2789327718,47310.8524886551,59479.8025843698,62240.0081055637,15998.0877828041
4128879674,27021,2,0,-8159.1829492888,43878.5033949618,13381.9356242970,32086.0705097362,52919.5888422806,15107.9720894186,47324.1517812825,59486.6529976811,62244.0842839994,16004.5123267267
4128879674,27021,2,0,-8155.0215969754,43884.8062619161,13393.2029115551,32089.4166263625,52927.6803606679,15122.3299716697,47340.0549610301,59490.8751884787,62250.7035110711,16014.8670367230
4128879674,27021,2,0,-8150.2761952144,43893.0681280589,13408.0109985886,32093.2616185585,52929.5055151913,15132.7090170597,47327.7655872390,59493.7224295353,62258.7220232774,16020.4763449584
4128879674,27021,2,0,-8148.0251713022,43900.4904231209,13414.1921885746,32095.4153008962,52933.4356812652,15124.5201570978,47330.2234619972,59497.4335770663,62260.7540286469,16015.9742971339
4128879674,27021,2,0,-8148.6457238401,43903.4350057520,13412.7807357432,32093.9065064902,52937.5726981850,15120.8090095668,47346.3456602876,59498.4313282057,62258.7950294584,16007.2378908150
