steady_timestamp,sequence,battery,flags,EEG-ch1,EEG-ch2,EEG-ch3,EEG-ch4,EEG-ch5,EEG-ch6,EEG-ch7,EEG-ch8,EEG-ch9,EEG-ch10
2439898707,11990,-2,0,41854.5652085241,39621.2087920668,27551.0360591606,52319.5145380636,53905.8901790515,41249.6603286684,52979.2713951972,58770.4380272891,59261.6236126377,10738.6495018748
2439898707,11990,-2,0,41876.7834229228,39622.0361954507,27543.2974039813,52314.2824284298,53921.6473464372,41248.4800620766,52977.0082035881,58768.6858789466,59277.1617614806,10732.4804795855
2439898707,11990,-2,0,41887.3693191588,39621.4399783064,27542.6160129592,52316.1440860437,53917.4738264269,41258.8104366792,52978.6386749624,58769.2699283941,59277.4294508107,10738.1262909114
2439898707,11990,-2,0,41873.5224801743,39633.0601287723,27559.1154098511,52335.0770223002,53912.2538844899,41282.8173025109,52995.8803013605,58785.7206544987,59283.6958146745,10753.7982844193
2439898707,11990,-2,0,41889.5960076774,39650.4964383196,27567.9856608350,52347.9991163261,53934.0827325903,41275.6748644758,53004.0691613223,58793.9216821574,59304.5999178163,10747.6779329174
2439898707,11990,-2,0,41908.9061425354,39647.9290542899,27558.5800311909,52338.0216049313,53937.7817124244,41267.6198491790,52994.5053516195,58785.4773005623,59298.0293615319,10729.7184124067
2439898707,11990,-2,0,41893.4409998734,39640.9934671009,27561.8896447267,52334.2252835226,53917.1209632191,41280.3594277527,52991.5364335947,58783.8224937944,59280.7512320433,10722.9410052763
2439898707,11990,-2,0,41886.3959034129,39645.5441857126,27568.5332071920,52339.9441010293,53923.2413147210,41286.0660775626,52997.1579095269,58788.7747464013,59292.6025687489,10724.2429488364
2439911054,11991,-2,0,41897.4076690377,39646.1038997665,27567.7301392017,52337.6565740266,53934.3139188299,41273.9835546174,52995.1259041575,58788.3610447093,59297.9563553510,10731.1055298445
2439911054,11991,-2,0,41882.3318926741,39639.5820142694,27566.4281956417,52332.9963461434,53916.3665660161,41278.0232299627,52990.4170054870,58782.5935564152,59281.6029708209,10742.7013449168
2439911054,11991,-2,0,41880.7379243903,39649.4986871801,27573.0960935006,52343.3510561398,53921.6473464372,41282.2575884570,52998.1556606664,58786.8644180001,59289.8161661764,10746.2786477827
2439911054,11991,-2,0,41915.5132019102,39659.7073848146,27570.5530448646,52346.6850050692,53948.6352979905,41274.1295669793,53000.7960508770,58789.5048082107,59308.8342763107,10737.0677012878
2439911054,11991,-2,0,41912.3374330395,39648.7929607644,27563.1307498026,52334.1157742511,53928.9844676214,41261.5116653739,52990.0519745823,58778.6512226446,59290.5097248953,10732.2736287395
2439911054,11991,-2,0,41873.3521324187,39638.6572693109,27567.1339220574,52330.4167944170,53901.9600129777,41273.6550268032,52985.9271253593,58773.3704422235,59279.4614561801,10737.3475583147
2439911054,11991,-2,0,41876.9537706783,39644.2300744558,27570.4313678964,52333.9089234052,53916.0623735955,41276.6726156153,52988.0321369097,58776.9355773926,59299.0271126714,10736.4836518403
2439911054,11991,-2,0,41894.5117571938,39642.8916278052,27566.6715495781,52329.8935834536,53922.8884515132,41274.3485855221,52984.3939955596,58773.8449823996,59295.0847789007,10724.2429488364
2439944526,11992,-2,0,41887.2963129778,39648.5982776152,27577.4399612664,52338.8611760121,53916.2570567446,41300.1075996963,52990.9645518440,58779.7706507523,59287.1392728754,10733.9892739916
2439944526,11992,-2,0,41905.1463242171,39667.5312138717,27593.6960042219,52354.8616973343,53941.8943939506,41306.4348020442,53005.5171172443,58791.9140121816,59311.0001263451,10743.5044129071
2439944526,11992,-2,0,41927.9485880633,39673.7854100387,27596.2633882515,52357.5750937258,53955.3518666368,41293.6343849865,53006.5392037774,58794.0068560352,59318.7874523118,10738.3818125446
2439944526,11992,-2,0,41898.6487741136,39658.7826398560,27588.6950808276,52345.7237570202,53929.6050201594,41286.5892885260,52997.9731452140,58780.2086878380,59295.5714867737,10738.0167816400
2439944526,11992,-2,0,41877.2822984926,39654.3535982125,27586.0546906171,52339.4330577628,53927.1471454012,41285.5915373865,52992.9600541230,58775.1469259596,59295.3646359277,10733.8675970233
2439944526,11992,-2,0,41907.3851804325,39661.3378561888,27585.3611318982,52340.8445105942,53954.5122955560,41302.2977851244,52995.9776429351,58783.5304690706,59313.8717027954,10735.8996023928
2439944526,11992,-2,0,41922.8989938818,39669.0278405809,27596.8352700022,52352.7445180871,53958.7709894440,41308.8440060152,53006.5878745647,58794.4813962113,59313.2024794701,10747.8969514602
2439944526,11992,-2,0,41898.4784263581,39668.7358158572,27601.0452931029,52358.7796957113,53943.1476667234,41298.9760038918,53009.8001465259,58793.5444835559,59305.0014518114,10742.2876432248
2439974638,11993,-2,0,41905.0368149457,39670.9625043758,27598.5752506479,52356.1028024102,53956.2887792921,41294.9484962434,53005.8699804521,58789.0667711251,59315.3561618078,10729.2925430179
2439974638,11993,-2,0,41914.9413201596,39668.1030956224,27598.2710582273,52351.2965621651,53956.3131146858,41296.6398061018,52998.8613870821,58783.2627797405,59308.9559532789,10733.2957152727
2439974638,11993,-2,0,41899.6830283436,39666.6794750941,27607.1291415144,52354.5696726105,53944.6321257357,41308.1869503867,53004.3003475620,58784.4430463323,59300.7427579234,10760.6608654275
2439974638,11993,-2,0,41903.7957098697,39669.9769209331,27607.7375263556,52353.0973812949,53959.5497220407,41295.6907257496,53005.7483034839,58782.7395687771,59313.7378581303,10764.9682301028
2439974638,11993,-2,0,41912.7876378219,39666.6186366100,27601.1669700712,52346.3564772550,53963.7840805351,41291.1643425314,53000.9907340261,58778.9310796715,59316.9866331820,10757.7406181899
2439974638,11993,-2,0,41878.1097018765,39654.1710827601,27593.8663519774,52335.2595377525,53935.9565579010,41278.1692423245,52990.3196639124,58766.8850598168,59293.2596243773,10746.3273185700
2439974638,11993,-2,0,41872.9384307268,39663.4185323455,27592.3697252682,52339.1653684327,53940.1057425176,41288.2440952939,52995.3205873066,58769.6349592988,59300.4629008965,10735.4615653071
2439974638,11993,-2,0,41910.6339554842,39671.0233428599,27585.6288212283,52339.8832625452,53948.7569749587,41275.2733304807,52996.1966614779,58770.8152258906,59309.8806982374,10724.8026628902
2440023353,11994,-2,0,41902.8344618207,39651.9687296352,27575.3106143224,52327.4600440890,53911.0857855949,41263.1908075355,52984.2601508946,58757.5281009600,59284.7179012076,10727.1023575898
2440023353,11994,-2,0,41873.2791262378,39641.1881502500,27580.6035624404,52328.6646460745,53893.1871035684,41279.2521673418,52985.6594360292,58760.3753420166,59282.8075728064,10734.6706650137
2440023353,11994,-2,0,41885.2399722148,39647.3206694488,27589.9848566909,52334.9675130288,53919.7491857328,41286.3824376800,52992.6315263088,58768.4060219197,59308.0068729267,10738.5764956938
2440023353,11994,-2,0,41895.8623715412,39647.1016509060,27595.7158418945,52340.3456350245,53932.3062488541,41297.0170047033,52997.1457418301,58772.7377219887,59308.1285498949,10740.7666811219
2440023353,11994,-2,0,41890.6911003914,39649.7785442070,27604.1845588833,52350.1893017543,53942.6366234568,41303.6849025622,53004.0083228382,58778.1158439844,59303.7968498260,10745.9014491812
2440023353,11994,-2,0,41910.9259802080,39657.6875471419,27600.9844546188,52353.1338843854,53974.8566846439,41286.9299840371,53005.5901234252,58779.7584830555,59317.1813163312,10738.8928558112
2440023353,11994,-2,0,41917.8859027907,39650.0462335371,27587.4661434485,52342.9981929319,53971.4984003208,41283.5716997139,52997.5837789157,58774.9157397200,59307.2646434205,10730.8986789985
2440023353,11994,-2,0,41890.3382371836,39646.8948000600,27591.7491727302,52344.6895027903,53941.1764998380,41297.7470665126,52999.7374612534,58776.9599127862,59294.0870277613,10746.3394862669
2440042201,11995,-2,0,41887.2719775842,39654.8403060854,27596.8352700022,52349.1793829180,53937.2098306738,41290.6532992649,53002.7428823686,58779.0527566398,59304.3930669703,10749.7829444677
2440042201,11995,-2,0,41909.6483720416,39659.2328446385,27592.7469238697,52343.8255963159,53943.0746605424,41283.0363210537,52999.8469705248,58776.0960063118,59313.1416409860,10741.8617738360
2440042201,11995,-2,0,41897.9187123043,39655.9110634058,27593.4404825886,52339.2992130977,53921.0267938992,41277.8650499040,52994.7122024655,58771.8373124238,59297.3358028130,10744.7698533767
2440042201,11995,-2,0,41871.7703318318,39654.4266043934,27594.3895629408,52337.6200709362,53911.6333319519,41279.7997136988,52994.0308114434,58771.0464121303,59296.5205671259,10743.0420404278
2440042201,11995,-2,0,41888.8051073839,39667.2513568448,27601.4103240076,52347.0257005803,53938.9133082290,41297.6132218476,53003.0227393956,58781.4862960044,59319.0064708546,10748.1281376998
2440042201,11995,-2,0,41888.5130826601,39665.3896992309,27603.1503046533,52345.0788690886,53936.2485826247,41292.5514599693,53000.1998337326,58779.9896692951,59305.2813088384,10748.4444978172
2440042201,11995,-2,0,41870.0668542765,39658.7948075528,27599.8285234206,52343.1807083842,53926.1128911712,41291.3833610743,53000.0538213708,58776.4123664292,59292.0306869982,10746.4854986287
2440042201,11995,-2,0,41896.7871164997,39660.9971606778,27595.9105250437,52344.4218134602,53947.5037021860,41284.4964446725,53000.8690570579,58778.9189119747,59305.5733335621,10743.3097297579
2440079606,11996,-2,0,41910.9138125112,39653.6722071904,27592.7590915665,52340.0171072103,53943.9020639264,41286.3581022864,52999.5306104074,58775.9621616467,59304.2713900021,10747.0573803794
2440079606,11996,-2,0,41875.9316841452,39645.7145334682,27598.3197290146,52341.5015662227,53919.6883472487,41289.5217034603,53001.1367463880,58775.9621616467,59293.4299721328,10752.1434776514
2440079606,11996,-2,0,41872.4760582475,39652.3824313271,27604.9267883895,52347.3907314850,53938.1954141164,41296.9196631287,53005.9551543299,58778.5538810700,59310.0997167803,10749.7221059836
2440079606,11996,-2,0,41907.0323172246,39661.5690424285,27607.6523524778,52349.9581155146,53965.2928749411,41299.5722210361,53006.7703900170,58779.6003029968,59318.4832598913,10745.5729213670
2440079606,11996,-2,0,41905.4505166377,39661.8367317586,27612.4464250260,52350.7490158081,53964.0882729556,41305.6439017507,53005.8091419680,58778.5052102827,59302.9207756547,10747.8482806729
2440079606,11996,-2,0,41903.6496975079,39668.7358158572,27617.9827270805,52357.1492243370,53973.1410393919,41302.7844929973,53011.1629285701,58782.7882395644,59311.0122940420,10744.9036980417
2440079606,11996,-2,0,41919.4433679840,39664.6353020278,27606.2165642527,52352.5376672411,53983.9946249580,41286.2242576213,53006.5513714742,58779.0892597302,59318.1303966834,10731.6652438984
2440079606,11996,-2,0,41915.2698479738,39660.7173036509,27604.9632914799,52351.2357236810,53971.8634312255,41301.6285617992,53008.9605754452,58779.1744336080,59307.3741526919,10739.2943898064
2440098556,11997,-2,0,41904.5136039823,39667.4703753876,27612.2030710896,52354.6305110946,53967.1545325550,41300.7403199311,53013.2557724237,58781.4132898234,59303.7846821291,10736.2281302070
2440098556,11997,-2,0,41926.4397936572,39670.0134240236,27605.2553162037,52350.8828604732,53981.2568931728,41289.9719082428,53011.1020900860,58778.5782164637,59315.7941988934,10720.6534782736
2440098556,11997,-2,0,41924.1766020482,39653.9763996109,27593.7811780996,52335.8314195032,53964.0274344715,41278.9236395276,52998.9708963535,58765.5831162568,59297.7616722018,10713.8274003560
2440098556,11997,-2,0,41885.2886430021,39643.0619755608,27596.1173758896,52331.8160795516,53935.9200548105,41296.8709923414,52994.3958423481,58759.6209448135,59284.8030750854,10733.8432616297
2440098556,11997,-2,0,41893.1489751497,39659.3180185162,27610.1467303265,52344.0324471618,53959.1725234392,41311.7034147686,53004.1421675033,58772.5065357490,59311.1339710102,10751.6811051721
2440098556,11997,-2,0,41928.3622897553,39670.0620948109,27616.8632989728,52349.5322461258,53980.1983035492,41310.1824526657,53007.3179363741,58778.6633903414,59319.2254893975,10754.9542156175
2440098556,11997,-2,0,41925.1013470067,39667.4947107812,27617.1188206060,52349.4835753385,53958.9535048964,41299.2680286155,53005.5049495474,58776.0716709182,59299.9031868426,10754.6500231969
2440098556,11997,-2,0,41913.6393765995,39665.2680222626,27610.6212705026,52347.5367438469,53953.1738489055,41294.1089251626,53003.7771365986,58772.0076601793,59300.5845778647,10749.8681183455
2440142847,11998,-2,0,41922.4366214025,39663.0169983504,27604.6347636657,52344.3974780665,53959.3793742852,41287.4166919100,53000.7352123929,58770.6570458319,59309.0167917630,10743.5409159976
2440142847,11998,-2,0,41899.3179974389,39654.6577906330,27604.3914097292,52341.5624047068,53940.5681149969,41293.6100495928,52997.3769280697,58766.9337306041,59295.1212819912,10742.4579909803
2440142847,11998,-2,0,41880.8474336617,39655.2296723837,27605.3526577783,52342.5966589367,53937.7817124244,41294.5834653387,53000.0173182803,58767.8341401690,59295.9000145879,10738.4426510288
2440142847,11998,-2,0,41917.3748595241,39662.6032966584,27604.1237203991,52346.7580112502,53968.2374575723,41301.6285617992,53004.5071984080,58774.7940627517,59316.9379623947,10741.2290536012
2440142847,11998,-2,0,41928.2041096966,39657.8335595038,27603.1989754406,52343.7160870444,53962.7376586083,41296.7493153732,53002.2318391021,58773.2974360425,59306.8266063349,10746.9843741985
2440142847,11998,-2,0,41900.6929471799,39657.9917395625,27611.4730092802,52346.8918559152,53948.2215962985,41311.0341914433,53005.7726388775,58777.1667636322,59301.3876458550,10756.3535007521
2440142847,11998,-2,0,41914.3085999248,39677.6182345379,27625.1616682060,52360.9820488362,53976.2681374754,41323.8346085010,53018.4270435734,58791.7923352134,59328.5824482543,10755.4287557936
2440142847,11998,-2,0,41941.9414394097,39688.9828633705,27631.6835537031,52364.2551592816,53989.9324610076,41322.7760188774,53022.8682529138,58796.7445878203,59333.2913469248,10757.7527858868
2440161148,11999,-2,0,41934.1176103525,39694.0081221584,27642.1842760613,52368.5746916537,53975.8422680866,41330.1983139394,53026.2995434178,58798.2290468327,59322.4134259651,10773.8749841772
2440161148,11999,-2,0,41937.5367331598,39697.6219281148,27645.7372435336,52370.8135478691,53985.1870592466,41319.2960575861,53028.2828780000,58801.3683126130,59332.3300988758,10775.9921634244
2440161148,11999,-2,0,41950.1546347652,39695.4560780804,27643.1455241103,52367.6134436047,53994.1668195019,41327.1563897337,53027.2486237700,58802.8406039286,59340.9083251359,10773.8141456931
2440161148,11999,-2,0,41925.0040054321,39684.9918588126,27641.8314128534,52361.2984089536,53968.4929792055,41312.0806133701,53022.4910543123,58796.3430538252,59321.0019731336,10765.6009503376
2440161148,11999,-2,0,41902.4207601287,39676.4136325525,27634.0319191899,52354.5331695200,53957.8219090918,41311.2167068956,53016.9182491674,58787.6188152031,59314.7356092698,10744.7820210735
2440161148,11999,-2,0,41931.4407170515,39677.2288682396,27625.5510345043,52351.9657854904,53977.8742734560,41306.7268267680,53014.3630328345,58785.8544991638,59327.5968648116,10731.2880452969
2440161148,11999,-2,0,41933.5335609050,39670.4027903219,27621.6452038242,52347.3785637882,53966.4123030488,41308.4668074137,53009.9218234942,58783.1654381659,59317.1569809376,10738.4913218161
2440161148,11999,-2,0,41908.9791487163,39672.0941001803,27628.6537971942,52352.4889964538,53960.2919515469,41315.4997361773,53013.8398218712,58790.8675902548,59316.1835651917,10750.5616770644
2440189689,12000,-2,0,41919.2243494412,39679.4677244550,27629.5542067591,52358.5241740780,53981.1473839014,41310.1216141816,53019.5708070748,58797.4381465392,59333.6320424358,10750.5373416708
2440189689,12000,-2,0,41935.1640322793,39684.1279523382,27630.9899949842,52361.5904336774,53990.9302121470,41315.3050530282,53022.7587436424,58802.1470452097,59332.6221235995,10761.6707842638
2440189689,12000,-2,0,41914.7101339199,39678.7741657361,27631.0264980747,52357.0762181560,53967.9941036358,41301.4095432564,53018.3783727861,58792.8144217465,59314.1150567318,10761.1719086940
2440189689,12000,-2,0,41915.5253696071,39679.6867429978,27624.4072710030,52352.9757043267,53975.9396096612,41297.6375572412,53013.7789833870,58786.9982626652,59321.8537119112,10748.4079947268
2440189689,12000,-2,0,41930.0170965232,39677.4722221760,27616.4009264935,52348.5101595927,53981.8774457108,41296.3721167717,53012.3188597683,58784.1510216086,59323.2286616522,10738.8806881144
2440189689,12000,-2,0,41904.2337469554,39666.4847919449,27611.3513323120,52346.5998311915,53951.6893898931,41295.4352041163,53008.0601658803,58775.1834290501,59301.0956211313,10738.2601355764
2440189689,12000,-2,0,41902.6032755811,39672.4347956913,27614.3689211241,52355.2145605421,53955.6925621478,41299.1950224346,53014.8984114948,58779.5759676032,59306.5345816111,10738.4426510288
2440189689,12000,-2,0,41937.5123977661,39677.7520792030,27606.7519429129,52354.7643557597,53978.0081181211,41281.5031912540,53013.8276541743,58775.8161492849,59311.7058527609,10728.8423382355
2440266330,12001,-2,0,41929.3235378043,39663.4428677392,27595.4724879580,52343.3997269271,53959.3185358010,41274.3850886126,53003.8258073859,58762.7967136843,59284.5840565425,10723.3303715747
2440266330,12001,-2,0,41906.4239323835,39662.6763028393,27600.0475419635,52346.9283590057,53954.6461402210,41289.4973680667,53007.5491226137,58764.8530544474,59283.8539947332,10728.4529719371
2440266330,12001,-2,0,41922.5096275834,39671.0598459504,27606.0218811035,52351.7102638571,53977.9594473338,41292.4784537883,53014.3508651377,58773.4191130108,59307.4836619633,10731.3732191746
2440266330,12001,-2,0,41928.0946004252,39668.4559588302,27603.4423293771,52347.4637376659,53975.1000385804,41284.2652584328,53011.8929903795,58772.1050017539,59301.6066643978,10733.8432616297
2440266330,12001,-2,0,41913.7245504773,39662.3842781156,27604.8659499053,52346.3078064677,53963.3460434494,41286.8083070688,53010.3598605798,58769.4646115433,59291.1911159174,10736.1916271165
2440266330,12001,-2,0,41940.1162848862,39676.0851047382,27612.6776112657,52356.6746841609,53995.4687630620,41299.3410347965,53018.5122174512,58780.3425325030,59317.1326455439,10740.4381533077
2440266330,12001,-2,0,41956.7738618368,39674.1626086402,27607.7740294460,52351.5764191921,54001.2727544465,41279.2886704322,53010.5910468194,58776.0230001309,59315.1006401745,10732.9550197616
2440266330,12001,-2,0,41914.6979662231,39657.1521684817,27598.9159461589,52340.5281504768,53969.0283578657,41276.4535970725,53000.7473800897,58764.1229926380,59287.8936700784,10726.9198421374
2440273608,12002,-2,0,41900.9606365100,39657.6510440515,27599.4148217287,52343.3267207461,53976.0734543262,41283.3526811711,53003.9839874446,58766.5078612153,59296.4475609449,10721.5417201417
2440273608,12002,-2,0,41934.2636227144,39669.2590268206,27601.6171748536,52350.5665003558,54003.2317536350,41284.8736432740,53007.7681411565,58773.4921191917,59311.0487971324,10723.9995948999
2440273608,12002,-2,0,41934.4096350763,39668.9548344000,27604.2575650642,52351.5885868889,53988.8130328999,41282.4766069999,53009.3864448340,58773.3826099203,59293.0649412281,10729.6940770131
2440273608,12002,-2,0,41919.3946971968,39670.6096411679,27606.1313903749,52352.9270335394,53983.0577123026,41285.2508418755,53012.3188597683,58774.0274978519,59293.7584999470,10732.8211750966
2440273608,12002,-2,0,41936.1131126315,39678.5064764060,27609.6843578472,52356.6381810704,54004.8257219188,41284.8736432740,53013.9736665362,58777.2519375100,59311.2678156753,10738.2966386669
2440273608,12002,-2,0,41924.9188315544,39671.6073923074,27607.2264830890,52345.0180306045,53995.2619122160,41279.4711858846,53005.3589371856,58770.5718719542,59296.9221011210,10737.2258813465
2440273608,12002,-2,0,41902.0557292241,39667.9692509573,27611.1444814660,52341.1852061053,53981.5854209870,41287.4410273036,53003.2417579384,58768.0044879245,59287.6624838388,10738.2479678796
2440273608,12002,-2,0,41918.3239398763,39668.3464495588,27605.6568501988,52334.9796807256,53995.7729554826,41269.6518545485,53000.2241691263,58765.9238117678,59297.5548213558,10726.0072648757
2440292484,12003,-2,0,41922.7286461262,39649.7055380261,27585.6531566219,52318.2734329877,53974.5403245265,41242.9315923253,52986.1948146894,58750.1544766853,59277.4294508107,10710.9801592994
2440292484,12003,-2,0,41885.7023446940,39633.9970414277,27580.4332146849,52312.8953109919,53937.6843708498,41254.9776121800,52982.2038101315,58745.4942488021,59256.8538754831,10718.0009203662
2440292484,12003,-2,0,41885.2521399116,39644.7532854192,27592.4914022364,52327.8737457810,53948.9759935015,41273.6063560159,52993.6414451451,58755.8124557080,59281.3352814908,10725.9220909980
2440292484,12003,-2,0,41919.2730202285,39655.0714923250,27600.0475419635,52335.6975748381,53975.7814296025,41276.3440878011,53000.0903244612,58764.4271850586,59295.2429589594,10723.2086946064
2440292484,12003,-2,0,41921.8525719550,39656.3004297041,27606.0340488003,52337.5470647552,53970.9265185701,41270.1750655119,53001.9398143783,58765.8021347996,59279.8994932657,10730.9716851795
2440292484,12003,-2,0,41909.5875335575,39653.2950085889,27602.9069507168,52333.8724203147,53973.2140455728,41253.9676933437,52999.9686474930,58761.2757515815,59279.7534809038,10722.6124774621
2440292484,12003,-2,0,41921.5970503217,39653.2463378016,27595.5576618358,52330.8669991994,53990.5286781519,41250.7675890793,52999.2020825932,58760.9715591609,59290.6070664699,10712.5132890991
2440292484,12003,-2,0,41908.4681054498,39649.6203641483,27598.2588905305,52331.4632163437,53973.7859273235,41269.7978669103,52999.1412441090,58761.9571426035,59278.8652390358,10715.8594057254
2440313654,12004,-2,0,41895.0106327636,39658.3932735577,27611.5946862484,52343.1928760811,53965.9134274791,41283.3891842616,53009.3499417435,58771.1559214017,59283.7566531586,10728.1731149102
2440313654,12004,-2,0,41927.1941908603,39673.6150622832,27620.5136080196,52352.7931888744,53989.4700885283,41281.1138249557,53016.5653859595,58779.6611414809,59306.9847863936,10729.7305801035
2440313654,12004,-2,0,41936.2712926902,39667.3973692067,27611.7163632167,52342.6453297240,53978.1784658766,41254.5030720039,53007.5369549169,58771.1559214017,59289.5606445431,10717.8427403075
2440313654,12004,-2,0,41891.5671745627,39647.6491972630,27597.7600149607,52330.4654652043,53942.8069712123,41247.2024539101,52993.3859235118,58756.5181821237,59261.6844511218,10707.9869058809
2440313654,12004,-2,0,41891.2021436580,39655.6068709852,27602.8461122327,52336.6588228871,53965.9499305695,41266.7802780983,52999.4819396201,58762.7602105939,59283.4767961317,10707.3176825557
2440313654,12004,-2,0,41923.3005278769,39668.4316234366,27612.3734188451,52346.5876634947,53995.2862476097,41275.8938830186,53008.4373644818,58771.0342444335,59296.8490949401,10720.8359937260
2440313654,12004,-2,0,41917.4478657051,39670.4757965029,27621.9615639416,52349.6174200036,53987.0852199510,41277.8650499040,53011.4671209907,58774.4898703312,59287.0906020881,10735.0721990088
2440313654,12004,-2,0,41912.5199484918,39675.3307075352,27628.1062508372,52355.0685481803,53991.8792924992,41284.0462398900,53017.9160003068,58780.9144142537,59300.1708761727,10735.5954099722
2440374916,12005,-2,0,41926.7804891683,39674.2234471243,27624.9791527537,52353.1947228695,53998.1091532726,41266.6342657364,53016.6262244436,58779.7949861460,59308.4935807996,10730.6431573653
2440374916,12005,-2,0,41902.9804741826,39660.2184280811,27620.0755709340,52345.3952292060,53970.4519783940,41263.2394783228,53011.3941148097,58774.0153301551,59287.4434652959,10731.1542006318
2440374916,12005,-2,0,41887.1746360096,39662.2260980569,27624.6019541521,52349.6782584877,53968.3104637532,41276.6847833121,53016.6383921404,58778.1036762876,59286.1780248264,10731.0446913604
2440374916,12005,-2,0,41927.3767063126,39676.4623033397,27627.1328350913,52355.4457467818,53997.4520976441,41277.1836588819,53020.5198874269,58785.4651328655,59304.4904085449,10719.4853793786
2440374916,12005,-2,0,41940.7368374242,39671.6803984883,27617.8002116281,52349.7877677591,53989.3605792569,41265.4296637509,53013.9858342330,58778.4200364050,59288.6237318878,10708.5952907221
2440374916,12005,-2,0,41908.5167762370,39662.8344828980,27613.7848716766,52345.8941047758,53964.9400117332,41264.2250617654,53009.8001465259,58772.0198278761,59272.1608380863,10706.3929375971
2440374916,12005,-2,0,41910.4149369414,39670.0985979013,27617.7758762345,52352.2456425173,53982.8265260630,41267.8145323282,53016.2490258421,58778.4078687082,59291.9211777268,10706.2955960225
2440374916,12005,-2,0,41926.5371352318,39672.7146527183,27620.8664712275,52352.5741703316,53991.1127275994,41274.5797717618,53016.2368581453,58780.9265819505,59298.1023677128,10707.6218749763
2440382459,12006,-2,0,41911.1084956603,39666.9106613337,27623.1539982302,52348.1937994753,53970.7561708146,41266.7802780983,53011.6861395335,58775.3416091088,59281.6759770019,10715.3726978525
2440382459,12006,-2,0,41913.8218920518,39668.7966543413,27621.2923406163,52346.1496264090,53976.0247835389,41264.4805833987,53009.9461588878,58773.0297467124,59288.1126886212,10715.9567473000
2440382459,12006,-2,0,41933.5578962987,39668.2004371970,27615.5491877159,52342.0004417924,53985.7467733005,41259.0172875252,53004.2760121683,58771.9224863015,59292.0428546950,10712.3429413436
2440382459,12006,-2,0,41908.6506209021,39659.8290617828,27617.5081869044,52340.8201752006,53962.5308077623,41266.7681104014,53003.3634349066,58768.1991710737,59273.2315954067,10714.7156422240
2440382459,12006,-2,0,41893.1611428465,39663.9904140962,27621.3531791004,52347.6705885119,53962.2144476449,41263.4706645624,53008.4982029659,58770.3650211082,59278.1351772264,10707.2203409811
2440382459,12006,-2,0,41922.1567643756,39667.7015616272,27613.9673871289,52343.3388884429,53984.1528050167,41260.5382496281,53007.9019858216,58770.3650211082,59289.8405015701,10691.5726828668
2440382459,12006,-2,0,41935.8940940887,39664.6961405120,27614.9286351779,52341.7449201591,53980.7093468158,41277.2323296692,53008.8145630833,58771.8008093333,59282.5277157795,10699.7615428286
2440382459,12006,-2,0,41929.8467487677,39673.3473729531,27632.7786464172,52358.8283664985,53980.2469743365,41292.5149568788,53024.1093579897,58787.4728028413,59289.1104397607,10720.6169751832
2440411449,12007,-2,0,41935.9305971791,39674.9778443273,27630.1017531161,52361.4079182250,53994.8968813113,41267.3156567585,53025.7276616672,58785.7814929829,59303.4196512245,10715.0685054319
2440411449,12007,-2,0,41927.3158678285,39657.7483856261,27614.4054242145,52344.4096457634,53980.2956451238,41248.6017390448,53011.7713134113,58772.9324051378,59285.3506214424,10701.7813805012
2440411449,12007,-2,0,41898.8921280501,39645.7023657713,27608.6866067077,52334.0914388575,53959.8174113708,41254.2840534611,53003.4486087844,58764.2690049999,59264.2761705451,10703.2415041200
2440411449,12007,-2,0,41907.1904972833,39649.7298734197,27608.0295510793,52331.6457317961,53969.7584196751,41249.1249500082,53001.1367463880,58763.2347507699,59274.0589987907,10697.5348543100
2440411449,12007,-2,0,41925.0648439162,39645.9335520110,27601.4224917044,52323.9800827976,53974.5524922234,41238.6850661341,52993.8969667784,58757.0413930871,59275.6407993777,10690.0273853703
2440411449,12007,-2,0,41895.0714712477,39631.9772037551,27597.1394624228,52317.6893835402,53944.1332501660,41244.0510204330,52985.6351006356,58748.2441482841,59253.0575540743,10687.6911875803
2440411449,12007,-2,0,41886.5905865621,39640.0443867487,27607.7740294460,52327.9224165683,53955.5587174828,41264.1398878877,52992.8748802452,58756.3965051555,59266.7462130001,10694.2252407742
2440411449,12007,-2,0,41927.4497124935,39656.4707774596,27617.0093113346,52337.4740585743,53986.5255058971,41267.2913213648,53000.2241691263,58766.2766749757,59288.9400920052,10700.8323001490
2440445240,12008,-2,0,41939.8242601625,39659.2085092448,27625.4658606266,52339.2992130977,53979.9062788255,41273.3264989890,53002.8280562464,58770.1460025654,59279.5222946642,10712.1117551039
2440445240,12008,-2,0,41929.5303886503,39663.4307000424,27633.1680127155,52347.1108744580,53970.6709969368,41271.1363135609,53012.1485120128,58775.4876214707,59279.9238286594,10714.2045989575
2440445240,12008,-2,0,41943.9247739918,39670.2202748696,27632.2919385442,52350.2379725415,53983.9216187770,41270.0655562405,53017.3927893435,58783.5426367674,59299.2096281237,10710.8098115439
2440445240,12008,-2,0,41944.1437925346,39670.2081071728,27631.7322244904,52347.2203837295,53976.5723298960,41269.8952084849,53016.8939137737,58784.8445803275,59293.7950030375,10718.1956035154
2440445240,12008,-2,0,41917.7155550352,39667.1296798765,27633.6425528916,52344.1176210396,53958.9170018059,41272.1949031845,53014.0710081108,58781.6323083662,59280.3618657450,10718.6093052074
2440445240,12008,-2,0,41930.4429659120,39670.2689456569,27630.6736348668,52343.3023853525,53975.5989141501,41266.8167811887,53011.3941148097,58780.6467249236,59292.8337549885,10708.8629800522
2440445240,12008,-2,0,41946.2731394786,39664.2337680327,27622.8376381128,52336.1356119238,53975.4407340914,41251.2908000427,53004.4706953175,58771.2897660667,59287.5651422642,10700.1265737333
2440445240,12008,-2,0,41909.0643225941,39645.3860056539,27614.4175919113,52325.5618833846,53937.9398924831,41242.1406920318,52994.0794822307,58758.3798397376,59259.2630794540,10693.6168559330
2440492527,12009,-2,0,41896.9696319521,39646.2377444316,27616.3765910998,52328.4334598348,53943.5613684153,41261.5603361612,52997.3647603729,58759.5966094199,59269.4352739980,10693.0328064855
2440492527,12009,-2,0,41936.2712926902,39663.3455261646,27630.3451070526,52341.5137339195,53979.5534156176,41273.8618776492,53009.6176310736,58777.2032667227,59294.0383569740,10707.3785210398
2440492527,12009,-2,0,41940.2014587640,39665.4870408054,27635.3703658405,52342.8521805700,53970.4154753036,41272.6694433606,53012.5743814016,58779.1622659112,59282.8927466842,10718.9986715057
2440492527,12009,-2,0,41922.1810997692,39666.6064689132,27637.6457251463,52345.7967632012,53964.6844901000,41272.8397911161,53016.5288828690,58782.3745378724,59283.0144236524,10721.6147263226
2440492527,12009,-2,0,41933.8012502351,39669.9039147522,27635.5285458992,52348.2059671721,53979.2370555002,41269.7126930326,53018.0011741846,58786.9374241810,59299.7693421776,10713.6570526004
2440492527,12009,-2,0,41921.0738393583,39660.7538067413,27628.7024679815,52342.4749819685,53964.3316268921,41255.7928478671,53012.2458535874,58781.0360912219,59284.4745472711,10706.5146145654
2440492527,12009,-2,0,41896.7749488029,39655.6798771662,27622.3874333304,52340.3212996309,53951.8110668613,41250.4877320523,53010.1530097338,58776.2906894610,59269.7272987217,10693.6411913267
2440492527,12009,-2,0,41920.0274174315,39660.5104528049,27615.6465292905,52337.7052448139,53975.4894048787,41250.9257691380,53007.6342964915,58772.9810759251,59281.6759770019,10681.4248237165
2440507546,12010,-2,0,41944.8738543440,39663.1265076218,27616.7172866109,52337.9972695377,53980.4903282730,41261.9983732468,53008.1453397580,58774.1126717297,59283.2942806793,10694.1887376837
2440507546,12010,-2,0,41920.7939823314,39662.9561598663,27630.4181132335,52344.1054533428,53963.8327513224,41279.0574841926,53015.9083303311,58780.4033709871,59276.6142151235,10715.8959088159
2440507546,12010,-2,0,41914.6857985263,39673.7732423419,27643.6565673769,52352.7201826934,53976.1464605072,41286.2607607118,53026.1535310560,58790.2835408074,59298.4917340112,10723.2817007874
2440507546,12010,-2,0,41935.0666907047,39675.5862291685,27641.4663819487,52350.6030034462,53985.7346056036,41270.1385624214,53023.8903394469,58791.0744411008,59304.2957253957,10720.2884473689
2440507546,12010,-2,0,41917.8493997002,39656.8723114548,27629.5177036686,52335.3203762366,53954.1472646513,41254.1258734024,53010.9074069368,58777.6534715051,59272.9517383798,10709.8363957980
2440507546,12010,-2,0,41904.7447902219,39650.8249661338,27622.6429549637,52332.2054458499,53947.6375468510,41254.1137057056,53006.7582223202,58776.0595032213,59271.9661549372,10700.4551015475
2440507546,12010,-2,0,41927.4375447967,39654.9984861441,27620.2459186895,52335.3812147207,53966.2906260806,41260.5747527186,53011.0655869955,58779.0284212461,59287.2974529341,10697.4496804323
2440507546,12010,-2,0,41923.0085031532,39656.6289575183,27627.9480707785,52341.5624047068,53960.9368394785,41268.1308924456,53016.6748952309,58783.1289350755,59283.9148332173,10706.1739190543
2440539927,12011,-2,0,41903.0899834540,39658.9164845211,27634.3847823978,52344.1906272205,53954.9138295511,41266.6099303427,53018.9137514463,58784.0171769435,59282.8197405032,10711.1505070549
2440539927,12011,-2,0,41928.1797743029,39665.9372455879,27633.5330436202,52344.2149626142,53981.7679364394,41260.0880448456,53017.8551618227,58784.7715741466,59300.5602424711,10709.2401786537
2440539927,12011,-2,0,41943.9126062950,39663.1873461059,27632.0972553951,52339.7980886675,53981.9382841949,41270.1263947246,53012.2823566778,58780.7927372855,59292.5417302647,10712.1117551039
2440539927,12011,-2,0,41918.9444924143,39662.8344828980,27640.9188355917,52345.6872539298,53968.6511592642,41276.2954170138,53017.8429941259,58784.4673817260,59283.7444854618,10717.1856846791
2440539927,12011,-2,0,41914.3451030152,39666.7159781846,27641.5393881297,52351.6980961603,53979.4682417398,41269.9925500595,53022.1381911044,58789.3222927583,59297.4088089939,10708.1329182428
2440539927,12011,-2,0,41936.1739511156,39672.8363296865,27642.5493069660,52355.2632313294,53992.8405405482,41279.4955212782,53026.1413633592,58794.7004147541,59305.7558490145,10713.8395680528
2440539927,12011,-2,0,41935.8454233014,39677.9345946553,27652.2347936370,52360.9455457457,53985.0167114911,41286.7353008879,53033.5758261180,58800.8816047401,59298.1632061970,10727.4795561913
2440539927,12011,-2,0,41938.2546272723,39684.1401200350,27654.4736498525,52362.8802095406,53991.5507646850,41274.0322254047,53035.4009806414,58803.3516471952,59303.1884649848,10726.2506188122
2440573691,12012,-2,0,41954.4619994405,39678.9323457948,27642.2207791518,52353.3529029282,53996.0041417222,41256.9731144590,53028.4532257555,58797.1339541187,59304.1253776402,10711.2356809327
2440573691,12012,-2,0,41935.9184294823,39664.6231343310,27636.8426571560,52347.8044331770,53971.6322449859,41263.2394783228,53020.0575149477,58790.8797579517,59282.6980635350,10708.5222845411
2440573691,12012,-2,0,41913.3595195726,39666.3752826735,27647.5745657539,52353.0852135981,53966.7286631662,41278.1935777182,53025.0341029483,58795.7590043777,59286.7255711834,10714.5696298622
2440573691,12012,-2,0,41941.0288621479,39679.3460474868,27654.3033020970,52360.3249932078,54001.5526114735,41285.9200652007,53030.2662125821,58804.6414230584,59313.8960381890,10715.3483624588
2440573691,12012,-2,0,41950.2398086429,39673.4203791340,27650.0324405121,52353.6449276520,53997.8779670329,41274.3607532190,53026.2022018433,58799.0321148230,59303.7360113419,10721.0671799656
2440573691,12012,-2,0,41916.8029777735,39661.8367317586,27647.0635224873,52347.3542283945,53974.8688523408,41273.4603436541,53020.1913596127,58789.6629882694,59288.9644273988,10724.3281227142
2440573691,12012,-2,0,41912.7146316410,39664.2216003359,27646.4429699493,52347.6340854214,53984.7855252515,41272.7911203288,53022.3937127377,58790.2713731105,59303.8090175228,10721.8945833496
2440573691,12012,-2,0,41921.3780317789,39663.9904140962,27644.6178154259,52345.4804030838,53988.9347098681,41280.0674030289,53021.1526076617,58789.3101250615,59305.3178119288,10719.5340501659
2440611213,12013,-2,0,41910.2202537923,39666.3509472799,27653.9261034954,52352.9392012362,53975.8179326930,41288.9498217097,53025.4599723371,58794.1407007002,59295.9730207688,10727.7837486119
2440611213,12013,-2,0,41915.7565558467,39675.0021797210,27658.2699712612,52358.5728448653,53987.1947292224,41290.9453239886,53030.5704050027,58795.9050167395,59307.9947052299,10726.9076744406
2440611213,12013,-2,0,41933.0833561226,39673.2743667721,27653.3055509575,52352.6593442093,53994.4588442257,41283.8393890440,53024.9367613737,58790.6850748025,59313.9812120668,10724.8148305871
2440611213,12013,-2,0,41904.0877345935,39661.8732348490,27650.6408253532,52345.5169061742,53966.7286631662,41278.8384656498,53017.5266340085,58782.9220842295,59295.6809960451,10734.8896835565
2440611213,12013,-2,0,41875.2137900327,39658.6974659782,27652.0766135784,52341.7814232496,53959.2576973169,41273.5698529255,53015.3729516708,58778.0185024098,59294.9265988420,10737.1407074687
2440611213,12013,-2,0,41897.6996937614,39660.9849929810,27646.1509452256,52337.4132200902,53975.7084234215,41266.2814025285,53010.2016805211,58776.1690124927,59307.4958296601,10724.4497996824
2440611213,12013,-2,0,41909.2590057432,39659.3301862130,27645.5303926876,52336.9995183982,53967.0085201931,41277.2079942755,53010.2990220957,58775.4146152897,59300.3533916251,10726.1776126312
2440611213,12013,-2,0,41893.0394658783,39659.8047263891,27652.3564706053,52343.9837763746,53952.2491039469,41288.9984924970,53016.7113983214,58781.0847620092,59298.9419387936,10733.5025661186
2440631577,12014,-2,0,41905.3288396694,39668.9791697936,27657.7832633883,52353.1338843854,53965.1225271856,41290.3126037538,53025.1557799165,58787.0469334524,59321.8537119112,10732.1032809840
2440631577,12014,-2,0,41910.9624832985,39663.7470601598,27654.4128113684,52347.5854146341,53956.4591270477,41279.4590181878,53019.7289871335,58781.6323083662,59315.0032985999,10729.9495986463
2440631577,12014,-2,0,41885.4589907576,39656.5681190342,27652.3564706053,52340.1266164817,53930.3229142720,41273.6550268032,53013.2071016364,58770.6692135288,59296.8977657274,10738.2966386669
2440631577,12014,-2,0,41886.7852697113,39656.8844791516,27647.2582056365,52334.6146498209,53935.9322225073,41265.0524651494,53004.3246829556,58763.0522353176,59303.1641295912,10736.0334470578
2440631577,12014,-2,0,41902.6884494589,39655.0228215377,27644.6178154259,52328.8714969205,53943.6708776867,41272.7059464510,53000.5770323341,58760.6551990435,59309.5034996359,10732.8941812775
2440631577,12014,-2,0,41875.3598023945,39646.3715890966,27644.6786539100,52326.7299822796,53916.9749508572,41272.7059464510,52998.2895053314,58755.8732941921,59288.5263903132,10728.9031767196
2440631577,12014,-2,0,41859.4687903438,39651.0683200703,27648.0126028395,52333.6412340751,53920.4670798454,41279.5563597623,53005.2494279142,58758.8665476105,59297.1411196638,10723.6588993889
2440631577,12014,-2,0,41888.2453933300,39659.6343786336,27647.1000255778,52336.9386799141,53946.8466465575,41278.4856024419,53006.2593467505,58762.1396580559,59311.5598403990,10716.6989768062
2440658723,12015,-2,0,41887.6005053984,39655.9962372836,27647.2703733333,52333.0085138403,53939.0593205908,41275.3706720553,53004.5193661048,58758.1608211948,59297.8955168668,10726.0194325725
2440658723,12015,-2,0,41871.5513132889,39660.4131112303,27654.2667990065,52340.1509518753,53939.0593205908,41281.5153589508,53011.5279594748,58762.4681858701,59301.0347826472,10740.3773148236
2440658723,12015,-2,0,41877.8420125464,39664.2946065168,27652.2226259402,52340.5646535673,53954.6826433115,41271.3674998005,53010.7613945750,58763.9769802762,59315.9523789521,10738.0897878209
2440658723,12015,-2,0,41868.6188983546,39652.8813068969,27641.9895929121,52328.9566707982,53940.7506304492,41260.3557341757,53001.9154789847,58755.6299402556,59301.2538011900,10730.1321140987
2440658723,12015,-2,0,41843.2249150851,39649.2431655468,27643.3402072595,52327.1680193653,53919.9438688820,41268.3620786852,53000.4066845786,58752.4420036880,59286.0320124645,10730.9716851795
2440658723,12015,-2,0,41864.0681797428,39657.9065656848,27645.1775294797,52330.4898005979,53939.8623885812,41269.3233267343,53001.8546405006,58754.6321891161,59300.6575840456,10728.0149348515
2440658723,12015,-2,0,41889.2066413790,39657.7483856261,27642.1964437581,52327.3261994239,53944.7172996135,41262.5702549975,52996.9997294682,58752.0161342992,59299.5138205443,10727.4187177072
2440658723,12015,-2,0,41862.5958884273,39652.7231268382,27644.1919460371,52327.1680193653,53920.6374276009,41272.1218970035,52996.3791769302,58753.4032517370,59284.5353857553,10736.1064532388
2440693601,12016,-2,0,41847.4227704891,39660.9606575873,27649.0833601599,52331.5483902215,53927.7311948487,41279.8362167893,53002.6455407941,58758.9152183978,59299.7328390871,10737.2258813465
2440693601,12016,-2,0,41875.5179824532,39673.4812176181,27651.5777380086,52334.9066745446,53950.2414339711,41274.0687284952,53006.1011666918,58764.7435451760,59313.3363241352,10728.4773073308
2440693601,12016,-2,0,41871.8311703159,39666.3387795831,27646.4429699493,52326.4866283432,53931.2354915337,41270.2480716928,52997.0970710428,58755.7516172238,59290.8869234968,10723.8657502349
2440693601,12016,-2,0,41863.1312670875,39663.9295756121,27647.4528887856,52329.6258941235,53928.0353872693,41273.9835546174,52996.0141460255,58754.0359719718,59288.0396824403,10729.6210708321
2440693601,12016,-2,0,41881.0056137204,39667.5920523558,27646.4673053430,52330.9035022899,53944.8633119754,41269.0921404946,52996.4765185048,58756.0314742508,59300.8035964075,10732.4561441919
2440693601,12016,-2,0,41873.1087784823,39663.3211907710,27648.9981862821,52329.5163848521,53936.2729180184,41275.9547215028,52996.2209968715,58758.0026411361,59291.8360038490,10741.0222027552
2440693601,12016,-2,0,41847.7391306065,39663.2846876805,27653.5610725907,52332.9233399625,53923.1804762369,41274.5554363681,52999.3115918646,58758.2094919821,59285.0707644155,10740.4868240950
2440693601,12016,-2,0,41866.1366882027,39668.5289650112,27651.5899057054,52333.9940972829,53945.8123923276,41268.9096250423,53000.6257031214,58758.3555043439,59298.6255786762,10733.1862060013
2440730465,12017,-2,0,41882.8794390311,39661.7272224872,27644.3987968831,52325.8174050179,53947.3211867336,41263.7748569830,52993.2520788467,58751.2739047930,59288.2708686799,10731.4948961429
2440730465,12017,-2,0,41851.8031413453,39650.0584012340,27645.4573865067,52321.0111647728,53925.4315001491,41261.3048145279,52990.2709931251,58745.0197086260,59270.7858883453,10732.3709703141
2440730465,12017,-2,0,41833.4664222331,39648.5617745247,27641.8192451566,52318.0544144449,53929.4590077975,41256.9852821558,52988.4945093890,58742.3306476281,59277.1982645710,10729.0613567783
2440730465,12017,-2,0,41850.2821792424,39648.3549236787,27633.5938821043,52315.6452104739,53944.9119827627,41254.7707613340,52985.1848958531,58741.2720580045,59283.3672868603,10725.4718862155
2440730465,12017,-2,0,41846.2911746845,39646.5176014585,27635.7353967451,52317.8840666893,53931.7952055875,41265.5391730223,52988.0078015160,58743.6569265818,59271.5159501547,10730.9351820890
2440730465,12017,-2,0,41842.2271639457,39654.6699583299,27642.0260960026,52324.5884676388,53934.9223036710,41274.0565607984,52992.2178246168,58749.6677688124,59284.2311933347,10731.6287408079
2440730465,12017,-2,0,41868.5945629610,39669.1495175492,27649.8012542725,52332.7286568133,53960.4622993024,41278.8506333466,52999.9686474930,58761.5677763052,59309.8076920565,10736.7635088672
2440730465,12017,-2,0,41861.1601002022,39667.4095369035,27654.1329543414,52330.8913345931,53946.7249695893,41274.7257841236,53000.1633306422,58762.2126642368,59300.0005284172,10743.9546176896
2440752515,12018,-2,0,41836.4110048643,39666.3144441894,27657.1992139408,52329.6015587298,53937.6357000626,41278.2057454150,53000.0781567644,58761.1054038259,59293.4421398296,10744.6846794989
2440752515,12018,-2,0,41858.4467038106,39674.7588257845,27651.5047318277,52328.9688384950,53964.7818316745,41268.4107494725,52999.9929828866,58761.3122546719,59307.2768111173,10731.9572686221
2440752515,12018,-2,0,41869.1907801053,39668.6384742826,27643.3158718658,52317.5312034815,53965.0251856110,41263.9208693449,52991.4269243233,58753.9264627004,59294.8170895706,10726.2992895995
2440752515,12018,-2,0,41843.9428091977,39664.6839728151,27648.4993107124,52315.9615705913,53943.5978715058,41269.4085006120,52989.5409313157,58752.8070345927,59282.5520511731,10736.9095212291
2440752515,12018,-2,0,41838.8202088352,39666.5091273386,27654.2667990065,52320.4757861126,53946.9318204353,41267.5955137854,52991.6702782598,58755.0337231113,59296.7760887591,10735.1330374929
2440752515,12018,-2,0,41857.2907726125,39667.6528908399,27651.2613778912,52322.5807976630,53950.9228249932,41262.5702549975,52992.3151661914,58756.3234989745,59300.5115716838,10733.8310939329
2440752515,12018,-2,0,41847.9094783620,39663.3698615583,27650.6408253532,52323.8462381326,53934.1070679839,41266.9506258538,52993.3859235118,58755.1310646859,59284.8152427822,10736.7270057767
2440752515,12018,-2,0,41851.3407688660,39668.0787602287,27652.8188430846,52327.2410255462,53946.7858080734,41273.3508343826,52999.5549458010,58758.7570383391,59294.8779280548,10730.9351820890
2440788469,12019,-2,0,41877.1362861307,39675.7565769240,27653.6705818622,52328.5673044999,53971.8512635287,41273.5211821382,53002.1710006180,58761.5434409116,59309.3574872741,10732.5899888569
2440788469,12019,-2,0,41860.0163367008,39668.8574928254,27652.5633214513,52323.4690395311,53955.6317236637,41270.7834503530,52997.9853129109,58754.7295306907,59291.6778237903,10741.3994013567
2440788469,12019,-2,0,41833.3812483554,39668.0422571383,27654.8995192413,52327.6547272382,53948.4892856286,41273.8497099524,53002.4630253417,58754.4010028765,59288.9400920052,10745.6945983352
2440788469,12019,-2,0,41853.7743082306,39671.2180260091,27648.6939938616,52324.2477721277,53967.6899112152,41263.8965339512,52998.7153747202,58751.2130663089,59302.7504278992,10736.9338566227
2440788469,12019,-2,0,41861.0019201435,39662.0557503014,27639.7994074840,52312.1044106984,53955.4005374241,41251.2299615585,52989.6382728903,58741.7344304838,59286.1536894327,10730.0347725241
2440788469,12019,-2,0,41833.6124345950,39652.2120835716,27636.6723094005,52306.8114625805,53928.0110518756,41250.0496949667,52982.0943008601,58734.7501725074,59266.5880329414,10727.6255685532
2440788469,12019,-2,0,41838.1874886004,39656.7749698802,27636.2829431022,52310.3765977496,53942.8434743028,41253.3714761994,52985.7567776038,58739.9457790508,59284.2433610315,10726.7373266851
2440788469,12019,-2,0,41851.9856567977,39660.2914342620,27638.2662776843,52311.4838581605,53952.8574887881,41257.5449962096,52987.9712984256,58743.0363740439,59287.7598254133,10728.6841581768
2440842664,12020,-2,0,41833.5637638077,39656.9939884230,27641.5028850392,52309.1476603705,53937.6722031530,41259.4431569140,52988.0199692129,58743.5352496136,59273.4262785559,10729.7670831940
2440842664,12020,-2,0,41840.8035434174,39664.4527865755,27646.7471623699,52315.3410180533,53953.1130104213,41269.7856992135,52994.0308114434,58750.7993646169,59289.6944892082,10725.0703522204
2440842664,12020,-2,0,41871.2349531716,39670.3906226251,27649.5700680328,52315.0854964201,53970.0261090052,41266.4274148904,52994.2863330767,58753.6101025830,59301.0834534345,10726.5426435359
2440842664,12020,-2,0,41854.4070284654,39662.1895949664,27651.7845888546,52313.3820188649,53946.7614726798,41263.9695401322,52992.4246754628,58750.2396505630,59283.9391686109,10737.5909122512
2440842664,12020,-2,0,41831.7629446779,39661.3500238857,27652.6728307227,52314.1850868552,53940.6776242683,41258.9686167379,52992.4368431596,58751.5050910326,59283.2821129825,10737.7125892194
2440842664,12020,-2,0,41855.0884194875,39664.8543205707,27645.1896971766,52311.6542059160,53960.5839762706,41247.8108387513,52988.9690495651,58748.6335145824,59292.3348794188,10727.2848730421
2440842664,12020,-2,0,41865.5283033616,39659.8412294796,27640.5903077775,52306.3247547075,53954.5609663433,41250.1957073286,52986.2556531735,58743.0607094375,59278.1473449232,10728.5989842990
2440842664,12020,-2,0,41848.3596831444,39658.5636213132,27646.1874483160,52309.0381510991,53943.0503251488,41260.9154482296,52988.0199692129,58746.2243106115,59271.7836394848,10735.7779254245
2440877381,12021,3,0,41855.4899534827,39661.5447070348,27647.3433795142,52311.2891750113,53957.9800891505,41250.8162598666,52988.4701739953,58746.1269690369,59284.2311933347,10730.4606419129
2440877381,12021,3,0,41860.1501813658,39655.3270139583,27641.3812080710,52306.7019533091,53951.4217005630,41246.0951934993,52984.8807034326,58739.8606051731,59275.6773024682,10726.2992895995
2440877381,12021,3,0,41843.1397412074,39654.6334552394,27647.0148517000,52310.2792561750,53934.9344713679,41260.6842619900,52988.1051430906,58740.8461886157,59265.1765801100,10732.1884548618
2440877381,12021,3,0,41863.6301426572,39669.4902130602,27655.7269226252,52321.5587111299,53959.0995172582,41267.7658615409,52999.3724303487,58750.9088738883,59287.8936700784,10735.7535900309
2440877381,12021,3,0,41894.1588939860,39676.4988064302,27657.9049403565,52321.8020650663,53977.6309195196,41264.2007263718,52999.8469705248,58752.6123514435,59298.1023677128,10735.4980683976
2440877381,12021,3,0,41865.1632724569,39663.9295756121,27652.3077998180,52309.7317098180,53947.4306960050,41252.0573649425,52989.4922605285,58742.7686847138,59272.2095088736,10735.9239377864
2440877381,12021,3,0,41838.9175504098,39658.8799814306,27647.7327458126,52305.8623822283,53939.8623885812,41253.3471408057,52985.8541191784,58740.5054931047,59272.8787321989,10732.0789455904
2440877381,12021,3,0,41864.1776890142,39664.7204759056,27645.1288586925,52307.4806859057,53959.5497220407,41251.3638062236,52986.2191500831,58743.7055973691,59287.8936700784,10726.4453019613
2440887610,12022,3,0,41870.0425188829,39660.2184280811,27643.7295735578,52304.0250600080,53946.1044170513,41249.8793472112,52984.1019708359,58740.9191947967,59272.3920243260,10726.8955067438
2440887610,12022,3,0,41861.5129634100,39662.2626011474,27648.8400062235,52309.7803806053,53940.0570717303,41258.4819088650,52990.0763099759,58744.8493608705,59271.4672793674,10730.0347725241
2440887610,12022,3,0,41878.1705403606,39669.5388838475,27650.1419497835,52311.6420382192,53959.2090265296,41258.9564490411,52995.8072951796,58750.1058058980,59290.9112588905,10732.9185166711
2440887610,12022,3,0,41875.4814793628,39665.8034009228,27649.5092295487,52309.0868218864,53952.7844826071,41258.5914181364,52992.8140417611,58746.8691985431,59282.4668772954,10735.5467391849
2440887610,12022,3,0,41848.2866769635,39659.8899002669,27651.1397009230,52309.3788466101,53938.4631034465,41259.4674923077,52992.8383771548,58743.7907712469,59268.8755599441,10736.1064532388
2440887610,12022,3,0,41869.4463017386,39671.4492122487,27655.3132209333,52317.9449051735,53966.6069861980,41268.8852896486,53001.0515725102,58752.1134758738,59289.6214830272,10736.7148380799
2440887610,12022,3,0,41897.6631906710,39673.8462485228,27653.3177186543,52316.2414276182,53975.8787711771,41261.5238330708,52998.1069898791,58753.4154194338,59293.3691336487,10734.3056341090
2440887610,12022,3,0,41866.1488558996,39658.1255842276,27647.6962427221,52305.1688235094,53940.1909163954,41258.7617658919,52989.0785588365,58743.9489513056,59270.3600189565,10726.9685129247
2440908718,12023,3,0,41842.3975117012,39653.8547226427,27646.3577960716,52302.0295577290,53931.8925471621,41258.7739335888,52984.6373494961,58740.5298284983,59273.8764833384,10722.1257695892
2440908718,12023,3,0,41859.1645979232,39654.3901013029,27642.0139283058,52297.4666714204,53946.6397957115,41250.6094090206,52982.2889840093,58738.4734877353,59282.9535851683,10720.1546027039
2440908718,12023,3,0,41854.2610161035,39649.0971531849,27640.3712892347,52295.0574674495,53934.8371297933,41252.3007188790,52980.0014570066,58734.4581477837,59265.7362941638,10728.9883505973
2440908718,12023,3,0,41851.6692966803,39659.4031923940,27652.4538121799,52306.9574749423,53943.5005299312,41271.7568660988,52992.6923647929,58745.4699134085,59272.9152352893,10739.7202591952
2440908718,12023,3,0,41881.8573524980,39673.6272299800,27657.9049403565,52318.2004268067,53973.2627163601,41266.3300733158,53000.3215107009,58755.4595925001,59293.8680092185,10743.5530836944
2440908718,12023,3,0,41875.9316841452,39666.4482888545,27650.4704775977,52311.8123859747,53958.2842815711,41256.3038911337,52995.6977859082,58748.8038623379,59279.2181022436,10738.6008310875
2440908718,12023,3,0,41844.8188833689,39661.0458314651,27649.1320309472,52309.4031820037,53938.4509357497,41260.0758771488,52991.9379675899,58744.4356591785,59266.3446790050,10736.4228133562
2440908718,12023,3,0,41865.4918002711,39669.5875546348,27649.3267140964,52312.3964354222,53961.0220133563,41256.1092079845,52993.3615881181,58747.2220617510,59282.3086972367,10728.6598227831
2440977514,12024,3,0,41881.6991724393,39660.1332542034,27637.4388743004,52300.6546079881,53955.5952205732,41241.5079717970,52981.2060589920,58737.0255318133,59270.1653358074,10716.3096105078
2440977514,12024,3,0,41852.3506877023,39648.7321222803,27637.4145389067,52297.6735222664,53932.4035904287,41247.2997954847,52979.7094322828,58732.3288008397,59252.9480448029,10723.0626822446
2440977514,12024,3,0,41842.7990456963,39651.2143324321,27643.1333564135,52301.0926450737,53938.0859048450,41256.3160588305,52983.7004368407,58736.6726686055,59269.0094046092,10727.7837486119
2440977514,12024,3,0,41864.4332106475,39661.3013530984,27652.5998245417,52308.1012384437,53958.5154678107,41264.8091112129,52992.6436940056,58746.0174597655,59287.6138130515,10736.1307886324
2440977514,12024,3,0,41858.6292192630,39661.2405146142,27658.6958406500,52310.0967407227,53948.6109625969,41267.1939797902,52993.5197681768,58749.3392409981,59276.0788364633,10742.4823263740
2440977514,12024,3,0,41856.1105060206,39668.7723189476,27662.9545345381,52316.8133093689,53953.6240536879,41269.0556374041,52999.7617966470,58753.9629657909,59282.8684112905,10739.7324268920
2440977514,12024,3,0,41880.9447752363,39675.5862291685,27660.5088274767,52318.3707745623,53972.8125115777,41263.7870246798,53000.2485045199,58757.4915978695,59295.9486853752,10732.2249579522
2440977514,12024,3,0,41870.7360776018,39668.2734433779,27657.5034063614,52312.9561494760,53953.0643396340,41259.0294552220,52995.4544319717,58751.8457865437,59278.3176926787,10729.5358969544
2440983878,12025,3,0,41841.3510897744,39666.3874503703,27659.7300948800,52312.6762924491,53936.8326320722,41260.9276159264,52996.5495246858,58752.2473205388,59270.7980560421,10728.5624812085
2440983878,12025,3,0,41862.9365839383,39674.7344903909,27657.2600524249,52313.3941865617,53958.9900079868,41255.7685124735,52996.7807109254,58754.5713506320,59287.6381484451,10722.8314960049
2440983878,12025,3,0,41881.4436508060,39670.2446102632,27648.7304969520,52308.2229154119,53957.9922568473,41250.6945828983,52991.9501352867,58748.9985454871,59277.8796555931,10722.0040926210
2440983878,12025,3,0,41859.1159271359,39665.1463452944,27653.5975756812,52311.1918334367,53939.3391776178,41264.0303786163,52995.5882766367,58748.4388314333,59267.2572562667,10734.6950004073
2440983878,12025,3,0,41855.7089720255,39668.2004371970,27655.3010532364,52314.0147390996,53950.2657693648,41260.2827279948,52999.7496289502,58750.8602031010,59286.3118694914,10738.9050235080
2440983878,12025,3,0,41861.1966032926,39663.5158739201,27648.3532983505,52305.0714819348,53952.5046255802,41248.0906957782,52993.2520788467,58746.4068260638,59284.4502118775,10731.0933621477
2440983878,12025,3,0,41838.5646872019,39654.9619830536,27642.5249715723,52296.3107402223,53928.7411136850,41241.6174810684,52985.3065728214,58737.7312582291,59260.8083769505,10727.7715809150
2440983878,12025,3,0,41832.2131494604,39654.6942937235,27642.3546238168,52296.3472433127,53932.2089072795,41243.6981572251,52982.7391887917,58737.9137736814,59262.4753514153,10718.5606344201
2441012631,12026,3,0,41859.7851504612,39659.5735401495,27643.3280395627,52296.8582865793,53949.8398999760,41251.4854831918,52984.6981879802,58740.5298284983,59273.3776077686,10718.3051127868
2441012631,12026,3,0,41849.6372913108,39658.4176089513,27649.8864281502,52298.8902919487,53934.8127943996,41256.8514374907,52985.6837714229,58742.0872936917,59263.8746365499,10730.0347725241
2441012631,12026,3,0,41823.4280723542,39660.0967511129,27655.3132209333,52303.5626875287,53926.7091083156,41255.0506183609,52989.1759004110,58741.0165363713,59265.1157416258,10737.8464338844
2441012631,12026,3,0,41845.4516036037,39668.0422571383,27652.3929736958,52302.6987810543,53951.7745637708,41255.5616616275,52987.9956338192,58741.3937349728,59284.2555287283,10735.6319130627
2441012631,12026,3,0,41860.0650074881,39666.6916427909,27651.1031978325,52299.2674905502,53949.8398999760,41246.0221873183,52984.4061632565,58737.3905627180,59275.8598179205,10735.4980683976
2441012631,12026,3,0,41835.0238874265,39659.4275277876,27648.0126028395,52294.0597163100,53928.5585982326,41244.3917159440,52980.7071834223,58733.5455705220,59260.5771907109,10735.2668821580
2441012631,12026,3,0,41840.3168355445,39660.0359126288,27646.7958331572,52298.0993916552,53940.6411211778,41255.0262829673,52985.6716037260,58738.2179661020,59278.2811895883,10730.2902941574
2441012631,12026,3,0,41857.2055987347,39660.8511483159,27647.8665904776,52303.0151411717,53949.0246642888,41257.3989838478,52990.7820363917,58743.2797279803,59284.9369197504,10731.2272068128
2441032635,12027,3,0,41842.2393316425,39656.8479760612,27649.7647511820,52304.5361032746,53931.2354915337,41254.2962211579,52993.7996252038,58743.1945541026,59270.8588945263,10734.7315034978
2441032635,12027,3,0,41852.9104017562,39664.9516621452,27652.6606630259,52309.0624864927,53945.5568706943,41256.6689220384,53000.1389952485,58748.0494651349,59286.7864096675,10732.0546101967
2441032635,12027,3,0,41881.9546940726,39671.3640383709,27654.1937928255,52309.0138157054,53964.3681299826,41260.2218895107,53000.1389952485,58751.7241095754,59297.6643306272,10729.6697416194
2441032635,12027,3,0,41867.9010042421,39672.3252864199,27665.5462539614,52312.8466402046,53950.6064648758,41270.0655562405,53002.0614913465,58755.8367911016,59284.2433610315,10740.6571718505
2441032635,12027,3,0,41837.9806377545,39669.4415422729,27663.5142485919,52309.9993991481,53937.1246567960,41254.2962211579,52998.5693623584,58750.3248244408,59277.9648294709,10737.3718937083
2441032635,12027,3,0,41853.8108113211,39668.8696605222,27650.8111731088,52302.7717872353,53951.0810050519,41244.0996912203,52990.0033037950,58745.1778886847,59285.4844661074,10729.8035862845
2441032635,12027,3,0,41863.3867887208,39661.7028870935,27644.6543185164,52292.8429466277,53941.5171953491,41250.0983657540,52982.7513564885,58738.1692953147,59271.8444779689,10731.8842624412
2441032635,12027,3,0,41854.9667425193,39661.7758932744,27652.7945076909,52299.0119689170,53932.3792550350,41267.4373337267,52989.0785588365,58740.2986422587,59269.8003049027,10739.5620791365
2441091195,12028,3,0,41868.6675691419,39669.0278405809,27657.3695616963,52304.4265940032,53951.3243589884,41262.5945903912,52992.5950232183,58743.8151066405,59288.1978624990,10735.8752669991
2441091195,12028,3,0,41871.4661394112,39662.8101475044,27654.2302959160,52299.7176953327,53948.3676086604,41251.6071601600,52992.4611785532,58740.7245116475,59283.3429514666,10734.0257770820
2441091195,12028,3,0,41843.7846291390,39653.9398965205,27652.8918492655,52296.0065478017,53927.4270024281,41248.7355837098,52992.2543277073,58734.2147938472,59264.5681952688,10733.9649385979
2441091195,12028,3,0,41854.7963947638,39661.5690424285,27653.5854079844,52301.3725021006,53943.9142316232,41253.0916191725,52997.2552511015,58739.8119343858,59278.3785311628,10727.4552207976
2441091195,12028,3,0,41886.7609343176,39667.3121953289,27652.7093338131,52306.0692330743,53961.0341810531,41259.6378400632,53000.1024921581,58744.0097897897,59287.3947945086,10731.6652438984
2441091195,12028,3,0,41870.2006989416,39664.9638298421,27657.5764125423,52307.4198474216,53944.0480762883,41255.1479599355,53001.8303051069,58747.0152109050,59272.5745397783,10744.3561516847
2441091195,12028,3,0,41839.1730720431,39662.0922533918,27654.6439976080,52302.8082903257,53938.0859048450,41245.4503055676,52996.3791769302,58743.2553925867,59272.7813906243,10741.1682151171
2441091195,12028,3,0,41848.8707264110,39660.1940926875,27645.4452188098,52294.1205547941,53949.7547260982,41240.1208543592,52988.9812172619,58740.9922009776,59279.7534809038,10730.9230143922
2441100068,12029,3,0,41851.7301351644,39655.3026785646,27644.1311075530,52290.0078732680,53940.8723074175,41246.3872182230,52983.2015612710,58734.8961848693,59261.7574573027,10731.0446913604
2441100068,12029,3,0,41842.3853440044,39659.6343786336,27650.8963469865,52295.7145230779,53938.3292587815,41253.4566500771,52989.2610742888,58739.3373942097,59261.9399727550,10730.2537910669
2441100068,12029,3,0,41858.0208344218,39662.9318244726,27649.3632171868,52296.5297587651,53953.7335629593,41247.2267893038,52993.4224266023,58741.4302380632,59277.6849724439,10727.4673884945
2441100068,12029,3,0,41855.5507919668,39655.7285479534,27647.4528887856,52291.8086923978,53943.1720021170,41237.5778057232,52991.1957380837,58739.6415866303,59267.5857840809,10725.8369171202
2441100068,12029,3,0,41825.3505684522,39651.8105495765,27650.1662851772,52293.3904929848,53922.3287374593,41243.9658465552,52992.6801970961,58742.5374984741,59258.2774960113,10732.6629950379
2441100068,12029,3,0,41836.4475079548,39660.1575895970,27651.5290672213,52297.1503113030,53938.4509357497,41245.6571564136,52995.2719165193,58743.4622434327,59277.7336432312,10731.4827284460
2441100068,12029,3,0,41861.7441496497,39659.5005339686,27646.7714977636,52292.7577727500,53946.2747648068,41239.1961094007,52990.4170054870,58740.0552883222,59278.4393696470,10731.1298652382
2441100068,12029,3,0,41837.1167312800,39646.5541045490,27642.8169962961,52286.8199367004,53916.9019446763,41235.6553096252,52981.7049345618,58731.0755280669,59252.9237094092,10732.9428520648
2441131607,12030,3,0,41820.6295020849,39646.2620798252,27644.4961384577,52288.8641097666,53916.4639075906,41236.2028559822,52981.5954252904,58730.9173480082,59255.0652240501,10730.6188219716
2441131607,12030,3,0,41844.2226662246,39652.2607543589,27644.2162814307,52289.8618609061,53937.5870292753,41234.4385399429,52983.3354059360,58734.8596817788,59265.9796481003,10728.4043011498
2441131607,12030,3,0,41844.7945479753,39648.6469484025,27644.8246662719,52287.4526569352,53929.3616662230,41236.6895638551,52981.2668974761,58734.2512969377,59251.5122565778,10734.3299695026
2441131607,12030,3,0,41838.6376933829,39649.8393826911,27648.0126028395,52288.1340479572,53929.4590077975,41241.4836364034,52982.6905180044,58734.5919924487,59254.1039760011,10732.7725043093
2441131607,12030,3,0,41864.4940491316,39659.1233353670,27652.2834644243,52294.4734180020,53955.2423573654,41245.8153364723,52985.8541191784,58739.2887234224,59277.1252583901,10733.6850815710
2441131607,12030,3,0,41861.6954788624,39658.1134165307,27657.5277417550,52296.0308831953,53947.4063606114,41251.6193278569,52987.6914413987,58741.8804428457,59273.0125768639,10743.0055373374
2441131607,12030,3,0,41832.1279755826,39659.5613724527,27667.3349053943,52301.6888622180,53933.1823230254,41262.9352859022,52992.0353091644,58747.4167449001,59271.9296518467,10747.4954174650
2441131607,12030,3,0,41849.3330988903,39666.5699658227,27667.2862346070,52304.3292524286,53952.1882654628,41259.5161630950,52995.4057611844,58751.5172587295,59289.5484768463,10736.3984779625
2441162663,12031,3,0,41874.1673681059,39667.6407231431,27661.8959449145,52300.5207633230,53956.2401085048,41253.2619669280,52993.1790726658,58749.6921042060,59287.2731175404,10732.1276163777
2441162663,12031,3,0,41850.2578438488,39660.2427634748,27660.9833676527,52297.4180006332,53932.7686213334,41250.0618626635,52991.2079057805,58747.2098940541,59267.1234116016,10733.2348767885
2441162663,12031,3,0,41837.7251161212,39663.1873461059,27659.9856165133,52300.2165709024,53937.0273152214,41245.4989763549,52994.0673145339,58747.5140864747,59272.5867074751,10730.7283312430
2441162663,12031,3,0,41857.0474186760,39665.9372455879,27654.0356127668,52301.7862037926,53949.3653597999,41245.2069516312,52996.7807109254,58748.9133716093,59278.5245435247,10727.5282269786
2441162663,12031,3,0,41850.7932225090,39661.8002286681,27653.1352032019,52305.0228111475,53938.7307927766,41248.4800620766,52997.0727356491,58748.4753345237,59262.3050036597,10730.1321140987
2441162663,12031,3,0,41855.0640840939,39671.4857153392,27658.8175176183,52314.6961301217,53947.3820252177,41259.1754675839,53005.6266265157,58754.9972200208,59272.5988751719,10735.7900931214
2441162663,12031,3,0,41887.7221823666,39682.3027978148,27660.3019766307,52318.0787498385,53972.7516730936,41254.0772026151,53009.2526001689,58760.4118451070,59294.5980710278,10733.0645290330
2441162663,12031,3,0,41877.0632799497,39673.7245715546,27658.2334681708,52311.6542059160,53950.8984895996,41251.8383463997,53003.8379750827,58755.2649093509,59280.1306795053,10734.0379447789
2441201323,12032,3,0,41844.6363679166,39670.6583119552,27666.1303034089,52314.6231239408,53934.9344713679,41257.2043006986,53006.2836821441,58756.2626604904,59277.2956061456,10740.2921409459
2441201323,12032,3,0,41859.4931257374,39678.3726317409,27667.0185452769,52316.4361107674,53960.7664917230,41253.7000040136,53007.3909425550,58759.0368953660,59296.0216915561,10738.2114647891
2441201323,12032,3,0,41876.2845473531,39675.3063721416,27662.5408328461,52308.4297662579,53965.0130179142,41248.5287328638,53000.9055601484,58754.2063197273,59288.4047133449,10739.7689299825
2441201323,12032,3,0,41851.9248183135,39665.6452208641,27658.2334681708,52300.8371234404,53943.9142316232,41246.5819013722,52994.8338794337,58747.1612232668,59269.0459076996,10739.1970482318
2441201323,12032,3,0,41847.4349381859,39665.0733391135,27655.0576993000,52299.0484720074,53950.4117817266,41242.9194246285,52994.3715069544,58745.3239010466,59279.6074685420,10730.2537910669
2441201323,12032,3,0,41854.3583576781,39657.8822302911,27647.4407210888,52292.2467294834,53948.9516581079,41229.2672687931,52986.8153672274,58738.2057984052,59279.6196362388,10729.6332385290
2441201323,12032,3,0,41834.9995520328,39651.3603447940,27646.4916407366,52288.7789358889,53925.1881462127,41233.9883351604,52984.0046292613,58733.5942413093,59259.7862904174,10741.5575814154
2441201323,12032,3,0,41840.4506802095,39661.0579991619,27658.0874558089,52297.9777146870,53938.0980725418,41248.0055219005,52991.6581105629,58741.3328964887,59273.0612476512,10747.8969514602
2441217882,12033,3,0,41872.7437475776,39665.9494132847,27658.7810145278,52300.5085956262,53957.8949152728,41231.4696219181,52991.6581105629,58743.5717527041,59286.1536894327,10740.0974577967
2441217882,12033,3,0,41852.3141846119,39648.9876439135,27648.3411306537,52288.7667681920,53928.0718903597,41214.6782003024,52982.2768163124,58731.3918881843,59258.4600114637,10735.5345714881
2441217882,12033,3,0,41810.1166120299,39634.1065506991,27639.0085071905,52282.2935534822,53901.0596034128,41210.6263572604,52977.1298805563,58720.3679548627,59245.6474267091,10731.5679023238
2441217882,12033,3,0,41826.7133504964,39636.6617670319,27633.4843728329,52281.0646161031,53917.5224972142,41216.8683857306,52976.9717004976,58720.5383026182,59260.8813831315,10727.0780221961
2441217882,12033,3,0,41840.8765495983,39630.6874278918,27626.3054317074,52273.2164516523,53913.2151325389,41213.3275859551,52971.1920445067,58713.9920817275,59249.6627666607,10726.8590036533
2441217882,12033,3,0,41819.8020987010,39624.1290393043,27627.7655553261,52268.9820931579,53897.2632820040,41216.0531500434,52966.2884626871,58709.2223445729,59236.9475234807,10732.2371256491
2441217882,12033,3,0,41825.4114069363,39627.7428452607,27630.4302809303,52270.0893535688,53910.9154378394,41212.2324932410,52964.8283390683,58709.1980091793,59250.6848531938,10730.8135051208
2441217882,12033,3,0,41834.7561980964,39625.0051134755,27630.1382562066,52268.2155282581,53913.4949895658,41213.9481384930,52961.2875392929,58708.2975996144,59252.4978400204,10730.8743436049
2441255034,12034,3,0,41821.8584394640,39627.7671806543,27640.6876493521,52276.3557174326,53900.6093986303,41227.0405802745,52969.1478714405,58712.6779704706,59239.9772799896,10741.7035937773
2441255034,12034,3,0,41833.7584469569,39641.6870258198,27648.0491059300,52285.3598130816,53919.7005149455,41236.1176821045,52975.8644400868,58719.3945391169,59256.3184968229,10741.1317120266
2441255034,12034,3,0,41865.3579556061,39647.9290542899,27645.9927651669,52283.3521431058,53937.5505261848,41224.2055069148,52973.6499192650,58721.9740908434,59268.1333304379,10738.2966386669
2441255034,12034,3,0,41847.4836089732,39635.9925437066,27640.0792645109,52274.5914013933,53914.0182005292,41221.5894520979,52966.4223073521,58715.8415716446,59248.7015186117,10744.2223070197
2441255034,12034,3,0,41817.7579256347,39629.4949936032,27641.5393881297,52273.8126687966,53903.9433475598,41222.4776939659,52966.7264997727,58715.3670314685,59249.4680835115,10747.3007343159
2441255034,12034,3,0,41832.1766463699,39632.1962222979,27637.5727189654,52271.8171665177,53924.2147304669,41216.3208393735,52965.4610593031,58717.8370739236,59264.2396674546,10742.5309971613
2441255034,12034,3,0,41837.9563023608,39630.2493908062,27635.9787506816,52267.8383296566,53920.3332351803,41216.1626593148,52964.5363143446,58716.4134533953,59252.3518276586,10740.4746563982
2441255034,12034,3,0,41822.8075198162,39632.2935638725,27641.0648479536,52271.6833218526,53914.1398774975,41224.1446684307,52969.7075854943,58720.2584455913,59244.6253401760,10738.6495018748
2441285010,12035,3,0,41835.6201045708,39639.0831386997,27641.1986926186,52274.4453890314,53934.8736328837,41220.7620487139,52970.9365228735,58724.8700026872,59261.8426311805,10727.6864070373
2441285010,12035,3,0,41844.0158153786,39637.9150398047,27642.5736423596,52277.6698286895,53938.4509357497,41230.6908893214,52973.8324347173,58729.1286965752,59265.0184000513,10731.2393745096
2441285010,12035,3,0,41822.7466813321,39639.7523620249,27652.8918492655,52285.6275024117,53925.2489846968,41238.5147183786,52979.5755876177,58732.6816640475,59256.5983538498,10745.0253750100
2441285010,12035,3,0,41833.4177514458,39649.9123888721,27655.6660841411,52290.3364010822,53942.4176049140,41238.1861905643,52984.0776354422,58734.6528309329,59269.4474416948,10741.4724075377
2441285010,12035,3,0,41862.6323915177,39651.0439846766,27649.5457326392,52284.7635959373,53952.5411286707,41226.9675740936,52979.5634199209,58732.6086578666,59272.4650305069,10732.0789455904
2441285010,12035,3,0,41842.3001701266,39642.3927522355,27644.8976724528,52280.9064360444,53925.6748540856,41231.5547957958,52977.1177128595,58725.8799215235,59251.8529520888,10733.4782307250
2441285010,12035,3,0,41823.3307307796,39648.5861099184,27652.4538121799,52290.2147241140,53927.2931577631,41243.4304678950,52984.5156725279,58735.3828927422,59266.2595051272,10740.4503210045
2441285010,12035,3,0,41844.4660201611,39658.5879567068,27653.0500293242,52297.1381436062,53950.0710862156,41245.9613488342,52988.7500310222,58742.3914861122,59287.9058377752,10738.9901973858
2441318685,12036,3,0,41848.4205216285,39657.4441932055,27653.3420540479,52296.2499017381,53940.3004256668,41244.4768898218,52989.5287636189,58741.2598903077,59277.2712707520,10738.0411170336
2441318685,12036,3,0,41837.2505759451,39656.4707774596,27653.4758987130,52296.2864048286,53929.1669830738,41238.5998922563,52989.1759004110,58740.7001762539,59273.9251541256,10736.8730181386
2441318685,12036,3,0,41855.6359658445,39658.1377519244,27650.9328500770,52293.4634991657,53941.8822262538,41237.6629796010,52988.6040186604,58740.3108099555,59289.3294583035,10736.3376394784
2441318685,12036,3,0,41860.8559077816,39656.3125974010,27655.5687425665,52292.4414126326,53935.0683160329,41243.8563372838,52988.8595402937,58741.0287040681,59287.4556329928,10746.9357034112
2441318685,12036,3,0,41831.3249075923,39653.3071762857,27660.6791752322,52294.6802688480,53915.6608396003,41246.2777089516,52989.6869436776,58738.0354506496,59274.5092035732,10751.7541113531
2441318685,12036,3,0,41836.8612096467,39654.5117782712,27652.4051413926,52292.0155432438,53923.6550164130,41230.7517278055,52983.8707845962,58731.3188820034,59279.7778162975,10736.1672917229
2441318685,12036,3,0,41857.5706296394,39646.2255767347,27638.8503271318,52279.4341447288,53925.7356925697,41220.7133779266,52971.3380568686,58718.4454587647,59273.3411046781,10723.3425392715
2441318685,12036,3,0,41834.9630489424,39635.2016434131,27634.2144346423,52272.8635884445,53898.7112379260,41220.1293284791,52963.5385632051,58709.5143692967,59250.1616422304,10727.6012331595
2441346246,12037,3,0,41819.1450430725,39639.9713805677,27638.9720041000,52277.4751455404,53902.6900747871,41231.6764727641,52966.6656612886,58712.8118151357,59262.7308730485,10735.3398883389
2441346246,12037,3,0,41835.9121292945,39648.6956191898,27640.2131091760,52281.1011191936,53921.1484708675,41233.8179874049,52970.3646411228,58718.7131480948,59279.4127853928,10734.3178018058
2441346246,12037,3,0,41824.5961712492,39644.3760868176,27639.7750720904,52276.3070466454,53903.2984596282,41232.3456960893,52966.8238413473,58715.3548637717,59262.9377238945,10735.4007268230
2441346246,12037,3,0,41811.3820524995,39642.6482738688,27640.1644383887,52276.5017297945,53898.4678839895,41240.7049038067,52966.2884626871,58713.6513862165,59262.0373143296,10733.1983736981
2441346246,12037,3,0,41839.7327860970,39650.4234321386,27643.6322319832,52280.5292374429,53924.0322150145,41235.1320986618,52969.3182191960,58717.6302230776,59281.2622753099,10726.9076744406
2441346246,12037,3,0,41835.6687753581,39643.1349817417,27640.4564631124,52277.9010149292,53914.4197345244,41232.8324039623,52966.3858042617,58714.0407525148,59271.3456023992,10727.4308854040
2441346246,12037,3,0,41797.8394059356,39636.9051209684,27642.9630086580,52278.8135921909,53897.4944682437,41234.0491736445,52965.7530840269,58712.7753120452,59262.2198297820,10732.2736287395
2441346246,12037,3,0,41808.1941159319,39645.0209747493,27644.0215982816,52282.7924290520,53918.9826208330,41233.7328135272,52968.4299773279,58715.0871744416,59277.9283263804,10727.3335438294
2441378549,12038,3,0,41828.5263373230,39643.1836525290,27635.3338627500,52274.2993766696,53922.9371223004,41223.8769791006,52962.9180106671,58708.5287858540,59271.2239254310,10724.1212718682
2441378549,12038,3,0,41812.4284744263,39636.9902948461,27634.0805899772,52272.9122592318,53903.6269874424,41230.2650199326,52962.7719983053,58707.7743886510,59253.0088832870,10728.1852826070
2441378549,12038,3,0,41806.7826631004,39641.2246533405,27635.7232290483,52277.0371084547,53910.7207546902,41228.3790269251,52967.2010399488,58711.5828777566,59263.8624688531,10730.9108466954
2441378549,12038,3,0,41815.0688646369,39638.6451016140,27631.0264980747,52274.0316873395,53918.3864036887,41222.6115386310,52963.1613646036,58709.1371706951,59269.5082801789,10729.6819093162
2441378549,12038,3,0,41796.9511640675,39631.6973467281,27631.7687275809,52271.3912971289,53903.8460059853,41232.4430376639,52961.0685207501,58709.4291954189,59255.5032611357,10737.1407074687
2441378549,12038,3,0,41793.5442089571,39641.1881502500,27641.6732327947,52278.4120581957,53911.4751518932,41247.4214724530,52966.9090152251,58719.3702037232,59267.1964177826,10743.5409159976
2441378549,12038,3,0,41831.6047646192,39656.8479760612,27651.0180239548,52287.7933524462,53940.2030840922,41256.6202512511,52975.8766077836,58728.9705165165,59291.6778237903,10745.9744553622
2441378549,12038,3,0,41831.7629446779,39652.6866237477,27650.1662851772,52282.9627768075,53919.9682042756,41238.6972338309,52971.9342740129,58723.0813512542,59278.2081834073,10745.6459275479
2441429993,12039,3,0,41792.8628179350,39642.1980690863,27645.2140325702,52275.3092955059,53892.4692094558,41234.6088876984,52966.3493011712,58712.3494426564,59264.2640028482,10738.3574771510
2441429993,12039,3,0,41805.1521917261,39647.9898927741,27642.3546238168,52276.2340404644,53914.5170760990,41235.1929371459,52965.6192393618,58714.4057834195,59281.7611508796,10731.1176975414
2441429993,12039,3,0,41827.2122260661,39650.8249661338,27641.2230280123,52277.4508101467,53924.1417242859,41234.0370059477,52966.5318166236,58714.8316528083,59276.9549106346,10733.4903984218
2441429993,12039,3,0,41808.4739729588,39643.2566587099,27639.4100411857,52273.7883334030,53904.7342478533,41227.7463066903,52962.6381536402,58709.7820586268,59257.9489681971,10739.2700544127
2441429993,12039,3,0,41804.9818439706,39642.1493982990,27636.9521664274,52273.8735072808,53911.8888535852,41225.2884319320,52964.7553328874,58709.0641645142,59268.7295475823,10738.5643279970
2441429993,12039,3,0,41815.2270446956,39641.7965350912,27634.8714902707,52273.1677808650,53919.1286331949,41227.3326049983,52964.4268050732,58713.5297092482,59278.0135002582,10740.8761903934
2441429993,12039,3,0,41796.9146609770,39642.2589075705,27641.7827420661,52276.1488665866,53905.6103220246,41241.4836364034,52970.1334548832,58716.7663166031,59268.5105290394,10748.7365225410
2441429993,12039,3,0,41802.6821492711,39658.3567704672,27654.0112773732,52288.9736190380,53923.8375318653,41255.3913138720,52981.9482884982,58730.0412738370,59288.1005209244,10750.2696523407
2441438753,12040,3,0,41831.2153983209,39664.3676126977,27649.5822357296,52285.6761731990,53942.4662757013,41234.3046952778,52979.3687367718,58728.8731749420,59296.9707719083,10739.0023650826
2441438753,12040,3,0,41809.4352210078,39646.4445952775,27635.8449060165,52268.3372052263,53915.0037839719,41219.3019250951,52962.8936752735,58712.7874797420,59266.7948837874,10733.6850815710
2441438753,12040,3,0,41773.4553415024,39638.8762878537,27636.2221046181,52266.0861813141,53896.4845494074,41226.6147108857,52959.3285401044,58708.6382951254,59259.7376196301,10739.0267004763
2441438753,12040,3,0,41792.1084207320,39648.4279298597,27638.3757869557,52270.8559184687,53918.7636022902,41228.1843437759,52962.5529797625,58712.7753120452,59278.5610466152,10737.3353906179
2441438753,12040,3,0,41812.9151822992,39652.8934745937,27639.6655628190,52269.0550993389,53924.1782273764,41230.5083738691,52959.8882541582,58713.8825724561,59273.4992847368,10737.4814029798
2441438753,12040,3,0,41798.5816354418,39653.3193439825,27643.6930704673,52268.6779007374,53914.8577716100,41236.1663528917,52959.3650431948,58712.7753120452,59261.5749418504,10741.7765999582
2441438753,12040,3,0,41808.7051591984,39660.8389806191,27648.1586152014,52274.3237120632,53930.6027712989,41241.2646178606,52963.8549233225,58715.0141682606,59279.7534809038,10744.2831455038
2441438753,12040,3,0,41820.4713220262,39657.9674041689,27647.5502303602,52274.2263704886,53929.3738339198,41236.0811790140,52964.6336559192,58716.0484224906,59283.0995975301,10743.0055373374
2441508707,12041,3,0,41794.0674199205,39649.4621840896,27648.4506399251,52274.0925258236,53901.4489697111,41239.0866001292,52965.8747609951,58713.9312432434,59266.6853745160,10747.3250697095
2441508707,12041,3,0,41804.0936021026,39665.9007424974,27660.7643491099,52291.3341522217,53923.7523579876,41258.1655487476,52983.0190458186,58730.8686772209,59289.6579861177,10755.8667928792
2441508707,12041,3,0,41836.7030295880,39674.2599502148,27660.8130198972,52294.2665671560,53948.8421488365,41241.2646178606,52987.4359197654,58736.2467992167,59302.2515523295,10751.0605526342
2441508707,12041,3,0,41813.3775547785,39659.4883662717,27648.8765093139,52279.4463124257,53925.9790465062,41222.0396568803,52975.9496139645,58722.1201032052,59273.2072600131,10740.9126934838
2441508707,12041,3,0,41777.1908244270,39652.5892821731,27645.4208834162,52274.9199292075,53915.9285289304,41223.9134821910,52970.5228211815,58717.3747014443,59264.3735121196,10733.1618706076
2441508707,12041,3,0,41790.8673156560,39658.0647457435,27643.7539089515,52275.8081710756,53937.9033893927,41229.9608275120,52970.9851936608,58718.3724525838,59280.8485736179,10729.4020522893
2441508707,12041,3,0,41803.7164035010,39659.7195525114,27648.5236461061,52276.6355744596,53937.8912216958,41245.4868086581,52972.1776279494,58720.5261349214,59276.9305752409,10741.1073766330
2441508707,12041,3,0,41806.0647689879,39669.4415422729,27662.6503421175,52287.8298555367,53933.7055339887,41261.7671870072,52980.9627050556,58728.2769577976,59280.8364059211,10755.1002279794
2441512485,12042,3,0,41831.6169323161,39681.0981958293,27669.1722276146,52294.1327224910,53952.0300854041,41254.7464259404,52986.5476778973,58735.1273711090,59301.3998135518,10755.3557496127
2441512485,12042,3,0,41841.0712327475,39680.4533078977,27666.1181357120,52293.3418221975,53952.6384702452,41249.7576702430,52988.0808076970,58736.6239978182,59300.5845778647,10759.0060586595
2441512485,12042,3,0,41811.2117047440,39676.5961480048,27666.4466635262,52295.0696351463,53933.6446955046,41253.8216809818,52991.5486012915,58738.0719537401,59285.4114599265,10765.4549379757
2441512485,12042,3,0,41807.5127249098,39678.6281533742,27663.0762115063,52294.2178963687,53944.8876473690,41245.0852746630,52991.4269243233,58739.2765557256,59294.1600339422,10754.9177125270
2441512485,12042,3,0,41822.4303212147,39668.9183313095,27648.1707828982,52279.0204430369,53951.6163837121,41223.7796375260,52979.2227244099,58726.9993496312,59289.2321167289,10740.3529794300
2441512485,12042,3,0,41801.3315349237,39652.3459282367,27637.9255821733,52267.9478389280,53919.6640118551,41216.3573424640,52970.7905105116,58715.0993421384,59263.5826118261,10741.1073766330
2441512485,12042,3,0,41777.2638306080,39647.4788495075,27636.9886695179,52269.0429316421,53906.9366009783,41220.3605147187,52968.7950082326,58711.6558839375,59264.4708536942,10739.0388681731
2441512485,12042,3,0,41795.8560713534,39653.0029838651,27638.0350914447,52272.6932406889,53923.6063456257,41226.7120524603,52970.8391812989,58715.2088514098,59280.3131949577,10736.6418318990
2441551550,12043,3,0,41802.1832737014,39653.9277288237,27642.9143378707,52274.1411966109,53917.5590003047,41238.6120599531,52970.7053366338,58716.6446396349,59272.2338442673,10741.7887676551
2441551550,12043,3,0,41797.9124121165,39664.3554450009,27654.0234450700,52281.3444731300,53922.1097189165,41251.5219862823,52978.8820288988,58723.8600838509,59275.0932530206,10749.4179135631
2441551550,12043,3,0,41823.3185630828,39676.3527940683,27657.6859218137,52285.3354776880,53949.5965460395,41252.0451972457,52984.1628093200,58731.2580435193,59295.9608530720,10750.1966461597
2441551550,12043,3,0,41827.3825738217,39671.0355105567,27655.3132209333,52283.3278077122,53942.4297726108,41236.8477439138,52981.2060589920,58729.8830937783,59287.5773099610,10752.0948068641
2441551550,12043,3,0,41785.8055537777,39657.0061561199,27650.7625023215,52276.5747359755,53912.8501016342,41232.7228946908,52974.8666889473,58720.7086503738,59266.4176851859,10750.6468509422
2441551550,12043,3,0,41787.6185406043,39661.4230300666,27650.3488006295,52277.6941640832,53927.9745487851,41236.1420174981,52975.1830490647,58723.6410653081,59279.0355867913,10747.3737404968
2441551550,12043,3,0,41815.3852247542,39661.0579991619,27643.7174058610,52272.0605204541,53939.7893824002,41226.3956923429,52969.7927593721,58718.8956635471,59278.7557297644,10746.6923494747
2441551550,12043,3,0,41797.7907351483,39647.5518556884,27637.9742529606,52262.9104124433,53915.7095103876,41224.7895563623,52961.7255763785,58707.9082333160,59255.9169628277,10748.0429638221
2441580367,12044,3,0,41782.7149587847,39642.5630999910,27636.1977692244,52260.0996744772,53912.0592013407,41223.6092897705,52959.2311985298,58704.5742843865,59258.8615454588,10747.0087095921
2441580367,12044,3,0,41796.6956424342,39641.9547151499,27633.5452113170,52260.1848483549,53923.8375318653,41222.4290231786,52959.2433662266,58704.3309304501,59272.1365026927,10746.8870326239
2441580367,12044,3,0,41786.3531001347,39636.0533821908,27634.8471548771,52258.0311660173,53908.2142091447,41225.6412951399,52957.3573732191,58703.1871669487,59257.0850617227,10748.8216964187
2441580367,12044,3,0,41783.8100514987,39643.8042050670,27648.2072859887,52268.9577577643,53913.8965235610,41245.3286285994,52968.2839649661,58715.5252115272,59265.6997910733,10754.7230293779
2441580367,12044,3,0,41820.5321605104,39661.4717008539,27657.7224249042,52281.8311810030,53946.5667895306,41248.5287328638,52977.1785513436,58726.8655049662,59291.7995007585,10757.3269164980
2441580367,12044,3,0,41820.6538374786,39658.3446027704,27654.7413391826,52275.6378233201,53937.0638183119,41232.9054101432,52972.4818203700,58722.0105939338,59277.7944817153,10754.3336630795
2441580367,12044,3,0,41777.0083089747,39645.9213843142,27647.9517643554,52265.4777964729,53909.5161527047,41228.4642008028,52962.9666814544,58711.7045547248,59257.4257572337,10749.1137211425
2441580367,12044,3,0,41781.1209905008,39651.2751709163,27646.5646469176,52265.6481442284,53926.0763880808,41232.6620562067,52963.1005261195,58709.7820586268,59270.9075653136,10741.2655566917
2441601527,12045,3,0,41805.2251979071,39651.0683200703,27641.8557482471,52262.0586736657,53933.3526707809,41230.0946721771,52961.0806884469,58708.4679473699,59267.8656411078,10737.9681108527
2441601527,12045,3,0,41791.9502406733,39648.2940851946,27645.1045232988,52263.2997787416,53915.4174856639,41235.6431419284,52963.4047185401,58709.2101768761,59254.4446715121,10742.0929600756
2441601527,12045,3,0,41791.0985018957,39654.9984861441,27651.2248748007,52272.1943651192,53925.9425434157,41242.7125737825,52972.0316155875,58718.8104896694,59272.2703473577,10746.9843741985
2441601527,12045,3,0,41812.8421761183,39663.1508430154,27656.0067796522,52281.1376222841,53946.0070754767,41246.5453982817,52978.9793704734,58729.0556903943,59289.1834459416,10752.8613717639
2441601527,12045,3,0,41803.6920681074,39662.5181227807,27661.6647586748,52284.4959066072,53932.4035904287,41246.8130876118,52980.7558542096,58730.1142800179,59275.9936625855,10757.0105563806
2441601527,12045,3,0,41798.9344986496,39668.3342818620,27669.5494262161,52286.3697319179,53935.6401977836,41255.0262829673,52980.9383696619,58733.4360612506,59283.6593115840,10754.7351970747
2441601527,12045,3,0,41830.4123303306,39677.7642468998,27670.8026989889,52287.3674830574,53960.1216037914,41252.0695326393,52983.1893935742,58738.5343262194,59301.5579936105,10753.2872411528
2441601527,12045,3,0,41822.3816504274,39668.3951203461,27664.5485028219,52277.9983565037,53941.2616737158,41241.6296487652,52974.8666889473,58731.1363665510,59283.3916222539,10755.0393894953
2441630540,12046,3,0,41780.1719101487,39655.7285479534,27657.2235493345,52271.2452847670,53914.6630884608,41236.6652284615,52968.6489958707,58722.8866681051,59267.8778088046,10753.7982844193
2441630540,12046,3,0,41788.4337762914,39660.9849929810,27653.7800911336,52273.7396626157,53931.6491932257,41240.5832268385,52972.8468512747,58727.6564052597,59284.9004166599,10748.1889761839
2441630540,12046,3,0,41812.8300084214,39664.9638298421,27654.0112773732,52277.0857792420,53937.6965385467,41242.9680954158,52976.4728249279,58729.3598828149,59280.9337474957,10748.5540070886
2441630540,12046,3,0,41796.7564809183,39659.4275277876,27655.2158793587,52275.8203387724,53918.0213727840,41242.3840459683,52977.7139300038,58726.2327847314,59265.9066419193,10754.1389799304
2441630540,12046,3,0,41797.6203873928,39659.3545216067,27654.8143453635,52276.5138974913,53926.3319097140,41239.0135939483,52977.6165884293,58722.5338048972,59277.3686123265,10755.2827434317
2441630540,12046,3,0,41801.9885905522,39653.3193439825,27648.7183292552,52268.9942608548,53929.2156538611,41233.3434472288,52971.8125970447,58718.2751110092,59278.4028665565,10753.6522720574
2441630540,12046,3,0,41772.5184288470,39642.3319137514,27648.1829505950,52261.4259534309,53906.3647192276,41232.4795407544,52967.2497107361,58711.8870701771,59258.6060238256,10755.6599420332
2441630540,12046,3,0,41769.0262998588,39645.5928564999,27652.2104582434,52263.0320894115,53911.5116549837,41231.9076590037,52966.6778289854,58710.9379898249,59262.7430407454,10747.4345789809
2441671472,12047,3,0,41802.0250936427,39650.2652520799,27646.4794730398,52259.5886312106,53930.7366159639,41224.2663453989,52960.1437757915,58706.1682526704,59270.6642113771,10736.8730181386
2441671472,12047,3,0,41799.0196725274,39644.3882545145,27641.3933757678,52252.8112240803,53914.3710637371,41223.3659358340,52953.5610518103,58701.8000495109,59253.5929327345,10742.5675002517
2441671472,12047,3,0,41773.8690431944,39646.0795643729,27649.0833601599,52256.9847440905,53905.4886450563,41235.7161481093,52958.8053291410,58706.9713206607,59255.0895594437,10755.2462403412
2441671472,12047,3,0,41792.2057623065,39657.2495100563,27654.5709914271,52262.9104124433,53928.2422381153,41239.0500970388,52963.5385632051,58712.8604859230,59275.4582839253,10755.5869358523
2441671472,12047,3,0,41807.2815386702,39654.4996105743,27650.3853037200,52261.7058104578,53925.1151400318,41228.3303561378,52963.1613646036,58709.5508723871,59264.5438598752,10751.4499189325
2441671472,12047,3,0,41790.9403218370,39648.2332467105,27649.6309065169,52259.0654202472,53905.5859866309,41227.1500895459,52961.5795640166,58703.2723408265,59249.9547913845,10751.1700619056
2441671472,12047,3,0,41798.8614924687,39653.2098347111,27650.5434837787,52261.3042764627,53922.6207621830,41224.1446684307,52964.9865191270,58705.2556754086,59267.6587902618,10742.6770095231
2441671472,12047,3,0,41800.5528023271,39646.5297691553,27644.0824367657,52255.6584651368,53924.5432582811,41220.3483470219,52960.6183159676,58702.3110927775,59270.7980560421,10735.4250622167
2441691266,12048,3,0,41767.7973624797,39641.6140196388,27647.7327458126,52257.5201227507,53905.4034711786,41232.6863916004,52961.8594210435,58701.3011739412,59258.3748375859,10739.7445945888
2441691266,12048,3,0,41774.5869373069,39655.8502249217,27658.1726296866,52269.3714594563,53921.9637065546,41240.4250467798,52973.8567701110,58713.7365600942,59276.4195319744,10747.9577899443
2441691266,12048,3,0,41816.0909511700,39666.8376551528,27654.9238546349,52273.4719732856,53944.2305917406,41232.7837331750,52975.2438875488,58716.1579317620,59282.8197405032,10746.2786477827
2441691266,12048,3,0,41815.1540385146,39663.5645447074,27652.9648554464,52272.0848558478,53929.0453061056,41240.7535745940,52975.5724153630,58714.6491373559,59264.3126736355,10750.4400000962
2441691266,12048,3,0,41801.7087335253,39672.9580066547,27665.3272354185,52284.8487698151,53929.9092125800,41253.0794514756,52986.5111748068,58727.4008836264,59271.6619625166,10759.3710895642
2441691266,12048,3,0,41813.0976977515,39679.8205876629,27664.8648629393,52284.1552110961,53952.3099424310,41238.0280105057,52987.1682304353,58729.2260381498,59286.7864096675,10751.7054405658
2441691266,12048,3,0,41808.5104760493,39670.7921566202,27656.4204813441,52273.8856749776,53944.6929642199,41230.3501938104,52978.0424578181,58722.1201032052,59268.9242307314,10743.7355991467
2441691266,12048,3,0,41793.1305072651,39671.3397029773,27660.2168027529,52275.4309724741,53937.1124890992,41241.4471333129,52980.4638294858,58725.8677538267,59265.4929402273,10746.7288525652
2441722579,12049,3,0,41813.5113994435,39680.1977862644,27662.9788699317,52280.0181941763,53958.1139338156,41241.0090962273,52985.3309082150,58730.9173480082,59286.9202543326,10741.9712831074
2441722579,12049,3,0,41824.0242894985,39675.1481920829,27658.9635299801,52276.8180899119,53955.4492082113,41235.3632849014,52984.7346910707,58729.6884106291,59283.7444854618,10740.6815072442
2441722579,12049,3,0,41790.5509555386,39664.5257927564,27659.0000330706,52275.1024446599,53930.3594173624,41235.7039804125,52981.1452205079,58724.6996549317,59265.3712632591,10744.4048224720
2441722579,12049,3,0,41790.0399122721,39664.9273267516,27658.1847973835,52277.7671702641,53939.3878484051,41231.2384356784,52983.4935859947,58725.0890212300,59274.0224957002,10740.0122839189
2441722579,12049,3,0,41822.1869672783,39664.8178174802,27652.9161846591,52273.5693148602,53950.7281418440,41223.5849543768,52980.3543202144,58721.4143767895,59274.5335389668,10733.4417276345
2441722579,12049,3,0,41815.4947340257,39656.8966468485,27652.7093338131,52269.9433412069,53929.3616662230,41219.5331113348,52979.9649539161,58716.8149873904,59254.8218701136,10741.9956185011
2441722579,12049,3,0,41799.1900202829,39659.0259937925,27657.1505431535,52276.9762699706,53925.6870217824,41224.5948732131,52986.1339762053,58719.8812469898,59259.8957996888,10748.1281376998
2441722579,12049,3,0,41813.5600702308,39666.3752826735,27658.4038159263,52281.3809762205,53944.9849889436,41221.5407813106,52989.5896021030,58724.3346240270,59275.5556254999,10749.2719012012
2441753009,12050,3,0,41803.1323540535,39658.5514536164,27652.1131166688,52270.5030552608,53930.6271066925,41215.4325975054,52978.9672027766,58715.4400376494,59255.0043855660,10744.3318162911
2441753009,12050,3,0,41785.9880692300,39656.3856035819,27651.8819304292,52269.5783103023,53921.6716818309,41224.2298423084,52977.7626007911,58715.1723483193,59247.2535626898,10746.4733309319
2441753009,12050,3,0,41808.7659976826,39663.6983893725,27652.4051413926,52271.2696201607,53945.3865229388,41222.8913956579,52980.2934817303,58718.7861542757,59265.3834309559,10744.6116733180
2441753009,12050,3,0,41807.2815386702,39651.8105495765,27643.4983873182,52259.3087741837,53931.7221994066,41203.4109130444,52968.3448034502,58708.7113013063,59251.9381259666,10739.2700544127
2441753009,12050,3,0,41761.3971539509,39634.0335445181,27638.9841717969,52249.5989521190,53895.7179845075,41199.4564115769,52958.9391738060,58699.1839946940,59229.6955761743,10738.2844709701
2441753009,12050,3,0,41761.8960295206,39636.2237299463,27640.3591215379,52250.9130633759,53908.7495878049,41207.8277869911,52959.0608507743,58700.2060812271,59244.3454831491,10738.5278249065
2441753009,12050,3,0,41796.9511640675,39643.2444910131,27643.6930704673,52255.4516142908,53927.2566546726,41219.0950742491,52961.7255763785,58704.1605826946,59257.7299496543,10739.2457190191
2441753009,12050,3,0,41795.4910404487,39644.4855960890,27651.9671043069,52260.6958916215,53916.2083859574,41226.9797417904,52966.7751705600,58707.4945316240,59252.3274922649,10749.3205719885
2441796566,12051,3,0,41786.3652678315,39648.9754762167,27654.6561653048,52264.6868961794,53917.9483666030,41222.5385324500,52971.5814108051,58712.6292996833,59264.4221829069,10747.3615728000
2441796566,12051,3,0,41794.5176247029,39650.9588107989,27650.0081051185,52264.7233992699,53929.5076785848,41215.7611253197,52971.5205723210,58713.9555786370,59275.2270976857,10742.1051277725
2441796566,12051,3,0,41779.6852022757,39642.6482738688,27643.8025797388,52259.8441528439,53911.8401827979,41212.8408780822,52967.5782385503,58709.3196861475,59253.3374111012,10745.6824306384
2441796566,12051,3,0,41767.8947040543,39644.8992977810,27646.0779390446,52262.1195121498,53909.1146187096,41217.4159320876,52969.7562562816,58709.0763322110,59249.4924189052,10746.9965418953
2441796566,12051,3,0,41796.1237606835,39652.2607543589,27645.9440943796,52264.1636852161,53932.1115657049,41218.6935402540,52972.5913296414,58709.9524063823,59263.6312826134,10742.1051277725
2441796566,12051,3,0,41801.3437026206,39646.7974584854,27642.4276299978,52259.5399604233,53921.8907003737,41219.4844405475,52968.6003250835,58708.0420779811,59251.4757534873,10742.2754755280
2441796566,12051,3,0,41769.9753802110,39642.1372306022,27645.9319266828,52262.3506983894,53899.6968213686,41220.5795332616,52971.5449077146,58706.6792959369,59238.3468086154,10746.7775233525
2441796566,12051,3,0,41775.9983901384,39648.9389731262,27646.8201685508,52265.1249332651,53919.7735211265,41218.8152172222,52974.4164841648,58711.6680516343,59255.7466150722,10743.1393820024
2441818733,12052,3,0,41797.3405303658,39650.1800782022,27645.0923556020,52259.6373019979,53931.1138145655,41214.6416972120,52970.7783428148,58710.5242881330,59259.9809735666,10740.0122839189
2441818733,12052,3,0,41783.3598467163,39646.6027753362,27649.9716020280,52258.0433337141,53915.6973426908,41223.6701282546,52969.7805916753,58709.0276614237,59249.8209467194,10741.9834508042
2441818733,12052,3,0,41781.7780461293,39653.4045178603,27655.9459411680,52260.9149101643,53925.1151400318,41231.9198267005,52971.5205723210,58715.7077269795,59262.9498915914,10744.5021640466
2441818733,12052,3,0,41796.3549469232,39655.0228215377,27654.4736498525,52257.6661351126,53935.9565579010,41227.8193128712,52969.5615731325,58716.1579317620,59271.0170745850,10742.7500157041
2441818733,12052,3,0,41780.6707857184,39650.9466431020,27657.6737541169,52259.6007989074,53922.0123773419,41245.0001007852,52968.5029835089,58715.5617146177,59258.7398684906,10754.2241538081
2441818733,12052,3,0,41780.9628104421,39665.0003329325,27673.7107785295,52274.0073519458,53936.5771104390,41259.6378400632,52978.5413333878,58727.1818650836,59272.4771982037,10765.4306025820
2441818733,12052,3,0,41817.4293978205,39675.4645522003,27673.0293875075,52274.2993766696,53960.2432807596,41238.0645135961,52978.7603519306,58729.9439322624,59289.3294583035,10758.3855061216
2441818733,12052,3,0,41813.3532193848,39662.0800856950,27661.1658831051,52262.5940523259,53939.8867239748,41222.8427248706,52968.5273189025,58718.2629433124,59267.6101194745,10750.0384661010
2441848771,12053,3,0,41776.2904148621,39651.4941894591,27657.7832633883,52258.0189983205,53917.2183047937,41222.8548925674,52965.8869286919,58712.0939210231,59253.2765726171,10747.9942930348
2441848771,12053,3,0,41782.8974742370,39658.7583044624,27658.3673128358,52262.9469155338,53935.5063531185,41225.2397611447,52969.9996102181,58716.9366643587,59270.5060313184,10748.3593239395
2441848771,12053,3,0,41798.1557660530,39655.4243555329,27655.7390903221,52259.4304511519,53937.6843708498,41223.2807619562,52966.2884626871,58712.2521010818,59262.0981528137,10747.8847837634
2441848771,12053,3,0,41781.4251829214,39650.0097304467,27657.2600524249,52256.6805516699,53921.9758742514,41230.8125662896,52965.7409163301,58710.8041451599,59244.9173648998,10749.2475658075
2441848771,12053,3,0,41787.7280498757,39657.1886715722,27659.9491134228,52260.5012084723,53935.8227132359,41231.3601126467,52970.2916349418,58714.3084418449,59257.9002974098,10746.3029831764
2441848771,12053,3,0,41804.2396144644,39661.4717008539,27660.2533058434,52261.4137857341,53946.4816156528,41229.6444673946,52971.7517585606,58717.0948444174,59262.8403823199,10746.6558463843
2441848771,12053,3,0,41784.1507470098,39661.8610671522,27666.8603652182,52266.1105167077,53932.3427519446,41233.7936520113,52975.9009431772,58720.2949486818,59250.5145054383,10754.2606568986
2441848771,12053,3,0,41776.5216011018,39666.8376551528,27666.1059680152,52269.9555089038,53936.8813028595,41229.2551010963,52980.9505373587,58723.8114130636,59258.6546946129,10751.1092234214
2441902633,12054,3,0,41805.4077133594,39665.8642394070,27659.1095423420,52265.2466102333,53951.9449115263,41220.2145023569,52976.8256881358,58720.7694888579,59268.5713675236,10741.9469477138
2441902633,12054,3,0,41802.5969753933,39652.8204684128,27651.4195579499,52257.1672595429,53930.2864111815,41213.2789151678,52969.4520638611,58714.5761311750,59251.0133810080,10740.9491965743
2441902633,12054,3,0,41773.6986954388,39648.1480728328,27653.8774327081,52259.8806559344,53913.2029648421,41228.8900701916,52973.8324347173,58716.6933104222,59251.8894551793,10744.6846794989
2441902633,12054,3,0,41783.8465545892,39652.8691392001,27655.2523824491,52262.5818846291,53930.0673926387,41220.1171607823,52976.8013527421,58719.8569115962,59271.4429439738,10743.4679098166
2441902633,12054,3,0,41788.9569872548,39645.6050241968,27650.6773284437,52255.8409805892,53925.5775125110,41212.0134746982,52971.6787523797,58715.3670314685,59260.3216690776,10743.0785435183
2441902633,12054,3,0,41773.4553415024,39644.0840620939,27653.7314203463,52256.3033530684,53914.8942747005,41222.1613338485,52974.4894903458,58715.9510809160,59250.3928284701,10748.9312056901
2441902633,12054,3,0,41794.4689539156,39659.5978755431,27659.6814240927,52268.6413976469,53939.4851899796,41229.3159395804,52984.0289646549,58725.6487352839,59272.0999996022,10747.5684236460
2441902633,12054,3,0,41815.8597649303,39664.4649542723,27657.5642448455,52273.0217685032,53948.8543165333,41221.6259551883,52986.3408270513,58729.8465906878,59275.6894701650,10743.2488912738
2441913835,12055,3,0,41786.4139386188,39658.9408199147,27659.3528962785,52270.9532600433,53926.8551206774,41226.5782077953,52985.5499267578,58726.9020080566,59258.5330176446,10747.5562559491
2441913835,12055,3,0,41783.0191512052,39670.0012563268,27666.9577067928,52276.5017297945,53937.3558430356,41235.4727941728,52991.9257998930,58736.5874947277,59274.2658496367,10751.5715959007
2441913835,12055,3,0,41819.2180492535,39682.0959469688,27671.8977917029,52281.6730009443,53967.0571909804,41245.1582808439,52996.4521831112,58743.9124482151,59291.3371282793,10756.4386746299
2441913835,12055,3,0,41814.6794983385,39677.5208929633,27671.1555621967,52276.9275991833,53952.6871410325,41235.3997879919,52994.3471715608,58740.4568223174,59276.7602274854,10757.8014566741
2441913835,12055,3,0,41788.5311178660,39670.5244672901,27669.0627183432,52272.4377190557,53937.8425509086,41229.9973306025,52988.0686400002,58733.5820736124,59270.2748450788,10752.2651546196
2441913835,12055,3,0,41802.6699815743,39674.8561673591,27668.8923705877,52271.9996819700,53952.9791657563,41230.0338336930,52988.3606647239,58734.2147938472,59284.1581871537,10746.7531879588
2441913835,12055,3,0,41810.8588415361,39673.6515653736,27669.7319416684,52269.2497824880,53944.9119827627,41231.7251435514,52985.9514607530,58730.9295157050,59271.6741302134,10745.8041076066
2441913835,12055,3,0,41801.8060750998,39676.5718126111,27677.1055659431,52275.3214632027,53935.9078871137,41242.4935552397,52989.1515650174,58732.8641794999,59263.5461087357,10754.8568740429
2441942538,12056,3,0,41825.6425931760,39686.7926779424,27681.6076137676,52282.0988703331,53961.2653672927,41245.4868086581,52997.3039218888,58740.2256360778,59282.6737281413,10752.8857071576
2441942538,12056,3,0,41837.3479175197,39686.1112869203,27678.8333788920,52279.9938587827,53964.8305024618,41238.5877245595,52996.3183384461,58740.5176608015,59281.9923371193,10748.3349885458
2441942538,12056,3,0,41803.3270372027,39679.5894014232,27679.5147699141,52279.2881323670,53943.1111636329,41246.1073611961,52997.0727356491,58738.6681708844,59271.0535776754,10752.5450116466
2441942538,12056,3,0,41803.1931925377,39688.6178324659,27686.6085371619,52288.1583833509,53961.3870442609,41252.0695326393,53004.0204905350,58746.1878075210,59289.6458184209,10755.2219049476
2441942538,12056,3,0,41833.4542545363,39691.1365457082,27683.2502528387,52284.7027574532,53976.1464605072,41237.6994826914,53001.8668081974,58744.4721622690,59297.4209766908,10752.8857071576
2441942538,12056,3,0,41819.4005647058,39678.1657808950,27677.5436030288,52275.6256556233,53950.4117817266,41233.4651241970,52995.0042271892,58736.9646933292,59273.7791417638,10754.4431723509
2441942538,12056,3,0,41801.0030071095,39674.2599502148,27677.2880813955,52278.2660458338,53939.1809975591,41236.4583776155,52997.2917541920,58736.5388239404,59274.5092035732,10751.6567697785
2441942538,12056,3,0,41817.0156961285,39681.5849037022,27678.7725404079,52282.8410998393,53956.2522762017,41236.8234085202,53000.3823491850,58742.8781939852,59288.2343655894,10748.2498146681
2441976803,12057,3,0,41808.3766313842,39674.6493165131,27674.6355234881,52275.9541834375,53944.9363181563,41232.1996837275,52993.1790726658,58736.6118301214,59270.2626773819,10746.2421446923
2441976803,12057,3,0,41786.5599509807,39669.7335669967,27671.8734563093,52270.0650181752,53937.6600354562,41236.4948807060,52989.4922605285,58728.7758333674,59259.9201350824,10746.8748649271
2441976803,12057,3,0,41806.2837875307,39673.3473729531,27667.0307129737,52267.3759571773,53959.9755914295,41235.6066388379,52988.1903169684,58727.7415791374,59275.2392653825,10744.0641269610
2441976803,12057,3,0,41811.9782696438,39665.1098422039,27661.4214047384,52261.7666489419,53950.6551356631,41227.8801513553,52984.2601508946,58726.7559956948,59267.5249455968,10744.1127977483
2441976803,12057,3,0,41778.2250786570,39653.2950085889,27661.2753923765,52262.9590832306,53921.2944832293,41226.1766738001,52985.8541191784,58723.2638667066,59250.9890456144,10751.2795711770
2441976803,12057,3,0,41778.5779418648,39658.1620873180,27664.2929811886,52271.5738125812,53932.9146336953,41227.1622572428,52992.4246754628,58726.7924987852,59267.5614486873,10753.5549304829
2441976803,12057,3,0,41805.6267319022,39659.9385710542,27660.8373552909,52270.0285150847,53943.3058467821,41221.1027442249,52990.8915456631,58725.0403504427,59272.5988751719,10747.6657652206
2441976803,12057,3,0,41795.4058665710,39653.6600394935,27661.2267215892,52266.2808644632,53923.9957119240,41228.3303561378,52987.8131183669,58720.5139672246,59254.3229945439,10749.9532922233
2442030627,12058,3,0,41794.4081154315,39660.1575895970,27670.0726371795,52273.0704392904,53931.2598269273,41237.7846565692,52992.1326507390,58727.3035420518,59265.3834309559,10757.2174072266
2442030627,12058,3,0,41813.7669210768,39665.4627054118,27670.0969725731,52272.6932406889,53945.6298768752,41228.4276977123,52990.9645518440,58728.7880010642,59277.9769971677,10756.3413330553
2442030627,12058,3,0,41794.5541277934,39655.5703678947,27663.1492176872,52262.9955863210,53925.0664692445,41224.0716622497,52983.6030952661,58721.0250104912,59256.2333229451,10756.7550347473
2442030627,12058,3,0,41780.5126056597,39658.2350934990,27664.1469688267,52263.4214557099,53920.1507197280,41229.7296412724,52983.8342815058,58720.6599795865,59255.1138948374,10753.4819243019
2442030627,12058,3,0,41813.8034241673,39669.0400082777,27665.0352106948,52267.2542802091,53946.3599386846,41227.1257541523,52988.4458386017,58727.8267530152,59276.6385505172,10746.8992003207
2442030627,12058,3,0,41822.2721411560,39665.2436868690,27664.1713042204,52266.0983490109,53941.5658661364,41225.5561212621,52985.7202745133,58728.2647901008,59268.6443737045,10743.2853943643
2442030627,12058,3,0,41789.0543288294,39659.9750741447,27669.5250908225,52270.6734030163,53923.8496995622,41235.4119556887,52990.8672102694,58730.2481246830,59259.9809735666,10749.5030874408
2442030627,12058,3,0,41792.9966626000,39669.9890886299,27676.8865474003,52280.6022436238,53943.9385670168,41247.8716772354,52997.7906297617,58738.2544691924,59281.5177969432,10753.0803903068
2442037525,12059,3,0,41814.7281691258,39674.2964533053,27676.3755041338,52279.1299523083,53958.5884739917,41244.3673805504,52996.6225308667,58739.7632635985,59283.5619700094,10750.8780371818
2442037525,12059,3,0,41803.8745835597,39673.1405221071,27676.6066903734,52274.1046935204,53941.9795678283,41244.8784238170,52993.7874575069,58737.1593764784,59264.5438598752,10754.2606568986
2442037525,12059,3,0,41806.1499428656,39680.9035126801,27677.5314353319,52276.1610342835,53953.2955258737,41247.3484662720,52997.4377665538,58739.7267605080,59272.1365026927,10752.1313099546
2442037525,12059,3,0,41827.2122260661,39685.0526972967,27676.4363426179,52279.2881323670,53968.6024884769,41244.8054176360,52999.8469705248,58744.0097897897,59282.4303742049,10748.2741500617
2442037525,12059,3,0,41808.0602712668,39679.2730413058,27676.3876718306,52279.6896663621,53951.8475699518,41245.8275041692,52999.3115918646,58743.6204234914,59266.0404865844,10749.1745596266
2442037525,12059,3,0,41797.5717166055,39689.2018819134,27686.9005618856,52288.5112465588,53959.1360203487,41262.9839566895,53007.1110855281,58751.1887309152,59276.8819044536,10752.2408192260
2442037525,12059,3,0,41836.8368742531,39701.5034234014,27690.5752063261,52296.8339511857,53992.4755096436,41258.2872257158,53012.5257106143,58759.8156279627,59300.5845778647,10749.1623919298
2442037525,12059,3,0,41845.8896406894,39694.2514760949,27685.6229537192,52291.6870154295,53983.8972833834,41245.5719825359,53008.3278552104,58753.2937424656,59286.3118694914,10749.3692427758
2442070714,12060,3,0,41809.9949350617,39683.0328596241,27681.7657938263,52285.8221855609,53960.3649577278,41241.0821024082,53003.7771365986,58748.1224713159,59274.2901850303,10749.7586090741
2442070714,12060,3,0,41809.3622148269,39684.2496293064,27680.9505581392,52287.0389552432,53973.9684427759,41245.4503055676,53005.2859310046,58751.7971157564,59292.9797673504,10743.1758850929
2442070714,12060,3,0,41817.3198885491,39682.9111826559,27680.7923780805,52281.5269885824,53974.9175231281,41251.3151354363,53003.3512672098,58750.9088738883,59294.0626923676,10739.9757808285
2442070714,12060,3,0,41800.0660944542,39679.5894014232,27684.8685565162,52279.3611385479,53952.9913334531,41255.7076739894,53002.7185469750,58747.6357634429,59281.1771014321,10746.3029831764
2442070714,12060,3,0,41808.7659976826,39684.3104677905,27686.5598663746,52283.2304661376,53959.8295790676,41251.3394708299,53004.7383846476,58749.4000794823,59294.5615679374,10749.7707767709
2442070714,12060,3,0,41823.1725507209,39682.4244747830,27680.5003533567,52275.9785188311,53960.3649577278,41235.9473343489,52997.8393005490,58742.5740015646,59294.9144311452,10747.4589143746
2442070714,12060,3,0,41790.3197692990,39668.0544248351,27675.9861378354,52266.0010074363,53922.9614576941,41229.2429333995,52986.6571871687,58727.4252190200,59264.6046983593,10746.4246601446
2442070714,12060,3,0,41776.5702718891,39668.6871450699,27679.8189623347,52269.5053041213,53918.1187143586,41239.6949849704,52986.3286593545,58725.5635614061,59269.9584849614,10750.4886708835
2442096701,12061,3,0,41814.0224427101,39677.9345946553,27682.2768370929,52275.3336308995,53942.2472571585,41245.5963179295,52991.2079057805,58730.2602923798,59288.0275147434,10751.3525773579
2442096701,12061,3,0,41815.5190694193,39670.4027903219,27676.1929886814,52271.9145080923,53925.1151400318,41238.5390537722,52986.9005411052,58726.2814555187,59272.8787321989,10751.3404096611
2442096701,12061,3,0,41787.5090313329,39665.9129101943,27672.5305119377,52270.5273906545,53909.4796496143,41235.4119556887,52988.4093355112,58724.9795119586,59266.8435545747,10750.8780371818
2442096701,12061,3,0,41791.1715080766,39663.6497185852,27661.9202803081,52265.9645043459,53919.2989809504,41221.8936445184,52982.9338719409,58722.0227616306,59276.2978550061,10738.1384586082
2442096701,12061,3,0,41787.5577021202,39653.4166855571,27651.7845888546,52252.1906715423,53910.6112454188,41215.5907775641,52971.5205723210,58710.4756173457,59261.8547988773,10728.4408042403
2442096701,12061,3,0,41767.1889776386,39649.3648425151,27656.1041212267,52247.6886237178,53895.9491707472,41228.3181884409,52967.6512447313,58705.3286815896,59251.2445672477,10733.3443860600
2442096701,12061,3,0,41788.1052484772,39662.7493090203,27669.0748860400,52258.3961969220,53922.6450975767,41245.6693241105,52978.3588179355,58716.9244966618,59277.7458109280,10742.2511401343
2442096701,12061,3,0,41808.4009667779,39664.8421528738,27671.8004501283,52260.4160345946,53931.8560440717,41235.0590924808,52978.3953210259,58718.6158065202,59283.0022559556,10746.5950079001
2442173770,12062,3,0,41774.2462417959,39652.3580959335,27666.5805081913,52255.9626575574,53903.5296458678,41227.7463066903,52971.8247647415,58709.7820586268,59261.5627741535,10751.0727203310
2442173770,12062,3,0,41762.7842713887,39655.0228215377,27666.0816326216,52258.1285075919,53909.3701403429,41233.1365963828,52973.4917392063,58713.1160075563,59268.6687090981,10749.2840688980
2442173770,12062,3,0,41796.7929840088,39662.7371413235,27664.1348011299,52260.4647053819,53933.7907078665,41234.1343475223,52974.9153597346,58716.7419812095,59282.8075728064,10746.0961323304
2442173770,12062,3,0,41792.5221224239,39656.4342743692,27662.3096466064,52254.7337201783,53914.4805730085,41235.4484587792,52970.5714919688,58710.8163128567,59263.4852702516,10747.1425542572
2442173770,12062,3,0,41774.0272232531,39661.3013530984,27668.9045382845,52262.8130708687,53911.0614502013,41253.7121717104,52977.8112715784,58718.0074216791,59269.4352739980,10756.8888794123
2442173770,12062,3,0,41789.8938999102,39671.9359201216,27673.1023936884,52271.4764710066,53933.1944907222,41245.2434547217,52985.8054483911,58725.5878967998,59291.5683145189,10756.1223145125
2442173770,12062,3,0,41780.4882702660,39661.6907193967,27663.6845963474,52259.9293267217,53918.9461177425,41229.0117471598,52975.3168937297,58715.9997517033,59274.2171788494,10743.4922452103
2442173770,12062,3,0,41758.0145342341,39657.8578948975,27661.1780508019,52254.9162356306,53904.0650245281,41233.5502980748,52969.7075854943,58710.4634496489,59261.8182957868,10741.0952089362
2442184591,12063,3,0,41782.3134247895,39667.5312138717,27663.9279502839,52260.8175685897,53930.0673926387,41244.5377283059,52973.7472608396,58715.4157022558,59282.9657528651,10746.3151508732
2442184591,12063,3,0,41803.3148695059,39666.4726242481,27663.3682362300,52260.4768730787,53932.6712797588,41238.0280105057,52972.0072801939,58711.7897286025,59282.9535851683,10750.0262984042
2442184591,12063,3,0,41767.4323315750,39650.5937798942,27658.6958406500,52252.3366839042,53898.4678839895,41232.5647146321,52964.6214882224,58702.6761236822,59256.9025462704,10748.1646407903
2442184591,12063,3,0,41756.0677027424,39650.6789537719,27657.1870462440,52249.8423060554,53901.1447772906,41231.4574542213,52962.1149426768,58699.2691685717,59265.5051079242,10738.4426510288
2442184591,12063,3,0,41782.5324433323,39656.7262990929,27653.4272279257,52248.9297287937,53919.0191239235,41226.9189033063,52961.8959241340,58701.1429938825,59269.7029633281,10734.9140189501
2442184591,12063,3,0,41778.1764078697,39657.0913299976,27656.9193569139,52248.2240023780,53905.6711605087,41234.4993784270,52961.5430609262,58702.9559807091,59258.0828128622,10745.5364182765
2442184591,12063,3,0,41770.5837650522,39661.8488994554,27664.4024904600,52255.0014095084,53907.1677872179,41238.0888489898,52967.4200584916,58708.1029164652,59264.6412014497,10750.2574846438
2442184591,12063,3,0,41787.0588265504,39666.8984936369,27665.4489123868,52260.3916992009,53927.3783316408,41237.9306689311,52971.9829448002,58714.2476033608,59282.3330326303,10744.5264994402
2442193963,12064,3,0,41780.5977795375,39663.2846876805,27668.5151719861,52261.2921087658,53916.2935598351,41240.4980529607,52972.7251743064,58713.0551690721,59270.1288327169,10747.3494051032
2442193963,12064,3,0,41763.8063579218,39667.2026860575,27672.9320459329,52265.3682872015,53911.8645181916,41245.7058272009,52976.6188372898,58714.9168266860,59267.4641071127,10751.8149498372
2442193963,12064,3,0,41791.2566819543,39678.0441039267,27674.2948279770,52269.7851611483,53939.3148422241,41246.0221873183,52978.4318241164,58720.5139672246,59286.1050186454,10749.3935781694
2442193963,12064,3,0,41805.2617009976,39673.7367392514,27670.9608790476,52264.8085731477,53940.2274194858,41240.0843512687,52974.6598381013,58719.0295082122,59281.6394739114,10750.5738447612
2442193963,12064,3,0,41769.4034984603,39661.7758932744,27670.6201835365,52259.8198174503,53913.7748465928,41237.0059239725,52971.4110630496,58715.2940252876,59263.7894626721,10757.5215996471
2442193963,12064,3,0,41761.1416323176,39664.9759975389,27669.3547430669,52261.5963011864,53920.9051169310,41233.2339379574,52972.0802863748,58716.3526149112,59277.6363016566,10758.4585123025
2442193963,12064,3,0,41782.1187416403,39662.3842781156,27660.5088274767,52253.8576460070,53926.9281268584,41229.1455918249,52964.8161713715,58710.2565988029,59278.5488789184,10756.6698608695
2442193963,12064,3,0,41779.7460407598,39663.8687371280,27665.4610800836,52258.7612278267,53915.9406966273,41245.0487715725,52969.7440885848,58714.4666219036,59268.1941689220,10767.4139371642
2442225178,12065,3,0,41781.2183320754,39672.4347956913,27672.9807167202,52270.7464091973,53924.1903950732,41250.8040921697,52980.2813140335,58720.0029239580,59281.3109460972,10767.2557571055
2442225178,12065,3,0,41794.9313263949,39672.4226279945,27668.4421658052,52267.1934417250,53938.5117742338,41230.5327092627,52979.9649539161,58716.4864595762,59290.7287434381,10757.2295749234
2442225178,12065,3,0,41764.9136183327,39657.2495100563,27658.9270268897,52252.2636777232,53914.4319022212,41218.3893478334,52969.2087099246,58704.1362473009,59266.1013250685,10755.0028864048
2442225178,12065,3,0,41740.8337463201,39654.9011445695,27658.2699712612,52248.9783995810,53907.3746380639,41225.6291274431,52967.6999155186,58702.3354281711,59259.1170670921,10756.7185316568
2442225178,12065,3,0,41776.8987997033,39668.6506419794,27660.2168027529,52257.2889365111,53934.7397882187,41230.7638955024,52972.7008389128,58708.7843074873,59278.8530713389,10757.6311089185
2442225178,12065,3,0,41791.5487066781,39664.2459357295,27658.1847973835,52252.5557024470,53920.4062413613,41230.3501938104,52966.4953135331,58703.5643655502,59266.3203436113,10757.6067735249
2442225178,12065,3,0,41760.3872351145,39654.7429645108,27661.3727339511,52249.2704243048,53891.2767751671,41231.7981497323,52961.5673963198,58700.0113980779,59252.6681877760,10760.5026853688
2442225178,12065,3,0,41756.1042058329,39655.1079954155,27659.3772316721,52245.4741028960,53902.4710562443,41230.7273924119,52956.8463299525,58699.8532180192,59267.1355792984,10755.9032959697
2442260433,12066,3,0,41772.0195532773,39653.4531886476,27654.2546313097,52239.6457761178,53912.3755614581,41225.2762642352,52951.2491894139,58696.9816415690,59268.9120630346,10756.3048299648
2442260433,12066,3,0,41758.0510373245,39651.2143324321,27652.9770231432,52237.1392305723,53902.7022424839,41232.0415036688,52950.3974506363,58695.0226423805,59252.7533616537,10760.4175114910
2442260433,12066,3,0,41763.3196500489,39658.5636213132,27656.8828538234,52245.2064135659,53917.3156463682,41232.5525469353,52958.4159628427,58701.2768385475,59264.7872138116,10759.9916421022
2442260433,12066,3,0,41783.0313189020,39659.1355030639,27651.5655703118,52244.5736933311,53925.6261832983,41220.6403717457,52959.9734280360,58700.7049567968,59269.5082801789,10753.2872411528
2442260433,12066,3,0,41763.2344761711,39655.4000201392,27655.0090285127,52245.4497675024,53904.5517324010,41229.5106227296,52961.9445949213,58700.6197829191,59251.9867967539,10760.6243623370
2442260433,12066,3,0,41747.4773087854,39659.2936831226,27663.3682362300,52251.3511004615,53903.0064349045,41231.8468205196,52967.3835554012,58704.4282720247,59252.9237094092,10762.5590261318
2442260433,12066,3,0,41775.4508437813,39663.6983893725,27660.4114859021,52252.2393423296,53924.7379414302,41222.8305571738,52967.3105492202,58701.2160000634,59266.9652315429,10757.7162827963
2442260433,12066,3,0,41776.3999241335,39653.9277288237,27653.6705818622,52242.2739986316,53911.9496920693,41218.1338262001,52957.2356962508,58691.7860350256,59249.4924189052,10757.7162827963
2442289341,12067,3,0,41746.0050174698,39647.7952096249,27653.3542217448,52237.9666339563,53890.9360796561,41216.8197149433,52953.5002133262,58688.3304091279,59236.8988526934,10759.2007418087
2442289341,12067,3,0,41748.0248551424,39649.3526748182,27649.1320309472,52238.0639755308,53902.0695222491,41211.4659283412,52953.2933624802,58689.5106757197,59254.3594976344,10754.6743585906
2442289341,12067,3,0,41756.6760875836,39646.8217938791,27646.2847898906,52232.9292074716,53902.2885407919,41207.7791162038,52947.9639112717,58684.9356217143,59249.9791267781,10750.7320248199
2442289341,12067,3,0,41739.8603305742,39641.4558395801,27649.3997202773,52230.1671402928,53886.1176717142,41210.3951710207,52947.1121724941,58680.2267230438,59236.5338217887,10756.2926622680
2442289341,12067,3,0,41749.7526680913,39648.4035944660,27651.4438933436,52236.7863673644,53900.0375168797,41212.6340272362,52952.3442821280,58683.4633303987,59250.3441576828,10757.5824381313
2442289341,12067,3,0,41775.7915392924,39653.0759900460,27651.6872472800,52241.8846323332,53914.6022499767,41218.3893478334,52955.7390695416,58688.2087321597,59261.1855755520,10759.5779404102
2442289341,12067,3,0,41756.7004229772,39648.8903023390,27656.6760029774,52243.9288053995,53895.2556120283,41224.4853639417,52957.2843670381,58689.5836819007,59247.5334197167,10764.2746713839
