steady_timestamp,sequence,battery,flags,EEG-ch1,EEG-ch2,EEG-ch3,EEG-ch4,EEG-ch5,EEG-ch6,EEG-ch7,EEG-ch8,EEG-ch9,EEG-ch10
2487399672,12664,-2,0,40245.5576514456,39459.7921260136,27858.1730623653,50758.0583401691,52402.1088640977,39619.6999976607,51901.6758291638,57260.2443361097,58323.6401999507,11396.2770120643
2487399672,12664,-2,0,40244.7180803648,39454.0854762037,27855.2771505215,50751.6337962466,52388.4323728688,39616.8770919978,51898.1593647820,57253.3452520111,58305.6076732591,11394.2571743917
2487399672,12664,-2,0,40228.9244098886,39451.7736138073,27855.3014859151,50750.7820574690,52382.6770522715,39617.1934521152,51899.2787928897,57251.7999545146,58303.6365063738,11397.3964401720
2487399672,12664,-2,0,40239.6563184864,39453.9759669322,27852.4542448586,50749.2245922757,52395.3679600578,39612.3142056892,51898.0376878137,57250.6318556196,58316.3760849474,11395.4739440740
2487399672,12664,-2,0,40234.7892397573,39446.2859825401,27849.0959605354,50743.1650792578,52385.4147840567,39612.9347582272,51892.2823672165,57247.8211176535,58303.4418232246,11396.6420429690
2487399672,12664,-2,0,40217.5476133592,39444.7406850436,27856.4087463260,50745.6716248034,52374.7923847302,39618.5318987657,51892.0390132800,57248.5268440692,58296.9929439085,11401.1927615808
2487399672,12664,-2,0,40243.4404721984,39458.4415116663,27863.1983211532,50755.4666207458,52403.0457767531,39623.2164620425,51902.1990401272,57256.3750085200,58318.3107487423,11402.7137236836
2487399672,12664,-2,0,40264.3689107338,39462.3230069528,27864.6462770751,50757.6568061740,52410.6140841770,39623.1312881648,51904.3892255553,57257.5066043245,58321.4986853099,11406.5708835765
2487433546,12665,-2,0,40235.9938417427,39455.1440658272,27866.6661147478,50757.2309367852,52388.5662175338,39627.1101250259,51902.9777727238,57255.7179528916,58306.9461199096,11413.2996199196
2487433546,12665,-2,0,40227.7684786904,39458.5023501504,27868.8684678727,50760.9907551034,52397.9353440875,39631.1254649775,51907.7353421816,57260.2443361097,58322.1435732415,11409.8804971123
2487433546,12665,-2,0,40256.2043861656,39464.4645215936,27868.9536417505,50762.9984250792,52417.2698143391,39630.8334402537,51909.5239936146,57261.3880996110,58332.6807986901,11406.4978773956
2487433546,12665,-2,0,40254.1845484930,39462.8340502193,27871.9590628657,50762.8037419301,52404.4207264941,39633.6928490071,51909.3293104654,57260.0739883542,58316.0718925268,11411.0485960074
2487433546,12665,-2,0,40245.0222727854,39466.9345640487,27877.2763463774,50766.6852372166,52403.8488447434,39633.7050167039,51912.8457748473,57262.1181614204,58321.6812007622,11413.1657752545
2487433546,12665,-2,0,40256.6180878576,39467.6159550708,27872.8716401275,50764.9817596614,52417.2576466423,39623.0339465902,51910.6434217223,57263.2862603154,58334.2504315803,11406.6682251511
2487433546,12665,-2,0,40238.6585673470,39456.8110402920,27866.4835992954,50754.1525094890,52401.2449576233,39618.3250479197,51903.8903499856,57256.0099776153,58315.9015447713,11405.3054431069
2487433546,12665,-2,0,40217.5719487528,39454.4505071083,27870.5962808216,50755.9533286187,52392.5085513044,39631.0402910997,51905.7155045090,57258.7477094005,58310.7911121057,11407.2279392049
2487466021,12666,-2,0,40245.6063222329,39467.0562410169,27874.7576331350,50763.2052759252,52417.3549882169,39635.6883512861,51913.1864703583,57266.4011907021,58331.6222090665,11406.7168959384
2487466021,12666,-2,0,40263.4806688658,39465.3162603712,27871.4723549928,50761.1611028590,52413.0354558448,39629.5436643905,51912.1522161283,57265.5616196213,58327.4121859658,11405.7556478894
2487466021,12666,-2,0,40236.2493633760,39457.7114498569,27870.4624361565,50761.4166244922,52385.6946410836,39627.6698390797,51913.5880043534,57262.3371799632,58310.2557334455,11410.8417451614
2487466021,12666,-2,0,40232.7815697815,39464.2089999603,27871.0099825135,50767.9506776862,52396.7672451925,39628.9231118525,51919.6961881586,57266.1943398561,58325.1124912663,11411.8273286040
2487466021,12666,-2,0,40247.8695138419,39462.2865038623,27864.5367678037,50762.8524127174,52406.6352473159,39623.7396730059,51913.9408675613,57260.8283855572,58328.0570738974,11405.1959338355
2487466021,12666,-2,0,40235.1664383588,39452.8322034309,27861.8233714122,50754.7365589364,52387.3129447610,39621.0384443112,51907.6501683039,57254.1604876982,58306.3864058558,11402.7988975614
2487466021,12666,-2,0,40229.3624469742,39453.9151284481,27863.8797121753,50754.6270496650,52389.8924964875,39626.0150323118,51906.7010879517,57255.5841082265,58314.4535888494,11403.2734377375
2487466021,12666,-2,0,40248.6725818322,39459.6339459549,27866.0698976034,50757.0119182423,52406.4040610762,39623.5084867663,51908.4289009005,57260.4755223493,58328.8844772814,11402.8597360455
2487503797,12667,-2,0,40230.3358627201,39449.8754531029,27865.1086495544,50749.7843063295,52384.7090576409,39613.1659444668,51901.5419844987,57253.0532272873,58309.0511314600,11405.0742568673
2487503797,12667,-2,0,40209.9793059353,39447.6487645843,27866.5444377795,50752.1691749068,52377.8099735423,39617.7044953818,51904.6204117949,57253.5521028571,58305.5590024718,11405.5244616497
2487503797,12667,-2,0,40237.5756423297,39456.9205495634,27865.1816557354,50757.5229615089,52399.3346292221,39615.0519374744,51909.5848320987,57255.8031267693,58321.9488900923,11399.5379548128
2487503797,12667,-2,0,40251.6171644634,39456.5068478714,27858.6719379351,50757.6203030835,52397.8136671192,39613.6161492492,51908.3437270228,57256.3750085200,58311.8010309420,11402.1661773266
2487503797,12667,-2,0,40221.7089656726,39450.8975396360,27857.0414665608,50755.6613038950,52375.3886018746,39612.3142056892,51907.1512927341,57253.6251090380,58296.1290374340,11404.9160768086
2487503797,12667,-2,0,40223.8991511007,39458.9160518424,27859.7548629523,50762.1466863016,52389.9411672748,39616.3660487312,51912.6754270917,57259.4291004225,58313.0421360179,11400.8642337665
2487503797,12667,-2,0,40242.9780997191,39460.8507156372,27862.2614084979,50762.4265433286,52400.8799267186,39616.9622658756,51913.7218490185,57261.5462796697,58316.7411158521,11399.7813087493
2487503797,12667,-2,0,40234.2781964907,39457.0908973189,27867.7977105523,50761.4896306732,52388.0430065704,39622.2308785999,51913.4784950820,57260.7067085890,58304.0745434594,11406.8750759971
2487529794,12668,-2,0,40236.8820836108,39458.9647226297,27868.9414740536,50762.0371770302,52396.7185744052,39623.5206544631,51912.4320731553,57258.1028214688,58314.2224026097,11403.0909222851
2487529794,12668,-2,0,40250.6802518080,39458.5875240281,27866.4105931145,50757.9488308977,52409.5554945534,39620.7950903748,51910.1932169398,57257.4822689309,58320.8294619846,11400.9007368570
2487529794,12668,-2,0,40221.0154069537,39447.1133859241,27863.7215321166,50749.8573125105,52386.5950506485,39617.8748431373,51903.4888159904,57249.9747999911,58298.5382414050,11405.9990018258
2487529794,12668,-2,0,40197.0693796061,39446.7361873226,27864.9261341021,50746.7423821238,52381.8861519780,39621.3304690350,51900.5198979656,57247.6020991106,58299.8645203587,11409.8074909314
2487529794,12668,-2,0,40222.9257353549,39451.7857815041,27864.3299169578,50745.2944262019,52405.0899498194,39617.6679922913,51898.6582403517,57249.3420797563,58317.0939790600,11407.6051378065
2487529794,12668,-2,0,40231.2119368913,39447.7339384621,27862.8332902485,50741.4007632185,52397.7284932415,39615.4534714695,51893.8033293193,57245.0468827778,58306.9217845160,11410.6105589217
2487529794,12668,-2,0,40205.3069103553,39441.4189038110,27863.7093644198,50741.4129309153,52379.0267432246,39614.5530619046,51891.9173363118,57242.1388032371,58294.7905907835,11411.4866330930
2487529794,12668,-2,0,40206.7061954899,39445.6289269117,27864.0135568404,50744.6982090575,52392.4477128203,39609.1384368184,51893.9493416812,57244.7061872668,58309.4039946679,11407.1671007208
2487585932,12669,-2,0,40213.2645840775,39441.4189038110,27858.5015901796,50740.1231550521,52392.6788990600,39605.9139971603,51889.1431014362,57240.5691703470,58302.8577737771,11406.1328464909
2487585932,12669,-2,0,40201.3037381005,39438.9123582654,27861.4218374171,50740.2813351108,52377.2137563980,39614.1758633031,51892.0998517641,57238.8048543077,58287.0884386946,11410.2941988043
2487585932,12669,-2,0,40214.9923970263,39446.3833241147,27865.2911650068,50745.1362461431,52391.1579369571,39614.2732048777,51895.9083408697,57243.3190698290,58300.4972405935,11406.3640327305
2487585932,12669,-2,0,40233.7428178305,39446.1278024815,27861.4461728107,50740.4151797758,52396.9010898575,39605.7193140112,51895.4094653000,57243.5624237654,58307.2989831175,11402.2270158107
2487585932,12669,-2,0,40205.1730656902,39434.7145028615,27857.0658019545,50735.7306164990,52370.1564922407,39608.1528533757,51891.1021006247,57240.4353256819,58287.6724881421,11401.7889787251
2487585932,12669,-2,0,40187.3838929351,39439.2165506860,27860.2902416125,50740.9262230424,52371.4706034976,39615.6603223155,51895.1174405762,57245.7891122840,58296.6644160942,11400.8642337665
2487585932,12669,-2,0,40219.7743018777,39451.2138997534,27860.5579309426,50746.9005621825,52399.6144862490,39617.5949861104,51899.2179544056,57251.7877868177,58314.9646321159,11400.8155629793
2487585932,12669,-2,0,40233.9618363733,39454.9007118908,27865.7535374860,50750.7820574690,52397.7893317256,39621.2452951572,51903.9755238633,57254.5498539965,58306.7514367605,11411.4501300025
2487617136,12670,-2,0,40219.3484324889,39457.9669714902,27872.6161184942,50755.3571114744,52390.4400428445,39624.0073623360,51909.0007826512,57256.7643748183,58303.9406987944,11414.7719112352
2487617136,12670,-2,0,40229.7153101821,39464.9268940729,27875.4390241571,50759.1656005800,52405.6374961764,39621.0627797049,51913.1621349646,57262.8725586234,58322.1679086351,11410.4402111662
2487617136,12670,-2,0,40229.8248194535,39459.8164614073,27870.2312499169,50751.5972931561,52397.5459777891,39614.9180928093,51907.6623360007,57256.5818593660,58307.4449954794,11405.7434801925
2487617136,12670,-2,0,40214.0676520678,39459.7312875295,27872.1172429244,50753.2764353177,52384.2466851617,39623.2407974362,51909.5848320987,57255.5111020456,58295.8370127103,11405.8894925544
2487617136,12670,-2,0,40233.8888301924,39473.2861017903,27878.2740975168,50765.4684675343,52410.0908732136,39632.7316009581,51918.1387229652,57266.8392277877,58317.6780285075,11403.1274253756
2487617136,12670,-2,0,40255.1457965420,39476.0968397564,27876.9234831695,50766.6609018229,52423.2928242665,39625.2362997152,51917.9075367256,57268.9442393381,58320.7077850164,11397.5667879275
2487617136,12670,-2,0,40228.6080497712,39465.6812912759,27873.3948510908,50764.1543562774,52400.4905604203,39624.7130887518,51916.8489471020,57266.4011907021,58301.5314948234,11400.5600413460
2487617136,12670,-2,0,40218.9955692811,39467.1657502883,27876.2177567538,50766.8920880626,52405.6374961764,39626.2462185515,51920.4505853616,57268.9199039444,58310.0002118122,11401.4847863045
2487628501,12671,-2,0,40248.1615385657,39470.8403947288,27875.2565087048,50766.2837032214,52425.6168543597,39620.8194257684,51919.7570266427,57267.6544634749,58320.9754743465,11398.6983837321
2487628501,12671,-2,0,40249.2201281893,39465.2067510998,27874.4777761081,50760.5527180178,52412.9259465733,39616.6337380613,51914.9142833071,57259.3560942416,58302.1642150582,11402.2756865980
2487628501,12671,-2,0,40233.9496686765,39465.8394713346,27877.9699050963,50760.1755194163,52404.3477203132,39623.1921266489,51914.1720538009,57257.8838029260,58300.3268928379,11405.0377537768
2487628501,12671,-2,0,40243.0146028096,39469.9034820735,27878.2010913359,50760.7839042575,52416.6249264075,39615.2466206235,51912.9431164218,57260.2808392002,58317.6536931138,11401.7768110283
2487628501,12671,-2,0,40232.9397498402,39459.8894675882,27871.3871811151,50752.7897274448,52398.1786980239,39608.0798471948,51905.9588584455,57251.8242899082,58303.1619661977,11402.3973635662
2487628501,12671,-2,0,40210.9527216811,39455.0710596463,27872.3849322545,50752.1448395132,52382.1295059145,39612.4967211415,51904.9732750028,57249.3664151500,58293.4521441330,11406.5952189702
2487628501,12671,-2,0,40230.7982351993,39460.4126785516,27870.8518024549,50753.1547583495,52399.9795171537,39607.7148162901,51904.6447471886,57249.0257196389,58309.1849761250,11402.2148481139
2487628501,12671,-2,0,40253.4301512900,39457.0543942284,27867.9315552173,50748.5310335567,52399.3954677062,39602.6895575022,51901.3229659559,57245.4362490762,58305.4859962909,11400.5113705587
2487646944,12672,-2,0,40228.5472112871,39446.0791316942,27869.7323743471,50747.0709099380,52372.6873731799,39605.8774940699,51899.9236808213,57240.4596610756,58288.3782145578,11407.6538085938
2487646944,12672,-2,0,40214.6151984248,39446.6631811417,27873.4678572718,50748.7135490091,52376.4836945886,39609.6981508723,51900.9701027481,57243.7814423082,58299.9010234491,11407.0819268431
2487646944,12672,-2,0,40233.3291161385,39449.3157390491,27871.1559948754,50746.4503574000,52391.5838063459,39613.1416090732,51900.6050718434,57246.1298077951,58310.3652427169,11402.1540096298
2487646944,12672,-2,0,40230.7008936248,39447.1133859241,27874.4899438049,50745.0510722654,52381.3507733178,39617.1326136311,51898.3540479311,57245.1563920492,58295.9343542849,11403.1274253756
2487646944,12672,-2,0,40225.2497654481,39452.2238185897,27878.2984329105,50748.6283751313,52382.7622261493,39622.6810833823,51903.0751142984,57249.0987258199,58303.7825187357,11403.4681208867
2487646944,12672,-2,0,40244.1583663109,39456.7623695047,27876.4976137807,50751.7189701244,52399.4441384935,39613.3971307064,51905.3504736043,57250.9847188274,58318.4324257105,11401.4239478204
2487646944,12672,-2,0,40233.0735945052,39449.1088882031,27869.6958712567,50744.8320537226,52382.3241890636,39605.2569415319,51901.4689783178,57245.2293982302,58300.8257684077,11404.9890829895
2487646944,12672,-2,0,40208.1784868055,39446.5780072639,27869.2456664742,50745.6594571065,52368.0879837808,39609.8076601437,51901.2256243813,57243.7084361273,58288.8892578244,11408.2621934349
2487680027,12673,-2,0,40229.9099933313,39454.7546995289,27869.6715358630,50750.0033248723,52391.3039493190,39613.0199321049,51905.0462811837,57249.7314460547,58307.8100263841,11402.0323326616
2487680027,12673,-2,0,40247.2002905167,39452.2359862866,27865.6440282146,50747.8253071410,52391.9975080379,39606.9239159966,51903.7565053205,57249.7679491451,58303.5878355865,11397.7614710767
2487680027,12673,-2,0,40216.8297192466,39442.1733010140,27865.3033327036,50742.5688621135,52367.4430958492,39605.0379229891,51899.5099791293,57245.1077212619,58285.5066381076,11398.7105514289
2487680027,12673,-2,0,40208.7260331625,39446.8700319877,27867.7003689777,50745.4282708669,52377.5787873027,39610.3065357134,51903.5131513841,57249.8896261134,58301.7140102758,11395.2062547439
2487680027,12673,-2,0,40228.3768635316,39454.6208548639,27871.9955659562,50746.8153883047,52396.7550774957,39613.6891554302,51905.6911691154,57252.6881963826,58312.5310927514,11395.1697516534
2487680027,12673,-2,0,40223.4489463183,39457.4194251331,27878.3714390914,50748.6770459186,52388.9434161353,39619.5539852988,51906.0927031105,57252.1163146320,58299.6820049063,11403.5654624612
2487680027,12673,-2,0,40227.0749199715,39467.1049118042,27882.3502759525,50756.8415704868,52401.6951624058,39624.9807780819,51913.6488428376,57259.2344172734,58310.4139135042,11403.2125992534
2487680027,12673,-2,0,40251.5076551920,39471.9598228366,27879.8072273165,50758.5328803452,52417.4279943978,39618.6292403403,51915.0481279722,57262.4710246283,58325.0881558726,11396.3743536389
2487743719,12674,-2,0,40235.2516122365,39461.4712681752,27874.1857513843,50752.7288889607,52399.1156106793,39615.3439621981,51909.0859565290,57258.7720447941,58306.1308842225,11397.4937817466
2487743719,12674,-2,0,40213.8729689186,39460.4126785516,27876.0352413014,50755.5274592299,52391.8271602824,39621.1844566731,51911.6655082554,57260.0983237478,58302.9916184422,11401.1805938839
2487743719,12674,-2,0,40239.9605109070,39469.7453020148,27876.0230736046,50758.0948432596,52416.9047834344,39618.4588925848,51916.0458791117,57265.7319673768,58320.6469465323,11395.7294657073
2487743719,12674,-2,0,40255.6568398086,39468.5772031198,27876.4976137807,50757.4864584184,52412.7434311210,39617.7409984722,51916.3379038354,57266.1700044625,58314.3805826684,11395.0967454725
2487743719,12674,-2,0,40232.7207312974,39464.0751552953,27879.3570225341,50759.1169297927,52390.8415768397,39614.3462110586,51918.9296232587,57265.1114148389,58299.0006138842,11395.4374409835
2487743719,12674,-2,0,40233.2317745639,39470.4631961273,27883.5427102412,50764.5193871821,52401.8046716772,39620.4178917733,51923.3099941150,57270.5625430155,58315.1349798715,11395.3279317121
2487743719,12674,-2,0,40246.0930301058,39472.8724000983,27883.6887226031,50764.6653995440,52407.8398493014,39619.3106313624,51923.3464972054,57271.1830955535,58318.7122827374,11398.0899988909
2487743719,12674,-2,0,40232.3922034831,39469.5384511688,27887.1443485008,50762.1466863016,52393.0682653583,39627.5238267179,51921.6186842566,57267.8369789272,58301.3368116742,11406.0111695227
2487749855,12675,-2,0,40238.9140889802,39477.5326279815,27896.4404688735,50767.1597773927,52408.6672526853,39636.8321147874,51927.3983402475,57274.3223613338,58317.3373329964,11409.7101493568
2487749855,12675,-2,0,40261.4243281027,39478.3721990622,27894.6396497437,50763.2661144093,52423.4023335379,39626.1975477642,51924.3077452545,57274.3223613338,58327.7042106896,11407.3009453859
2487749855,12675,-2,0,40238.1596917772,39463.5276089383,27889.9185833764,50752.7410566575,52395.0029291531,39620.1988732305,51916.6299285592,57266.2673460370,58304.9871207211,11407.4591254446
2487749855,12675,-2,0,40215.9171419849,39460.0841507374,27888.8599937528,50755.1989314157,52384.4292006140,39622.0240277539,51917.0679656448,57264.6977131469,58303.9893695816,11406.5830512733
2487749855,12675,-2,0,40244.4503910347,39468.0539921564,27887.4728763150,50757.6446384771,52409.7258423089,39621.8536799984,51920.4384176648,57269.6012949665,58320.2575802339,11404.2711888770
2487749855,12675,-2,0,40257.7131805717,39465.6934589727,27886.4386220850,50754.1160063985,52406.0268624747,39622.4377294459,51916.2770653513,57267.1555879051,58309.9272056312,11406.6925605447
2487749855,12675,-2,0,40238.0623502026,39461.2400819355,27887.1321808039,50755.2597698998,52391.7906571919,39619.7486684480,51916.6907670433,57264.8558932056,58299.2561355175,11406.1328464909
2487749855,12675,-2,0,40240.2403679339,39465.7664651537,27884.2362689601,50759.1290974895,52407.4018122157,39621.8415123016,51920.0977221537,57267.3502710543,58316.9357990013,11400.7912275856
2487780138,12676,-2,0,40246.6649118565,39465.6812912759,27880.8293138497,50760.1146809322,52407.9371908759,39622.2917170840,51919.6718527649,57269.4066118174,58317.9335501407,11399.7448056588
2487780138,12676,-2,0,40234.5215504272,39465.9489806060,27885.0880077377,50763.0714312602,52391.5108001650,39624.6644179645,51924.1373974989,57270.8910708298,58304.3787358800,11405.1715984419
2487780138,12676,-2,0,40241.4571376162,39470.6578792765,27885.2826908869,50762.7185680523,52397.8988409970,39613.6404846429,51923.1639817531,57268.6400469175,58313.7843655241,11403.2612700407
2487780138,12676,-2,0,40253.8925237693,39463.7344597842,27873.6503727241,50750.2588465056,52395.2097799991,39595.6687964354,51910.2053846367,57257.9689768038,58310.4139135042,11394.1598328171
2487780138,12676,-2,0,40222.2565120296,39443.5969215423,27859.7061921650,50737.9086342303,52358.5485094716,39584.2919999060,51899.8263392467,57242.5768403228,58282.5255523860,11386.6401961805
2487780138,12676,-2,0,40197.3857397235,39436.8073467151,27851.1766366922,50735.2682440197,52346.9891974898,39584.4015091774,51897.0764397647,57237.2473891143,58280.9072487085,11373.2192265848
2487780138,12676,-2,0,40225.0550822989,39442.3679841632,27845.5916638504,50736.7770384258,52367.1510711254,39580.0698091084,51896.6384026791,57238.5493326744,58290.2520398685,11362.7550073171
2487780138,12676,-2,0,40234.6188920017,39437.7564270673,27840.2500449452,50731.8126181220,52357.0640504592,39575.1175565015,51890.7857405073,57232.8913536517,58269.2384274553,11361.2097098206
2487808978,12677,-2,0,40217.8518057797,39435.2985523090,27840.7245851212,50731.5084257015,52349.0942090402,39578.5001762182,51890.5788896613,57230.8593482823,58260.6236981047,11366.8920242369
2487808978,12677,-2,0,40229.4354531552,39444.5216665008,27841.5519885052,50737.1664047241,52373.6121181384,39580.8242063114,51895.4459683904,57238.7440158235,58280.5665531975,11369.8487745649
2487808978,12677,-2,0,40230.6278874438,39442.2341394981,27837.9625179424,50736.0104735259,52374.0744906177,39575.5190904966,51893.5356399892,57236.2253025812,58275.0667542335,11371.1872212154
2487808978,12677,-2,0,40208.8842132212,39437.1115391357,27839.9336848278,50734.7450330564,52361.4809244059,39582.3573361111,51892.5743919402,57233.8647693975,58263.5561130390,11373.8276114260
2487808978,12677,-2,0,40225.3471070227,39445.0205420706,27846.8571043200,50739.8189626315,52389.3449501305,39592.5903691392,51897.7213276963,57242.1631386308,58284.6914024205,11375.2025611670
2487808978,12677,-2,0,40253.4058158964,39449.3157390491,27850.7264319097,50741.4737693994,52409.0444512868,39592.3713505964,51900.0331900927,57247.7237760789,58293.1236163188,11380.7266955246
2487808978,12677,-2,0,40229.7274778789,39434.9213537075,27849.3758175624,50736.7040322449,52386.2908582279,39583.0265594364,51894.7280742779,57241.5912568801,58271.9274884532,11382.8925455591
2487808978,12677,-2,0,40211.4759326445,39430.6018213354,27848.6822588434,50736.6796968512,52385.6216349027,39579.0477225753,51896.2368686839,57239.4862453297,58277.1230949966,11379.1448949376
2487859857,12678,-2,0,40229.1677638251,39427.4990586455,27839.5078154390,50731.8734566061,52398.8722567428,39573.7791098509,51891.5036346198,57235.3613961068,58285.9081721028,11368.9727003936
2487859857,12678,-2,0,40233.2317745639,39425.2602024301,27838.4857289058,50733.4187541027,52389.8073226098,39585.0950678963,51893.7424908352,57238.0139540142,58274.0081646099,11373.5355867022
2487859857,12678,-2,0,40229.3746146710,39430.2611258243,27846.7110919581,50740.0014780839,52387.1791000960,39594.5128652372,51902.7830895747,57246.5070063966,58280.7125655594,11379.5464289328
2487859857,12678,-2,0,40245.5333160519,39439.0096998400,27849.6921776798,50745.5012770478,52408.3022217806,39592.2375059313,51908.4410685973,57253.4060904952,58301.8478549408,11377.7699451966
2487859857,12678,-2,0,40233.5724700750,39432.1592865287,27847.7696815817,50738.1641558636,52398.5315612318,39591.4587733347,51901.9435184939,57250.7900356783,58288.3782145578,11378.0984730108
2487859857,12678,-2,0,40204.7836993919,39430.8451752718,27849.6678422861,50739.7459564506,52386.6802245263,39597.5912925334,51902.7709218779,57250.6683587100,58279.8608267818,11383.3062472510
2487859857,12678,-2,0,40222.1835058487,39441.2485560554,27850.4344071860,50743.9681472481,52411.5874999228,39595.4011071053,51906.4699017120,57254.4403447251,58297.9055211702,11379.9114598374
2487859857,12678,-2,0,40247.0299427611,39443.2197229408,27847.0882905596,50742.4593528421,52418.1337208136,39590.4488544984,51905.9345230518,57255.4259281678,58298.7572599478,11379.2909072995
2487878797,12679,-2,0,40225.2984362354,39435.5054031550,27845.9931978456,50740.9383907392,52389.3206147368,39593.0892447089,51903.1846235698,57253.2722458301,58280.7977394371,11381.5906019990
2487878797,12679,-2,0,40216.7567130657,39441.2485560554,27850.1180470686,50749.5896231803,52390.8902476270,39601.4727878199,51913.2351411456,57261.7652982126,58295.5693233802,11380.2643230453
2487878797,12679,-2,0,40234.4972150335,39446.8821996845,27847.3438121929,50750.9645729213,52400.1620326061,39590.3150098333,51912.2495577029,57263.0550740758,58304.2813943054,11376.1881446096
2487878797,12679,-2,0,40225.7608087146,39441.2607237523,27844.6547511951,50745.5256124415,52383.9303250443,39585.0829001994,51909.1711304067,57258.2488338307,58281.2844473100,11378.0619699204
2487878797,12679,-2,0,40214.7125399994,39444.0106232343,27845.0927882807,50745.7567986811,52383.0542508730,39590.3880160143,51910.6434217223,57258.2123307403,58282.6959001415,11378.6338516710
2487878797,12679,-2,0,40234.0713456447,39452.0291354406,27845.9080239678,50747.4602762363,52403.1552860245,39590.3393452270,51911.2031357762,57259.4169327257,58298.6720860700,11374.2534808148
2487878797,12679,-2,0,40226.9775783969,39445.9574547259,27845.2753037330,50743.1529115610,52387.6293048784,39587.1635763562,51906.8105972231,57255.5719405297,58286.2610353106,11377.1372249618
2487878797,12679,-2,0,40208.7747039498,39444.7406850436,27851.0549597239,50748.2268411362,52371.5801127690,39592.7972199852,51909.8038506415,57256.4480147009,58279.3132804247,11380.4711738913
2487908745,12680,-2,0,40236.0181771364,39453.7691160863,27852.7341018855,50752.5950442956,52390.5130490255,39586.2753344881,51913.8921967740,57259.7454605399,58295.9221865880,11376.9060387222
2487908745,12680,-2,0,40258.7109317112,39451.3112413280,27848.7187619339,50749.8816479041,52388.7609006830,39582.6615285317,51912.8944456345,57257.9568091070,58291.3349648858,11375.2390642574
2487908745,12680,-2,0,40233.4507931067,39441.4554069014,27844.8007635569,50746.6328728524,52360.6413533252,39582.2964976270,51910.6677571159,57253.2235750428,58271.6111283358,11375.1660580765
2487908745,12680,-2,0,40227.6102986317,39443.8159400851,27846.9301105009,50750.3440203834,52365.5692705384,39586.2388313976,51914.6465939770,57258.4921877672,58285.2632841711,11370.0191223204
2487908745,12680,-2,0,40244.9857696949,39448.5735095429,27847.6601723103,50751.1835914642,52376.9947378552,39586.4821853341,51914.1598861041,57261.1812487651,58293.5251503139,11367.5855829558
2487908745,12680,-2,0,40239.8388339388,39447.9772923985,27852.0040400761,50753.4467830732,52365.8491275654,39588.4776876130,51914.4032400406,57260.3538453811,58278.9847526105,11373.1097173134
2487908745,12680,-2,0,40241.1042744084,39450.9462104233,27854.3159024725,50755.9411609219,52373.4661057765,39586.1779929135,51918.4064122953,57261.6801243348,58284.1560237603,11376.6626847857
2487908745,12680,-2,0,40260.8281109584,39452.4428371326,27849.5826684083,50754.2376833667,52390.4522105414,39583.9026336076,51916.8367794052,57261.0474041000,58294.1457028519,11371.8929476311
2487929874,12681,-2,0,40240.2282002371,39440.3116434001,27842.1603733464,50745.1240784463,52367.8446298443,39581.9071313287,51908.1733792672,57252.9315503191,58273.1807612260,11370.8586934012
2487929874,12681,-2,0,40213.2645840775,39438.8150166909,27847.8791908531,50748.4945304663,52359.5219252175,39592.8215553788,51911.2396388666,57255.3650896837,58273.1199227418,11375.8352814018
2487929874,12681,-2,0,40238.0988532931,39451.3964152058,27852.4907479490,50754.4201988191,52388.2985282037,39594.0139896675,51917.9683752097,57262.3006768728,58298.2097135908,11376.2733184874
2487929874,12681,-2,0,40260.2805646013,39452.2603216802,27851.7606861397,50754.4688696063,52393.1777746297,39589.0008985764,51919.2338156793,57265.0384086579,58292.7829208077,11374.0831330593
2487929874,12681,-2,0,40240.7757465941,39445.9939578164,27852.1500524380,50753.6414662224,52376.9095639774,39588.4411845226,51917.9805429065,57263.7486327947,58278.5953863122,11372.4161585945
2487929874,12681,-2,0,40242.2115348193,39450.6541856996,27854.3524055629,50756.5860488535,52393.6279794122,39589.3537617843,51921.6186842566,57268.9442393381,58295.0217770231,11371.9659538121
2487929874,12681,-2,0,40251.8605183998,39449.2549005649,27851.7728538365,50753.5319569510,52403.7271677752,39587.2487502339,51919.0269648333,57266.9487370591,58296.9929439085,11372.5256678659
2487929874,12681,-2,0,40234.4120411557,39444.8380266182,27850.6047549415,50751.4999515816,52392.9709237837,39591.5439472124,51915.4496619674,57265.1114148389,58278.3885354662,11377.3440758078
2487971544,12682,-2,0,40240.1186909657,39451.9317938660,27855.1676412501,50757.1335952106,52413.5708345050,39595.3646040148,51919.1973125888,57268.2871837096,58287.9401774722,11378.9623794853
2487971544,12682,-2,0,40265.8046989589,39453.7082776021,27853.1113004870,50754.7000558460,52433.6475342628,39589.9013081413,51918.4672507794,57268.8103946730,58298.3435582558,11374.8010271718
2487971544,12682,-2,0,40242.9172612350,39439.5450785002,27850.7507673034,50746.0366557080,52410.2125501818,39586.7377069674,51911.4221543190,57260.5241931366,58275.1275927176,11375.5432566780
2487971544,12682,-2,0,40214.6638692121,39435.9069371502,27853.2451451521,50745.7811340748,52401.1354483519,39593.2352570708,51911.8845267982,57258.2123307403,58275.1762635049,11377.6604359252
2487971544,12682,-2,0,40237.6243131170,39447.9286216112,27855.3866597929,50750.6117097135,52423.1589796014,39595.0725792911,51916.2283945640,57266.3038491275,58297.6013287496,11375.8596167954
2487971544,12682,-2,0,40250.0110284828,39447.6244291907,27854.4862502280,50747.9591518061,52415.8461938108,39591.6169533934,51914.0382091359,57264.8072224183,58288.5363946165,11379.1692303312
2487971544,12682,-2,0,40231.7959863388,39444.7041819532,27855.6665168198,50747.4967793268,52398.8844244397,39595.6079579513,51916.0093760212,57265.1114148389,58280.5665531975,11383.6347750653
2487971544,12682,-2,0,40238.8289151025,39450.2404840076,27855.3623243992,50751.1714237673,52407.6329984554,39589.6579542049,51916.6907670433,57267.8126435336,58300.2660543538,11381.3594157594
2488013969,12683,-2,0,40240.0578524816,39442.7086796742,27847.1004582565,50742.9217253214,52394.6135628548,39578.1473130104,51910.6312540255,57258.6503678259,58290.8847601033,11375.2512319543
2488013969,12683,-2,0,40216.6472037943,39434.0817826267,27845.4456514885,50739.1497393063,52368.5016854728,39587.2974210212,51907.3216404896,57255.0608972631,58273.8256491576,11376.0908030350
2488013969,12683,-2,0,40228.2916896538,39442.9155305202,27853.1356358806,50745.0632399622,52380.5963761148,39592.9188969534,51912.3590669743,57259.3804296353,58294.8757646613,11376.7113555730
2488013969,12683,-2,0,40257.8835283272,39450.0458008584,27854.7782749517,50747.4481085395,52393.3724577789,39592.6877107138,51915.8268605689,57263.1889187408,58307.3719892984,11380.6901924341
2488013969,12683,-2,0,40238.0866855963,39442.7573504615,27853.3303190298,50744.7833829353,52365.5692705384,39590.5340283761,51912.0305391601,57255.8517975566,58289.9356797512,11384.4013399651
2488013969,12683,-2,0,40214.0676520678,39442.1733010140,27853.6831822377,50744.9658983876,52354.7400203660,39590.2663390460,51910.5095770572,57253.6251090380,58291.5053126413,11380.9822171579
2488013969,12683,-2,0,40231.9298310039,39447.0403797432,27850.8846119684,50745.6472894097,52369.0005610425,39586.5308561214,51909.0007826512,57250.8508741624,58304.5734190291,11372.9515372547
2488013969,12683,-2,0,40235.3246184175,39442.3801518600,27846.1392102075,50740.1596581426,52356.0662993197,39582.1018144778,51901.5663198924,57244.6210133890,58288.9379286117,11375.2633996511
2488027732,12684,-2,0,40224.3250204895,39438.7420105099,27849.2054698068,50740.2204966267,52344.3853103697,39585.2289125613,51900.6294072370,57241.6155922738,58282.2821984495,11380.3129938326
2488027732,12684,-2,0,40240.1916971466,39440.7983512730,27847.3559798897,50743.3840978006,52358.0009631146,39580.3618338321,51898.5243956866,57242.8566973497,58300.5702467744,11377.5752620474
2488027732,12684,-2,0,40237.5999777234,39431.0033553305,27842.5862427352,50736.3390013402,52343.1807083842,39578.6218531865,51890.1895233629,57236.2739733685,58292.5882376586,11377.2954050205
2488027732,12684,-2,0,40205.6354381695,39421.7194026546,27840.1283679769,50729.9631282049,52320.9503262887,39577.7579467120,51883.9231594991,57230.8106774950,58274.9815803558,11380.3494969231
2488027732,12684,-2,0,40212.9847270505,39426.3187920537,27835.2734569446,50729.1722279114,52334.5416436399,39573.4505820367,51883.5459608976,57228.8760137001,58284.1560237603,11375.2147288638
2488027732,12684,-2,0,40235.7139847158,39426.2944566601,27827.9850065476,50724.3173168791,52343.2902176556,39568.5713356107,51881.1002538362,57227.0265237831,58285.3971288362,11372.5986740469
2488027732,12684,-2,0,40217.4381040877,39417.4972118571,27825.6001379703,50722.1271314510,52320.9989970760,39567.8169384077,51877.9366526622,57220.0787688972,58264.3591810293,11377.9524606489
2488027732,12684,-2,0,40196.1568023444,39416.8158208350,27823.8479896278,50721.5674173971,52319.5753765477,39566.5028271508,51875.3571009358,57217.8642480754,58267.6444591715,11376.7113555730
2488058720,12685,-2,0,40209.7359519988,39420.3079498232,27819.9056558572,50718.6958409469,52339.7615855770,39564.1666293608,51870.7698792335,57216.7448199677,58278.7413986740,11374.4359962671
2488058720,12685,-2,0,40209.8576289671,39414.6256354069,27818.4211968448,50714.3033023938,52332.9720107498,39568.5226648234,51867.5332718786,57211.7438965734,58262.8382189265,11379.4247519645
2488058720,12685,-2,0,40201.4010796751,39417.2660256174,27825.6488087576,50717.8075990788,52333.1058554148,39578.0864745263,51868.1416567198,57214.0800943634,58261.5119399728,11383.6469427621
2488058720,12685,-2,0,40222.0618288805,39425.2723701269,27829.0679315649,50721.7621005463,52354.7400203660,39574.1076376652,51872.2056674586,57220.2491166527,58281.3452857942,11381.5175958181
2488058720,12685,-2,0,40216.3551790705,39418.5558014807,27822.9354123661,50717.1992142377,52343.4118946239,39564.3978156004,51867.4237626072,57214.6276407205,58269.7494707219,11380.9700494610
2488058720,12685,-2,0,40185.7290861672,39412.5571269470,27821.9133258330,50716.1892954014,52327.7277334191,39565.2738897717,51865.6351111742,57211.7803996639,58258.1779910433,11379.4855904486
2488058720,12685,-2,0,40199.6732667262,39421.9384211974,27824.1156789579,50720.3506477148,52351.1383821064,39569.7150991121,51871.3782640747,57216.2094413075,58277.4637905076,11376.8452002381
2488058720,12685,-2,0,40223.3029339564,39422.7658245814,27819.1999294415,50720.3628154116,52360.9942165330,39565.1643805003,51870.2588359670,57217.2193601438,58278.2181877107,11377.5387589570
2488091240,12686,-2,0,40202.0094645163,39415.3922003067,27817.9223212751,50717.9901145312,52336.3911335570,39559.9444385633,51869.7356250036,57214.1044297571,58261.4511014886,11384.5230169333
2488091240,12686,-2,0,40189.7809292092,39417.8744104586,27819.3946125906,50720.9103617687,52335.5515624763,39557.7907562256,51873.2520893854,57217.2315278406,58272.3411901452,11383.2940795542
2488091240,12686,-2,0,40203.1775634113,39417.4485410698,27815.4644465168,50716.6273324870,52344.4583165506,39556.2211233354,51869.1272401624,57213.5812187937,58276.7823994855,11374.4968347512
2488091240,12686,-2,0,40199.1743911565,39414.2362691085,27815.0872479153,50714.4006439684,52329.0905154633,39563.9841139085,51867.9348058738,57210.4176176197,58258.6525312194,11372.9272018611
2488091240,12686,-2,0,40194.7575172098,39419.5778880138,27819.4432833779,50718.2334684676,52330.6479806566,39569.5934221438,51871.9866489158,57213.7028957619,58260.2464995032,11371.5644198169
2488091240,12686,-2,0,40215.5521110802,39425.8929226649,27818.2143459988,50718.4159839200,52351.6007545857,39564.9453619575,51874.3350144026,57217.2558632342,58276.7215610014,11368.8266880317
2488091240,12686,-2,0,40205.8057859250,39419.3588694710,27815.1845894899,50712.4416447799,52337.0968599728,39555.8317570371,51869.2854202211,57213.7880696397,58260.6480334983,11368.3156447652
2488091240,12686,-2,0,40178.5379773448,39417.3877025857,27820.4897053047,50714.5831594207,52325.4523741132,39562.0251147200,51871.5242764365,57214.8831623538,58254.1018126076,11372.8298602865
2488120071,12687,-2,0,40201.1090549514,39430.1272811593,27823.6898095691,50722.2853115097,52353.4989152901,39566.4176532731,51877.1214169751,57222.6704883204,58277.4272874172,11374.2048100275
2488120071,12687,-2,0,40224.6900513942,39432.1714542255,27822.4000337059,50720.0829583847,52359.5827637016,39560.8326804313,51876.4400259530,57222.7313268046,58273.8986553385,11374.1074684529
2488120071,12687,-2,0,40202.9463771716,39427.9492634280,27821.5726303219,50717.4912389614,52338.0216049313,39564.3978156004,51874.4931944613,57217.3775402025,58257.9711401973,11375.2999027415
2488120071,12687,-2,0,40200.4033285356,39433.9966087490,27825.3567840339,50720.9590325560,52347.2325514263,39567.2085535665,51877.6324602417,57222.2567866285,58272.7183887467,11373.9857914847
2488120071,12687,-2,0,40215.2844217501,39436.4058127199,27825.4906286989,50720.4844923799,52355.8229453833,39563.9476108180,51875.6247902659,57222.7069914109,58277.6219705663,11373.2678973721
2488120071,12687,-2,0,40203.7494451619,39432.7798390667,27828.8489130221,50717.3452265996,52342.7305036018,39567.2937274443,51873.0330708426,57219.6772349020,58262.0959894203,11381.8217882386
2488120071,12687,-2,0,40207.7161143262,39441.9542824712,27833.9471779909,50724.0252921553,52359.2420681905,39574.1441407556,51877.6324602417,57223.6804071567,58272.2195131769,11387.0417301757
2488120071,12687,-2,0,40237.0159282759,39451.2625705407,27832.9737622450,50726.2641483708,52385.4269517535,39564.5194925687,51878.7640560462,57225.8949279785,58289.2786241227,11383.1602348892
2488152622,12688,-2,0,40221.5507856139,39438.7906812972,27826.4153736575,50718.4524870104,52361.9067937947,39554.8948443817,51870.8915562017,57213.8489081238,58266.5493664575,11379.1570626344
2488152622,12688,-2,0,40190.4988233218,39431.3440508416,27825.3324486402,50720.1681322625,52339.9319333325,39558.5938242159,51872.5098598792,57212.6929769256,58258.8958851558,11379.2665719058
2488152622,12688,-2,0,40207.3632511183,39433.9601056585,27821.2075994172,50722.0419575732,52347.4515699691,39552.4004665330,51871.1349101382,57210.5636299816,58274.1663446686,11373.0002080420
2488152622,12688,-2,0,40218.5088614082,39426.2579535696,27813.1890872109,50712.1617877530,52333.1180231117,39544.6131405663,51863.6152735016,57203.8835644258,58260.0153132635,11369.3012282078
2488152622,12688,-2,0,40198.0914661393,39418.3367829378,27814.1990060472,50707.4772244761,52313.9173975251,39556.7443342988,51859.4539211882,57199.4058519950,58246.8255299075,11372.2579785358
2488152622,12688,-2,0,40203.2749049858,39426.6594875647,27820.1976805809,50715.1063703841,52336.0261026524,39558.2652964017,51866.3773406804,57206.5847931205,58266.7805526971,11373.7302698514
2488152622,12688,-2,0,40212.4128452999,39425.3697117015,27816.2918499008,50711.2492104913,52343.7769255286,39546.8154936913,51863.7369504699,57204.6744647193,58267.7418007461,11375.0565488051
2488152622,12688,-2,0,40189.9634446615,39416.9131624096,27813.9556521108,50706.3091255811,52322.4226176043,39544.5157989918,51860.5733492959,57197.8605544985,58247.1418900249,11378.2566530695
2488188789,12689,-2,0,40189.8539353901,39418.5923045711,27814.6613785265,50707.6110691412,52329.0783477665,39546.7303198135,51861.1208956529,57199.2111688458,58255.5010977422,11376.8938710254
2488188789,12689,-2,0,40219.2997617017,39421.8775827133,27813.0795779395,50708.3167955569,52345.4682353870,39548.4946358529,51861.5102619513,57204.5892908415,58266.7562173034,11372.1849723549
2488188789,12689,-2,0,40206.7913693677,39415.5868834559,27813.4202734506,50705.0558528084,52326.4987960400,39553.2765407043,51859.2714057358,57203.1778380101,58253.0432229840,11375.1173872892
2488188789,12689,-2,0,40181.1540321617,39418.8113231139,27821.9376612266,50711.7359183642,52327.0098393065,39564.4343186909,51866.8640485534,57209.3711956930,58261.2564183395,11382.2841607179
2488188789,12689,-2,0,40200.4398316261,39432.7798390667,27828.3622051491,50715.8120967999,52358.6093479557,39567.8047707109,51869.6382834290,57214.5789699332,58283.5963097064,11382.7587008940
2488188789,12689,-2,0,40216.0509866499,39432.3174665874,27831.5623094136,50714.4371470589,52361.1523965917,39564.6898403242,51869.0785693751,57214.6276407205,58277.9139952901,11387.3215872026
2488188789,12689,-2,0,40201.3767442815,39428.3873005136,27834.7989167685,50715.7634260126,52349.7025938813,39565.3833990431,51871.6094503143,57212.2427721432,58265.9409816163,11390.2174990465
2488188789,12689,-2,0,40210.8553801065,39435.8217632724,27838.8872629010,50722.8328578667,52369.6576166710,39569.9827884422,51876.6955475863,57220.9913461589,58287.3561280247,11388.1124874961
2488215680,12690,-2,0,40215.6372849579,39435.9921110279,27836.5388974142,50720.3993185021,52370.3146722994,39567.6222552585,51876.5738706181,57223.4248855235,58285.4214642298,11383.2819118574
2488215680,12690,-2,0,40195.2563927795,39432.8893483381,27840.4812311848,50721.0563741305,52355.9811254420,39577.0157172058,51876.9510692196,57223.8020841250,58273.5214567370,11385.5572711633
2488215680,12690,-2,0,40210.1131506003,39444.8258589214,27846.1270425106,50729.1357248210,52380.3651898751,39581.4569265462,51886.3688665605,57232.9400244390,58288.5972331006,11383.0628933146
2488215680,12690,-2,0,40245.8740115630,39452.3698309516,27846.3217256598,50733.9906358533,52401.9628517359,39576.5290093329,51890.8222435977,57239.1698852124,58297.1389562703,11383.7929551240
2488215680,12690,-2,0,40231.2849430722,39443.2683937281,27844.2167141094,50730.8635377698,52378.8685631659,39572.3433216258,51889.7393185805,57233.6822539452,58274.7017233288,11387.4554318677
2488215680,12690,-2,0,40206.1951522233,39438.2796380307,27843.3528076350,50730.8878731635,52366.6886986462,39574.1684761493,51889.5811385218,57233.2442168596,58277.8531568060,11384.0606444541
2488215680,12690,-2,0,40222.4268597851,39442.0881271362,27838.1085303043,50730.3524945033,52381.8739842812,39569.8246083835,51890.3477034216,57235.1180421703,58295.7153357420,11376.5410078175
2488215680,12690,-2,0,40222.9013999612,39435.4445646709,27834.0566872623,50726.0938006153,52369.7914613360,39567.0747089015,51884.9452460322,57228.7908398224,58280.4570439261,11376.2003123064
2488247715,12691,-2,0,40206.4141707662,39436.7951790183,27837.0742760744,50727.9189551387,52362.3691662740,39575.4947551030,51886.6608912843,57230.5308204681,58277.3299458426,11383.3062472510
2488247715,12691,-2,0,40219.9811527237,39443.6212569359,27839.2036230184,50730.9608793444,52382.6040460906,39574.0467991810,51889.0214244679,57234.0959556372,58295.9221865880,11381.6879435736
2488247715,12691,-2,0,40219.1172462493,39436.0286141184,27832.8155821863,50724.2564783950,52373.6972920162,39568.8268572440,51882.3535266090,57230.6281620426,58287.1857802692,11381.2742418816
2488247715,12691,-2,0,40190.8638542264,39428.3507974231,27834.6650721034,50724.3659876664,52354.0099585567,39574.1319730588,51883.5581285944,57228.5231504923,58271.2826005216,11385.8006250997
2488247715,12691,-2,0,40200.4763347166,39435.3837261868,27837.3054623140,50729.8049481462,52373.7337951066,39576.3464938806,51888.0480087221,57234.4974896323,58288.2930406801,11380.5685154659
2488247715,12691,-2,0,40231.9663340943,39443.0858782757,27840.1162002801,50735.3655855943,52389.3814532210,39575.4339166189,51891.7104854658,57237.7462646841,58297.9663596543,11381.0308879452
2488247715,12691,-2,0,40215.8806388944,39435.2377138249,27839.3739707739,50732.3601644791,52364.9730533941,39576.9062079344,51889.3742876758,57234.9841975053,58281.3939565814,11383.2819118574
2488247715,12691,-2,0,40200.0504653278,39437.5252408276,27844.8129312538,50737.3489201765,52365.0217241814,39586.0928190358,51895.3242914222,57242.3578217800,58296.0195281626,11383.2940795542
2488282593,12692,-2,0,40215.2844217501,39443.4752445740,27845.4578191854,50737.2515786019,52382.2876859732,39584.0729813631,51896.6870734664,57245.6187645285,58311.6428508833,11378.7555286393
2488282593,12692,-2,0,40212.6561992363,39439.8492709208,27842.9512736398,50733.8324557946,52373.3322611115,39584.1824906346,51892.7325719989,57241.9562877848,58293.6468272822,11378.1593114949
2488282593,12692,-2,0,40205.0148856315,39441.3215622364,27844.6304158014,50736.1199827974,52371.2515849548,39583.6349442775,51893.4748015051,57240.1189655645,58289.9600151448,11377.7821128934
2488282593,12692,-2,0,40228.5350435903,39448.1598078509,27842.9147705494,50738.3466713160,52389.6491425511,39578.6461885801,51894.9957636080,57241.0437105231,58305.6198409559,11377.5874297443
2488282593,12692,-2,0,40226.9167399128,39442.1002948331,27839.1671199279,50733.6986111296,52373.3322611115,39571.7714398751,51888.9605859838,57236.9675320874,58293.0871132283,11381.0552233388
2488282593,12692,-2,0,40196.3149824031,39433.2422115460,27837.7191640060,50731.0947240095,52344.6164966093,39575.3365750443,51887.0502575826,57233.0373660136,58278.2668584979,11381.5784343022
2488282593,12692,-2,0,40208.7990393435,39444.0349586279,27840.2622126420,50734.8302069341,52362.2231539121,39577.0765556899,51890.8830820818,57237.5759169285,58295.8613481039,11377.0642187809
2488282593,12692,-2,0,40230.8104028962,39445.6410946085,27836.7579159570,50730.9487116476,52370.4241815708,39564.9331942607,51885.9186617781,57238.7440158235,58292.5395668713,11374.3629900862
2488323915,12693,-2,0,40207.0225556073,39436.6856697468,27833.2414515751,50723.4655781015,52347.2082160326,39562.7065057421,51881.7208063742,57231.9301056027,58271.0270788883,11378.4391685219
2488323915,12693,-2,0,40197.1788888775,39442.3193133759,27837.6339901282,50727.7364396863,52353.7909400138,39574.6673517190,51885.0182522132,57236.6755073636,58283.3772911636,11382.4301730798
2488323915,12693,-2,0,40215.1627447819,39447.3202367701,27839.3496353803,50729.5129234225,52367.2605803968,39577.5267604724,51887.9628348443,57240.6908473152,58299.3048063048,11383.8537936081
2488323915,12693,-2,0,40213.6052795885,39447.1377213178,27844.7277573760,50731.0338855254,52354.7400203660,39585.7034527374,51888.5833873823,57239.5714192075,58286.7112400931,11392.2373367191
2488323915,12693,-2,0,40214.8098815740,39454.6451902575,27852.4664125554,50737.6166095066,52356.5165041022,39591.6899595743,51891.8930009181,57242.5281695355,58290.4710584114,11396.7150491499
2488323915,12693,-2,0,40241.8586716114,39461.7754605958,27853.9265361741,50737.7747895653,52377.8221412392,39585.0585648058,51889.8853309424,57242.8688650465,58307.8343617777,11394.4031867536
2488323915,12693,-2,0,40233.1831037766,39455.0832273431,27853.3789898171,50730.0483020827,52363.8049544991,39581.9071313287,51881.7816448583,57237.1622152366,58289.7896673893,11395.4496086803
2488323915,12693,-2,0,40200.0626330246,39450.1553101298,27858.4164163018,50728.6976877354,52348.0234517198,39584.3285029964,51880.0416642126,57234.7895143561,58279.3984543025,11394.8655592328
2488344363,12694,-2,0,40208.1541514118,39457.1760711967,27855.9220384531,50728.3934953148,52366.2384938637,39571.4794151514,51879.1534223445,57234.6678373879,58291.1889525239,11389.0737355451
2488344363,12694,-2,0,40223.5341201960,39453.4405882720,27844.2532171999,50719.6814243896,52367.2727480937,39558.8615135460,51872.6072014538,57228.8151752160,58281.3087827037,11387.5771088359
2488344363,12694,-2,0,40204.1874822476,39445.4342437625,27839.6903308913,50716.8828541203,52344.7625089712,39560.4189787393,51869.0298985878,57222.4393020808,58262.9842312883,11390.5338591639
2488344363,12694,-2,0,40206.1343137392,39451.2747382376,27842.0751994686,50725.6922666201,52356.1149701070,39566.8191872682,51875.9168149896,57226.7588344530,58281.2479442196,11392.7483799856
2488344363,12694,-2,0,40221.7698041567,39452.8078680372,27841.9291871067,50727.5417565372,52366.4818478002,39566.9895350237,51876.7320506768,57230.4578142871,58290.9334308906,11388.5140214913
2488344363,12694,-2,0,40206.6210216121,39446.3954918116,27842.7444227939,50722.7476839889,52347.1838806390,39567.8777768918,51874.7487160946,57226.3938035483,58274.0933384877,11389.6577849926
2488344363,12694,-2,0,40202.6908555383,39449.3279067459,27844.3870618650,50724.9743725075,52353.7179338329,39571.7957752688,51878.6423790780,57227.9634364384,58278.7413986740,11386.7740408456
2488344363,12694,-2,0,40228.9244098886,39452.7470295531,27842.3672241923,50724.7918570552,52373.1740810528,39567.3545659284,51880.1146703935,57231.1027022187,58292.6490761427,11383.9146320922
2488374630,12695,3,0,40218.5575321955,39444.7893558309,27841.4424792338,50721.3605665511,52357.8792861464,39565.0183681384,51877.5107832734,57226.9656852989,58277.0622565125,11389.5604434180
2488374630,12695,3,0,40191.0220342851,39444.5094988040,27847.9643647309,50725.7044343169,52346.0401171376,39576.6141832107,51881.5261232250,57231.5650746980,58276.5147101554,11396.5690367881
2488374630,12695,3,0,40211.7679573683,39454.8885441940,27851.7971892301,50732.1654813299,52370.3146722994,39574.1441407556,51887.5004623651,57240.8733627676,58299.9496942364,11395.5834533454
2488374630,12695,3,0,40228.3768635316,39450.9097073329,27846.4068995376,50727.6634335054,52371.0203987151,39565.7362622510,51882.7185575136,57236.4078180335,58284.7765762982,11391.2639209732
2488374630,12695,3,0,40212.2546652412,39445.2273929166,27847.6236692199,50724.5728385124,52352.1239655491,39567.5370813808,51881.5261232250,57232.7210058962,58265.6611245894,11388.7938785182
2488374630,12695,3,0,40217.5111102687,39449.9849623743,27849.6678422861,50728.3691599211,52365.4597612670,39569.2283912392,51884.8722398513,57236.2618056717,58279.8364913881,11384.9367186253
2488374630,12695,3,0,40225.8338148956,39449.4009129268,27844.6912542855,50725.5949250455,52369.9374736979,39562.0616178104,51881.3557754695,57234.7043404783,58282.7202355351,11385.0340601999
2488374630,12695,3,0,40200.1478069023,39442.9885367011,27843.3041368477,50719.8882752355,52349.4227368544,39565.6267529796,51877.5837894544,57231.0661991283,58265.8314723449,11388.3436737357
2488409851,12696,3,0,40201.4497504624,39450.7271918805,27848.4024018165,50724.9622048107,52361.8337876138,39569.0215403932,51883.6676378658,57236.2739733685,58280.4083731388,11387.1025686598
2488409851,12696,3,0,40230.9077444707,39455.5334321256,27848.0982093959,50726.9212039992,52377.9316505106,39564.3734802068,51884.2151842229,57239.7417669630,58293.6711626758,11385.5329357696
2488409851,12696,3,0,40222.2808474233,39445.7992746672,27846.2608871757,50722.4799946588,52355.4335790849,39564.5073248719,51883.9109918023,57235.8116008892,58275.2005988986,11390.7893807972
2488409851,12696,3,0,40199.0283787946,39444.2174740802,27850.1058793717,50727.2132287230,52343.7404224381,39572.6718494400,51888.1088472062,57237.0527059652,58275.6629713778,11391.8723058144
2488409851,12696,3,0,40214.4326829725,39452.3454955580,27849.4974945306,50731.6057672760,52364.6566932767,39571.9661230243,51890.3842065121,57240.6178411343,58294.8514292676,11390.2661698338
2488409851,12696,3,0,40218.5818675891,39445.8966162418,27844.3018879872,50722.6503424144,52358.0131308114,39563.0837043436,51882.8037313914,57231.7719255440,58281.1627703418,11389.8403004450
2488409851,12696,3,0,40200.5858439880,39439.5815815907,27844.5330742268,50718.5741639787,52339.3478838850,39560.4676495266,51877.0119077037,57224.1427796360,58267.7661361397,11391.2395855796
2488409851,12696,3,0,40208.5800208006,39441.9542824712,27840.2257095515,50717.7710959884,52351.5764191921,39551.5243923618,51875.1259146961,57223.3762147362,58278.9360818232,11387.2120779312
2488442440,12697,3,0,40211.0135601652,39435.0795337662,27833.6308178735,50710.0324408090,52348.3398118372,39547.2778661706,51868.8717185291,57217.3045340215,58273.3997797688,11384.9367186253
2488442440,12697,3,0,40180.7403304698,39425.7104072126,27833.6308178735,50704.7516603878,52325.7930696243,39552.0962741125,51865.5134342060,57212.6808092288,58255.5984393168,11387.6501150168
2488442440,12697,3,0,40184.4149749103,39433.0475283968,27839.6294924072,50710.8233411025,52344.0202794650,39561.6479161185,51870.3926806320,57218.3752913419,58274.1906800623,11388.5505245817
2488442440,12697,3,0,40217.6571226306,39439.5207431066,27841.1626222069,50711.6872475769,52365.2042396338,39561.1733759424,51871.4634379524,57224.1549473328,58288.3295437705,11389.0250647578
2488442440,12697,3,0,40209.3709210941,39433.6072424506,27843.9246893857,50710.3853040168,52348.9116935878,39564.7993495956,51871.6824564952,57224.2887919979,58273.9716615194,11394.1598328171
2488442440,12697,3,0,40190.6326679868,39434.4468135314,27848.1955509705,50714.9725257191,52344.9450244236,39563.1567105245,51876.3670197721,57228.1702872844,58280.2745284737,11394.0624912425
2488442440,12697,3,0,40208.1906545023,39439.8492709208,27847.1977998311,50717.1505434504,52364.1699854038,39558.9345197269,51878.6667144716,57231.4799008202,58296.4088944610,11390.0593189878
2488442440,12697,3,0,40209.8819643607,39435.0917014630,27843.2067952731,50712.6484956259,52356.3948271340,39554.4081365088,51874.2255051312,57227.0995299640,58280.6395593784,11390.8380515844
2488459106,12698,3,0,40196.5948394300,39434.8118444361,27842.2212118305,50712.9648557433,52344.7746766680,39557.9611039811,51873.4224371409,57224.9458476263,58270.4186940471,11393.0039016189
2488459106,12698,3,0,40213.1185717156,39439.8857740113,27841.3573053560,50715.5079043793,52358.3903294129,39555.6735769784,51875.2232562707,57226.9900206926,58284.6427316332,11390.0471512910
2488459106,12698,3,0,40211.6341127032,39433.5342362697,27835.1031091890,50709.1320312441,52347.3420606977,39544.0655942093,51868.6040291990,57219.8354149607,58272.6940533530,11387.4797672613
2488459106,12698,3,0,40179.3167099415,39424.0799358383,27831.7569925627,50705.1775297766,52323.5785488025,39545.6717301899,51867.1317378835,57215.6983980409,58252.8242044412,11387.6866181073
2488459106,12698,3,0,40190.8395188328,39433.0353607000,27832.1706942547,50709.0833604568,52344.1784595237,39551.0985229730,51870.7698792335,57219.7137379925,58266.6832111225,11384.5838554175
2488459106,12698,3,0,40224.6413806069,39440.4089849747,27833.8498364163,50711.3343843690,52362.9775511152,39552.1327772029,51873.8361388329,57223.3275439489,58274.7868972066,11384.4621784492
2488459106,12698,3,0,40214.6030307280,39438.0362840942,27839.4104738644,50711.4195582468,52347.6097500278,39559.2752152380,51875.1989208771,57224.3617981788,58262.8382189265,11390.5825299512
2488459106,12698,3,0,40200.4276639293,39441.5649161728,27844.1923787158,50717.1018726631,52350.2014694511,39567.3058951411,51880.0173288190,57229.3870569667,58277.1595980871,11392.7118768952
2488496594,12699,3,0,40214.9315585422,39445.6654300022,27842.9512736398,50716.8098479393,52364.2551592816,39563.4609029451,51879.1777577382,57231.9909440868,58290.9699339811,11387.4310964740
2488496594,12699,3,0,40212.3398391189,39440.2629726128,27841.4181438402,50713.1595388925,52349.7756000623,39561.0395312773,51874.3228467058,57227.5010639591,58273.1077550450,11388.7087046404
2488496594,12699,3,0,40204.3456623063,39440.8470220603,27844.4844034395,50715.3253889269,52343.7282547413,39563.7407599720,51877.4621124861,57228.5231504923,58271.7936437881,11389.3414248752
2488496594,12699,3,0,40233.7549855273,39451.3355767217,27848.2320540610,50723.9401182776,52370.9960633215,39565.1157097130,51884.2395196165,57235.5804146496,58292.6490761427,11388.4775184008
2488496594,12699,3,0,40240.5202249609,39449.5469252887,27850.4830779732,50722.6381747175,52365.5692705384,39563.7407599720,51885.2372707560,57236.2374702780,58284.3507069094,11388.9885616674
2488496594,12699,3,0,40212.1086528793,39443.8281077819,27852.2595617094,50725.3880741995,52348.8995258910,39568.3644847647,51886.7947359493,57235.6777562242,58273.3267735878,11389.3170894816
2488496594,12699,3,0,40221.1249162251,39450.6663533964,27850.6899288192,50727.0307132706,52369.5967781868,39570.9440364912,51888.5225488982,57239.7052638726,58290.2885429590,11380.6415216468
2488496594,12699,3,0,40247.1272843357,39452.8565388245,27845.5064899727,50724.0009567617,52379.3796064325,39561.4775683629,51888.4495427173,57239.1090467282,58291.1281140398,11378.6825224583
2488531311,12700,3,0,40228.5107081966,39441.0903759967,27841.7588393512,50715.7269229221,52353.1217166886,39556.5618188465,51881.5017878314,57229.1437030302,58268.0338254699,11383.3792534320
2488531311,12700,3,0,40219.4944448508,39441.1025436936,27844.6182481046,50719.0608718516,52353.1703874759,39558.2652964017,51884.0691718610,57232.4898196566,58278.5467155249,11388.7817108214
2488531311,12700,3,0,40227.9753295364,39438.9488613559,27841.6493300798,50716.1649600077,52363.1600665675,39555.2477075896,51879.6036271270,57231.4799008202,58284.7644086014,11390.3391760147
2488531311,12700,3,0,40209.8211258766,39431.0033553305,27842.0265286813,50710.8233411025,52344.7625089712,39557.5474022891,51874.3228467058,57223.7655810345,58267.2185897827,11393.7217957315
2488531311,12700,3,0,40198.6025094058,39434.0452795363,27846.1148748138,50713.6705821590,52347.8166008738,39566.0526223684,51876.9875723100,57225.5907355579,58268.2163409222,11394.3666836631
2488531311,12700,3,0,40225.3227716290,39443.1223813662,27845.6525023345,50714.6926686922,52372.9063917227,39562.3901456247,51880.0538319094,57230.5916589522,58286.4313830661,11392.0183181763
2488531311,12700,3,0,40221.9401519122,39435.5905770328,27841.5519885052,50710.0932792931,52357.4655844544,39557.3283837463,51876.7442183736,57227.3672192941,58269.8711476901,11395.1210808661
2488531311,12700,3,0,40197.4344105108,39435.9069371502,27847.7940169754,50716.9558603012,52342.9495221446,39561.6844192089,51883.4242839294,57232.2099626296,58263.3979329803,11400.4383643777
2488575613,12701,3,0,40211.3664233731,39444.7528527405,27848.2320540610,50722.0784606637,52361.0063842298,39556.3062972132,51887.3544500032,57237.9166124396,58280.5178824102,11392.4563552619
2488575613,12701,3,0,40229.6423040012,39439.5694138939,27839.3131322898,50712.8553464719,52360.3249932078,39542.9096630111,51878.8613976208,57229.5939078127,58271.4042774898,11386.0318113394
2488575613,12701,3,0,40210.9892247716,39429.8109210419,27835.1882830668,50705.3235421385,52334.4686374590,39550.5144735255,51871.4391025588,57219.7867441734,58255.8539609501,11390.6555361321
2488575613,12701,3,0,40207.5092634802,39433.1935407587,27837.6218224314,50710.4096394105,52342.5479881494,39556.3428003037,51872.5585306665,57221.0156815525,58270.6863833773,11393.1864170713
2488575613,12701,3,0,40214.3110060042,39433.9722733553,27835.5898170620,50710.6164902565,52350.3596495098,39553.3860499757,51872.0596550967,57220.9913461589,58275.7846483461,11392.1643305381
2488575613,12701,3,0,40190.6691710773,39427.5964002201,27835.2126184605,50706.6863241827,52330.9765084708,39552.2179510807,51870.7455438399,57216.7691553613,58257.3627553561,11394.1841682108
2488575613,12701,3,0,40189.0630350966,39433.8505963871,27840.3230511261,50712.8310110782,52340.1631195721,39555.9047632180,51876.6955475863,57222.5488113522,58264.8702242959,11396.3378505484
2488575613,12701,3,0,40218.9590661906,39438.5838304512,27836.2590403872,50711.7967568483,52361.4930921028,39547.8619156181,51877.7663049067,57226.2356234896,58280.3962054420,11392.5050260492
2488585478,12702,3,0,40211.8652989428,39424.8586684350,27828.1310189095,50702.6831519279,52340.7836721101,39537.0570008393,51868.6648676831,57216.6353106963,58255.0630606566,11393.9651496679
2488585478,12702,3,0,40181.8110877902,39416.9131624096,27827.0115908018,50698.8746628223,52322.4591206948,39538.0790873724,51865.6229434774,57211.4153687592,58245.6695987093,11394.8655592328
2488585478,12702,3,0,40193.3217289847,39421.1353532071,27825.3446163370,50699.9819232332,52340.1509518753,39536.9596592647,51864.5886892475,57211.9994182067,58263.3614298898,11387.2972518090
2488585478,12702,3,0,40208.3488345610,39420.2836144295,27823.0692570312,50697.4875453845,52340.7471690196,39534.3922752351,51861.9361313401,57206.2319299126,58258.6281958257,11386.1534883076
2488585478,12702,3,0,40190.7421772582,39413.1046733040,27822.2661890408,50694.5429627534,52320.3419414476,39536.0714173966,51859.5634304596,57200.0507399266,58240.4618244691,11386.1413206108
2488585478,12702,3,0,40193.3460643783,39412.3137730105,27819.2851033192,50693.8007332472,52324.8318215752,39529.7320473519,51860.4760077213,57197.5563620779,58251.3032423383,11379.5950997200
2488585478,12702,3,0,40197.3492366331,39405.5850366674,27811.5829512303,50687.6438786548,52320.6217984745,39523.1736587643,51855.5237551144,57194.6604502340,58247.3730762645,11375.5067535875
2488585478,12702,3,0,40172.7948244444,39397.0554811945,27811.5099450494,50684.9304822632,52300.7397818658,39529.4765257186,51852.7251848451,57193.8452145469,58230.8493439789,11380.7145278278
2488621173,12703,3,0,40174.9606744789,39408.7851409318,27820.9155746935,50692.7908144109,52316.4239430706,39543.1895200381,51860.3908338435,57202.9953225577,58248.2004796485,11383.2819118574
2488621173,12703,3,0,40210.8310447129,39419.8212419502,27823.1179278184,50698.3392841621,52344.3244718856,39535.8889019443,51866.8518808565,57209.4807049644,58263.8846408532,11383.8294582144
2488621173,12703,3,0,40204.4186684872,39413.0560025167,27821.8038165616,50693.1071745283,52325.9390819861,39531.6910465404,51861.7414481909,57204.7231355066,58244.7448537507,11389.4509341466
2488621173,12703,3,0,40180.1806164159,39411.9365744090,27823.9574988992,50694.2387703328,52313.8930621314,39536.5581252696,51862.6783608463,57204.0174090909,58243.8931149731,11397.3477693847
2488621173,12703,3,0,40193.1635489260,39418.3002798474,27824.3955359849,50697.1711852671,52334.3347927940,39534.9763246826,51863.5179319270,57207.0106625093,58262.6678711709,11400.3166874095
2488621173,12703,3,0,40199.6976021199,39416.6698084731,27824.9674177355,50692.5839635649,52330.7574899280,39530.6689600072,51859.3079088263,57200.8538079169,58252.1549811159,11405.4271200752
2488621173,12703,3,0,40181.1296967681,39409.1866749270,27824.6753930118,50686.4757797597,52314.0269067965,39530.5472830390,51855.5967612953,57192.8839664979,58236.4586522143,11406.7533990289
2488621173,12703,3,0,40193.9179461290,39412.2285991327,27823.7384803564,50687.1936738723,52328.3117828666,39525.3151734052,51856.0591337746,57194.8551333832,58251.5465962748,11399.7813087493
2488681656,12704,3,0,40197.5560874791,39403.1758326965,27815.0385771280,50679.8322172944,52320.9138231983,39513.8045322107,51849.1965527664,57187.7370307418,58244.0391273350,11396.1675027929
2488681656,12704,3,0,40165.6402187125,39392.6994457319,27810.0619891274,50676.0480635825,52293.5730084371,39513.4395013060,51848.3569816857,57185.6563545851,58225.2278680467,11397.6762971989
2488681656,12704,3,0,40167.5140440232,39398.9049711116,27811.5221127462,50683.1661662239,52305.6676990791,39521.0078087298,51855.9496245032,57189.9028807763,58239.1477132122,11395.3035963185
2488681656,12704,3,0,40200.3059869610,39405.7067136356,27811.4004357780,50685.9282334027,52323.7002257707,39522.0785660503,51858.8455363470,57196.1692446401,58250.4758389543,11391.9574796922
2488681656,12704,3,0,40191.6669222168,39401.8982245301,27814.7587201011,50684.1274142729,52308.1742446246,39520.4480946760,51857.1907295791,57195.8042137354,58232.8083431674,11396.2891797611
2488681656,12704,3,0,40172.8921660190,39402.0929076792,27817.1800917689,50686.3297673979,52303.3680043796,39518.8541263922,51860.3664984499,57198.7487963665,58237.6875895934,11394.2206713012
2488681656,12704,3,0,40190.7786803487,39408.3471038462,27814.1868383504,50689.1648407576,52323.5420457120,39516.5787670863,51861.3399141957,57203.4820304307,58253.5542662506,11389.7429588704
2488681656,12704,3,0,40194.1856354591,39405.4755273960,27810.7190447559,50685.6240409821,52319.6848858191,39518.0875614923,51858.2006484154,57202.5329500785,58237.7849311680,11389.8889712323
2488686688,12705,3,0,40185.3032167784,39411.0361648441,27816.9245701356,50690.2964365622,52320.5001215063,39528.8194700902,51862.5810192717,57206.7794762697,58231.8227597248,11391.0935732177
2488686688,12705,3,0,40209.6751135147,39421.9019181070,27820.3071898523,50696.9521667243,52347.9017747515,39535.0371631667,51869.3219233116,57214.2991129063,58253.4447569791,11389.0007293642
2488686688,12705,3,0,40215.6737880484,39417.5702180380,27819.8569850699,50695.6380554674,52341.2825476799,39529.0628240266,51867.5941103627,57211.0016670672,58249.4902555117,11386.5306869091
2488686688,12705,3,0,40184.1351178834,39408.0672468193,27821.8038165616,50693.6303854916,52313.1995034125,39531.2773448484,51866.8032100692,57207.6312150473,58236.7020061508,11386.2508298822
2488686688,12705,3,0,40186.7633403971,39414.6499708005,27823.7871511437,50697.7065639273,52323.4447041374,39532.1169159292,51870.9158915954,57211.5127103338,58253.6881109156,11381.7122789672
2488686688,12705,3,0,40215.8076327135,39419.1033478377,27823.6776418723,50697.2806945385,52337.1090276696,39533.0051577973,51870.7698792335,57212.7538154097,58259.5286053906,11381.4202542435
2488686688,12705,3,0,40207.7039466294,39417.9839197300,27825.5636348799,50699.1180167588,52325.3672002355,39536.1444235776,51871.7919657666,57212.5226291701,58242.5546683226,11390.5825299512
2488686688,12705,3,0,40195.3780697477,39424.5909791048,27828.5203852078,50703.0238474389,52334.7484944859,39539.0646708151,51875.9654857769,57217.1950247501,58250.1594788370,11394.4153544504
2488716615,12706,3,0,40204.7836993919,39428.4724743914,27822.8745738820,50700.6146434680,52353.0000397204,39527.3836818651,51873.8483065297,57216.1851059138,58258.1293202560,11389.4022633593
2488716615,12706,3,0,40192.4943256007,39420.5513037596,27816.3526883849,50694.1535964550,52336.6588228871,39525.0474840751,51867.3994272136,57209.4198664803,58237.5172418379,11387.0782332662
2488716615,12706,3,0,40187.4082283287,39423.0091785179,27824.5050452563,50703.0360151358,52332.5826444515,39539.6000494753,51875.1259146961,57214.7006469014,58237.8944404394,11392.9308954380
2488716615,12706,3,0,40221.3682701616,39432.7190005826,27830.8809183915,50714.2667993033,52353.2068905663,39539.8799065022,51882.1588434598,57224.2401212106,58262.0351509361,11393.1499139808
2488716615,12706,3,0,40222.1348350614,39423.0456816083,27825.9651688750,50705.6764053463,52335.5028916890,39527.6757065888,51873.7266295615,57217.2315278406,58251.9359625731,11391.6532872716
2488716615,12706,3,0,40182.3951372377,39409.2718488048,27822.2783567377,50696.2951110959,52307.0061457296,39528.3692653077,51867.6184457564,57208.7019723677,58236.0449505223,11391.5437780002
2488716615,12706,3,0,40184.1594532770,39412.8126485802,27821.2684379014,50695.4555400151,52323.2743563819,39529.7077119582,51866.5841915264,57209.1643448470,58251.7047763335,11384.1823214223
2488716615,12706,3,0,40211.2204110112,39419.5170495297,27818.5063707226,50694.9323290517,52339.2140392200,39528.9289793616,51867.3872595167,57210.8678224022,58256.0608117961,11386.0804821267
2488740872,12707,3,0,40201.7417751862,39415.9154112701,27817.4964518863,50694.9931675358,52323.4690395311,39532.0804128387,51867.7522904214,57208.1300906170,58236.3613106397,11394.0746589393
2488740872,12707,3,0,40199.6002605453,39423.0943523956,27822.0471704980,50702.6831519279,52331.4997194342,39541.7780672066,51875.2110885739,57214.3112806031,58249.5024232085,11395.3766024994
2488740872,12707,3,0,40212.7535408109,39425.5522271539,27820.7695623316,50704.3014556054,52339.5060639437,39535.5482064333,51874.8217222756,57217.2558632342,58258.7012020067,11391.4221010319
2488740872,12707,3,0,40195.9499514984,39420.5148006692,27822.3513629186,50700.5416372871,52318.3951099559,39535.2075109222,51871.9866489158,57214.0192558793,58242.4694944449,11391.3369271542
2488740872,12707,3,0,40184.6461611499,39424.1772774129,27829.8223287679,50702.5858103533,52318.2125945036,39543.6518925173,51875.3084301485,57218.3631236451,58247.1540577217,11389.7916296577
2488740872,12707,3,0,40215.2114155691,39437.9997810037,27836.3198788713,50708.7183295521,52346.9405267025,39547.6185616816,51881.1367569267,57226.5276482133,58269.2870982426,11387.7596242882
2488740872,12707,3,0,40219.4822771540,39438.7055074195,27839.4591446517,50710.8355087993,52344.7138381839,39549.4680515987,51884.3733642816,57231.3217207616,58261.8526354838,11393.0160693158
2488740872,12707,3,0,40192.4091517230,39435.0065275853,27841.1382868132,50713.8409299145,52331.7187379770,39553.5563977312,51890.2503618470,57233.1712106786,58256.4866811849,11394.2206713012
2488779892,12708,3,0,40203.1167249271,39439.6424200748,27842.0873671654,50717.9414437439,52351.3574006493,39553.4590561566,51892.9515905417,57236.2009671875,58275.1275927176,11391.2639209732
2488779892,12708,3,0,40221.0032392569,39438.6568366322,27836.4537235364,50713.7800914304,52357.4655844544,39552.0111002347,51888.2791949617,57234.7895143561,58273.7526429766,11391.4099333351
2488779892,12708,3,0,40206.4263384630,39433.8019255998,27836.5632328078,50712.6971664132,52344.4096457634,39561.4288975756,51889.0579275584,57233.0008629231,58260.7453750729,11398.3698559178
2488779892,12708,3,0,40211.6827834905,39440.9321959381,27841.8318455321,50719.5232443309,52361.7242783424,39562.9620273753,51895.6284838428,57242.3578217800,58277.4272874172,11402.1053388425
2488779892,12708,3,0,40222.4025243915,39440.4941588524,27839.2157907152,50716.2014630982,52371.8356344023,39554.1282794819,51891.1507714119,57239.4862453297,58280.6395593784,11397.8953157418
2488779892,12708,3,0,40201.3645765846,39436.6735020500,27842.7079197034,50712.7945079878,52355.8351130801,39559.4333952967,51886.8920775239,57234.1081233340,58262.7530450487,11398.8930668812
2488779892,12708,3,0,40198.0792984424,39446.9065350781,27852.1622201348,50717.3330589027,52365.7882890813,39570.0801300168,51892.0755163705,57236.9675320874,58270.9297373137,11398.2238435560
2488779892,12708,3,0,40235.5314692635,39459.5487720772,27858.6476025414,50722.7355162921,52394.6257305516,39571.6497629069,51896.2368686839,57241.4817476087,58289.9965182353,11394.8412238392
2488808851,12709,3,0,40237.3687914837,39456.1296492699,27861.1906511774,50720.7278463163,52383.2732694158,39569.7637698994,51893.9736770749,57238.3424818284,58276.8189025760,11398.8687314876
2488808851,12709,3,0,40212.6318638427,39454.2558239592,27864.1474015054,50725.4610803805,52368.6598655315,39573.2437311907,51895.5554776618,57239.3889037552,58274.0933384877,11404.3076919674
2488808851,12709,3,0,40225.8459825924,39460.7047032753,27863.2956627278,50730.6688546207,52382.0443320367,39574.5091716603,51901.2742951686,57244.9617089001,58296.8956023339,11401.5212893950
2488808851,12709,3,0,40238.4882195914,39457.2369096808,27859.5966828936,50727.5660919308,52377.8829797233,39571.1995581245,51898.9259296818,57242.4916664450,58293.7685042504,11399.6109609938
2488808851,12709,3,0,40223.0352446263,39451.6641045359,27860.5457632458,50726.1424714025,52357.4412490607,39571.6619306037,51898.1106939947,57240.0337916868,58280.4692116229,11400.7668921920
2488808851,12709,3,0,40229.3989500647,39454.9858857686,27859.4019997445,50726.8725332119,52364.9608856973,39566.7461810873,51896.7114088600,57238.5615003712,58291.4566418540,11395.4739440740
2488808851,12709,3,0,40237.0524313663,39449.7416084379,27850.9089473620,50718.9270271865,52357.2100628211,39555.1016952277,51889.2769461012,57233.6822539452,58286.8937555454,11391.4221010319
2488808851,12709,3,0,40204.4673392745,39437.1845453166,27845.5186576695,50709.7647514789,52325.0143370276,39556.2576264259,51880.6135459633,57225.9679341595,58263.7507961882,11393.6122864601
2488850250,12710,3,0,40194.5263309701,39442.6478411901,27847.8305200658,50712.5754894450,52330.8913345931,39564.3491448132,51882.3900296994,57230.2022926538,58273.4241151624,11396.1796704897
2488850250,12710,3,0,40223.6436294674,39452.0899739247,27849.1933021100,50716.8828541203,52354.7278526692,39571.2847320022,51884.6288859148,57238.8170220045,58289.4246364846,11396.4473598198
2488850250,12710,3,0,40224.4223620641,39449.4982545014,27851.3226490540,50718.4159839200,52342.2194603352,39575.6042643744,51885.5414631766,57239.7661023567,58277.5124612949,11402.9205745296
2488850250,12710,3,0,40206.5601831280,39447.0768828336,27852.5029156459,50723.2708949523,52332.4731351801,39571.4550797578,51888.4495427173,57241.2018905818,58279.4106219993,11404.7335613562
2488850250,12710,3,0,40216.0023158626,39446.6388457480,27844.3383910777,50720.7156786195,52342.6331620272,39561.1855436392,51887.2692761254,57239.7904377503,58293.9510197027,11397.8223095608
2488850250,12710,3,0,40218.6062029827,39437.8416009450,27837.1716176489,50709.9594346280,52332.5826444515,39553.9092609391,51878.3260189606,57232.0396148741,58280.3475346547,11394.7195468710
2488850250,12710,3,0,40201.2550673132,39432.7555036730,27838.2423749694,50704.9463435370,52316.7281354912,39561.2828852138,51872.1691643682,57224.5564813280,58265.4664414402,11394.9020623233
2488850250,12710,3,0,40219.8716434523,39442.8546920361,27844.1315402317,50711.5168998214,52340.3091319340,39568.1698016156,51876.7198829799,57230.2144603507,58284.7157378141,11396.5568690912
2488879981,12711,3,0,40230.0073349058,39443.5969215423,27845.2266329457,50709.8134222662,52347.7800977833,39565.0427035321,51875.7951380214,57231.9057702091,58283.9613406111,11396.4595275166
2488879981,12711,3,0,40199.8436144818,39438.6933397226,27847.7940169754,50710.3122978359,52328.7376522554,39566.0891254588,51875.0164054247,57230.4578142871,58270.6742156804,11399.4406132383
2488879981,12711,3,0,40196.1446346476,39444.1444678993,27850.1788855527,50715.2280473524,52341.2217091957,39566.8191872682,51878.2895158701,57232.7088381994,58285.2876195648,11398.3090174337
2488879981,12711,3,0,40224.9577407243,39447.6852676748,27843.9976955666,50709.9716023248,52355.7377715055,39560.8813512186,51872.6315368474,57228.6326597637,58292.2962129348,11394.2450066949
2488879981,12711,3,0,40216.7932161561,39439.3382276542,27841.4911500211,50705.4330514099,52335.9409287746,39561.2098790328,51867.6671165437,57220.8940045843,58270.0293277488,11400.6087121333
2488879981,12711,3,0,40199.6367636358,39439.4477369257,27846.7110919581,50709.5700683297,52331.0008438645,39570.2748131659,51871.2809225001,57223.2058669807,58274.0081646099,11405.7678155862
2488879981,12711,3,0,40215.5642787770,39445.7019330926,27847.3438121929,50714.7413394794,52348.9360289815,39568.6078387012,51874.9677346374,57227.3793869909,58293.7928396440,11404.1616796056
2488879981,12711,3,0,40216.6715391879,39444.6311757722,27848.1103770928,50712.2591293276,52342.2681311225,39572.4163278068,51875.9776534737,57226.9170145116,58283.3164526795,11404.4415366325
2488899800,12712,3,0,40205.1974010839,39448.5126710587,27854.8877842231,50715.7147552253,52339.1897038263,39577.4172512010,51878.5328698065,57231.3095530647,58280.9680871926,11407.0332560558
2488899800,12712,3,0,40228.6080497712,39458.0886484584,27856.0437154213,50721.0320387369,52365.4232581766,39576.3343261838,51882.1223403693,57239.8269408408,58301.5436625202,11400.8033952824
2488899800,12712,3,0,40236.7482389458,39455.2900781891,27852.6124249173,50718.4646547073,52367.6134436047,39575.9571275822,51881.5017878314,57240.0337916868,58296.3602236737,11401.0224138252
2488899800,12712,3,0,40202.7273586288,39446.9673735622,27851.4443260223,50716.0432830395,52342.5601558463,39571.8687814497,51879.3237701000,57236.1522964003,58281.0775964640,11405.6218032243
2488899800,12712,3,0,40197.7872737187,39450.3864963695,27851.2983136604,50717.4304004773,52351.8197731285,39569.1310496646,51876.8537276450,57233.5970800674,58291.5053126413,11403.1639284661
2488899800,12712,3,0,40223.4611140151,39451.9682969565,27847.3559798897,50714.2546316065,52360.9333780489,39567.0138704174,51871.7919657666,57228.3528027368,58294.0361935805,11398.4428620988
2488899800,12712,3,0,40212.9117208696,39443.7307662073,27846.8327689264,50708.4384725252,52337.3767169997,39564.7141757178,51868.5675261086,57220.1882781686,58269.3601044236,11398.4185267051
2488899800,12712,3,0,40200.2208130833,39446.1156347846,27851.8945308047,50712.3808062958,52335.2230346620,39562.4023133215,51875.1259146961,57221.4293832445,58275.0545865367,11398.5767067638
2488938863,12713,3,0,40214.1163228551,39450.9705458170,27853.6710145409,50718.1117914994,52351.0775436223,39564.6290018401,51880.5162043887,57228.1702872844,58289.7409966020,11397.0435769641
2488938863,12713,3,0,40204.1874822476,39443.9741201438,27849.8868608289,50715.1915442619,52339.7250824865,39560.7353388567,51878.2165096892,57225.4690585897,58273.6431337052,11396.6785460595
2488938863,12713,3,0,40191.4235682803,39446.8821996845,27852.1500524380,50716.7368417584,52336.6101520998,39565.4199021336,51880.1876765745,57226.2964619737,58270.2483462916,11397.9318188322
2488938863,12713,3,0,40217.0609054862,39454.5600163797,27849.5218299242,50716.9680279980,52360.4101670855,39563.0350335563,51881.0637507457,57226.8683437244,58288.1591960150,11395.8268072819
2488938863,12713,3,0,40221.2344254965,39447.4175783447,27841.5154854147,50712.3808062958,52349.6904261845,39556.9268497512,51873.5441141091,57222.0864388729,58277.4151197203,11396.5325336976
2488938863,12713,3,0,40187.7854269302,39437.7929301577,27839.7024985881,50710.5069809851,52323.9435797072,39557.7907562256,51871.0132331700,57217.4870494739,58264.2496717579,11402.4703697472
2488938863,12713,3,0,40187.4203960255,39443.0858782757,27840.2987157324,50710.9085149802,52338.1554495964,39557.9732716779,51870.7212084462,57220.8209984034,58280.2136899896,11399.4527809351
2488938863,12713,3,0,40212.2790006348,39443.7794369946,27837.8286732774,50708.8278388235,52350.0067863019,39557.0728621130,51867.7522904214,57218.6186452784,58282.6107262637,11397.0314092673
2488968824,12714,3,0,40204.3456623063,39439.5085754098,27840.1648710674,50706.6133180017,52338.2771265646,39566.4298209699,51867.2169117612,57219.1783593323,58267.7174653525,11400.1828427445
2488968824,12714,3,0,40206.5601831280,39445.5437530339,27846.4799057185,50716.6881709711,52354.8373619406,39569.0823788773,51874.3593497963,57227.9756041352,58284.2290299412,11402.1661773266
2488968824,12714,3,0,40217.9734827480,39445.9939578164,27844.2167141094,50714.5588240271,52366.4696801033,39563.6190830038,51874.6027037327,57231.7354224535,58297.1146208767,11402.3486927789
2488968824,12714,3,0,40195.9742868921,39436.1137879962,27840.2135418547,50706.4429702462,52340.3456350245,39568.2184724028,51870.0641528178,57227.0021883894,58277.6584736568,11407.7389824715
2488968824,12714,3,0,40181.6650754283,39439.0096998400,27843.4136461191,50708.4506402220,52331.2685331946,39569.2770620264,51873.5319464123,57225.6150709516,58275.9793314952,11411.5718069707
2488968824,12714,3,0,40209.0910640672,39445.7019330926,27839.6416601040,50710.4948132882,52348.5101595927,39558.9831905142,51873.5197787155,57223.8629226091,58288.7554131593,11404.4780397230
2488968824,12714,3,0,40212.2911683316,39437.0141975611,27833.8498364163,50704.1432755467,52334.2131158257,39553.5929008217,51867.1195701866,57215.1508516839,58271.6232960326,11401.6064632727
2488968824,12714,3,0,40181.6772431251,39430.3097966116,27835.2247861573,50704.0094308816,52318.8574824352,39556.0629432767,51867.1560732771,57212.5712999574,58261.1225736744,11403.2491023438
2488990041,12715,3,0,40184.3784718198,39435.6635832137,27836.9891021966,50705.7859146178,52338.6786605598,39559.4577306903,51870.1006559083,57215.0535101093,58277.8409891091,11398.8687314876
2488990041,12715,3,0,40203.0072156557,39436.8073467151,27834.7015751939,50705.9562623733,52346.3808126487,39556.0142724894,51871.1349101382,57216.0390935519,58279.5688020580,11397.6641295021
2488990041,12715,3,0,40192.0319531214,39432.4148081620,27831.8908372278,50705.1896974734,52326.3041128908,39551.4148830904,51872.7288784220,57212.9241631653,58260.5385242269,11401.1684261871
2488990041,12715,3,0,40195.0495419335,39432.9380191254,27828.5690559951,50706.3091255811,52330.6723160503,39549.1516914813,51875.0285731215,57213.1918524954,58269.0194089125,11396.3500182452
2488990041,12715,3,0,40210.1009829035,39431.9037648954,27826.9994231050,50705.6155668622,52337.1455307601,39546.1097672756,51872.9478969648,57214.2626098158,58274.0446677004,11393.1742493744
2488990041,12715,3,0,40187.2987190573,39423.2768678480,27825.6853118481,50701.6123946075,52317.1540048800,39549.3585423273,51870.9280592922,57210.7461454340,58255.9756379183,11394.5613668123
2488990041,12715,3,0,40174.7051528456,39427.8154187629,27828.8732484157,50703.4740522214,52324.5397968515,39551.8407524792,51872.5341952728,57211.8169027544,58261.9864801489,11394.2450066949
2488990041,12715,3,0,40203.1045572303,39435.0186952821,27823.8114865374,50702.0382639963,52349.8729416369,39545.3675377694,51870.9523946859,57213.6055541874,58275.8454868302,11390.8137161908
2489035093,12716,3,0,40202.4596692987,39429.0078530516,27820.7330592412,50694.5916335407,52334.7241590923,39545.9272518232,51866.4138437709,57207.8624012869,58259.2852514542,11395.9241488564
2489035093,12716,3,0,40177.4672200244,39425.7955810903,27826.2085228115,50697.8039055019,52319.3076872176,39552.7289943472,51868.1051536293,57208.0570844361,58254.0044710330,11400.9980784316
2489035093,12716,3,0,40184.5731549690,39432.9501868222,27829.6276456187,50703.4740522214,52336.8900091268,39553.6659070026,51871.3782640747,57213.4352064318,58275.0910896272,11398.5767067638
2489035093,12716,3,0,40189.8295999965,39430.0421072815,27824.3225298039,50700.4807988030,52336.3911335570,39550.3197903763,51867.8496319960,57212.6929769256,58269.5791229664,11397.0192415705
2489035093,12716,3,0,40174.3401219409,39429.7865856482,27826.9385846209,50702.4641333851,52324.5884676388,39554.5176457802,51870.6482022653,57212.2549398400,58258.1293202560,11400.2801843190
2489035093,12716,3,0,40188.6249980110,39435.1282045535,27826.1963551147,50706.6984918795,52339.5060639437,39549.9182563811,51873.5684495028,57215.1021808966,58271.2339297343,11394.9750685042
2489035093,12716,3,0,40209.7237843020,39437.1237068325,27823.5559649041,50707.2217028429,52346.5389927074,39547.4117108356,51873.0939093267,57213.8002373365,58276.7215610014,11390.3756791052
2489035093,12716,3,0,40189.3550598204,39433.1205345777,27827.5956402493,50706.7593303636,52326.6934791892,39556.0629432767,51872.0474873999,57211.9872505099,58260.8913874348,11397.9074834386
2489061327,12717,3,0,40184.0864470961,39442.2219718013,27833.8863395068,50713.8896007018,52335.4785562953,39562.2928040501,51878.0826650241,57218.7646576403,58272.0248300278,11394.4153544504
2489061327,12717,3,0,40213.6661180726,39449.1940620808,27833.1319423037,50711.5899060023,52358.2808201415,39558.2774640985,51877.7419695131,57220.7358245256,58286.6138985185,11384.1336506350
2489061327,12717,3,0,40206.7548662772,39442.6356734933,27832.8277498832,50705.1045235957,52344.1906272205,39556.8781789639,51874.1646666471,57216.7691553613,58268.5570364332,11385.5816065569
2489061327,12717,3,0,40186.7755080939,39441.9907855616,27838.9237659915,50708.7791680362,52335.1743638747,39557.9854393748,51877.9731557527,57221.3198739731,58267.2185897827,11394.3180128758
2489061327,12717,3,0,40196.2176408285,39446.3224856306,27835.2612892477,50710.0932792931,52352.6106734220,39551.4392184840,51880.2363473618,57221.4050478509,58282.7810740193,11394.2450066949
2489061327,12717,3,0,40197.0815473030,39441.4432392046,27831.9881788024,50706.1631132193,52346.8918559152,39550.2954549827,51875.4057717231,57216.5258014249,58271.3921097930,11392.8822246507
2489061327,12717,3,0,40180.4239703524,39437.9632779133,27834.3365442892,50704.2892879085,52332.8625014784,39554.1161117851,51876.0384919579,57212.7781508034,58260.9522259189,11395.1210808661
2489061327,12717,3,0,40200.4398316261,39447.9042862176,27838.1206980011,50709.8620930534,52351.3330652556,39561.0030281868,51879.9929934253,57220.8088307065,58279.9581683563,11396.2526766707
2489112662,12718,3,0,40216.1118251340,39446.4684979925,27837.1107791648,50707.1851997524,52353.7057661361,39556.3914710910,51876.8780630386,57221.1495262176,58280.1041807182,11398.7105514289
2489112662,12718,3,0,40187.7245884461,39439.3990661384,27837.9138471551,50706.0171008574,52330.8304961090,39553.8362547581,51875.0042377279,57219.5068871465,58264.0793240024,11404.7335613562
2489112662,12718,3,0,40180.1197779318,39444.4851634104,27838.4005550281,50708.1099447109,52337.1333630632,39546.6451459358,51876.9267338259,57217.5722233516,58273.8621522480,11401.7038048473
2489112662,12718,3,0,40204.2726561253,39447.3324044669,27831.7204894723,50703.8512508229,52352.6228411188,39541.4982101797,51872.0109843095,57213.9705850920,58276.7823994855,11393.1864170713
2489112662,12718,3,0,40196.0959638603,39439.4599046225,27830.4915520931,50698.4609611303,52333.8359172242,39546.6208105421,51868.2633336880,57208.0327490424,58256.8882151800,11396.1066643088
2489112662,12718,3,0,40179.8034178144,39438.0971225783,27835.5046431842,50701.8557485439,52329.6867326076,39553.6659070026,51871.1470778350,57210.8434870085,58260.9522259189,11397.9439865290
2489112662,12718,3,0,40192.9688657768,39440.5184942461,27831.7813279564,50704.1311078498,52343.6430808635,39546.3652889088,51871.6094503143,57213.9097466079,58276.4052008840,11396.5812044849
2489112662,12718,3,0,40184.8773473895,39431.8185910177,27826.6100568066,50696.8183220592,52330.9035022899,39538.7118076072,51864.7712046998,57208.6289661868,58261.6214492442,11399.0634146368
2489119780,12719,3,0,40164.0097473382,39428.5333128755,27825.8678273004,50693.2531868901,52321.2058479220,39537.8113980423,51861.4007526799,57202.0097391151,58250.9990499177,11396.4838629103
2489119780,12719,3,0,40184.8286766023,39433.7167517221,27825.1377654911,50695.0053352326,52341.8787648242,39537.5802118027,51862.5566838780,57202.7398009245,58266.6102049416,11391.7627965430
2489119780,12719,3,0,40194.6480079384,39429.2755423817,27823.7993188405,50692.3041065379,52337.4983939679,39533.5040333670,51857.4462512124,57197.8727221953,58257.5209354148,11391.9209766017
2489119780,12719,3,0,40166.5284605806,39423.3985448162,27829.0435961712,50693.6547208853,52313.2481741998,39541.6077194511,51858.9307102248,57198.2620884936,58241.0337062197,11398.5767067638
2489119780,12719,3,0,40168.4387889818,39432.7555036730,27835.9305125730,50702.4032949010,52329.1026831601,39548.6771513052,51865.4404280251,57204.1512537559,58261.8161323933,11394.4640252377
2489119780,12719,3,0,40196.8381933665,39436.6735020500,27835.6628232429,50700.4564634093,52344.5434904284,39543.7492340919,51863.0433917509,57204.0295767877,58272.6940533530,11390.9475608559
2489119780,12719,3,0,40187.1770420891,39429.3728839563,27833.8376687195,50693.0220006505,52326.3406159813,39543.7614017887,51858.2128161122,57199.1624980585,58254.8562098106,11396.9949061769
2489119780,12719,3,0,40178.8300020685,39435.9069371502,27841.5641562020,50698.1689364066,52331.8039118548,39553.4590561566,51863.9924721031,57205.8790667048,58268.2893471031,11402.5798790186
2489150030,12720,3,0,40195.9742868921,39443.1102136694,27844.1558756253,50702.1356055709,52349.7512646686,39555.5153969197,51868.1903275071,57213.2405232827,58283.9005021270,11401.9106556933
2489150030,12720,3,0,40188.4059794682,39439.3138922606,27845.9566947551,50702.0747670868,52339.7615855770,39559.0683643920,51867.7766258151,57215.2968640457,58271.5989606390,11404.0034995469
2489150030,12720,3,0,40176.0679348897,39440.4941588524,27849.3149790782,50705.1531943830,52336.4519720411,39562.2684686564,51871.5851149207,57216.7204845740,58266.9995712399,11405.1107599578
2489150030,12720,3,0,40205.8422890155,39450.5568441250,27850.0450408876,50710.4704778946,52363.1844019612,39557.5352345923,51875.8073057182,57222.3784635967,58285.2876195648,11399.1729239082
2489150030,12720,3,0,40212.3885099062,39443.7185985105,27843.7178385397,50704.3866294831,52355.1172189675,39552.7411620441,51871.4512702556,57217.2071924469,58274.4705370892,11396.7880553309
2489150030,12720,3,0,40179.3897161224,39432.4878143429,27844.1680433221,50700.3347864411,52329.9057511504,39553.3130437947,51868.3241721721,57211.5857165147,58258.7377050971,11400.8642337665
2489150030,12720,3,0,40178.4528034670,39436.3206388422,27844.7885958601,50702.4397979915,52342.6818328145,39554.8583412913,51871.2809225001,57214.7614853855,58272.4872025071,11396.4108567294
2489150030,12720,3,0,40201.5835951274,39440.3724818842,27842.4523980701,50701.9652578154,52353.2677290505,39553.7389131836,51871.7067918889,57214.9318331410,58272.6453825658,11394.7803853551
2489192711,12721,3,0,40193.7354306767,39440.3238110969,27846.2122163884,50701.9287547249,52336.9143445204,39557.6934146510,51872.7288784220,57215.7835719187,58256.1946564611,11400.6452152237
2489192711,12721,3,0,40194.3681509114,39448.8168634793,27851.0306243303,50710.8233411025,52349.4835753385,39561.9399408422,51878.1678389019,57225.9070956753,58270.7837249518,11403.6871394295
2489192711,12721,3,0,40209.8941320575,39455.2414074018,27849.5948361052,50712.7336695037,52364.9000472132,39556.3671356973,51882.4021973962,57230.8106774950,58283.8639990365,11404.6848905690
2489192711,12721,3,0,40188.6858364951,39449.1697266872,27845.2144652489,50707.6232368380,52345.5047384774,39553.2278699170,51878.1921742955,57224.9458476263,58263.9941501246,11403.4802885835
2489192711,12721,3,0,40174.5469727869,39452.2481539834,27848.4875756943,50711.4073905500,52344.0446148587,39556.8051727829,51879.4211116746,57226.1382819150,58264.3470133325,11400.8277306761
2489192711,12721,3,0,40205.7571151377,39461.3495912069,27851.6146737778,50714.4249793620,52369.2682503726,39556.7686696925,51880.6135459633,57227.4523931719,58285.0686010220,11396.7515522404
2489192711,12721,3,0,40211.1839079207,39451.9196261692,27849.6556745893,50707.6962430190,52358.7066895303,39552.5586465917,51874.0794927694,57223.1450284965,58273.7404752798,11399.8543149302
2489192711,12721,3,0,40185.3518875656,39446.2373117529,27854.0117100519,50707.4772244761,52339.0801945549,39557.1580359908,51875.6369579627,57222.4393020808,58267.3280990541,11409.5398016013
2489216310,12722,3,0,40185.4735645339,39448.3423233032,27853.5128344822,50705.9562623733,52349.5444138226,39550.6483181905,51877.1214169751,57222.5488113522,58281.3817888846,11400.6817183142
2489216310,12722,3,0,40196.2054731317,39444.1323002025,27847.3194767993,50701.0891836441,52351.2235559842,39544.4792959013,51871.0740716541,57217.9615896500,58274.8477356907,11394.2815097853
2489216310,12722,3,0,40185.4492291402,39440.1047925541,27847.4898245548,50699.6655631158,52334.8823391510,39551.3418769094,51870.5386929939,57213.9340820016,58256.9977244514,11399.5987932970
2489216310,12722,3,0,40192.9688657768,39448.0746339731,27852.1622201348,50706.9661812096,52349.8729416369,39554.8218382008,51874.6027037327,57222.8043329855,58270.3091847757,11407.5321316255
2489216310,12722,3,0,40210.4051753241,39451.0800550884,27849.2906436846,50705.5668960749,52361.3105766504,39550.7699951587,51876.0019888674,57224.6903259930,58277.6341382632,11408.9314167602
2489216310,12722,3,0,40183.1251990470,39441.9177793807,27847.8548554595,50700.4686311061,52337.2185369410,39546.9615060532,51870.7942146272,57220.0909365940,58255.4645946518,11410.7930743741
2489216310,12722,3,0,40165.9930819203,39440.1777987350,27849.9963701003,50698.2419425875,52336.7196613713,39549.4680515987,51871.0862393509,57218.8741669117,58255.9634702215,11406.2788588528
2489216310,12722,3,0,40197.8237768092,39448.3544910000,27849.7286807702,50699.3613706952,52359.5340929143,39549.1273560877,51870.2710036638,57220.0179304130,58268.6787134015,11399.8786503239
2489247548,12723,3,0,40201.9851291226,39439.8979417081,27845.3848130044,50692.7786467140,52345.6385831425,39540.8289868544,51865.0632294236,57211.0503378545,58251.5952670621,11400.3531905000
2489247548,12723,3,0,40175.8610840437,39434.4833166219,27844.6060804078,50692.1580941761,52329.8570803631,39542.3134458668,51866.2434960154,57208.5316246122,58243.6497610367,11403.4194500994
2489247548,12723,3,0,40181.7502493061,39441.7109285347,27846.9057751073,50697.1225144798,52345.2005460568,39545.5865563122,51870.6603699621,57213.6055541874,58263.9211439437,11404.3198596643
2489247548,12723,3,0,40188.1869609254,39441.2972268427,27844.6669188919,50694.4942919661,52342.4506465749,39544.6983144441,51867.6427811500,57213.3135294636,58258.2753326179,11408.2621934349
2489247548,12723,3,0,40172.2594457842,39437.1723776198,27845.2874714298,50693.3383607679,52327.9345842651,39545.9150841264,51867.5819426659,57211.3058594878,58242.9075315305,11411.6326454549
2489247548,12723,3,0,40186.7998434876,39443.4509091804,27846.0662040265,50700.3956249252,52347.1717129422,39550.0642687430,51873.9699834979,57219.0688500608,58261.3659276109,11408.6880628237
2489247548,12723,3,0,40204.9175440569,39442.4044872536,27843.1216213954,50700.6024757712,52355.2145605421,39545.7690717645,51873.4954433219,57221.1981970049,58266.4763602765,11403.3951147057
2489247548,12723,3,0,40179.9737655699,39434.1791242013,27845.2753037330,50698.8989982160,52334.0062649797,39545.7325686741,51872.0353197031,57219.6772349020,58252.1549811159,11406.5952189702
2489283625,12724,3,0,40168.6091367373,39439.6059169844,27849.4001529560,50700.6146434680,52337.9120956599,39551.4513861808,51873.2034185981,57221.2103647017,58260.9643936157,11407.6659762906
2489283625,12724,3,0,40200.2938192642,39451.5545952645,27852.7097664918,50703.7660769451,52365.3137489052,39554.5663165675,51874.1768343439,57226.5519836070,58277.3056104489,11406.4857096987
2489283625,12724,3,0,40206.2194876170,39450.6055149123,27857.0901373481,50705.4452191067,52356.5530071927,39558.6303273064,51875.3571009358,57228.4988150986,58261.9378093616,11411.0972667946
2489283625,12724,3,0,40195.3537343541,39453.0755573674,27864.8896310116,50712.2226262371,52349.0212028593,39566.8556903587,51882.1101726725,57234.5704958133,58264.1279947897,11415.2099483208
2489283625,12724,3,0,40205.7327797441,39456.6771956269,27866.2645807526,50712.6849987164,52364.1943207975,39559.0926997856,51883.5337932008,57235.3978991972,58279.3376158184,11409.3816215426
2489283625,12724,3,0,40197.1058826966,39446.9308704718,27856.1045539054,50700.6389788617,52350.1284632701,39545.9029164296,51874.2863436153,57224.3009596947,58263.7629638850,11403.0300838010
2489283625,12724,3,0,40176.3842950071,39443.9497847501,27853.7318530250,50698.4852965240,52336.0261026524,39552.4004665330,51871.2565871064,57220.7479922224,58253.3474154046,11402.6772205932
2489283625,12724,3,0,40199.3812420025,39454.4140040179,27855.0702996755,50703.0481828326,52361.2984089536,39561.8547669645,51876.5373675276,57227.7200825020,58275.9063253143,11400.1220042603
2489308888,12725,3,0,40222.7797229930,39456.6650279301,27859.8157014364,50706.1144424320,52369.6211135805,39565.4807406177,51878.3746897479,57232.7453412898,58281.3574534910,11405.5244616497
2489308888,12725,3,0,40200.4033285356,39450.7636949710,27865.2059911290,50707.4650567793,52350.3109787225,39570.4208255278,51881.6964709805,57234.1811295149,58268.2163409222,11413.5429738561
2489308888,12725,3,0,40194.4776601828,39458.9890580233,27869.8540513154,50715.3497243206,52362.2353216090,39577.2590711423,51888.5347165950,57243.4042437067,58282.3795400241,11411.1337698851
2489308888,12725,3,0,40224.6170452133,39469.7818051052,27870.0730698582,50719.4867412404,52386.2786905311,39577.6971082279,51893.3166214464,57248.9162103675,58296.7252545784,11406.2423557623
2489308888,12725,3,0,40226.8559014287,39468.7353831785,27870.1582437359,50721.8716098177,52371.1420756834,39577.7457790152,51893.8398324098,57247.9184592280,58279.2159388501,11411.1459375819
2489308888,12725,3,0,40213.7756273440,39470.3780222496,27874.4534407144,50725.1082171726,52369.0127287393,39580.4348400131,51898.3905510216,57250.9847188274,58282.3065338432,11412.8859182276
2489308888,12725,3,0,40222.4755305724,39471.9111520493,27872.8351370370,50723.9766213681,52381.9713258558,39571.0778811562,51898.7312465326,57252.0554761478,58296.5184037324,11405.4271200752
2489308888,12725,3,0,40209.3222503068,39462.5055224051,27870.6084485184,50716.8463510298,52368.9762256489,39570.0557946231,51891.5279700135,57243.2460636480,58280.0555099309,11401.9836618743
2489334727,12726,3,0,40185.6074091989,39459.3175858375,27874.1005775066,50714.9360226286,52358.1591431733,39575.0810534110,51891.2967837738,57237.9044447428,58269.1167504871,11404.0886734246
2489334727,12726,3,0,40207.1320648787,39466.2166699361,27874.7089623477,50716.6273324870,52381.6062949511,39570.9440364912,51890.9925913532,57240.4961641660,58288.0618544404,11399.2337623923
2489334727,12726,3,0,40221.2100901029,39462.6150316765,27870.0243990709,50710.2149562613,52378.5643707454,39561.7695930867,51886.5635497097,57236.5781657891,58282.3187015400,11398.6862160352
2489334727,12726,3,0,40187.9192715953,39449.5834283792,27863.5146812706,50704.7394926910,52346.2226325900,39554.6879935357,51879.9321549412,57227.5740701401,58260.5141888333,11398.6132098543
2489334727,12726,3,0,40178.2581203179,39450.1796455235,27859.5236767127,50704.5934803291,52350.6151711431,39563.1323751309,51880.4918689950,57227.5984055337,58271.2704328248,11395.1575839566
2489334727,12726,3,0,40204.3213269126,39456.5676863555,27860.5214278522,50707.6232368380,52367.9784745094,39564.4586540846,51882.4021973962,57232.1977949328,58280.4083731388,11399.0634146368
2489334727,12726,3,0,40201.1698934355,39454.8277057099,27862.8454579454,50707.9761000459,52354.4844987328,39563.6434183974,51881.2462661981,57230.8593482823,58261.3780953077,11405.8043186767
2489334727,12726,3,0,40196.2054731317,39460.1084861310,27865.4128419750,50710.9571857675,52357.4169136671,39561.2342144265,51884.0326687705,57234.4001480578,58265.1500813228,11404.8309029308
2489376391,12727,3,0,40209.7724550893,39462.2986715591,27861.3731666298,50705.5182252877,52369.9983121820,39553.3982176725,51878.8613976208,57231.3217207616,58274.7868972066,11399.1850916050
2489376391,12727,3,0,40192.4213194198,39450.9462104233,27854.2793993820,50695.0175029295,52348.4006503213,39551.5852308459,51870.7212084462,57222.1594450539,58254.3573342409,11399.4892840256
2489376391,12727,3,0,40175.0945191439,39449.8511177093,27855.1189704628,50694.9931675358,52338.1311142027,39559.6159107490,51871.4147671651,57220.6749860415,58250.5123420448,11401.7281402410
2489376391,12727,3,0,40202.6178493574,39456.1174815731,27854.6931010740,50698.0350917415,52360.1059746649,39557.8150916192,51875.2110885739,57223.1571961934,58271.2095943406,11397.7493033799
2489376391,12727,3,0,40212.3641745126,39446.6145103544,27847.6601723103,50691.7078893936,52355.7134361119,39545.8420779455,51870.1858297860,57219.7989118702,58262.9355605010,11394.4518575409
2489376391,12727,3,0,40180.7281627729,39434.0452795363,27844.4844034395,50687.5830401706,52328.4699629253,39541.2061854559,51867.3264210326,57213.2770263731,58243.6497610367,11393.7826342156
2489376391,12727,3,0,40178.5379773448,39439.8492709208,27846.7840981391,50691.7930632714,52342.0734479734,39551.1228583666,51870.8428854145,57218.7889930339,58260.4290149555,11395.7903041914
2489376391,12727,3,0,40198.4808324376,39444.6190080754,27848.5362464816,50690.1260888066,52353.1338843854,39554.0796086946,51870.3075067542,57220.3099551368,58265.0770751419,11398.3820236147
2489402653,12728,3,0,40189.5862460600,39443.7551016010,27856.4452494165,50689.2378469386,52340.9053490783,39560.6258295853,51869.5409418544,57218.3752913419,58252.1184780254,11406.1085110972
2489402653,12728,3,0,40192.8593565054,39452.6861910690,27865.1573203417,50697.7674024114,52351.0532082287,39563.3878967641,51876.3913551657,57225.2500400469,58265.5516153180,11406.8750759971
2489402653,12728,3,0,40212.8265469918,39454.5600163797,27863.4903458770,50699.4830476635,52365.6666121130,39553.9944348168,51877.8393110876,57226.2964619737,58276.1253438571,11401.9593264806
2489402653,12728,3,0,40194.0274554004,39444.0957971120,27856.8954541989,50694.0197517900,52344.2514657047,39549.9425917748,51872.9600646616,57221.2590354890,58254.0774772139,11402.9205745296
2489402653,12728,3,0,40175.6298978041,39444.6433434690,27858.8544533874,50694.8714905676,52340.1022810880,39558.2896317953,51875.2475916644,57222.7313268046,58254.5398496932,11404.4172012388
2489402653,12728,3,0,40208.2879960769,39457.2612450744,27861.1176449965,50701.9044193312,52369.2074118885,39560.7961773409,51882.0128310979,57230.0441125951,58275.2979404732,11406.3153619432
2489402653,12728,3,0,40219.3484324889,39453.1485635483,27857.4916713433,50697.0251729052,52363.0870603866,39552.1814479902,51877.7906403004,57226.4546420324,58264.1523301833,11410.8174097677
2489402653,12728,3,0,40191.9711146373,39445.0448774642,27858.8666210843,50694.8836582644,52342.3411373035,39557.4622284114,51876.2940135911,57224.7024936899,58255.1604022312,11416.3172087317
2489428546,12729,3,0,40190.0486185393,39449.7172730442,27861.1784834806,50698.3271164653,52354.9712066057,39558.2409610080,51879.7739748825,57228.5109827955,58273.8256491576,11413.3117876164
2489428546,12729,3,0,40198.6633478899,39449.8876207997,27862.2127377106,50696.7331481815,52362.3813339708,39558.6424950032,51879.1047515572,57228.5718212796,58275.9306607079,11412.0341794500
2489428546,12729,3,0,40183.0156897756,39447.8677831271,27867.5543566158,50697.8769116828,52351.5764191921,39562.9620273753,51878.9709068922,57226.8318406339,58262.0959894203,11417.4001337489
2489428546,12729,3,0,40191.4965744612,39457.8209591283,27873.3826833940,50705.3113744417,52366.4575124065,39564.7750142020,51886.6852266779,57233.4023969183,58280.2745284737,11419.2496236660
2489428546,12729,3,0,40210.0523121162,39458.9038841455,27867.7612074618,50703.7782446420,52373.0767394782,39551.9137586601,51884.3855319784,57234.6435019942,58284.1803591539,11412.9832598022
2489428546,12729,3,0,40180.9715167094,39443.3900706963,27858.5989317541,50693.5573793107,52342.1342864575,39540.3787820720,51875.9046472928,57224.1671150297,58257.6426123831,11409.0774291220
2489428546,12729,3,0,40162.3549405703,39440.0682894636,27853.1478035775,50691.5983801222,52333.8967557083,39539.4297017198,51871.5972826175,57219.7380733861,58254.9170482947,11403.2247669502
2489428546,12729,3,0,40189.0386997030,39444.8015235277,27849.7895192543,50689.7732255988,52353.7057661361,39540.0380865609,51869.1880786465,57219.6407318115,58266.1478324623,11397.2869309006
2489471571,12730,3,0,40195.4510759287,39440.8348543635,27848.2807248483,50684.6871283268,52342.7791743891,39545.8907487328,51863.3962549588,57214.6519761141,58253.6029370378,11401.5699601823
2489471571,12730,3,0,40176.8588351832,39442.6721765837,27856.9319572894,50689.7610579019,52333.7872464369,39557.6569115605,51869.4192648862,57219.9570919289,58254.2478249695,11410.9999252201
2489471571,12730,3,0,40186.4713156734,39450.4838379441,27861.7016944440,50697.4145392036,52352.4889964538,39558.0584455557,51875.6491256595,57228.2554611622,58276.0645053730,11410.7444035868
2489471571,12730,3,0,40194.2099708527,39450.2283163108,27860.5457632458,50697.9134147733,52352.7810211775,39551.0498521857,51874.6270391264,57226.8683437244,58270.7715572550,11410.7565712836
2489471571,12730,3,0,40173.1355199554,39446.1886409656,27860.2902416125,50697.4753776877,52338.0581080218,39555.7222477657,51874.0308219821,57223.0963577092,58254.2478249695,11414.2000294845
2489471571,12730,3,0,40187.2987190573,39454.9858857686,27866.9824748652,50700.5659726807,52359.4002482492,39563.6434183974,51878.5450375034,57228.9855229715,58271.2460974311,11418.1058601647
2489471571,12730,3,0,40205.0635564188,39454.7546995289,27866.1429037844,50696.7088127878,52370.0104798788,39550.0034302589,51875.4301071167,57226.4181389419,58274.8477356907,11414.8084143256
2489471571,12730,3,0,40174.3401219409,39440.4941588524,27860.9594649378,50685.5266994076,52338.9950206771,39537.2638516853,51865.4769311155,57215.9782550678,58248.7358583087,11412.2531979928
2489493901,12731,3,0,40157.9624020172,39438.5959981480,27857.0049634703,50685.5632024980,52332.5826444515,39538.7361430009,51864.4305091888,57212.6443061383,58248.9913799420,11408.2135226476
2489493901,12731,3,0,40191.3870651898,39445.4220760657,27852.9287850347,50689.4933685718,52352.2091394269,39541.4738747860,51865.5499372965,57217.2558632342,58263.8724731564,11405.2446046228
2489493901,12731,3,0,40199.7949436945,39443.9254493565,27853.2208097584,50691.2090138239,52343.2293791715,39543.7857371824,51866.7423715851,57217.4140432929,58252.8850429253,11408.5177150682
2489493901,12731,3,0,40184.2202917611,39443.2927291217,27855.9828769372,50693.2410191933,52335.3203762366,39546.5356366644,51870.1128236051,57218.4726329165,58251.7777825144,11409.2477768776
2489493901,12731,3,0,40191.5939160358,39445.7384361831,27856.0923862086,50692.0364172078,52348.3398118372,39542.4716259255,51870.7820469303,57220.3099551368,58265.8436400417,11404.1130088183
2489493901,12731,3,0,40185.2302105974,39437.8050978546,27850.9941212398,50685.7213825567,52335.3933824176,39534.7816415334,51866.3651729836,57213.8610758206,58252.2036519032,11401.7038048473
2489493901,12731,3,0,40165.3846970792,39434.7875090425,27853.1113004870,50686.5731213343,52322.5321268757,39540.5126267370,51866.9857255216,57212.0602566908,58238.0282851045,11405.5731324370
2489493901,12731,3,0,40187.4568991160,39446.1399701783,27855.4474982770,50692.8881559854,52348.9725320720,39546.4139596961,51872.9965677521,57220.8453337970,58259.0053944272,11404.1130088183
2489530812,12732,3,0,40209.4682626687,39450.2404840076,27857.3213235877,50691.4645354572,52358.4268325034,39545.0025068647,51871.9623135222,57222.9625130442,58261.3902630045,11408.2378580413
2489530812,12732,3,0,40183.3077144994,39442.3071456790,27864.0743953245,50689.7245548115,52332.3757936055,39549.6262316574,51869.8086311845,57220.6019798605,58245.8034433743,11417.1081090252
2489530812,12732,3,0,40171.9795887572,39447.6365968875,27871.4601872960,50692.7421436236,52334.7363267891,39551.3418769094,51871.6459534048,57222.2811220221,58257.8494632291,11417.7773323504
2489530812,12732,3,0,40198.8945341296,39453.2094020324,27868.2235799411,50694.2144349391,52350.7855188986,39546.4504627866,51872.3881829110,57223.7899164281,58269.5791229664,11414.1148556067
2489530812,12732,3,0,40199.2352296406,39449.0967205062,27861.8477068059,50690.5154551050,52337.0238537918,39546.0854318819,51870.5265252971,57221.1008554303,58250.3419942893,11413.4091291910
2489530812,12732,3,0,40197.5925905695,39457.9548037933,27868.4547661807,50700.7849912235,52344.7016704871,39557.7299177415,51879.2750993127,57230.0927833824,58255.5010977422,11415.1369421399
2489530812,12732,3,0,40215.7346265325,39466.7642162932,27870.1704114328,50708.1829508919,52370.2416661185,39555.9656017021,51884.9817491227,57238.8291897013,58275.8819899207,11409.3816215426
2489530812,12732,3,0,40211.6219450064,39462.4811870115,27868.7954616918,50707.1851997524,52362.5881848168,39552.0111002347,51885.1155937878,57237.2473891143,58263.2762560121,11412.3505395674
2489569119,12733,3,0,40189.6470845441,39459.4514305026,27872.8229693402,50708.6939941584,52350.2136371479,39556.5496511496,51885.0304199100,57235.5804146496,58254.3208311504,11417.0837736315
2489569119,12733,3,0,40208.1784868055,39467.0927441074,27875.0131547683,50711.1640366135,52369.0613995266,39559.4090599030,51887.1232637635,57240.0824624741,58272.6088794753,11415.9886809175
2489569119,12733,3,0,40222.4755305724,39462.7975471289,27870.8152993644,50703.0968536199,52365.6787798099,39549.3342069336,51880.5527074792,57233.9864463658,58265.8314723449,11411.9733409659
2489569119,12733,3,0,40193.3217289847,39450.2404840076,27866.4470962049,50695.7597324357,52336.4398043443,39543.4693770650,51872.8505553902,57224.2036181201,58245.4019093792,11412.8372474403
2489569119,12733,3,0,40181.3852184014,39450.7515272742,27865.7292020924,50697.6943962305,52344.0811179491,39547.6063939848,51872.4733567887,57223.5952332790,58260.2951702905,11409.4789631172
2489569119,12733,3,0,40201.0482164672,39450.6663533964,27861.8477068059,50696.7574835751,52355.8959515642,39542.2404396859,51870.8307177176,57225.2378723501,58267.2429251764,11407.1305976304
2489569119,12733,3,0,40194.4898278797,39447.5270876161,27861.4461728107,50698.7286504604,52342.2194603352,39548.6041451243,51872.8383876934,57228.1094488003,58252.3253288714,11411.5961423644
2489569119,12733,3,0,40194.6966787257,39455.2049043114,27866.7634563223,50708.0734416205,52347.9017747515,39552.2544541711,51884.9574137291,57235.8116008892,58261.9743124520,11415.2221160176
2489593845,12734,3,0,40211.1839079207,39456.8232079888,27859.9982168888,50706.6376533954,52360.4223347823,39538.2129320375,51883.1200915088,57233.5119061897,58271.1244204629,11408.1891872540
2489593845,12734,3,0,40194.0274554004,39446.6753488385,27854.4619148343,50696.6966450910,52338.1432818995,39534.9519892889,51876.2575105007,57224.9336799295,58254.0166387298,11409.9291678996
2489593845,12734,3,0,40168.9011614610,39445.6410946085,27859.3776643508,50695.9544155848,52328.4091244412,39541.8024026002,51874.9433992438,57223.8994256996,58252.4226704460,11415.3194575922
2489593845,12734,3,0,40192.9688657768,39455.9106307271,27863.5146812706,50698.0107563479,52352.4281579697,39545.5865563122,51875.5639517818,57227.4767285655,58275.0789219303,11414.1513586972
2489593845,12734,3,0,40207.0712263946,39452.5766817976,27863.5025135738,50693.3870315552,52349.1793829180,39545.1485192266,51871.4269348620,57225.1648661691,58269.2627628490,11415.7696623747
2489593845,12734,3,0,40182.1396156044,39444.3148156548,27866.6296116573,50689.3716916036,52327.3505348176,39546.5843074517,51869.4070971893,57223.6074009758,58253.2865769205,11418.4708910693
2489593845,12734,3,0,40180.0954425381,39447.7461061589,27869.8540513154,50690.7101382541,52340.7836721101,39545.2823638916,51871.7432949794,57226.5884866974,58267.5836206874,11415.8791716461
2489593845,12734,3,0,40194.5750017574,39448.7073542079,27865.2424942195,50689.8827348702,52352.5498349379,39539.9164095927,51867.1317378835,57223.4127178266,58267.1699189954,11413.6038123402
2489630740,12735,3,0,40183.1617021375,39445.4585791562,27865.2303265227,50686.7313013930,52341.5380693131,39541.5103778765,51863.7247827730,57218.7646576403,58247.0567161471,11415.6236500128
2489630740,12735,3,0,40190.4988233218,39453.9516315386,27870.9613117263,50693.0341683473,52357.0518827624,39544.9295006837,51869.4922710671,57221.8674203301,58258.8107112781,11413.1779429514
2489630740,12735,3,0,40214.6517015153,39457.9183007029,27871.2168333595,50695.3825338341,52374.4273538256,39538.6996399104,51871.4999410429,57225.0796922914,58270.9784081010,11409.2842799680
2489630740,12735,3,0,40195.7796037429,39446.4319949020,27866.2645807526,50687.7655556230,52351.1140467128,39535.9010696411,51867.2290794580,57220.9791784620,58254.5398496932,11414.4190480273
2489630740,12735,3,0,40173.6952340093,39444.5094988040,27866.1307360875,50690.2112626844,52341.2947153767,39543.1165138571,51868.9568924069,57220.8818368875,58255.7687870723,11421.2086228545
2489630740,12735,3,0,40196.7773548824,39452.5888494944,27864.4759293196,50691.8417340587,52364.5593517021,39544.7956560187,51868.2146629007,57224.3861335725,58274.7625618129,11419.5294806929
2489630740,12735,3,0,40206.3776676757,39450.3986640663,27860.5214278522,50685.5875378917,52356.0054608356,39540.1110927419,51861.6927774036,57219.6163964179,58264.1766655770,11419.3104621501
2489630740,12735,3,0,40179.3167099415,39443.5239153613,27861.8233714122,50680.7447945561,52332.4244643928,39541.7780672066,51858.2371515059,57213.8245727302,58250.3541619861,11415.3924637731
2489658338,12736,3,0,40178.6961574035,39446.7240196258,27864.9626371925,50682.0710735098,52344.5313227316,39542.2039365954,51859.5025919755,57216.6231429994,58268.3136824968,11409.2964476648
2489658338,12736,3,0,40184.3419687293,39443.7064308137,27861.7381975345,50680.1729128055,52344.0324471618,39538.7969814850,51856.7526924935,57213.2161878890,58266.0018201004,11407.5321316255
2489658338,12736,3,0,40166.3337774314,39438.4256503925,27862.8211225517,50678.7127891867,52324.4059521864,39542.5811351969,51854.7571902145,57208.5072892185,58247.2635669931,11411.5474715771
2489658338,12736,3,0,40177.8930894132,39447.7704415525,27865.9968914225,50687.5952078675,52337.6200709362,39549.3828777209,51861.6927774036,57214.2017713317,58262.7773804423,11413.3969614942
2489658338,12736,3,0,40203.2870726827,39453.9272961450,27864.2325753832,50690.9778275842,52349.0698736465,39547.2900338674,51864.0168074968,57217.9250865595,58273.8864876417,11411.3041176406
2489658338,12736,3,0,40184.0012732183,39448.6586834206,27864.0865630213,50690.0652503225,52324.6006353356,39551.6947401173,51863.1285656287,57218.4239621292,58259.9544747794,11413.7741600957
2489658338,12736,3,0,40166.4432867028,39449.2792359586,27868.4304307871,50695.2851922596,52319.7943950905,39558.5208180350,51865.3552541473,57220.3586259241,58268.0703285603,11414.4190480273
2489658338,12736,3,0,40194.5019955765,39458.1494869425,27869.1969956869,50696.4289557609,52344.3244718856,39557.6204084701,51865.4525957219,57222.9260099537,58285.2754518680,11412.4113780515
2489675229,12737,3,0,40199.8436144818,39453.1485635483,27866.3619223272,50690.4424489240,52330.3559559329,39554.2377887533,51858.7360270756,57217.6087264421,58269.5304521791,11414.2121971813
2489675229,12737,3,0,40181.2270383427,39451.0678873916,27868.2965861220,50690.5884612859,52314.6839624249,39550.9890137016,51859.9162936674,57218.1197697087,58263.0207343788,11415.0639359589
2489675229,12737,3,0,40187.2378805732,39454.2071531719,27865.0843141608,50691.7808955745,52328.7011491649,39541.6807256320,51859.6607720342,57219.0688500608,58277.2569396616,11410.4402111662
2489675229,12737,3,0,40187.0918682113,39448.5856772397,27857.5403421306,50685.3198485616,52322.0819220933,39535.1101693476,51853.2240604148,57214.2747775126,58267.5471175969,11409.3572861490
2489675229,12737,3,0,40165.4333678665,39443.7064308137,27856.3114047514,50683.7867187619,52307.5171889962,39541.6928933288,51851.3380674073,57211.9020766321,58249.9647956878,11410.3550372884
2489675229,12737,3,0,40178.1729464401,39454.5113455925,27860.2172354316,50691.5497093349,52328.0197581429,39547.9714248895,51857.9207913885,57218.1562727991,58267.4376083255,11410.3672049853
2489675229,12737,3,0,40199.7706083008,39454.6086871670,27857.4916713433,50689.3351885131,52335.7340779286,39536.1079204871,51854.1123022829,57214.3234482999,58270.5525387122,11407.7268147747
2489675229,12737,3,0,40171.6997317303,39440.8591897571,27854.1942255042,50680.6474529816,52306.1179038616,39534.3436044478,51847.0672058224,57205.6600481620,58245.7669402839,11408.4812119777
2489716767,12738,3,0,40152.0245659676,39439.0827060210,27856.1045539054,50680.0755712309,52304.1832400667,39535.6942187951,51846.4466532845,57204.4919492670,58251.5222608811,11407.7024793810
2489716767,12738,3,0,40174.5348050901,39443.2075552439,27854.6931010740,50679.7957142040,52328.4456275317,39534.9033185016,51846.9211934605,57208.6898046709,58268.0946639540,11405.8529894640
2489716767,12738,3,0,40177.2360337847,39438.0484517910,27851.6876799587,50675.7925419492,52318.5167869241,39531.4720279976,51843.2708844137,57204.6136262352,58254.2721603631,11407.5808024128
2489716767,12738,3,0,40164.5086229079,39435.2255461281,27850.4100717923,50678.6032799153,52312.0679076080,39534.7938092302,51847.1402120034,57204.0660798782,58255.3185822899,11409.3451184521
2489716767,12738,3,0,40180.3996349587,39440.9808667253,27849.5826684083,50682.9836507716,52326.4622929495,39530.4621091613,51849.7319314266,57206.3171037904,58274.5800463606,11407.0819268431
2489716767,12738,3,0,40172.0282595445,39433.0596960936,27844.1072048380,50674.6731138415,52312.9196463856,39525.6071981289,51843.1735428391,57199.4910258727,58260.2221641095,11406.2180203686
2489716767,12738,3,0,40144.1764015168,39429.4458901372,27845.3483099140,50671.9962205404,52298.0020500807,39534.1610889954,51841.9324377631,57196.4856047575,58246.3874928218,11409.0409260316
2489716767,12738,3,0,40160.9921585261,39442.0151209553,27850.3857363987,50678.9074723359,52323.2865240787,39541.1453469718,51847.1158766097,57202.0462422055,58267.7539684429,11408.1040133762
2489742301,12739,3,0,40182.4924788123,39443.8402754787,27846.9179428041,50677.9827273773,52330.9278376835,39536.6189637537,51844.2929709468,57200.9876525820,58266.9509004526,11406.9359144812
2489742301,12739,3,0,40161.7100526387,39437.6469177959,27847.7453461881,50677.3256717489,52310.8633056225,39534.9398215921,51843.1492074454,57197.9822314667,58250.7313605876,11411.8881670881
2489742301,12739,3,0,40152.8884724420,39440.8835251508,27848.7065942371,50681.4261855782,52316.2535953151,39530.8758108532,51846.7386780082,57200.4157708313,58259.8449655080,11407.9701687111
2489742301,12739,3,0,40176.7128228214,39445.9939578164,27844.6304158014,50682.0224027225,52333.3492093513,39525.7532104908,51848.2961432015,57202.0705775992,58267.7052976556,11402.0201649647
2489742301,12739,3,0,40179.0368529145,39442.2463071949,27842.9512736398,50683.4216878572,52320.2202644793,39534.7329707461,51847.0428704288,57200.2940938630,58252.9458814094,11407.4104546573
2489742301,12739,3,0,40174.1576064885,39444.2296417771,27846.9666135914,50687.6317109579,52316.6064585229,39533.8812319685,51853.0537126593,57199.9168952615,58254.8075390233,11411.4014592152
2489742301,12739,3,0,40189.7079230283,39445.3125667943,27842.7322550970,50688.0940834372,52328.0805966270,39521.0321441235,51852.7495202387,57197.5928651684,58267.5349499001,11405.4271200752
2489742301,12739,3,0,40170.5438005321,39429.1660331103,27831.5501417167,50674.5271014796,52306.6897856122,39511.3709928461,51842.6624995725,57185.8388700374,58247.7624425628,11400.5965444364
2489780765,12740,3,0,40138.3724101323,39421.6585641705,27829.1409377458,50668.4189176745,52288.6815943143,39518.0510584019,51838.6593273178,57179.8280278069,58234.7186715686,11399.2215946955
2489780765,12740,3,0,40155.9547320414,39430.7356660004,27829.1409377458,50670.8889601296,52312.5667831777,39521.0078087298,51839.9247677874,57183.6608523061,58250.1108080497,11395.0480746852
2489780765,12740,3,0,40176.9318413642,39432.8893483381,27828.0945158190,50667.1048064176,52317.0444956086,39521.6648643583,51834.4736396107,57183.7703615775,58246.0589650076,11397.0070738737
2489780765,12740,3,0,40154.7136269655,39430.1759519466,27833.1197746069,50668.2364022222,52298.0263854743,39529.8172212296,51832.7579943586,57182.9186227999,58232.4189768691,11407.5808024128
2489780765,12740,3,0,40147.9362198351,39434.7996767393,27836.7822513506,50673.1278163450,52307.4076797248,39532.8469777386,51835.5565646279,57187.1286459006,58248.2978212230,11411.0729314010
2489780765,12740,3,0,40169.3026954562,39439.1070414146,27836.4293881427,50673.8700458512,52320.6217984745,39528.4057683982,51835.3497137819,57188.4305894607,58260.1004871413,11410.6835651027
2489780765,12740,3,0,40164.1314243064,39435.4810677614,27838.4005550281,50671.3148295184,52305.3756743554,39533.2363440369,51832.4538019381,57184.9627958661,58243.4064071002,11413.7254893084
2489780765,12740,3,0,40162.5496237195,39438.3526442116,27843.0607829112,50675.4153433477,52310.5104424146,39535.2561817095,51837.6980792688,57188.7712849717,58250.4515035607,11412.5452227166
2489805017,12741,3,0,40181.7015785188,39440.1656310382,27837.3054623140,50676.2305790348,52325.8052373211,39530.7541338850,51838.7445011955,57190.1949055000,58262.2785048726,11404.7578967499
2489805017,12741,3,0,40167.6843917787,39432.3783050715,27833.2049484847,50670.4022522566,52309.6830390307,39526.8848062953,51836.6881604325,57186.2160686389,58247.9206226215,11406.1936849750
2489805017,12741,3,0,40143.6166874630,39432.9623545190,27839.5808216199,50674.4905983892,52303.4166751669,39537.1665101107,51840.2046248143,57189.3066636319,58247.2027285090,11409.9535032933
2489805017,12741,3,0,40172.0282595445,39450.0092977680,27849.0959605354,50683.7258802778,52339.7737532738,39545.6230594026,51848.4056524729,57199.6613736283,58275.6264682874,11412.8250797435
2489805017,12741,3,0,40193.6745921925,39453.5500975434,27850.4709102764,50684.9183145664,52345.1518752696,39539.3566955388,51849.6224221552,57199.9655660488,58272.0735008151,11416.2198671571
2489805017,12741,3,0,40169.7650679355,39445.3247344911,27849.5339976211,50681.6817072115,52317.2635141514,39535.3900263746,51846.1181254702,57194.6117794467,58255.6714454977,11416.3293764285
2489805017,12741,3,0,40162.8781515337,39444.6798465595,27848.3780664229,50681.2558378227,52318.5654577114,39538.4197828835,51845.1203743308,57196.6437848162,58270.8688988296,11411.7908255136
