steady_timestamp,sequence,battery,flags,EEG-ch1,EEG-ch2,EEG-ch3,EEG-ch4,EEG-ch5,EEG-ch6,EEG-ch7,EEG-ch8,EEG-ch9,EEG-ch10
5370198689,4399,-2,0,-6717.9800990954,-80248.7104467845,-32262.5386167593,-12641.9328066162,-80531.6580687052,-48306.2674303463,-80470.0651873874,-80456.0358329506,-80499.0121381292,-2416.4194151585
5370198689,4399,-2,0,-6717.0066833496,-80247.4450063149,-32256.8684700398,-12641.6164464988,-80532.0596027003,-48208.0862846820,-80468.8240823115,-80455.4396158063,-80498.1482316548,-2416.0787196475
5370198689,4399,-2,0,-6718.1382791541,-80248.1629004274,-32278.2349456609,-12642.2248313399,-80529.1636908565,-47979.8202922836,-80469.2256163066,-80455.1597587793,-80499.2311566720,-2414.9957946302
5370198689,4399,-2,0,-6718.2112853351,-80249.8785456795,-32296.9975341619,-12642.1761605526,-80525.4768787191,-47923.3621790251,-80470.5153921699,-80455.9019882855,-80500.3019139924,-2413.4018263464
5370198689,4399,-2,0,-6717.6150681908,-80248.0655588529,-32287.0686935544,-12642.6993715160,-80526.0122573793,-48112.8618893456,-80469.1891132162,-80455.7438082268,-80499.4015044275,-2413.1949755004
5370198689,4399,-2,0,-6718.5519808461,-80248.5157636353,-32263.0374923290,-12641.9328066162,-80530.1857773896,-48297.8960549321,-80470.6492368349,-80456.2061807061,-80499.7787030291,-2416.7479429727
5370198689,4399,-2,0,-6717.9922667923,-80247.9803849751,-32254.4592660689,-12641.6042788019,-80532.8139999033,-48230.4383437457,-80469.2012809130,-80455.6829697427,-80498.2820763198,-2416.6384337013
5370198689,4399,-2,0,-6718.0531052764,-80248.5887698162,-32273.0636745112,-12641.8598004352,-80528.9446723136,-48005.2021078562,-80470.3085413239,-80456.6077147013,-80499.0973120070,-2415.3364901413
5370229924,4400,-2,0,-6717.6759066749,-80246.7392798991,-32292.6171633056,-12641.5069372274,-80523.8342396480,-47917.4608460660,-80467.9966789275,-80454.0890014589,-80497.4425052391,-2411.9417027277
5370229924,4400,-2,0,-6717.9800990954,-80248.0777265497,-32288.2854632367,-12641.7016203765,-80525.6837295651,-48083.1240383104,-80469.2134486098,-80455.1232556889,-80498.2699086230,-2413.4139940433
5370229924,4400,-2,0,-6718.9413471445,-80249.2093223542,-32263.7432187448,-12642.6263653351,-80530.9401745926,-48285.6918550187,-80470.1625289620,-80456.5955470044,-80499.3893367307,-2416.1517258284
5370229924,4400,-2,0,-6718.9291794476,-80249.6230240462,-32253.5831918976,-12643.1009055112,-80534.2862912189,-48253.0702598364,-80470.7465784095,-80457.4594534789,-80499.8517092100,-2418.2810727724
5370229924,4400,-2,0,-6718.0652729732,-80249.0633099923,-32269.0605022564,-12642.3708437018,-80530.2466158737,-48023.7821809049,-80469.4811379399,-80456.5225408235,-80499.4380075180,-2415.3608255349
5370229924,4400,-2,0,-6717.9679313986,-80248.0655588529,-32290.5243194521,-12641.7502911638,-80524.2966121273,-47902.8717775753,-80469.0552685511,-80454.3445230922,-80497.6493560851,-2412.5865906593
5370229924,4400,-2,0,-6717.8827575209,-80247.7370310386,-32289.7090837649,-12641.3974279560,-80524.1262643718,-48048.8963071474,-80467.7776603847,-80453.9794921875,-80497.8440392342,-2413.6573479797
5370229924,4400,-2,0,-6716.9945156528,-80248.1629004274,-32265.8725656888,-12641.7746265575,-80528.4336290471,-48267.0874465764,-80468.4833868004,-80454.6122124223,-80498.3064117135,-2414.9227884493
5370306185,4401,-2,0,-6718.2234530319,-80247.1894846816,-32252.8044593010,-12641.8598004352,-80532.4002982114,-48274.9356110272,-80468.5685606782,-80456.2791868870,-80498.4645917722,-2417.8673710805
5370306185,4401,-2,0,-6717.8462544304,-80247.5301801927,-32267.5517078504,-12642.2248313399,-80530.2831189642,-48065.9432503964,-80468.9457592797,-80455.1840941730,-80498.9999704324,-2416.0057134665
5370306185,4401,-2,0,-6718.8805086603,-80247.5666832831,-32291.5464059852,-12642.2369990367,-80524.9171646653,-47918.3247525404,-80468.5685606782,-80454.5148708477,-80497.5520145105,-2414.1318881558
5370306185,4401,-2,0,-6719.1968687777,-80247.4085032244,-32292.7631756675,-12642.4073467923,-80523.9072458290,-48026.3617326313,-80468.7632438274,-80454.4662000604,-80497.1991513026,-2413.5965094956
5370306185,4401,-2,0,-6718.3694653938,-80246.6176029309,-32269.1091730437,-12641.6407818924,-80526.9856731251,-48248.4343673469,-80468.3252067417,-80454.1741753367,-80497.7953684469,-2414.6429314224
5370306185,4401,-2,0,-6718.0044344891,-80247.7126956450,-32252.5976084550,-12641.7502911638,-80532.1204411844,-48287.1519786375,-80469.6271503018,-80456.3400253712,-80498.9512996451,-2416.6992721854
5370306185,4401,-2,0,-6717.2743726797,-80247.8587080069,-32262.9523184513,-12642.2004959463,-80530.4047959324,-48088.7698496362,-80469.1039393384,-80456.1940130093,-80498.8417903737,-2416.0543842538
5370306185,4401,-2,0,-6718.2721238192,-80248.4549251512,-32288.1881216621,-12642.3343406113,-80526.9978408220,-47920.1864101544,-80469.3959640622,-80456.2426837966,-80499.5110136990,-2413.2679816814
5370312720,4402,-2,0,-6718.1261114573,-80248.4792605448,-32294.3449762545,-12641.8841358289,-80524.1140966749,-48003.9975058708,-80469.4202994558,-80455.7073051364,-80498.8782934642,-2411.9782058181
5370312720,4402,-2,0,-6717.2987080734,-80248.3210804861,-32273.0636745112,-12642.0423158876,-80528.7256537708,-48226.0944759799,-80470.0043489033,-80455.5734604713,-80499.3284982466,-2414.1927266399
5370312720,4402,-2,0,-6718.0409375796,-80248.1750681243,-32252.1595713693,-12641.9693097066,-80532.4976397859,-48290.0113873908,-80470.3693798080,-80455.9749944665,-80498.6957780118,-2416.4924213395
5370312720,4402,-2,0,-6718.6858255112,-80248.1872358211,-32258.9004754092,-12641.2149125036,-80531.6702364020,-48108.7127047290,-80470.2477028398,-80455.6464666523,-80498.4402563785,-2417.1129738774
5370312720,4402,-2,0,-6717.9070929145,-80248.5157636353,-32281.8000808300,-12642.2978375209,-80526.5841391300,-47918.6776157483,-80469.0552685511,-80455.4517835031,-80497.9657162024,-2413.8155280384
5370312720,4402,-2,0,-6717.9557637018,-80247.5545155863,-32289.5874067967,-12641.8476327384,-80523.5665503179,-47970.4146626395,-80468.4225483163,-80454.2715169112,-80498.0265546866,-2411.4671625516
5370312720,4402,-2,0,-6717.4568881321,-80248.0898942465,-32271.1046753227,-12641.9449743130,-80526.1461020444,-48199.0821890330,-80468.8362500083,-80454.7582247842,-80498.9026288578,-2414.4117451827
5370312720,4402,-2,0,-6718.0652729732,-80246.8609568674,-32249.0568086795,-12641.5069372274,-80530.8915038053,-48300.6946252014,-80469.9435104192,-80455.7559759237,-80499.7178645449,-2416.0422165570
5370326249,4403,-2,0,-6717.6029004939,-80248.1750681243,-32252.7801239073,-12641.7502911638,-80531.1348577418,-48139.9836855640,-80469.1039393384,-80455.5126219872,-80498.5497656499,-2416.5410921267
5370326249,4403,-2,0,-6718.2721238192,-80248.4427574544,-32277.9672563308,-12642.2978375209,-80527.4967163917,-47934.5077893150,-80470.7344107127,-80457.0944225742,-80499.9490507846,-2414.1440558526
5370326249,4403,-2,0,-6718.0166021859,-80248.2602420020,-32290.1106177601,-12643.0157316334,-80524.6494753352,-47955.9107680265,-80469.7609949669,-80455.3666096253,-80499.4015044275,-2412.5257521752
5370326249,4403,-2,0,-6717.7002420685,-80248.8564591464,-32274.1100964379,-12642.6628684255,-80527.2168593648,-48175.6472049520,-80470.0043489033,-80456.4982054299,-80498.8539580705,-2414.1562235495
5370326249,4403,-2,0,-6718.7344962985,-80249.2944962320,-32251.7823727678,-12642.4925206700,-80532.9356768716,-48306.8149767033,-80471.8538388204,-80456.5955470044,-80500.2410755083,-2416.3342412808
5370326249,4403,-2,0,-6717.2987080734,-80247.6640248577,-32252.2812483376,-12642.4073467923,-80532.3516274241,-48175.3065094410,-80469.2012809130,-80456.2061807061,-80499.1824858847,-2416.5532598236
5370326249,4403,-2,0,-6717.8949252177,-80246.5202613563,-32275.3755369075,-12641.3487571687,-80525.7567357460,-47952.4551421288,-80468.3008713481,-80453.5171197082,-80496.7489465202,-2414.2048943367
5370326249,4403,-2,0,-6718.0166021859,-80247.4206709212,-32292.6658340929,-12642.3830113986,-80523.0798424450,-47936.5641300780,-80468.1913620767,-80453.8943183097,-80497.0896420312,-2412.6352614466
5370356269,4404,-2,0,-6717.7854159463,-80247.8222049164,-32281.1065221111,-12642.2978375209,-80525.4160402350,-48149.2919736335,-80468.0453497148,-80454.2350138208,-80497.9778838993,-2413.2923170750
5370356269,4404,-2,0,-6717.2987080734,-80247.2746585594,-32257.8297180888,-12641.3730925623,-80530.2709512673,-48309.8812363027,-80468.2278651672,-80455.3057711412,-80498.2090701389,-2415.0931362048
5370356269,4404,-2,0,-6718.1626145478,-80248.4305897575,-32255.6151972671,-12642.0666512812,-80531.7554102797,-48204.6914972684,-80468.8970884924,-80456.4251992489,-80500.3140816893,-2418.0012157455
5370356269,4404,-2,0,-6717.4568881321,-80247.5910186768,-32278.0767656022,-12641.6286141956,-80527.8495795996,-47977.0582251048,-80469.1404424289,-80454.8799017524,-80498.7079457086,-2414.2292297304
5370356269,4404,-2,0,-6716.8485032909,-80246.8974599579,-32297.2530557952,-12641.6407818924,-80523.6882272861,-47927.4261897640,-80467.6681511133,-80453.1034180163,-80497.2843251804,-2411.9903735150
5370356269,4404,-2,0,-6717.8584221272,-80246.6419383246,-32287.4215567622,-12642.0666512812,-80524.9536677557,-48116.4513599084,-80467.9966789275,-80453.6752997669,-80497.8683746279,-2413.4991679210
5370356269,4404,-2,0,-6718.0409375796,-80247.0678077134,-32262.5872875466,-12641.9084712225,-80528.5431383185,-48297.9568934162,-80468.2400328640,-80455.0259141143,-80498.0752254738,-2415.9327072856
5370356269,4404,-2,0,-6717.7489128558,-80246.8487891706,-32255.1284893941,-12641.5434403178,-80531.1713608322,-48228.6618600096,-80468.5685606782,-80455.6708020459,-80498.3915855912,-2416.7966137600
5370410217,4405,-2,0,-6717.5298943130,-80248.2237389116,-32275.4607107853,-12641.8598004352,-80528.5674737121,-47999.8483212542,-80468.3495421354,-80455.5977958650,-80498.7566164959,-2414.5699252414
5370410217,4405,-2,0,-6718.0166021859,-80248.3575835766,-32295.3670627876,-12641.3609248655,-80525.5620525969,-47915.8668777822,-80469.7974980573,-80455.5247896840,-80499.5961875767,-2411.9903735150
5370410217,4405,-2,0,-6719.0630241127,-80250.7181167603,-32290.0011084887,-12642.2978375209,-80528.3606228662,-48088.6846757584,-80470.9655969523,-80457.6298012344,-80501.2996651319,-2413.4870002242
5370410217,4405,-2,0,-6718.7466639953,-80250.6937813666,-32265.1911746667,-12641.9814774035,-80531.3782116782,-48285.3146564172,-80472.7177452948,-80458.3355276501,-80501.3483359192,-2415.9448749824
5370410217,4405,-2,0,-6718.6493224207,-80249.7203656208,-32253.1451548120,-12642.1639928558,-80534.9068437569,-48244.5772074540,-80473.0097700186,-80458.2746891660,-80500.5574356257,-2417.2224831488
5370410217,4405,-2,0,-6717.8340867336,-80249.2701608383,-32270.2894396355,-12641.5921111051,-80530.6238144752,-48022.8087651590,-80471.5496463998,-80457.3742796011,-80499.9733861782,-2415.6528502587
5370410217,4405,-2,0,-6716.5199754767,-80248.3697512734,-32292.5563248215,-12641.2879186845,-80524.9049969684,-47910.1845633659,-80470.3085413239,-80455.8046467110,-80499.3284982466,-2411.5280010357
5370410217,4405,-2,0,-6717.8949252177,-80248.6617759972,-32290.8041764790,-12641.5677757115,-80526.0000896825,-48056.1969252412,-80470.1746966588,-80455.5977958650,-80499.5353490926,-2412.7326030212
5370420154,4406,-2,0,-6716.5686462640,-80248.6739436940,-32266.4322797426,-12640.5943599656,-80529.1880262501,-48270.3848924154,-80471.0751062237,-80456.2791868870,-80499.3528336403,-2413.9493727035
5370420154,4406,-2,0,-6717.7854159463,-80248.7591175718,-32253.6683657754,-12641.6286141956,-80533.0816892335,-48269.1559550363,-80470.4910567762,-80456.6928885790,-80500.4722617480,-2417.4171662980
5370420154,4406,-2,0,-6718.4424715747,-80248.8807945400,-32268.2209311756,-12642.4925206700,-80530.3317897515,-48051.6583743262,-80470.8195845905,-80456.6198823981,-80499.3650013371,-2415.7501918333
5370420154,4406,-2,0,-6718.4059684842,-80249.0511422955,-32292.6536663961,-12642.0788189780,-80527.0100085188,-47910.4400849992,-80470.0530196906,-80456.0723360410,-80499.4258398212,-2413.0246277449
5370420154,4406,-2,0,-6717.5542297066,-80248.1263973370,-32293.8704360784,-12641.1297386259,-80523.7855688607,-48031.5573391747,-80469.5906472113,-80454.8555663588,-80497.9292131120,-2412.8421122926
5370420154,4406,-2,0,-6717.7489128558,-80247.7005279482,-32271.0803399290,-12641.2392478973,-80528.8960015264,-48253.5082969220,-80469.6514856955,-80455.7438082268,-80499.5353490926,-2414.6916022097
5370420154,4406,-2,0,-6717.7245774622,-80247.8952110973,-32255.3596756338,-12641.6894526797,-80532.9356768716,-48282.7716077812,-80469.5541441209,-80456.0845037379,-80499.2311566720,-2416.6627690950
5370420154,4406,-2,0,-6717.4325527384,-80248.2237389116,-32267.3935277917,-12641.0810678386,-80531.6580687052,-48083.9271063007,-80469.7244918764,-80455.8168144078,-80499.1338150974,-2415.8231980142
5370447982,4407,-2,0,-6717.2135341956,-80248.1263973370,-32292.4954863374,-12641.1540740195,-80525.9757542889,-47919.9430562179,-80469.2986224876,-80455.4031127158,-80498.7079457086,-2412.7447707180
5370447982,4407,-2,0,-6717.5785651003,-80248.0047203687,-32296.5838324699,-12641.5312726210,-80523.7855688607,-48008.1588581842,-80468.7389084337,-80455.1354233857,-80497.8440392342,-2411.8200257594
5370447982,4407,-2,0,-6718.8805086603,-80249.0511422955,-32277.9672563308,-12642.7602100001,-80528.6648152867,-48236.3153413112,-80470.5397275635,-80456.9119071218,-80500.1802370242,-2415.9448749824
5370447982,4407,-2,0,-6718.8561732667,-80248.3940866671,-32259.0951585584,-12642.5411914573,-80532.5463105732,-48299.0641538271,-80470.7465784095,-80456.7293916695,-80500.3262493861,-2417.5996817503
5370447982,4407,-2,0,-6717.5663974035,-80248.4305897575,-32266.0550811411,-12642.1761605526,-80531.9987642162,-48111.5721134824,-80469.8705042383,-80455.9628267696,-80500.3992555670,-2416.0665519507
5370447982,4407,-2,0,-6717.5907327971,-80248.6252729067,-32290.5121517553,-12640.9107200830,-80527.4480456044,-47925.9295630548,-80470.5518952603,-80456.9605779091,-80499.2676597625,-2412.0025412118
5370447982,4407,-2,0,-6717.9070929145,-80249.8177071954,-32299.3215642551,-12641.7867942543,-80527.0100085188,-47987.9361460645,-80470.7465784095,-80456.0480006474,-80500.4600940511,-2411.4549948548
5370447982,4407,-2,0,-6717.7002420685,-80249.9150487699,-32282.0556024633,-12641.9084712225,-80529.8450818785,-48215.0948780520,-80472.1823666346,-80457.4959565693,-80501.4456774938,-2413.6330125861
5370486108,4408,-2,0,-6717.1283603178,-80249.5743532589,-32260.6769591454,-12641.7381234670,-80533.4953909254,-48310.1489256328,-80471.2211185856,-80457.6176335376,-80500.8251249558,-2416.7844460632
5370486108,4408,-2,0,-6717.3717142543,-80249.7933718017,-32264.7653052779,-12641.7989619511,-80534.0916080697,-48149.1459612716,-80471.6713233681,-80458.5788815866,-80501.4943482811,-2416.5167567331
5370486108,4408,-2,0,-6717.6150681908,-80249.7447010144,-32288.5288171731,-12642.3221729145,-80529.2610324311,-47944.4122945288,-80471.8903419109,-80456.9605779091,-80501.1779881637,-2413.9737080971
5370486108,4408,-2,0,-6718.2964592128,-80249.9637195572,-32300.0637937613,-12642.4438498827,-80526.1582697412,-47966.9833721354,-80471.0507708301,-80456.8023978504,-80500.9102988336,-2413.1219693195
5370486108,4408,-2,0,-6717.5177266162,-80249.5135147748,-32282.6883226981,-12642.0666512812,-80527.8495795996,-48188.6788082494,-80470.8074168936,-80456.6807208822,-80500.5087648384,-2414.1440558526
5370486108,4408,-2,0,-6717.6394035844,-80249.9028810731,-32260.5431144803,-12641.4339310464,-80533.9820987984,-48317.7780715408,-80471.2454539793,-80458.1530121978,-80500.4479263543,-2415.8353657110
5370486108,4408,-2,0,-6717.4812235257,-80249.6473594398,-32260.5431144803,-12641.4947695305,-80534.4079681872,-48178.4579429181,-80471.6956587617,-80458.4328692247,-80501.0928142859,-2416.2125643125
5370486108,4408,-2,0,-6717.4812235257,-80249.3188316256,-32282.6274842140,-12641.2635832909,-80529.2245293406,-47960.7656790589,-80472.1458635442,-80457.0822548774,-80501.2996651319,-2413.6695156765
5370541413,4409,-2,0,-6716.9823479560,-80250.3530858556,-32297.9831176045,-12641.8476327384,-80526.8761638538,-47952.4673098256,-80471.4279694316,-80457.3986149947,-80501.1536527701,-2412.0998827864
5370541413,4409,-2,0,-6717.9800990954,-80249.9272164668,-32283.9537631677,-12641.6407818924,-80528.6283121962,-48162.5790985642,-80471.5496463998,-80457.2160995424,-80501.6038575525,-2413.2071431973
5370541413,4409,-2,0,-6718.6736578144,-80250.5964397920,-32259.8008849741,-12642.2248313399,-80533.9212603142,-48313.2151852322,-80471.6591556712,-80458.9317447944,-80502.1514039095,-2416.0665519507
5370541413,4409,-2,0,-6719.0143533254,-80251.2169923300,-32257.3430102159,-12643.2347501762,-80535.2597069648,-48207.8185953519,-80472.2918759060,-80459.4306203642,-80501.7011991271,-2417.6970233249
5370541413,4409,-2,0,-6717.4203850416,-80249.8055394985,-32278.5999765656,-12642.0666512812,-80531.1591931354,-47982.3633409196,-80471.1967831920,-80457.0822548774,-80500.5696033226,-2414.5090867573
5370541413,4409,-2,0,-6718.2234530319,-80249.4405085938,-32295.0993734575,-12640.7768754180,-80525.4890464159,-47940.1170975503,-80469.6514856955,-80455.2571003539,-80499.1216474006,-2411.6131749135
5370541413,4409,-2,0,-6717.7367451590,-80248.9903038114,-32286.8983457988,-12642.1031543717,-80527.8252442059,-48137.0147675392,-80470.4667213826,-80456.6928885790,-80500.5209325353,-2413.4383294369
5370541413,4409,-2,0,-6717.9070929145,-80248.7226144813,-32262.0640765832,-12641.0323970513,-80532.0596027003,-48314.3346133399,-80470.9412615587,-80458.1286768041,-80500.5574356257,-2415.7866949237
5370546390,4410,-2,0,-6717.7489128558,-80248.8929622368,-32256.2600851987,-12642.1274897653,-80534.1646142507,-48237.7024587490,-80470.7709138032,-80457.6176335376,-80500.3262493861,-2417.3441601171
5370546390,4410,-2,0,-6718.4181361811,-80248.6861113908,-32276.4827973184,-12642.0544835844,-80530.2709512673,-48011.9916826835,-80470.7100753190,-80457.6176335376,-80500.4600940511,-2415.6285148650
5370546390,4410,-2,0,-6718.1017760637,-80249.5500178653,-32297.6789251840,-12642.3951790954,-80525.8905804111,-47937.9390798190,-80470.6127337445,-80456.8632363345,-80500.4479263543,-2412.5500875688
5370546390,4410,-2,0,-6718.5154777557,-80249.9028810731,-32290.6094933298,-12642.1153220685,-80527.8009088123,-48111.0367348222,-80470.8317522873,-80457.4229503884,-80500.4722617480,-2413.5235033147
5370546390,4410,-2,0,-6718.9170117508,-80250.2070734937,-32264.6436283097,-12642.1031543717,-80531.6337333115,-48306.7663059160,-80471.1116093142,-80458.3355276501,-80501.1779881637,-2415.3364901413
5370546390,4410,-2,0,-6718.3816330906,-80250.1097319191,-32255.7125388416,-12641.4826018337,-80535.0528561188,-48265.0067704197,-80471.8173357299,-80458.4450369215,-80501.3848390097,-2417.6483525376
5370546390,4410,-2,0,-6717.4447204352,-80248.9416330241,-32273.6112208682,-12642.1883282494,-80531.0861869545,-48039.2716589605,-80471.7443295490,-80457.6176335376,-80501.0684788923,-2415.6771856523
5370546390,4410,-2,0,-6717.3838819511,-80248.9781361146,-32294.5396594036,-12641.6042788019,-80525.6107233842,-47932.5852932169,-80469.6271503018,-80455.2449326571,-80499.4745106085,-2412.9272861703
5370640951,4411,-2,0,-6717.2013664988,-80247.7248633418,-32291.5950767725,-12641.8111296479,-80525.5133818096,-48089.8406069566,-80468.7389084337,-80455.8411498014,-80499.0364735229,-2412.9272861703
5370640951,4411,-2,0,-6718.0044344891,-80248.1507327306,-32267.0406645838,-12641.7259557702,-80530.2587835705,-48301.7045440377,-80469.1769455194,-80455.7073051364,-80498.6714426182,-2415.3486578381
5370640951,4411,-2,0,-6718.4059684842,-80247.9317141878,-32253.7778750468,-12641.7381234670,-80533.1303600207,-48290.5345983542,-80470.1625289620,-80457.0092486964,-80498.9634673419,-2416.4559182490
5370640951,4411,-2,0,-6717.7732482495,-80249.0754776892,-32269.0848376500,-12641.6042788019,-80530.9766776831,-48073.6697378789,-80470.6735722286,-80457.5324596598,-80500.8616280463,-2415.6650179555
5370640951,4411,-2,0,-6718.5154777557,-80249.2093223542,-32293.1525419658,-12641.7989619511,-80526.9370023379,-47939.4235388314,-80470.7465784095,-80456.3765284616,-80500.0828954496,-2413.5113356178
5370640951,4411,-2,0,-6717.9435960050,-80249.3066639288,-32293.4445666896,-12642.5655268510,-80526.0852635603,-48063.2785247921,-80470.5397275635,-80455.9993298601,-80499.8882123005,-2413.5113356178
5370640951,4411,-2,0,-6718.9048440540,-80250.2800796746,-32271.2993584718,-12642.2126636431,-80531.0253484704,-48286.6531030677,-80471.7930003363,-80458.3841984374,-80500.4600940511,-2416.2368997062
5370640951,4411,-2,0,-6717.7854159463,-80249.7933718017,-32255.2501663624,-12642.1761605526,-80534.5296451554,-48313.9330793448,-80470.9534292555,-80457.4472857820,-80500.6304418067,-2416.9426261219
5370666363,4412,-2,0,-6716.7876648068,-80247.6640248577,-32267.6003786376,-12640.9107200830,-80531.6824040988,-48110.0633190764,-80470.1503612652,-80455.9384913760,-80499.7543676354,-2415.1783100826
5370666363,4412,-2,0,-6718.3938007874,-80249.9393841636,-32294.4423178291,-12641.3365894718,-80528.3849582598,-47950.2406213070,-80470.4180505953,-80456.7293916695,-80502.0053915477,-2413.1341370163
5370666363,4412,-2,0,-6718.2721238192,-80250.2192411905,-32299.9299490962,-12641.6529495892,-80526.8031576728,-48049.0788225998,-80470.9047584682,-80457.1552610583,-80500.9346342272,-2412.9272861703
5370666363,4412,-2,0,-6718.4911423620,-80249.1728192637,-32280.3156218176,-12642.5776945478,-80530.4778021133,-48277.2231380299,-80471.5739817935,-80457.4472857820,-80500.3262493861,-2415.3486578381
5370666363,4412,-2,0,-6717.5177266162,-80249.5986886525,-32262.2100889451,-12641.6286141956,-80534.3714650967,-48333.3405557774,-80471.9633480918,-80458.8709063103,-80501.0441434986,-2417.2103154520
5370666363,4412,-2,0,-6717.3595465575,-80249.8177071954,-32270.6544705402,-12641.4339310464,-80533.2033662017,-48146.4325648801,-80471.4523048252,-80458.0921737137,-80500.5939387162,-2416.5167567331
5370666363,4412,-2,0,-6718.6249870271,-80249.2093223542,-32297.2773911888,-12642.3830113986,-80528.1659397170,-47965.4624100325,-80471.5009756125,-80456.2305160997,-80500.2775785988,-2414.0953850653
5370666363,4412,-2,0,-6719.5010611983,-80249.8907133763,-32307.5590950042,-12642.6141976382,-80527.1803562743,-48030.2067248274,-80471.5374787030,-80457.9826644423,-80501.1293173764,-2413.7425218575
5370671820,4413,-2,0,-6719.1116949000,-80249.3309993224,-32288.0421093002,-12642.6628684255,-80529.8207464849,-48259.5069714557,-80471.5374787030,-80457.2647703297,-80500.5331002321,-2415.2026454762
5370671820,4413,-2,0,-6718.1504468510,-80249.4891793811,-32268.0384157233,-12641.8598004352,-80533.7630802555,-48350.4483375104,-80471.4523048252,-80458.1286768041,-80501.6525283398,-2416.6627690950
5370671820,4413,-2,0,-6718.3451300001,-80249.2336577479,-32274.3777857680,-12642.2491667336,-80533.8725895269,-48179.9545696273,-80471.5009756125,-80457.9096582613,-80499.9368830878,-2416.9791292124
5370671820,4413,-2,0,-6718.7709993889,-80249.6108563494,-32299.7961044312,-12642.1396574622,-80529.9302557563,-47978.2141563030,-80471.4036340380,-80457.9826644423,-80502.3825901492,-2415.1053039016
5370671820,4413,-2,0,-6718.2356207287,-80249.6351917430,-32309.1530632880,-12642.0909866749,-80525.9757542889,-48010.3490436124,-80470.6005660476,-80456.7537270631,-80500.5087648384,-2413.0124600481
5370671820,4413,-2,0,-6718.3451300001,-80250.1340673128,-32291.7045860439,-12642.3708437018,-80528.9203369200,-48231.8254611835,-80472.2188697251,-80457.7514782026,-80499.7300322418,-2414.6185960287
5370671820,4413,-2,0,-6717.8340867336,-80249.4770116843,-32267.2110123393,-12641.8719681320,-80532.9965153557,-48350.5213436913,-80471.0142677396,-80456.5955470044,-80500.6426095035,-2416.9912969092
5370671820,4413,-2,0,-6717.8705898240,-80248.4062543639,-32267.5273724567,-12641.7989619511,-80532.9235091748,-48208.5729925549,-80469.8218334510,-80456.0845037379,-80499.1338150974,-2416.6506013982
5370677462,4414,-2,0,-6718.0774406700,-80248.6131052099,-32291.4977351979,-12641.9936451003,-80528.8960015264,-47995.1150871900,-80469.9921812065,-80456.2183484029,-80500.1802370242,-2414.8254468747
5370677462,4414,-2,0,-6718.5641485429,-80249.3675024129,-32303.8114443827,-12642.3708437018,-80526.0122573793,-47989.6761267102,-80470.3085413239,-80456.3643607648,-80500.4600940511,-2413.6695156765
5370677462,4414,-2,0,-6718.4059684842,-80249.7447010144,-32287.4702275495,-12642.4195144891,-80529.6869018198,-48201.7590823341,-80471.5739817935,-80457.4959565693,-80500.6547772003,-2413.8763665225
5370677462,4414,-2,0,-6718.1747822446,-80250.1097319191,-32263.9379018939,-12642.1639928558,-80533.8847572238,-48350.1441450898,-80472.5352298425,-80458.7127262516,-80501.1658204669,-2416.6749367918
5370677462,4414,-2,0,-6717.6029004939,-80249.9150487699,-32259.9103942456,-12642.4438498827,-80536.0384395614,-48234.5266898782,-80471.4523048252,-80458.8100678262,-80500.9954727114,-2416.9669615156
5370677462,4414,-2,0,-6718.2964592128,-80250.2922473715,-32281.9460931919,-12642.3465083081,-80531.3173731941,-48011.1764469963,-80472.9002607472,-80459.0534217627,-80501.1658204669,-2415.5920117746
5370677462,4414,-2,0,-6717.7610805526,-80248.3089127893,-32298.2629746315,-12641.6894526797,-80526.6936484014,-47975.2817413686,-80471.1237770110,-80456.4373669457,-80499.6813614545,-2412.4162429038
5370677462,4414,-2,0,-6717.7975836431,-80248.7712852686,-32287.7987553637,-12641.6529495892,-80527.2776978489,-48173.5056903112,-80470.5762306540,-80455.6829697427,-80499.0851443102,-2413.9980434908
5370700258,4415,-2,0,-6717.4082173448,-80248.7956206622,-32263.4390263242,-12640.7282046307,-80531.9500934289,-48346.3721590747,-80470.4423859890,-80456.8510686377,-80500.0098892687,-2416.1152227379
5370700258,4415,-2,0,-6718.3451300001,-80249.8785456795,-32258.7787984410,-12642.0909866749,-80533.7630802555,-48268.6814148602,-80470.8317522873,-80458.7857324326,-80500.4722617480,-2417.9038741709
5370700258,4415,-2,0,-6718.5519808461,-80248.4549251512,-32280.0722678812,-12642.2369990367,-80530.4169636292,-48042.1310677139,-80471.0386031333,-80457.4959565693,-80500.7034479876,-2415.2269808699
5370700258,4415,-2,0,-6718.6371547239,-80248.4305897575,-32300.4896631501,-12642.1883282494,-80525.9879219857,-47968.9302036271,-80470.2963736271,-80456.2548514934,-80499.3406659434,-2412.8786153830
5370700258,4415,-2,0,-6717.5785651003,-80248.4184220607,-32292.5441571247,-12641.7989619511,-80526.5719714332,-48147.7345084402,-80468.7510761306,-80455.4517835031,-80499.8273738164,-2412.6595968402
5370700258,4415,-2,0,-6717.7367451590,-80247.4328386181,-32269.3160238897,-12641.1905771100,-80529.5652248516,-48340.2031367855,-80469.7244918764,-80456.3765284616,-80498.8296226769,-2415.7988626206
5370700258,4415,-2,0,-6718.1991176383,-80247.9925526719,-32261.0054869596,-12641.5921111051,-80532.5219751796,-48289.5368472148,-80470.5518952603,-80456.2183484029,-80499.3041628530,-2416.5532598236
5370700258,4415,-2,0,-6717.3717142543,-80247.6518571609,-32280.5224726636,-12640.8985523862,-80529.7477403040,-48066.2961136042,-80469.7609949669,-80456.6077147013,-80498.9026288578,-2414.6794345128
5370730421,4416,-2,0,-6718.3086269097,-80248.9903038114,-32303.3369042066,-12641.7746265575,-80527.0343439125,-47970.8648674219,-80470.1868643557,-80456.6563854885,-80500.3749201734,-2413.2071431973
5370730421,4416,-2,0,-6716.5564785672,-80248.9294653273,-32299.3580673455,-12641.5191049242,-80526.6449776141,-48127.3657839586,-80469.6636533923,-80456.3765284616,-80500.0342246623,-2413.1341370163
5370730421,4416,-2,0,-6717.7610805526,-80248.6009375131,-32277.0790144627,-12641.8111296479,-80531.2200316195,-48334.2531330391,-80471.0386031333,-80457.2647703297,-80499.6205229704,-2414.8132791779
5370730421,4416,-2,0,-6719.1725333841,-80249.9758872541,-32266.3592735617,-12642.7723776969,-80534.5053097617,-48319.7492384261,-80471.1359447079,-80457.9583290486,-80501.2996651319,-2418.6826067676
5370730421,4416,-2,0,-6717.7367451590,-80247.1651492880,-32279.9019201256,-12641.3852602591,-80530.0762681182,-48097.5062559551,-80470.1381935684,-80456.3886961585,-80499.3893367307,-2415.8231980142
5370730421,4416,-2,0,-6718.2112853351,-80247.2868262562,-32302.6311777909,-12641.9084712225,-80525.8419096238,-47964.9513667660,-80469.6028149082,-80455.2814357476,-80498.7444487991,-2412.8177768989
5370730421,4416,-2,0,-6718.0531052764,-80248.6131052099,-32302.5946747004,-12642.3708437018,-80526.3772882840,-48098.1998146740,-80470.1868643557,-80455.3787773221,-80499.4258398212,-2413.0976339259
5370730421,4416,-2,0,-6716.8728386846,-80247.9317141878,-32279.1353552258,-12641.0323970513,-80529.1028523724,-48316.7924880981,-80470.1868643557,-80455.9871621633,-80498.8417903737,-2414.5820929383
5370772673,4417,-2,0,-6717.9314283082,-80248.2359066084,-32263.7918895321,-12641.3609248655,-80533.0208507493,-48332.5861585743,-80470.5640629572,-80456.4982054299,-80500.0463923592,-2415.9205395888
5370772673,4417,-2,0,-6716.4713046894,-80247.6518571609,-32274.2074380125,-12640.9472231735,-80530.6968206562,-48123.2409347356,-80471.1481124047,-80456.6807208822,-80500.2289078115,-2415.5555086841
5370772673,4417,-2,0,-6717.8705898240,-80250.2192411905,-32298.8835271694,-12641.8841358289,-80527.5210517854,-47969.5385884682,-80470.5032244731,-80456.9362425155,-80500.6061064130,-2413.5721741020
5370772673,4417,-2,0,-6719.5497319856,-80251.3995077823,-32301.4144081086,-12642.4438498827,-80526.9491700347,-48067.9509203722,-80471.7808326395,-80458.6762231612,-80501.9323853667,-2414.8011114811
5370772673,4417,-2,0,-6717.7124097653,-80249.7325333176,-32276.8599959199,-12641.1784094131,-80530.5873113847,-48292.8221253569,-80471.5739817935,-80456.5590439140,-80500.3627524766,-2414.5334221510
5370772673,4417,-2,0,-6718.2842915160,-80249.0511422955,-32258.1217428126,-12642.4195144891,-80534.4323035808,-48345.7637742336,-80470.6005660476,-80457.6419689312,-80500.3992555670,-2416.8452845473
5370772673,4417,-2,0,-6717.6637389780,-80249.3066639288,-32266.4444474395,-12640.6186953593,-80532.8870060843,-48152.9909534677,-80470.6492368349,-80457.2647703297,-80500.8859634399,-2415.5311732904
5370772673,4417,-2,0,-6717.0310187433,-80250.0732288286,-32289.4170590412,-12640.8985523862,-80528.7621568613,-47971.3272399012,-80471.5253110062,-80456.1940130093,-80500.7399510781,-2412.9759569576
5370794295,4418,-2,0,-6717.6515712812,-80250.7667875475,-32296.6325032572,-12642.2978375209,-80527.4115425140,-48044.5159362912,-80471.4279694316,-80457.5932981439,-80500.9954727114,-2412.8421122926
5370794295,4418,-2,0,-6718.4911423620,-80250.2192411905,-32274.5724689172,-12642.1639928558,-80529.5895602453,-48271.2487988899,-80471.3671309475,-80458.4450369215,-80501.4821805843,-2415.4338317159
5370794295,4418,-2,0,-6719.2698749587,-80250.6572782762,-32253.6805334722,-12643.1252409048,-80534.5661482459,-48349.8034495788,-80472.6812422044,-80458.9804155817,-80501.0198081050,-2418.7556129485
5370794295,4418,-2,0,-6717.6029004939,-80249.4770116843,-32257.2821717318,-12642.6628684255,-80534.2619558253,-48174.9779816268,-80470.8804230746,-80457.2647703297,-80500.3627524766,-2416.7844460632
5370794295,4418,-2,0,-6718.3086269097,-80249.4526762907,-32280.3886279986,-12642.5776945478,-80529.7234049103,-47975.6346045765,-80470.2233674461,-80456.4860377330,-80500.1072308433,-2414.2657328209
5370794295,4418,-2,0,-6717.6880743717,-80248.6374406035,-32288.9060157746,-12641.6407818924,-80524.8684938780,-48008.5603921794,-80469.9556781160,-80456.0480006474,-80499.4380075180,-2412.5744229625
5370794295,4418,-2,0,-6717.3717142543,-80247.9195464910,-32268.8414837136,-12641.7502911638,-80528.5674737121,-48231.7037842153,-80470.0165166001,-80456.2305160997,-80499.6813614545,-2414.0102111876
5370794295,4418,-2,0,-6717.4325527384,-80248.6617759972,-32246.3434122880,-12641.3365894718,-80532.9600122652,-48347.4550840920,-80470.8317522873,-80457.4229503884,-80500.1680693274,-2415.9327072856
5370828181,4419,-2,0,-6718.1869499414,-80249.9028810731,-32247.8035359067,-12642.4803529732,-80534.3106266126,-48200.3354618058,-80471.6348202776,-80457.3256088138,-80500.7886218654,-2417.4536693885
5370828181,4419,-2,0,-6718.6858255112,-80249.0633099923,-32269.2795207992,-12641.7867942543,-80529.4192124897,-47985.6486190618,-80470.4545536858,-80456.5347085203,-80499.8030384227,-2415.0079623271
5370828181,4419,-2,0,-6718.3572976970,-80249.5500178653,-32282.6031488203,-12641.9936451003,-80526.4016236777,-47990.9902379671,-80471.6834910649,-80457.1187579678,-80500.1802370242,-2413.7790249479
5370828181,4419,-2,0,-6716.7024909290,-80249.4040055034,-32266.5417890141,-12640.6430307529,-80528.4701321376,-48204.3021309700,-80471.4036340380,-80456.6320500949,-80500.5452679289,-2413.2558139846
5370828181,4419,-2,0,-6717.5542297066,-80249.6716948335,-32241.6345136175,-12641.1540740195,-80533.9334280111,-48344.8390292750,-80471.3671309475,-80458.1651798946,-80500.9589696209,-2416.8087814569
5370828181,4419,-2,0,-6719.1238625968,-80249.0998130828,-32238.2640615975,-12642.4316821859,-80534.7729990918,-48226.6785254274,-80471.7808326395,-80458.5788815866,-80501.2509943446,-2417.0886384838
5370828181,4419,-2,0,-6717.8219190367,-80249.2093223542,-32260.3240959375,-12641.7867942543,-80529.8207464849,-48002.0385066823,-80471.0751062237,-80456.9119071218,-80499.9490507846,-2415.2513162635
5370828181,4419,-2,0,-6717.1040249242,-80248.1020619433,-32274.9861706092,-12641.0323970513,-80526.4137913745,-47967.3118999496,-80469.7001564828,-80455.7316405300,-80498.8904611610,-2411.3576532802
5370855583,4420,-2,0,-6717.9922667923,-80249.2214900510,-32262.7454676053,-12641.8598004352,-80528.1051012329,-48168.9184686089,-80470.6857399254,-80456.1210068283,-80499.6205229704,-2414.7037699065
5370855583,4420,-2,0,-6717.6759066749,-80248.9903038114,-32237.5218320913,-12641.7016203765,-80531.9500934289,-48336.7110077973,-80470.6249014413,-80457.0944225742,-80500.8129572590,-2415.8231980142
5370855583,4420,-2,0,-6717.8097513399,-80248.1750681243,-32232.1802131861,-12642.3830113986,-80533.1181923239,-48245.5019524125,-80470.3085413239,-80456.6928885790,-80499.3771690339,-2417.5145078726
5370855583,4420,-2,0,-6717.7975836431,-80247.2746585594,-32251.0888140489,-12641.9814774035,-80528.4092936534,-48017.2237923173,-80469.5906472113,-80456.4008638553,-80499.7908707259,-2415.6163471682
5370855583,4420,-2,0,-6717.2378695892,-80247.3963355276,-32268.8901545009,-12640.8012108116,-80523.8342396480,-47954.5723213760,-80468.9214238861,-80454.1498399430,-80498.6471072245,-2412.5865906593
5370855583,4420,-2,0,-6717.7854159463,-80247.4571740117,-32261.0298223533,-12642.2978375209,-80525.7689034429,-48137.3432953534,-80469.2012809130,-80455.1719264761,-80498.3915855912,-2413.0611308354
5370855583,4420,-2,0,-6717.5542297066,-80248.4062543639,-32236.3293978027,-12641.9814774035,-80531.1105223481,-48322.6938210573,-80469.9313427224,-80457.0092486964,-80500.2289078115,-2415.5676763809
5370855583,4420,-2,0,-6717.7367451590,-80247.9560495815,-32226.1450355619,-12641.3974279560,-80533.6292355905,-48267.5376513589,-80470.7100753190,-80457.2647703297,-80500.1559016306,-2416.2977381903
5370886482,4421,-2,0,-6717.5055589194,-80248.0412234592,-32243.8490344393,-12641.3000863814,-80529.7964110913,-48040.7196148824,-80469.1039393384,-80456.5955470044,-80499.3771690339,-2414.9957946302
5370886482,4421,-2,0,-6717.7610805526,-80247.4206709212,-32264.1569204368,-12641.5434403178,-80525.0875124208,-47943.0495124847,-80469.3837963653,-80455.3179388380,-80499.1459827943,-2414.3144036082
5370886482,4421,-2,0,-6718.3938007874,-80248.7347821781,-32258.5962829887,-12642.3830113986,-80526.2191082253,-48103.8699613935,-80470.2842059302,-80455.2205972634,-80499.1338150974,-2413.6573479797
5370886482,4421,-2,0,-6718.6736578144,-80249.1119807796,-32233.9201938317,-12642.6507007287,-80530.7941622307,-48309.5648761853,-80471.2089508888,-80457.6419689312,-80499.9490507846,-2416.2125643125
5370886482,4421,-2,0,-6718.1747822446,-80248.4184220607,-32221.1562798645,-12640.9472231735,-80533.4223847445,-48282.1632229401,-80470.8195845905,-80456.7902301536,-80499.8760446036,-2417.4171662980
5370886482,4421,-2,0,-6717.8584221272,-80248.1750681243,-32236.2077208345,-12642.2369990367,-80530.6968206562,-48059.7620604103,-80471.4401371284,-80458.0191675327,-80500.5817710194,-2415.5433409873
5370886482,4421,-2,0,-6718.0774406700,-80248.6009375131,-32259.8617234583,-12642.5776945478,-80527.5088840885,-47937.7078935794,-80470.0165166001,-80455.9384913760,-80500.0098892687,-2412.8786153830
5370886482,4421,-2,0,-6717.6759066749,-80247.8343726132,-32258.6936245633,-12640.8377139021,-80525.1848539954,-48072.9640114632,-80468.8849207956,-80455.5004542904,-80498.4645917722,-2412.4162429038
5370921576,4422,-2,0,-6717.9800990954,-80247.8952110973,-32236.1590500472,-12642.1153220685,-80530.3074543578,-48290.0113873908,-80470.0651873874,-80456.8997394250,-80499.3163305498,-2416.1638935252
5370921576,4422,-2,0,-6717.7975836431,-80247.8222049164,-32220.4870565392,-12641.8963035257,-80532.6071490574,-48302.5076120280,-80469.0065977638,-80456.2913545839,-80499.5840198799,-2416.7479429727
5370921576,4422,-2,0,-6717.2013664988,-80247.1408138943,-32234.1757154650,-12642.0179804939,-80529.9302557563,-48091.0938797294,-80469.8218334510,-80455.5856281681,-80498.6714426182,-2415.9448749824
5370921576,4422,-2,0,-6718.9778502349,-80249.3066639288,-32258.8639723188,-12642.3830113986,-80526.3042821031,-47936.6128008653,-80469.5176410304,-80455.4761188967,-80498.5132625595,-2414.4604159700
5370921576,4422,-2,0,-6718.1382791541,-80248.1385650338,-32261.1636670183,-12642.2126636431,-80525.0631770271,-48043.4208435771,-80469.2256163066,-80455.2449326571,-80499.3406659434,-2413.6086771924
5370921576,4422,-2,0,-6717.6759066749,-80246.5810998405,-32239.1766388593,-12641.6651172861,-80528.5674737121,-48268.9977749776,-80469.5298087272,-80455.3422742317,-80498.3307471071,-2414.6916022097
5370921576,4422,-2,0,-6718.3694653938,-80247.3841678308,-32222.9449312975,-12641.4095956528,-80532.0352673067,-48311.5968815548,-80470.5518952603,-80456.7902301536,-80499.2798274593,-2417.6483525376
5370921576,4422,-2,0,-6717.5055589194,-80247.0313046229,-32233.5064921398,-12640.8985523862,-80530.8306653212,-48118.6050422461,-80468.5077221941,-80454.9285725397,-80498.8052872832,-2415.3486578381
5370958769,4423,-2,0,-6717.0188510464,-80246.4837582659,-32261.1514993215,-12641.3487571687,-80524.6494753352,-47951.3843848084,-80468.0331820180,-80454.0159952780,-80498.2090701389,-2412.2823982387
5370958769,4423,-2,0,-6717.7124097653,-80247.0921431070,-32269.9852472149,-12641.1054032322,-80523.0798424450,-48032.8106119475,-80468.2887036513,-80454.2471815176,-80497.4790083295,-2412.0390443023
5370958769,4423,-2,0,-6718.1991176383,-80246.8852922610,-32251.6241927091,-12642.5411914573,-80527.1316854870,-48264.1063608548,-80468.3008713481,-80454.9772433270,-80498.5497656499,-2414.9957946302
5370958769,4423,-2,0,-6718.8561732667,-80247.5180124958,-32233.2509705065,-12641.9328066162,-80532.1569442749,-48345.5447556908,-80469.4568025463,-80455.7559759237,-80499.2068212784,-2417.6240171440
5370958769,4423,-2,0,-6717.5298943130,-80247.0313046229,-32240.5272532066,-12641.6286141956,-80530.7698268371,-48166.8621278459,-80469.2134486098,-80455.2084295666,-80498.6592749213,-2416.2368997062
5370958769,4423,-2,0,-6718.2964592128,-80247.4571740117,-32265.4710316936,-12642.5290237605,-80527.5332194822,-47967.0320429227,-80470.4545536858,-80456.2183484029,-80499.5110136990,-2413.7668572511
5370958769,4423,-2,0,-6716.7389940195,-80247.3233293467,-32274.4507919490,-12640.8863846894,-80524.3574506114,-48010.0326834950,-80468.9335915829,-80454.8920694492,-80498.4645917722,-2410.8101069231
5370958769,4423,-2,0,-6718.0287698827,-80248.2359066084,-32258.4624383236,-12641.3730925623,-80528.8351630422,-48234.8917207829,-80470.8682553777,-80456.5103731267,-80499.2068212784,-2414.6429314224
5371010750,4424,-2,0,-6717.8705898240,-80247.3841678308,-32236.0373730789,-12642.0544835844,-80531.6459010083,-48342.4176576073,-80469.7853303605,-80455.7438082268,-80498.7566164959,-2416.6992721854
5371010750,4424,-2,0,-6717.8949252177,-80246.5932675373,-32237.9355337833,-12641.6894526797,-80530.7698268371,-48188.1921003765,-80469.3472932749,-80455.4152804126,-80498.2455732294,-2417.0034646060
5371010750,4424,-2,0,-6718.3694653938,-80247.4450063149,-32262.7941383926,-12640.9350554767,-80526.1461020444,-47976.3768340827,-80468.9457592797,-80454.7947278746,-80498.2820763198,-2414.5820929383
5371010750,4424,-2,0,-6717.8827575209,-80247.1894846816,-32276.6653127707,-12641.5434403178,-80523.7003949830,-47980.3678386406,-80468.5563929814,-80454.2471815176,-80497.6006852977,-2412.2215597546
5371010750,4424,-2,0,-6718.3451300001,-80248.1263973370,-32260.7621330232,-12642.3586760050,-80526.5354683427,-48196.3687926415,-80470.5032244731,-80455.4031127158,-80498.1238962611,-2414.9714592366
5371010750,4424,-2,0,-6717.6394035844,-80247.2624908625,-32237.0716273089,-12641.1905771100,-80531.2687024068,-48337.3923988194,-80469.1891132162,-80456.1575099188,-80499.3406659434,-2416.7966137600
5371010750,4424,-2,0,-6716.7389940195,-80246.8001183833,-32235.6115036901,-12641.4217633496,-80531.3538762846,-48213.7442637046,-80468.3860452259,-80454.9650756302,-80498.4159209849,-2416.0543842538
5371010750,4424,-2,0,-6717.6759066749,-80247.0313046229,-32259.5331956440,-12642.1639928558,-80528.0442627488,-47994.0686652633,-80468.7145730401,-80455.0624172047,-80498.0508900802,-2414.1440558526
5371017640,4425,-2,0,-6718.0287698827,-80247.2989939530,-32276.4584619248,-12641.1175709290,-80522.7756500244,-47973.2984067865,-80467.7533249911,-80454.4905354541,-80497.5276791168,-2412.0512119991
5371017640,4425,-2,0,-6717.3108757702,-80246.9096276547,-32264.5219513414,-12640.9958939608,-80525.0388416335,-48176.5476145169,-80467.8750019593,-80454.1376722462,-80497.9535485056,-2413.5113356178
5371017640,4425,-2,0,-6717.1405280147,-80246.2160689358,-32240.1378869083,-12641.5312726210,-80529.4678832770,-48335.1778779976,-80468.5807283750,-80455.4274481094,-80498.2699086230,-2416.2977381903
5371017640,4425,-2,0,-6718.6614901175,-80247.3111616498,-32235.7331806584,-12642.6141976382,-80531.1956962259,-48241.9854880307,-80469.5419764241,-80456.2791868870,-80499.0973120070,-2417.5388432662
5371017640,4425,-2,0,-6717.9800990954,-80246.7149445055,-32256.0167312622,-12641.9449743130,-80527.6670641472,-48015.7149979113,-80468.8970884924,-80455.3666096253,-80498.2942440167,-2414.8984530557
5371017640,4425,-2,0,-6717.9557637018,-80247.1164785007,-32275.0835121838,-12641.8963035257,-80523.5422149243,-47956.2514635376,-80469.5541441209,-80454.1863430335,-80498.0630577770,-2412.4162429038
5371017640,4425,-2,0,-6717.2743726797,-80246.1917335421,-32265.5197024809,-12641.7259557702,-80523.8464073448,-48140.3730518623,-80468.0940205021,-80453.2250949845,-80497.1018097280,-2412.0998827864
5371017640,4425,-2,0,-6717.9070929145,-80246.8609568674,-32241.6223459207,-12641.7259557702,-80529.6747341230,-48325.0665219377,-80468.8362500083,-80454.8555663588,-80497.4790083295,-2415.2269808699
5371046540,4426,-2,0,-6717.9557637018,-80245.0236346471,-32232.1558777924,-12640.5213537847,-80529.4557155802,-48259.5678099399,-80467.4613002673,-80454.2471815176,-80497.3573313613,-2416.3099058871
5371046540,4426,-2,0,-6717.6759066749,-80245.7050256692,-32251.4416772568,-12642.2004959463,-80527.6913995409,-48030.2918987052,-80467.9966789275,-80454.2836846081,-80497.4425052391,-2415.2756516572
5371046540,4426,-2,0,-6717.9070929145,-80244.5855975615,-32270.9951660512,-12642.0058127971,-80522.1672651833,-47939.1436818045,-80466.6947353675,-80452.4828654783,-80497.4060021486,-2412.5744229625
5371046540,4426,-2,0,-6718.5398131493,-80245.4251686423,-32264.6314606129,-12641.9936451003,-80522.2646067579,-48101.2295711829,-80467.1327724531,-80453.3346042559,-80496.8949588820,-2413.4139940433
5371046540,4426,-2,0,-6717.0431864401,-80243.9528773267,-32238.3492354753,-12640.7160369339,-80526.7909899760,-48296.6549498562,-80466.1593567073,-80453.4197781337,-80496.3352448282,-2413.8641988257
5371046540,4426,-2,0,-6717.9922667923,-80244.9141253757,-32225.6826630826,-12641.7502911638,-80530.2222804801,-48266.4425586448,-80467.2179463309,-80454.3080200017,-80497.2478220899,-2417.1981477552
5371046540,4426,-2,0,-6717.6637389780,-80244.9384607694,-32241.2816504096,-12641.0202293544,-80527.5332194822,-48042.5691047995,-80467.9358404434,-80454.1255045494,-80496.8949588820,-2414.9106207525
5371046540,4426,-2,0,-6717.4933912225,-80244.6707714393,-32262.5021136688,-12641.3244217750,-80522.9338300831,-47920.3567579099,-80465.9890089517,-80452.8843994734,-80495.8728723489,-2412.1607212705
5371074068,4427,-2,0,-6717.2622049829,-80244.3300759282,-32260.1294127884,-12640.4118445133,-80521.6927250072,-48062.1712643813,-80466.4635491278,-80452.7870578989,-80495.4470029601,-2411.7348518817
5371074068,4427,-2,0,-6717.4690558289,-80245.1453116154,-32236.8891118565,-12641.9328066162,-80526.7666545823,-48278.9387832820,-80468.2156974703,-80453.9916598843,-80496.9192942757,-2414.9106207525
5371074068,4427,-2,0,-6717.3108757702,-80244.7316099234,-32221.8985093707,-12641.7989619511,-80529.3948770961,-48279.0604602502,-80467.4978033578,-80453.7483059479,-80495.5565122315,-2416.2855704935
5371074068,4427,-2,0,-6718.4059684842,-80244.9749638598,-32235.2951435727,-12641.3974279560,-80528.0320950519,-48063.6070526064,-80467.2179463309,-80453.0547472290,-80496.2865740409,-2416.3585766744
5371074068,4427,-2,0,-6718.1626145478,-80244.9141253757,-32259.1925001330,-12641.7259557702,-80522.7999854181,-47918.2882494500,-80467.5099710546,-80453.2494303781,-80497.0653066375,-2412.6839322339
5371074068,4427,-2,0,-6718.1747822446,-80245.7901995470,-32260.9933192628,-12642.2613344304,-80522.1307620928,-48030.2432279179,-80467.1692755436,-80453.5049520114,-80496.4204187059,-2412.7934415053
5371074068,4427,-2,0,-6718.5033100588,-80245.6563548819,-32237.4488259104,-12641.6772849829,-80527.3263686362,-48253.1189306237,-80468.0818528053,-80454.4783677572,-80497.6615237819,-2414.4725836668
5371074068,4427,-2,0,-6717.2987080734,-80246.4959259627,-32218.5523927444,-12641.4826018337,-80531.1226900450,-48292.2502436063,-80468.7510761306,-80456.4251992489,-80498.8904611610,-2415.8962041951
5371126828,4428,-2,0,-6717.5177266162,-80247.4936771022,-32230.5254064181,-12641.9571420098,-80529.9789265436,-48094.8171949572,-80469.5906472113,-80456.2426837966,-80498.5497656499,-2416.0543842538
5371126828,4428,-2,0,-6718.1747822446,-80246.9582984420,-32254.4227629784,-12642.3830113986,-80524.7103138193,-47920.8921365701,-80468.9457592797,-80453.9308214002,-80498.5132625595,-2413.3896586496
5371126828,4428,-2,0,-6717.8097513399,-80245.6320194883,-32260.0929096979,-12641.4460987432,-80523.1893517164,-48003.3282825455,-80468.0088466244,-80453.5292874051,-80496.2987417377,-2411.0169577691
5371126828,4428,-2,0,-6717.5785651003,-80244.7924484075,-32238.7264340768,-12640.9228877799,-80524.6373076383,-48231.6186103376,-80466.1836921009,-80453.6509643733,-80496.8949588820,-2413.7790249479
5371126828,4428,-2,0,-6717.9435960050,-80245.1331439185,-32220.1341933314,-12641.7137880734,-80529.8329141817,-48301.3881839203,-80468.2400328640,-80453.1520888035,-80496.9314619725,-2416.3707443712
5371126828,4428,-2,0,-6718.1626145478,-80245.5346779137,-32226.4735633761,-12641.9084712225,-80529.3097032183,-48120.5640414346,-80468.2765359545,-80454.4175292731,-80496.3839156155,-2417.0521353933
5371126828,4428,-2,0,-6717.7002420685,-80245.4008332486,-32251.0888140489,-12641.4460987432,-80523.5787180147,-47930.3342693047,-80467.0475985753,-80452.7748902020,-80496.6637726424,-2412.7569384148
5371126828,4428,-2,0,-6717.0066833496,-80245.0723054344,-32260.8716422946,-12640.4483476038,-80521.1695140438,-47979.0172242933,-80467.1206047563,-80452.8357286861,-80496.7854496106,-2411.3576532802
5371146237,4429,-2,0,-6718.2599561224,-80246.2647397231,-32243.7395251679,-12641.9084712225,-80525.8662450174,-48204.8740127207,-80468.0696851085,-80454.6973863001,-80498.5254302563,-2414.3265713050
5371146237,4429,-2,0,-6717.8462544304,-80245.8875411216,-32221.4483045882,-12641.3852602591,-80531.1956962259,-48310.4774534470,-80468.5807283750,-80455.2327649603,-80497.5763499041,-2415.9448749824
5371146237,4429,-2,0,-6717.8584221272,-80246.6054352341,-32225.6948307794,-12641.9084712225,-80530.4656344165,-48152.0540408123,-80469.8461688446,-80455.8168144078,-80498.5497656499,-2416.8087814569
5371146237,4429,-2,0,-6718.6979932080,-80247.6883602513,-32249.6408581270,-12642.0423158876,-80526.6814807046,-47940.8593270565,-80469.6879887859,-80455.2936034444,-80498.9269642515,-2414.3022359113
5371146237,4429,-2,0,-6717.8705898240,-80246.7149445055,-32260.4457729058,-12641.0932355354,-80522.5809668752,-47955.8499295424,-80467.8384988688,-80453.8213121288,-80497.4790083295,-2411.0169577691
5371146237,4429,-2,0,-6717.1648634083,-80245.6320194883,-32243.3379911727,-12640.6308630561,-80525.4403756286,-48173.3353425557,-80468.3860452259,-80454.2471815176,-80498.0508900802,-2412.8542799894
5371146237,4429,-2,0,-6717.7367451590,-80248.1142296402,-32221.1197767740,-12641.9936451003,-80530.4899698102,-48304.4057727324,-80470.7952491968,-80456.2426837966,-80498.9878027356,-2416.5654275204
5371146237,4429,-2,0,-6717.7489128558,-80246.5324290532,-32219.9273424854,-12641.4339310464,-80530.7333237466,-48174.8198015681,-80468.9214238861,-80456.4008638553,-80498.4524240754,-2417.0886384838
5371167702,4430,1,0,-6718.0774406700,-80247.2138200753,-32243.2528172949,-12641.9693097066,-80527.3385363330,-47959.1108722909,-80469.8340011478,-80455.0502495079,-80498.8417903737,-2413.7668572511
5371167702,4430,1,0,-6718.1017760637,-80247.0921431070,-32259.8008849741,-12641.8111296479,-80523.6030534084,-47939.1071787140,-80468.8362500083,-80454.6608832096,-80498.2090701389,-2411.5766718230
5371167702,4430,1,0,-6719.1360302936,-80248.0898942465,-32247.3411634275,-12642.8332161811,-80526.1095989539,-48143.6583300045,-80469.1161070352,-80455.5977958650,-80498.8539580705,-2413.6938510702
5371167702,4430,1,0,-6718.3451300001,-80246.8366214737,-32223.2004529307,-12642.6872038192,-80529.5043863675,-48302.2155873043,-80470.1138581747,-80456.3765284616,-80498.2334055325,-2416.3707443712
5371167702,4430,1,0,-6716.8363355941,-80245.5346779137,-32218.3942126857,-12640.4970183911,-80530.0397650277,-48200.2381202312,-80468.6415668592,-80454.2471815176,-80497.7101945692,-2415.5433409873
5371167702,4430,1,0,-6716.7511617163,-80246.6541060214,-32239.5416697639,-12641.2027448068,-80527.3750394235,-47975.8171200288,-80469.1647778225,-80453.8943183097,-80497.7223622660,-2413.6330125861
5371167702,4430,1,0,-6717.3717142543,-80246.8852922610,-32258.4381029300,-12641.5434403178,-80524.3939537019,-47927.2193389180,-80468.3738775290,-80454.3688584858,-80498.9878027356,-2412.0268766054
5371167702,4430,1,0,-6717.5298943130,-80247.3963355276,-32248.5457654129,-12641.7502911638,-80524.0897612813,-48116.4513599084,-80468.0696851085,-80454.6000447255,-80498.4280886817,-2413.2193108941
5371204430,4431,1,0,-6717.8219190367,-80248.2237389116,-32224.6362411558,-12641.9449743130,-80530.4534667197,-48296.0222296214,-80470.4545536858,-80456.6077147013,-80499.1946535816,-2415.1539746889
5371204430,4431,1,0,-6718.0166021859,-80248.5035959385,-32216.9827598542,-12641.5799434083,-80533.1668631112,-48228.1994875303,-80470.7830815000,-80457.2526026329,-80500.5331002321,-2416.6140983077
5371204430,4431,1,0,-6717.0066833496,-80248.0168880656,-32236.4389070741,-12641.1054032322,-80529.7355726071,-48001.2719417824,-80471.1237770110,-80456.7537270631,-80500.0463923592,-2414.4360805764
5371204430,4431,1,0,-6718.0166021859,-80248.9051299336,-32258.0730720253,-12641.4582664401,-80525.6350587778,-47916.0128901441,-80471.3427955538,-80456.8389009409,-80499.8638769068,-2412.5500875688
5371204430,4431,1,0,-6718.9535148413,-80249.3066639288,-32252.7801239073,-12642.2004959463,-80526.3651205872,-48084.9005220465,-80471.0021000428,-80457.3134411170,-80500.7034479876,-2413.3896586496
5371204430,4431,1,0,-6717.8705898240,-80248.4427574544,-32226.5952403443,-12641.4339310464,-80531.4025470719,-48285.9595443488,-80470.1746966588,-80457.0944225742,-80499.5353490926,-2414.6429314224
5371204430,4431,1,0,-6717.9314283082,-80248.8929622368,-32216.9827598542,-12641.3852602591,-80533.5440617127,-48250.2108510830,-80470.8439199841,-80457.1309256646,-80499.9490507846,-2416.9547938187
5371204430,4431,1,0,-6717.7245774622,-80247.7370310386,-32233.1536289319,-12641.1175709290,-80529.8207464849,-48025.4004845823,-80470.4058828985,-80456.8389009409,-80500.6912802908,-2414.5212544541
5371269352,4432,1,0,-6717.8340867336,-80247.9803849751,-32256.9049731303,-12641.5312726210,-80525.4038725382,-47915.8668777822,-80470.0408519938,-80456.5590439140,-80500.9954727114,-2412.8786153830
5371269352,4432,1,0,-6718.0531052764,-80247.3354970435,-32254.6296138244,-12641.7867942543,-80524.4912952765,-48060.4677868260,-80468.9335915829,-80455.3666096253,-80498.7931195864,-2413.2923170750
5371269352,4432,1,0,-6717.9800990954,-80247.2138200753,-32229.8805184865,-12641.5312726210,-80529.2853678247,-48271.4191466454,-80469.3594609717,-80456.2791868870,-80498.7566164959,-2414.9957946302
5371269352,4432,1,0,-6719.2577072619,-80248.2237389116,-32217.2991199716,-12642.4925206700,-80533.8482541333,-48269.1437873395,-80470.6492368349,-80457.8001489899,-80500.3019139924,-2417.7943648995
5371269352,4432,1,0,-6718.7223286016,-80248.0047203687,-32230.8417665355,-12641.3974279560,-80531.0740192577,-48053.9580690258,-80470.1260258715,-80456.2548514934,-80499.8760446036,-2415.3364901413
5371269352,4432,1,0,-6717.6515712812,-80247.9195464910,-32253.7292042595,-12641.6286141956,-80524.8563261811,-47910.9389605689,-80469.0187654607,-80454.9042371461,-80498.0387223834,-2412.3189013292
5371269352,4432,1,0,-6718.2356207287,-80246.8852922610,-32254.2645829197,-12641.4826018337,-80523.3353640783,-48029.8781970132,-80468.3982129227,-80454.6852186032,-80497.7588653564,-2411.6618457008
5371269352,4432,1,0,-6717.1770311051,-80246.0943919675,-32232.2288839734,-12641.6286141956,-80527.4602133013,-48255.8079916216,-80469.1647778225,-80454.0403306716,-80498.0752254738,-2414.0223788844
5371274548,4433,1,0,-6716.7876648068,-80246.3134105104,-32215.8024932624,-12641.1419063227,-80531.8162487639,-48288.5877668626,-80469.2134486098,-80454.6122124223,-80497.6858591755,-2416.6749367918
5371274548,4433,1,0,-6718.6979932080,-80247.3476647403,-32227.3253021537,-12641.1297386259,-80530.0519327245,-48086.8595212350,-80469.3594609717,-80456.0966714347,-80499.4623429117,-2416.9304584251
5371274548,4433,1,0,-6717.7367451590,-80247.4571740117,-32252.7314531200,-12642.0301481907,-80526.2069405285,-47921.0989874161,-80468.8240823115,-80455.4031127158,-80498.9269642515,-2413.3531555591
5371274548,4433,1,0,-6718.9535148413,-80248.4792605448,-32257.4403517905,-12642.1396574622,-80525.0145062398,-48009.4364663506,-80469.5054733336,-80456.1210068283,-80499.2919951561,-2413.2558139846
5371274548,4433,1,0,-6718.0166021859,-80247.3598324371,-32234.6259202475,-12641.8719681320,-80528.1659397170,-48232.9448892913,-80469.0917716416,-80455.9749944665,-80499.0364735229,-2414.1805589431
5371274548,4433,1,0,-6718.9900179317,-80247.9195464910,-32215.0602637562,-12642.3708437018,-80532.3637951209,-48301.0109853188,-80470.4302182921,-80456.8875717282,-80500.2410755083,-2417.6118494472
5371274548,4433,1,0,-6718.3572976970,-80247.2503231657,-32222.8232543292,-12641.5312726210,-80530.0032619373,-48117.8263096494,-80468.9944300670,-80455.7194728332,-80498.9391319483,-2415.9935457697
5371274548,4433,1,0,-6718.1017760637,-80247.8465403100,-32247.8400389972,-12642.6385330319,-80527.2776978489,-47926.7691341356,-80470.4545536858,-80456.4617023394,-80499.4015044275,-2414.2170620336
5371303308,4434,1,0,-6718.0896083669,-80248.0898942465,-32256.7346253748,-12642.1396574622,-80525.4525433255,-47983.2637504845,-80469.8705042383,-80455.8168144078,-80499.4623429117,-2412.5500875688
5371303308,4434,1,0,-6717.9314283082,-80247.9317141878,-32237.6556767564,-12642.0423158876,-80527.9712565678,-48210.7388425894,-80469.6393179986,-80456.4617023394,-80499.4380075180,-2415.1783100826
5371303308,4434,1,0,-6717.6880743717,-80246.6297706278,-32215.9485056243,-12642.2369990367,-80531.2930378005,-48305.8902317448,-80469.4202994558,-80455.9384913760,-80498.9269642515,-2416.5289244299
5371303308,4434,1,0,-6717.6150681908,-80247.0921431070,-32218.9660944363,-12641.5921111051,-80529.5530571548,-48141.3221322145,-80468.3738775290,-80454.5513739382,-80497.8440392342,-2415.6285148650
5371303308,4434,1,0,-6717.1283603178,-80246.5080936595,-32243.0946372362,-12640.9837262640,-80525.3186986604,-47938.6691416284,-80467.8141634752,-80453.7118028574,-80497.2234866962,-2413.7546895543
5371303308,4434,1,0,-6717.5663974035,-80246.8487891706,-32255.7125388416,-12641.4704341369,-80523.5178795306,-47960.5588282129,-80467.6559834165,-80454.1498399430,-80497.5398468136,-2412.2458951483
5371303308,4434,1,0,-6718.7101609048,-80247.9195464910,-32239.9432037591,-12642.4195144891,-80527.1438531839,-48180.9888238573,-80470.1260258715,-80456.3643607648,-80500.0098892687,-2414.9714592366
5371303308,4434,1,0,-6718.1747822446,-80248.3089127893,-32215.9850087147,-12642.6872038192,-80532.2056150622,-48309.7108885472,-80470.3693798080,-80457.6176335376,-80500.3505847797,-2416.8939553346
5371326324,4435,1,0,-6717.9800990954,-80248.9416330241,-32216.8002444019,-12641.2879186845,-80533.0695215366,-48177.5331979596,-80470.4423859890,-80456.8875717282,-80499.5231813958,-2416.5897629140
5371326324,4435,1,0,-6717.8827575209,-80248.3575835766,-32240.3325700574,-12641.2635832909,-80527.3628717267,-47960.4128158510,-80470.1868643557,-80456.3765284616,-80499.6326906672,-2414.3995774859
5371326324,4435,1,0,-6717.6394035844,-80248.2602420020,-32256.3452590764,-12641.9084712225,-80525.1240155112,-47948.8048330819,-80469.2134486098,-80455.7073051364,-80498.9269642515,-2412.1850566641
5371326324,4435,1,0,-6718.1626145478,-80247.3354970435,-32244.2140653440,-12641.3852602591,-80526.4259590713,-48156.7629394828,-80469.7609949669,-80456.4130315521,-80499.0973120070,-2412.8177768989
5371326324,4435,1,0,-6717.9314283082,-80247.8708757037,-32219.4893053997,-12641.1905771100,-80531.0253484704,-48308.0804171729,-80470.5032244731,-80456.6198823981,-80499.7787030291,-2416.2125643125
5371326324,4435,1,0,-6718.4181361811,-80248.1629004274,-32216.6663997368,-12642.1153220685,-80532.5219751796,-48204.2534601828,-80470.3328767175,-80456.8023978504,-80499.8517092100,-2417.1981477552
5371326324,4435,1,0,-6718.1139437605,-80247.8100372196,-32238.4587447467,-12641.5069372274,-80528.3849582598,-47983.8112968415,-80469.7853303605,-80456.2670191902,-80498.6714426182,-2414.9106207525
5371326324,4435,1,0,-6718.2477884255,-80247.7126956450,-32256.5521099224,-12641.6651172861,-80525.2578601763,-47938.2311045428,-80470.0165166001,-80456.3521930680,-80499.4015044275,-2412.6109260529
5371366189,4436,1,0,-6718.8561732667,-80247.5058447990,-32246.8179524641,-12641.5069372274,-80525.7932388365,-48133.6564832160,-80469.6636533923,-80454.7217216937,-80498.3307471071,-2413.0854662290
5371366189,4436,1,0,-6718.9170117508,-80248.0168880656,-32223.5654838354,-12642.2126636431,-80531.4025470719,-48314.5414641859,-80470.3328767175,-80455.8046467110,-80498.8904611610,-2416.2612350998
5371366189,4436,1,0,-6716.8363355941,-80246.8122860801,-32216.4352134972,-12641.1175709290,-80532.9478445684,-48238.8218868567,-80469.2377840035,-80456.2548514934,-80499.5961875767,-2416.4315828553
5371366189,4436,1,0,-6717.5542297066,-80249.2823285351,-32238.0450430547,-12642.7480423033,-80530.4778021133,-48012.0525211676,-80471.1359447079,-80456.3400253712,-80499.4136721244,-2415.4094963222
5371366189,4436,1,0,-6718.1382791541,-80248.4914282417,-32258.0974074189,-12641.8719681320,-80525.8419096238,-47936.0652545083,-80470.0895227811,-80455.3666096253,-80499.4015044275,-2412.1120504832
5371366189,4436,1,0,-6716.5929816576,-80248.4184220607,-32251.6728634964,-12640.6551984498,-80525.7202326556,-48111.0489025190,-80469.4689702431,-80455.3057711412,-80499.2554920657,-2412.2702305419
5371366189,4436,1,0,-6717.4203850416,-80249.0024715082,-32228.5664072297,-12641.5677757115,-80531.7554102797,-48307.0704983366,-80470.6857399254,-80457.6663043249,-80500.9224665304,-2415.2391485667
5371366189,4436,1,0,-6717.7124097653,-80248.7347821781,-32218.4915542603,-12641.6407818924,-80533.3250431699,-48269.1316196427,-80471.1237770110,-80457.7393105058,-80499.9490507846,-2416.9791292124
5371390613,4437,1,0,-6718.2842915160,-80248.4670928480,-32236.9742857343,-12641.8476327384,-80529.8815849690,-48048.6651209078,-80470.2842059302,-80456.7415593663,-80500.4965971416,-2415.0688008112
5371390613,4437,1,0,-6718.6493224207,-80248.1507327306,-32257.9270596634,-12641.3974279560,-80525.2335247827,-47940.1657683376,-80469.9435104192,-80456.0480006474,-80499.1216474006,-2413.1463047131
5371390613,4437,1,0,-6717.8827575209,-80246.9582984420,-32254.7147877022,-12641.2879186845,-80525.6350587778,-48088.2831417633,-80469.6514856955,-80455.8289821046,-80499.4015044275,-2413.2558139846
5371390613,4437,1,0,-6717.7732482495,-80248.3697512734,-32232.1558777924,-12642.5046883668,-80529.6869018198,-48298.8694706780,-80470.5762306540,-80456.7658947600,-80499.6570260608,-2415.5433409873
5371390613,4437,1,0,-6717.8584221272,-80248.5522667258,-32218.3577095952,-12641.4704341369,-80533.7387448619,-48287.6873572977,-80471.7930003363,-80457.4716211757,-80499.9977215719,-2416.3950797649
5371390613,4437,1,0,-6717.8827575209,-80248.2115712147,-32232.4479025162,-12641.4826018337,-80530.9280068958,-48068.8391622402,-80470.6735722286,-80457.1309256646,-80499.9855538750,-2415.3973286254
5371390613,4437,1,0,-6719.0143533254,-80249.0268069019,-32257.1118239763,-12642.1153220685,-80527.3750394235,-47936.4667885035,-80470.9412615587,-80457.2526026329,-80501.6281929461,-2413.7181864638
5371390613,4437,1,0,-6717.0431864401,-80249.0998130828,-32257.5741964555,-12640.7160369339,-80526.2556113158,-48061.7575626893,-80470.3450444144,-80456.6320500949,-80500.0098892687,-2412.2580628451
5371421216,4438,1,0,-6718.5519808461,-80249.7203656208,-32237.4974966977,-12642.1518251590,-80531.8405841575,-48284.8157808475,-80472.4865590552,-80458.1651798946,-80501.6525283398,-2415.8110303174
5371421216,4438,1,0,-6718.3207946065,-80250.6207751857,-32221.5091430723,-12641.8354650416,-80534.8460052728,-48312.0592540340,-80471.8660065172,-80458.8952417040,-80501.3118328288,-2417.1494769679
5371421216,4438,1,0,-6718.0287698827,-80248.8686268432,-32234.1878831619,-12641.3609248655,-80532.3759628177,-48108.4206800053,-80470.6735722286,-80457.4472857820,-80500.0950631465,-2416.6140983077
5371421216,4438,1,0,-6717.8949252177,-80247.7857018259,-32257.7810473015,-12641.6651172861,-80526.7909899760,-47942.3681214626,-80469.0674362479,-80456.0480006474,-80499.4866783053,-2413.3166524687
5371421216,4438,1,0,-6717.2378695892,-80248.0898942465,-32261.6138718008,-12641.9328066162,-80524.9293323621,-48035.1224743439,-80469.2377840035,-80455.2084295666,-80498.3307471071,-2411.6253426103
5371421216,4438,1,0,-6717.9435960050,-80248.3575835766,-32240.1378869083,-12641.7867942543,-80528.2511135947,-48263.7169945565,-80468.9335915829,-80454.9164048429,-80497.7710330533,-2415.1053039016
5371421216,4438,1,0,-6717.6515712812,-80247.4206709212,-32222.3365464563,-12640.8133785085,-80532.7653291161,-48322.5599763922,-80469.2012809130,-80456.3035222807,-80498.7079457086,-2417.0277999997
5371421216,4438,1,0,-6717.4447204352,-80246.1430627548,-32231.3041390148,-12641.3122540782,-80530.2101127832,-48133.3644584923,-80468.5442252846,-80455.2449326571,-80498.3429148040,-2415.9205395888
5371450348,4439,1,0,-6717.8219190367,-80247.0921431070,-32256.9293085239,-12641.4704341369,-80525.1726862985,-47951.7372480162,-80468.3373744386,-80454.5757093318,-80497.3208282708,-2413.7181864638
5371450348,4439,1,0,-6717.2987080734,-80246.0700565739,-32264.5827898256,-12640.9593908703,-80523.6395564988,-48010.6045652456,-80467.4613002673,-80453.0790826226,-80497.4303375422,-2412.5135844784
5371450348,4439,1,0,-6718.2356207287,-80246.6419383246,-32244.7981147915,-12642.3586760050,-80526.5719714332,-48233.1030693499,-80468.5077221941,-80455.1232556889,-80498.7931195864,-2415.2634839603
5371450348,4439,1,0,-6718.6006516334,-80246.6541060214,-32222.2270371849,-12642.8818869684,-80531.2078639227,-48325.1030250282,-80468.0818528053,-80455.3422742317,-80497.7588653564,-2416.3220735839
5371450348,4439,1,0,-6717.4203850416,-80246.1673981485,-32226.3153833174,-12641.3852602591,-80531.4998886465,-48160.9851302804,-80468.5563929814,-80455.0624172047,-80497.8440392342,-2416.8087814569
5371450348,4439,1,0,-6718.5519808461,-80247.3354970435,-32252.0500620979,-12641.8963035257,-80527.0100085188,-47956.5069851708,-80470.2355351430,-80455.2936034444,-80498.6836103150,-2414.3387390018
5371450348,4439,1,0,-6717.6759066749,-80246.7636152928,-32261.9910704023,-12641.5069372274,-80523.8220719512,-47984.5535263477,-80468.8970884924,-80454.8799017524,-80498.1725670484,-2412.1120504832
5371450348,4439,1,0,-6717.6515712812,-80247.0069692293,-32244.8224501851,-12641.9693097066,-80528.1172689297,-48205.9326023443,-80469.4933056368,-80455.5734604713,-80498.7931195864,-2413.2071431973
5371487863,4440,1,0,-6716.8363355941,-80246.9096276547,-32220.4748888424,-12640.8620492957,-80531.4025470719,-48324.8840064854,-80468.9579269766,-80455.5369573808,-80499.0121381292,-2414.8741176620
5371487863,4440,1,0,-6717.4812235257,-80246.7392798991,-32219.9395101822,-12640.8498815989,-80532.7774968129,-48182.0352457841,-80468.9579269766,-80455.8776528919,-80498.2090701389,-2416.6871044886
5371487863,4440,1,0,-6717.7367451590,-80246.4715905691,-32242.0117122190,-12641.4826018337,-80526.9126669442,-47966.9590367417,-80469.1526101257,-80455.4517835031,-80498.0630577770,-2414.0953850653
5371487863,4440,1,0,-6717.3960496479,-80246.8731245642,-32255.5300233893,-12642.0179804939,-80523.8220719512,-47958.7823444767,-80469.7244918764,-80455.0259141143,-80498.2334055325,-2413.3166524687
5371487863,4440,1,0,-6718.2356207287,-80246.9217953515,-32239.8458621845,-12641.1784094131,-80526.4867975554,-48165.5236811953,-80469.0674362479,-80455.5247896840,-80498.8539580705,-2413.3044847718
5371487863,4440,1,0,-6717.8584221272,-80246.7879506864,-32214.6343943674,-12642.0423158876,-80531.9014226416,-48313.7748992861,-80469.8705042383,-80456.2670191902,-80499.5110136990,-2416.4680859458
5371487863,4440,1,0,-6717.0431864401,-80246.1795658453,-32210.9110791396,-12641.1419063227,-80531.6215656147,-48202.0876101483,-80469.6758210891,-80455.3301065348,-80498.3429148040,-2416.2368997062
5371487863,4440,1,0,-6717.0066833496,-80246.8487891706,-32232.2532193670,-12641.0810678386,-80528.2997843820,-47977.1799020730,-80469.3959640622,-80455.0380818111,-80498.8661257673,-2413.9372050066
5371515813,4441,1,0,-6717.6029004939,-80247.8343726132,-32249.5556842492,-12641.6651172861,-80524.7833200002,-47940.8714947534,-80469.4324671526,-80455.8168144078,-80498.8539580705,-2412.4040752069
5371515813,4441,1,0,-6717.7854159463,-80247.2016523784,-32237.8381922087,-12641.3000863814,-80526.0974312571,-48138.2558726151,-80469.3351255781,-80456.1453422220,-80498.6592749213,-2414.0223788844
5371515813,4441,1,0,-6718.5154777557,-80247.6031863736,-32213.0769291740,-12642.2248313399,-80530.6724852625,-48308.6644666204,-80469.6758210891,-80455.8411498014,-80498.4524240754,-2416.2612350998
5371515813,4441,1,0,-6718.4668069684,-80247.3963355276,-32206.5793790706,-12641.9936451003,-80532.4976397859,-48226.9827178480,-80470.2842059302,-80456.5468762172,-80498.9026288578,-2418.0012157455
5371515813,4441,1,0,-6718.0409375796,-80246.5810998405,-32225.3541352684,-12641.9206389193,-80529.4070447929,-48001.7708173522,-80469.6758210891,-80455.1840941730,-80498.6471072245,-2415.3364901413
5371515813,4441,1,0,-6717.3960496479,-80247.1408138943,-32244.3114069185,-12640.9228877799,-80524.5643014574,-47931.2711819601,-80468.4833868004,-80455.0259141143,-80497.7710330533,-2412.9759569576
5371515813,4441,1,0,-6717.7854159463,-80247.7978695228,-32237.4853290009,-12641.8963035257,-80526.0852635603,-48106.3521715454,-80468.8970884924,-80455.8046467110,-80499.5961875767,-2413.4139940433
5371515813,4441,1,0,-6719.0143533254,-80247.9073787942,-32213.1377676582,-12642.2004959463,-80531.2321993164,-48303.4566923802,-80470.3572121112,-80456.7537270631,-80500.2045724179,-2416.1760612221
5371549948,4442,1,0,-6717.4082173448,-80247.2503231657,-32202.5153683317,-12640.4726829974,-80532.9478445684,-48258.4970526194,-80470.5397275635,-80456.3400253712,-80499.5353490926,-2417.1129738774
5371549948,4442,1,0,-6717.6029004939,-80246.9339630483,-32221.0467705931,-12641.7502911638,-80529.8450818785,-48032.7619411602,-80469.7974980573,-80455.4152804126,-80498.9634673419,-2415.8475334078
5371549948,4442,1,0,-6718.7953347826,-80248.6496083004,-32242.7782771188,-12643.1252409048,-80525.9879219857,-47931.0034926299,-80469.4324671526,-80456.6198823981,-80499.0729766133,-2413.4626648305
5371549948,4442,1,0,-6718.9048440540,-80248.1020619433,-32239.7485206099,-12641.9571420098,-80525.6837295651,-48085.7522608241,-80470.0043489033,-80455.7194728332,-80498.8904611610,-2413.8763665225
5371549948,4442,1,0,-6717.7002420685,-80246.7636152928,-32213.1742707486,-12641.3000863814,-80529.1636908565,-48290.7049461098,-80468.6780699496,-80455.6464666523,-80498.2577409262,-2414.6307637255
5371549948,4442,1,0,-6717.8705898240,-80247.7005279482,-32199.4004379451,-12642.3100052177,-80532.2421181527,-48276.8094363380,-80469.7974980573,-80456.5833793076,-80499.0364735229,-2417.8187002932
5371549948,4442,1,0,-6717.2378695892,-80246.5080936595,-32214.6343943674,-12641.3487571687,-80530.0275973309,-48061.8670719607,-80468.7754115242,-80455.7194728332,-80497.8562069310,-2416.0908873443
5371549948,4442,1,0,-6717.5785651003,-80246.4715905691,-32237.9842045706,-12642.1883282494,-80525.4282079318,-47931.4050266251,-80468.2887036513,-80454.8920694492,-80497.8562069310,-2413.1219693195
5371602756,4443,1,0,-6718.2842915160,-80246.7757829896,-32238.6777632895,-12642.2126636431,-80524.4182890955,-48061.8670719607,-80468.1548589862,-80454.5392062414,-80497.3208282708,-2413.0732985322
5371602756,4443,1,0,-6717.9800990954,-80245.6320194883,-32215.6199778100,-12642.2369990367,-80528.0077596583,-48284.2317314000,-80468.2278651672,-80454.5635416350,-80497.4546729359,-2415.6406825619
5371602756,4443,1,0,-6718.1869499414,-80246.0457211802,-32199.8141396370,-12641.8841358289,-80530.6603175657,-48303.2620092310,-80468.1791943799,-80453.5779581923,-80497.5033437232,-2417.5996817503
5371602756,4443,1,0,-6717.5907327971,-80245.5590133073,-32211.6898117362,-12641.9206389193,-80528.7134860740,-48094.5616733239,-80467.9236727466,-80454.0038275812,-80497.4303375422,-2415.4946702000
5371602756,4443,1,0,-6719.0265210222,-80245.7415287597,-32235.8913607171,-12642.3221729145,-80525.2821955699,-47939.6547250711,-80467.6924865070,-80453.8821506129,-80497.7223622660,-2414.2657328209
5371602756,4443,1,0,-6718.2599561224,-80246.3255782072,-32240.7584394462,-12642.3221729145,-80523.6760595893,-48041.9972230488,-80467.8141634752,-80453.5779581923,-80497.7466976596,-2413.3288201655
5371602756,4443,1,0,-6717.9435960050,-80246.5080936595,-32218.6132312285,-12641.3730925623,-80527.5332194822,-48267.0266080923,-80468.6172314655,-80454.9407402365,-80498.0265546866,-2416.0665519507
5371602756,4443,1,0,-6718.8318378731,-80247.8465403100,-32200.6050399305,-12641.9206389193,-80533.0451861430,-48319.3355367341,-80469.1647778225,-80456.2670191902,-80499.3893367307,-2417.3319924202
5371621472,4444,1,0,-6717.2257018924,-80246.2525720262,-32209.9498310906,-12641.1297386259,-80530.3682928419,-48129.1179323011,-80467.9845112307,-80455.1232556889,-80498.2820763198,-2416.0787196475
5371621472,4444,1,0,-6717.5420620098,-80245.8023672438,-32234.3947340078,-12641.8598004352,-80526.0852635603,-47943.5727234480,-80467.6803188101,-80454.2958523049,-80497.8562069310,-2413.2436462877
5371621472,4444,1,0,-6718.6006516334,-80246.8609568674,-32242.0360476126,-12642.3465083081,-80523.8464073448,-48008.6455660571,-80469.1282747321,-80454.6122124223,-80497.8197038406,-2413.7425218575
5371621472,4444,1,0,-6718.5033100588,-80246.5324290532,-32222.6407388769,-12641.5556080147,-80527.7522380250,-48238.2378374092,-80468.8727530988,-80455.0015787206,-80498.6106041341,-2415.5311732904
5371621472,4444,1,0,-6717.4690558289,-80246.1430627548,-32203.0507469919,-12640.7890431148,-80530.4047959324,-48328.7168309846,-80468.2278651672,-80455.0502495079,-80497.6006852977,-2416.8574522441
5371621472,4444,1,0,-6718.1382791541,-80246.5567644468,-32210.3026942984,-12641.7137880734,-80530.6116467784,-48165.1708179875,-80469.1647778225,-80455.6221312586,-80497.9778838993,-2417.1616446647
5371621472,4444,1,0,-6717.3838819511,-80245.5711810042,-32235.7575160520,-12641.8232973448,-80526.1704374380,-47974.4908410751,-80468.3008713481,-80454.3688584858,-80497.5398468136,-2414.5820929383
5371621472,4444,1,0,-6717.5785651003,-80247.1651492880,-32247.5236788798,-12642.0058127971,-80524.1019289781,-48012.6730737055,-80468.0210143212,-80454.8799017524,-80497.9413808088,-2413.5600064051
5371641080,4445,1,0,-6717.7975836431,-80246.1430627548,-32231.6204991322,-12641.7016203765,-80527.1195177902,-48231.5212687630,-80468.4712191036,-80454.5635416350,-80498.1847347453,-2414.8862853588
5371641080,4445,1,0,-6717.7489128558,-80246.2039012389,-32209.3779493399,-12642.7480423033,-80530.5873113847,-48346.7250222826,-80469.5419764241,-80455.2571003539,-80498.0143869897,-2417.1373092711
5371641080,4445,1,0,-6718.5884839366,-80245.8267026374,-32211.8601594918,-12641.9814774035,-80530.3926282356,-48200.5179772581,-80467.9358404434,-80454.9894110238,-80498.2334055325,-2417.0399676965
5371641080,4445,1,0,-6717.8827575209,-80246.1795658453,-32235.8426899298,-12642.4073467923,-80526.4989652522,-47986.0136499665,-80468.0453497148,-80454.1985107303,-80497.3086605740,-2415.2148131730
5371641080,4445,1,0,-6718.2477884255,-80246.0335534834,-32249.9207151539,-12642.4925206700,-80523.3596994719,-47985.7946314237,-80468.2765359545,-80453.9794921875,-80498.3185794103,-2413.9493727035
5371641080,4445,1,0,-6717.7367451590,-80246.3377459040,-32234.8692741839,-12641.8354650416,-80526.1582697412,-48200.8708404660,-80468.9579269766,-80455.0380818111,-80498.2212378357,-2414.0953850653
5371641080,4445,1,0,-6717.8097513399,-80247.4450063149,-32211.2517746506,-12641.4095956528,-80530.4291313260,-48342.2838129422,-80468.6172314655,-80454.7825601778,-80498.2334055325,-2415.7988626206
5371641080,4445,1,0,-6717.9070929145,-80246.5324290532,-32209.3901170367,-12641.1662417163,-80532.2664535463,-48220.9962110111,-80469.2986224876,-80456.4130315521,-80499.4501752148,-2417.2103154520
5371670447,4446,1,0,-6717.8705898240,-80247.2016523784,-32231.3771451958,-12641.6894526797,-80527.4358779076,-48000.1646813715,-80468.0818528053,-80455.1840941730,-80497.9170454151,-2414.2170620336
5371670447,4446,1,0,-6717.6029004939,-80245.1574793122,-32247.7670328163,-12641.0323970513,-80522.7756500244,-47967.2145583750,-80466.7312384579,-80453.3589396495,-80496.4812571900,-2411.3698209770
5371670447,4446,1,0,-6718.0774406700,-80245.5711810042,-32236.7796025851,-12641.2149125036,-80525.0023385430,-48166.2780783984,-80468.3008713481,-80453.6266289796,-80497.1991513026,-2414.5334221510
5371670447,4446,1,0,-6718.7223286016,-80246.2647397231,-32213.1255999613,-12641.8111296479,-80529.2732001279,-48336.6501693132,-80468.8849207956,-80455.8898205887,-80498.8661257673,-2416.5045890363
5371670447,4446,1,0,-6717.5542297066,-80245.1696470090,-32205.7276402930,-12640.6308630561,-80530.9888453799,-48250.5637142909,-80467.5343064483,-80454.3810261827,-80497.8683746279,-2415.8353657110
5371670447,4446,1,0,-6718.0652729732,-80246.1552304517,-32226.4857310729,-12641.9449743130,-80527.9104180837,-48021.7623432323,-80468.6780699496,-80455.3666096253,-80498.2699086230,-2415.4338317159
5371670447,4446,1,0,-6718.4546392715,-80246.8609568674,-32245.2726549675,-12641.4582664401,-80522.8973269927,-47955.1198677330,-80467.6681511133,-80454.8190632683,-80498.0022192929,-2412.4649136911
5371670447,4446,1,0,-6717.8097513399,-80245.8388703343,-32235.3559820569,-12641.4582664401,-80523.6882272861,-48139.5091453879,-80468.0088466244,-80453.7118028574,-80497.6128529946,-2413.4626648305
5371715140,4447,1,0,-6716.6294847481,-80244.2935728377,-32211.4342901029,-12640.0589813054,-80527.9469211742,-48327.9137629943,-80467.0110954849,-80452.6410455370,-80496.0553878012,-2414.7524406938
5371715140,4447,1,0,-6718.3451300001,-80245.7536964565,-32202.5640391190,-12642.0179804939,-80531.3660439814,-48274.4245677607,-80468.6537345560,-80454.6973863001,-80497.1869836058,-2417.2589862393
5371715140,4447,1,0,-6718.4911423620,-80245.4738394296,-32221.3631307105,-12641.6286141956,-80527.6427287536,-48047.1806618954,-80467.4247971768,-80455.1110879920,-80495.9458785298,-2416.0665519507
5371715140,4447,1,0,-6717.7489128558,-80245.4738394296,-32242.5227554856,-12642.0788189780,-80522.8973269927,-47945.8359150571,-80466.5000522183,-80453.2007595908,-80497.0653066375,-2412.8542799894
5371715140,4447,1,0,-6716.6173170513,-80244.3909144123,-32236.5240809519,-12641.1297386259,-80523.1285132323,-48099.0393857548,-80466.3662075533,-80453.1277534099,-80496.4934248869,-2412.4162429038
5371715140,4447,1,0,-6718.5884839366,-80245.8875411216,-32212.6997305725,-12642.0666512812,-80528.5431383185,-48306.3647719209,-80467.6073126292,-80454.7217216937,-80497.3573313613,-2416.2977381903
5371715140,4447,1,0,-6717.0310187433,-80244.8289514980,-32199.8384750307,-12641.3244217750,-80530.7454914434,-48288.4904252880,-80467.8141634752,-80454.3080200017,-80496.7002757329,-2417.1738123615
5371715140,4447,1,0,-6717.3838819511,-80244.9749638598,-32216.2892011353,-12640.5213537847,-80527.3872071203,-48067.3425355310,-80468.1183558958,-80454.1620076399,-80497.0531389407,-2415.0931362048
5371743081,4448,1,0,-6717.8462544304,-80244.7802807107,-32238.9332849228,-12640.8498815989,-80523.0433393545,-47941.4555442009,-80467.2057786340,-80452.6532132338,-80496.3352448282,-2412.2702305419
5371743081,4448,1,0,-6716.9458448655,-80244.8411191948,-32238.5439186245,-12641.8963035257,-80522.1064266992,-48075.2272030723,-80467.6559834165,-80452.9209025639,-80496.0553878012,-2411.8565288499
5371743081,4448,1,0,-6718.8683409635,-80246.2282366326,-32216.0093441084,-12642.9792285429,-80527.9834242646,-48290.1452320559,-80467.5951449324,-80453.9551567939,-80497.5763499041,-2415.5190055936
5371743081,4448,1,0,-6718.9900179317,-80244.8897899821,-32200.2156736322,-12642.3951790954,-80530.4169636292,-48301.3151777394,-80468.2278651672,-80454.7095539969,-80497.3329959676,-2417.4415016916
5371743081,4448,1,0,-6718.2964592128,-80244.8532868916,-32212.9674199026,-12641.8719681320,-80528.3119520789,-48093.3084005512,-80467.1571078468,-80452.5315362656,-80496.7124434297,-2416.6019306109
5371743081,4448,1,0,-6717.2987080734,-80244.6099329551,-32236.1225469567,-12641.8598004352,-80522.7513146308,-47938.0729244841,-80466.6947353675,-80452.5802070529,-80496.1162262853,-2413.2436462877
5371743081,4448,1,0,-6718.7953347826,-80244.6099329551,-32239.6755144290,-12641.6529495892,-80522.0455882150,-48040.8899626379,-80466.7069030643,-80452.0934991799,-80496.8341203979,-2413.0002923513
5371743081,4448,1,0,-6717.3717142543,-80245.3156593709,-32217.7371570572,-12641.9084712225,-80525.7810711397,-48268.9004334030,-80467.6438157197,-80453.2615980750,-80496.1283939822,-2414.9227884493
5371769112,4449,1,0,-6718.0287698827,-80244.6221006520,-32200.0696612703,-12642.1031543717,-80529.6138956389,-48318.6298103184,-80466.7190707611,-80454.0890014589,-80496.2622386472,-2416.9304584251
5371769112,4449,1,0,-6717.7610805526,-80244.5369267742,-32209.5117940049,-12641.5799434083,-80527.4845486949,-48125.0052507749,-80465.8916673772,-80452.8478963830,-80496.2257355568,-2416.6992721854
5371769112,4449,1,0,-6717.9679313986,-80245.0236346471,-32234.7597649125,-12641.8111296479,-80523.9924197067,-47950.2527890038,-80467.8506665657,-80453.4076104368,-80496.9801327598,-2413.8155280384
5371769112,4449,1,0,-6719.1481979904,-80245.6928579724,-32241.9630414317,-12642.3951790954,-80522.8851592958,-48023.8916901763,-80467.7168219006,-80454.0890014589,-80497.4790083295,-2413.5356710115
5371769112,4449,1,0,-6717.3108757702,-80245.6320194883,-32221.8498385834,-12641.5312726210,-80527.0586793061,-48246.5605420361,-80467.5586418419,-80453.6266289796,-80497.3451636645,-2414.9957946302
5371769112,4449,1,0,-6717.7245774622,-80245.4981748232,-32201.2255924685,-12642.3221729145,-80530.0032619373,-48325.7114098694,-80467.7168219006,-80454.5878770287,-80497.8927100215,-2416.5410921267
5371769112,4449,1,0,-6717.8827575209,-80244.6951068329,-32207.0660869435,-12641.4460987432,-80529.6382310326,-48154.1468846659,-80467.5829772356,-80453.8213121288,-80496.8341203979,-2416.5654275204
5371769112,4449,1,0,-6717.3473788607,-80244.6099329551,-32230.7444249610,-12642.0666512812,-80524.9415000589,-47958.4659843593,-80466.8894185166,-80453.4076104368,-80496.7246111265,-2413.8885342193
5371801251,4450,1,0,-6719.1603656873,-80245.9605473025,-32241.7318551921,-12642.9670608461,-80524.2722767336,-48000.0308367065,-80468.6415668592,-80454.7947278746,-80498.2334055325,-2413.1706401068
5371801251,4450,1,0,-6717.5420620098,-80246.0092180898,-32224.2225394639,-12641.4582664401,-80526.3894559808,-48226.0823082831,-80469.3351255781,-80455.0624172047,-80498.3307471071,-2413.5235033147
5371801251,4450,1,0,-6718.8561732667,-80247.2259877721,-32203.2575978379,-12643.2834209635,-80531.5728948274,-48337.1003740956,-80470.4423859890,-80457.1430933615,-80499.3893367307,-2417.1129738774
5371801251,4450,1,0,-6718.6858255112,-80247.7978695228,-32205.2409324201,-12641.9936451003,-80531.9379257321,-48183.9212387916,-80470.5762306540,-80457.0214163932,-80499.3771690339,-2417.4171662980
5371801251,4450,1,0,-6717.8340867336,-80246.7271122023,-32228.1770409313,-12642.1274897653,-80527.0586793061,-47974.0406362927,-80468.4955544973,-80454.4540323636,-80498.6227718309,-2413.6816833734
5371801251,4450,1,0,-6717.6394035844,-80245.2304854931,-32241.8170290698,-12640.9472231735,-80522.3011098483,-47983.3975951495,-80467.8141634752,-80453.5779581923,-80497.0896420312,-2410.9317838914
5371801251,4450,1,0,-6717.9800990954,-80245.5103425200,-32226.6317434348,-12641.4217633496,-80524.3939537019,-48197.8045808666,-80467.7411572943,-80454.3323553954,-80496.9192942757,-2413.2193108941
5371801251,4450,1,0,-6717.9800990954,-80245.8023672438,-32203.7808088013,-12641.8111296479,-80530.5873113847,-48339.3879010984,-80469.1161070352,-80454.9529079333,-80497.7223622660,-2416.1395581316
5371837646,4451,1,0,-6716.9336771687,-80245.0236346471,-32202.4423621508,-12641.6529495892,-80530.5264729006,-48220.0592983558,-80468.0575174117,-80454.3931938795,-80497.5520145105,-2416.7844460632
5371837646,4451,1,0,-6718.0531052764,-80245.2426531899,-32226.7412527062,-12641.1175709290,-80526.8518284601,-47997.6581358260,-80467.8871696561,-80454.4540323636,-80497.5276791168,-2414.8011114811
5371837646,4451,1,0,-6717.7367451590,-80244.9871315567,-32243.0094633585,-12642.0301481907,-80522.0820913055,-47968.3461541796,-80466.8164123357,-80453.4076104368,-80497.3086605740,-2412.4040752069
5371837646,4451,1,0,-6718.0652729732,-80245.4616717327,-32231.7543437973,-12641.1662417163,-80524.1019289781,-48172.7391254113,-80468.5928960719,-80453.5292874051,-80497.1991513026,-2413.6208448892
5371837646,4451,1,0,-6717.4568881321,-80244.6221006520,-32205.8493172612,-12640.1441551832,-80528.5796414090,-48338.1102929319,-80466.8042446389,-80453.8456475225,-80497.4060021486,-2415.3364901413
5371837646,4451,1,0,-6717.7124097653,-80245.8753734247,-32202.7465545714,-12641.7259557702,-80530.7089883530,-48244.1513380652,-80468.3495421354,-80455.1110879920,-80497.5155114200,-2417.0277999997
5371837646,4451,1,0,-6718.3938007874,-80245.9727149993,-32223.4073037767,-12641.3000863814,-80527.2776978489,-48020.1197041612,-80468.2156974703,-80455.1110879920,-80498.1117285643,-2415.1296392953
5371837646,4451,1,0,-6718.5519808461,-80246.2525720262,-32242.7782771188,-12642.3465083081,-80523.7490657703,-47961.0820391763,-80467.9358404434,-80454.1863430335,-80497.6615237819,-2413.4748325274
5371875093,4452,1,0,-6717.7245774622,-80243.8920388426,-32234.1635477682,-12641.1419063227,-80523.9072458290,-48144.1572055742,-80466.5730583993,-80453.2129272877,-80496.3352448282,-2412.4405782974
5371875093,4452,1,0,-6718.3451300001,-80244.9262930725,-32209.2806077653,-12640.7647077212,-80527.3020332426,-48332.9755248727,-80466.7677415484,-80453.7239705542,-80496.0797231949,-2415.6893533491
5371875093,4452,1,0,-6718.5398131493,-80245.6685225787,-32202.1503374270,-12642.7480423033,-80531.8040810670,-48276.2983930714,-80468.5442252846,-80455.5004542904,-80497.7101945692,-2417.2224831488
5371875093,4452,1,0,-6718.2356207287,-80246.3012428135,-32221.6673231310,-12642.2735021272,-80528.3727905630,-48049.9913998615,-80468.3130390449,-80455.0989202952,-80497.9778838993,-2415.4946702000
5371875093,4452,1,0,-6716.9093417750,-80245.6076840946,-32242.3159046396,-12640.9350554767,-80523.3353640783,-47955.3145508822,-80466.6338968834,-80453.2981011654,-80496.8584557915,-2412.1120504832
5371875093,4452,1,0,-6717.3230434670,-80246.0213857866,-32237.3758197295,-12642.2369990367,-80524.0897612813,-48121.5374571804,-80466.8042446389,-80453.5292874051,-80497.3816667549,-2412.7447707180
5371875093,4452,1,0,-6718.4546392715,-80246.3012428135,-32215.2914499958,-12641.9084712225,-80529.4313801866,-48327.0011857326,-80468.7997469179,-80455.6342989554,-80497.9657162024,-2416.6140983077
5371875093,4452,1,0,-6718.3816330906,-80247.2381554689,-32203.9511565568,-12642.4681852764,-80532.3881305145,-48300.1349111475,-80469.7488272700,-80455.6708020459,-80498.9147965546,-2418.0012157455
5371906337,4453,1,0,-6717.4690558289,-80246.0457211802,-32219.2581191601,-12641.7624588606,-80528.4701321376,-48082.0654486868,-80467.6924865070,-80454.4783677572,-80496.4690894932,-2415.4703348063
5371906337,4453,1,0,-6717.1770311051,-80244.1110573854,-32242.2915692459,-12641.5434403178,-80523.2745255942,-47960.4736543351,-80466.2932013723,-80452.2638469355,-80496.2622386472,-2412.6595968402
5371906337,4453,1,0,-6717.6637389780,-80245.0723054344,-32241.0747995636,-12641.4704341369,-80523.2745255942,-48096.1799770014,-80466.8894185166,-80452.6167101433,-80496.9314619725,-2412.1972243610
5371906337,4453,1,0,-6718.8561732667,-80246.4350874786,-32218.7349081967,-12641.7867942543,-80529.1636908565,-48313.1665144449,-80469.7609949669,-80455.6342989554,-80498.9878027356,-2415.3243224445
5371906337,4453,1,0,-6718.1017760637,-80247.3233293467,-32203.0264115983,-12641.9449743130,-80531.9257580353,-48321.0390142894,-80468.9457592797,-80455.6464666523,-80498.5010948626,-2417.9768803519
5371906337,4453,1,0,-6717.5055589194,-80246.3620812976,-32216.6055612527,-12640.8133785085,-80529.5530571548,-48109.7956297463,-80467.7168219006,-80452.6410455370,-80496.7854496106,-2414.8011114811
5371906337,4453,1,0,-6717.7610805526,-80245.4251686423,-32241.0991349573,-12641.0567324449,-80523.8950781321,-47961.3375608095,-80467.2909525118,-80453.8699829161,-80496.9314619725,-2412.4770813879
5371906337,4453,1,0,-6717.2500372861,-80244.8411191948,-32244.2992392217,-12641.5921111051,-80523.3353640783,-48073.2682038838,-80467.1936109372,-80452.7748902020,-80497.2843251804,-2412.7569384148
5371916345,4454,1,0,-6717.4203850416,-80245.4251686423,-32222.8232543292,-12641.4095956528,-80527.0221762156,-48297.0929869418,-80467.6316480228,-80454.2836846081,-80496.9679650630,-2415.3973286254
5371916345,4454,1,0,-6716.8606709877,-80244.6342683488,-32205.2896032074,-12641.6407818924,-80529.6747341230,-48338.4266530493,-80467.3396232991,-80453.9916598843,-80497.1991513026,-2417.4658370853
5371916345,4454,1,0,-6718.3086269097,-80245.2183177963,-32216.3500396194,-12641.7867942543,-80529.2610324311,-48146.1283724596,-80467.4978033578,-80454.2471815176,-80497.8075361437,-2417.3928309044
5371916345,4454,1,0,-6718.1626145478,-80245.3764978550,-32240.9287872018,-12642.2735021272,-80523.7855688607,-47973.8094500531,-80466.7190707611,-80452.8113932925,-80496.5420956742,-2413.5600064051
5371916345,4454,1,0,-6716.8485032909,-80243.5878464220,-32246.5259277403,-12641.1419063227,-80522.0820913055,-48051.2203372406,-80466.1715244041,-80451.6554620943,-80495.3861644760,-2411.9660381213
5371916345,4454,1,0,-6718.7223286016,-80244.8654545884,-32227.5564883933,-12642.5533591541,-80526.1461020444,-48281.0437948323,-80467.2787848150,-80453.9064860066,-80496.7246111265,-2415.1053039016
5371916345,4454,1,0,-6718.3572976970,-80244.8532868916,-32207.8813226307,-12641.8111296479,-80530.2952866610,-48355.9968072617,-80468.4103806195,-80454.5513739382,-80497.0409712439,-2418.0498865328
5371916345,4454,1,0,-6717.2500372861,-80244.9506284662,-32213.1621030518,-12640.8377139021,-80528.8716661327,-48176.8761423311,-80467.2057786340,-80454.1741753367,-80496.6272695519,-2415.8231980142
5371959368,4455,1,0,-6718.4789746652,-80245.2061500995,-32239.3104835243,-12641.0445647481,-80525.4282079318,-47986.6342025044,-80468.0210143212,-80453.9064860066,-80496.2987417377,-2412.9881246545
5371959368,4455,1,0,-6717.5177266162,-80245.8023672438,-32249.2149887382,-12640.5456891783,-80523.8585750417,-48036.5582625690,-80468.0453497148,-80453.2372626813,-80497.5520145105,-2412.7569384148
5371959368,4455,1,0,-6717.6515712812,-80246.4594228722,-32231.7421761004,-12642.0058127971,-80527.4845486949,-48258.3753756512,-80468.5320575877,-80454.4662000604,-80498.2212378357,-2414.6672668160
5371959368,4455,1,0,-6717.8949252177,-80245.4495040359,-32208.3923658972,-12641.4460987432,-80530.4656344165,-48361.8251340399,-80468.7875792210,-80454.6122124223,-80497.5763499041,-2417.0156323028
5371959368,4455,1,0,-6718.0044344891,-80245.6320194883,-32211.6289732521,-12641.5191049242,-80530.5751436879,-48210.9213580417,-80468.7024053433,-80454.9407402365,-80498.0387223834,-2416.0178811634
5371959368,4455,1,0,-6717.9922667923,-80246.0578888771,-32236.6944287074,-12641.5191049242,-80526.9613377315,-48003.5594687851,-80468.2156974703,-80454.3080200017,-80498.0387223834,-2414.7159376033
5371959368,4455,1,0,-6717.7975836431,-80246.0457211802,-32250.6264415696,-12641.2514155941,-80523.4570410465,-48016.0800288160,-80468.2156974703,-80453.8091444320,-80497.0409712439,-2411.8930319404
5371959368,4455,1,0,-6717.4568881321,-80245.7293610629,-32233.9566969222,-12641.1419063227,-80525.4768787191,-48234.3441744259,-80467.5829772356,-80453.5292874051,-80496.5177602805,-2413.5356710115
5371996176,4456,1,0,-6717.8219190367,-80245.5346779137,-32211.7141471299,-12641.3730925623,-80530.0032619373,-48370.1113355763,-80467.9601758371,-80454.3931938795,-80496.7732819138,-2416.2734027966
5371996176,4456,1,0,-6717.7732482495,-80244.7802807107,-32210.7407313840,-12641.5556080147,-80530.5386405975,-48239.8196379962,-80467.7411572943,-80453.9673244907,-80497.5276791168,-2417.0399676965
5371996176,4456,1,0,-6717.8219190367,-80245.6320194883,-32235.0517896363,-12642.5776945478,-80526.9126669442,-48021.5068215990,-80467.3274556023,-80454.0038275812,-80497.1383128185,-2415.5676763809
5371996176,4456,1,0,-6717.7854159463,-80245.5103425200,-32248.5457654129,-12641.3852602591,-80522.3984514229,-47999.0817563543,-80466.9867600912,-80453.2737657718,-80496.2379032536,-2413.0611308354
5371996176,4456,1,0,-6717.5298943130,-80244.0623865981,-32235.4168205410,-12641.9936451003,-80525.0631770271,-48201.1993682802,-80467.1692755436,-80452.8235609893,-80495.6051830188,-2413.9372050066
5371996176,4456,1,0,-6718.2721238192,-80245.8145349406,-32211.0449238046,-12641.8354650416,-80530.0762681182,-48362.7863820889,-80468.3617098322,-80455.0989202952,-80498.2090701389,-2416.4559182490
5371996176,4456,1,0,-6718.1261114573,-80244.9384607694,-32205.2896032074,-12641.1297386259,-80530.0397650277,-48267.5619867525,-80467.4613002673,-80454.2471815176,-80496.6272695519,-2417.4171662980
5371996176,4456,1,0,-6719.3063780491,-80245.8145349406,-32228.7975934693,-12642.8575515747,-80526.9613377315,-48041.4496766918,-80467.0841016658,-80453.6996351606,-80497.3938344518,-2416.5045890363
5372016485,4457,1,0,-6718.6979932080,-80246.2525720262,-32246.0392198674,-12641.9206389193,-80522.9581654768,-47986.6950409886,-80467.1692755436,-80454.4540323636,-80497.0166358502,-2412.9637892608
5372016485,4457,1,0,-6717.8219190367,-80245.0601377376,-32236.1590500472,-12641.8719681320,-80525.0631770271,-48176.2312543995,-80468.3495421354,-80453.9064860066,-80497.2356543931,-2413.4383294369
5372016485,4457,1,0,-6717.2257018924,-80245.7171933660,-32210.6068867190,-12641.1784094131,-80529.0176784946,-48357.8949679660,-80467.0719339690,-80453.9794921875,-80497.1139774248,-2415.5311732904
5372016485,4457,1,0,-6717.7610805526,-80244.7924484075,-32203.4766163807,-12641.3122540782,-80531.8892549448,-48291.6296910683,-80469.2864547908,-80454.0038275812,-80497.9170454151,-2416.4802536426
5372016485,4457,1,0,-6718.1261114573,-80245.4373363391,-32223.0787759625,-12642.0179804939,-80528.6769829835,-48065.7850703377,-80468.9700946734,-80454.9164048429,-80498.2334055325,-2414.6550991192
5372016485,4457,1,0,-6718.2964592128,-80245.5590133073,-32243.9220406202,-12642.2491667336,-80524.0897612813,-47982.0226454085,-80467.9236727466,-80453.8943183097,-80497.2721574835,-2413.7546895543
5372016485,4457,1,0,-6718.0409375796,-80245.2426531899,-32238.1545523261,-12641.5069372274,-80524.2601090368,-48146.4447325770,-80467.6681511133,-80453.2007595908,-80496.7367788233,-2413.7303541607
5372016485,4457,1,0,-6717.2257018924,-80244.4152498060,-32213.0404260836,-12641.5434403178,-80528.5553060153,-48345.3987433289,-80467.5829772356,-80454.0768337621,-80497.7223622660,-2415.1053039016
5372077676,4458,1,0,-6717.9192606113,-80244.3909144123,-32201.7244680382,-12641.8598004352,-80530.7941622307,-48315.3566998730,-80466.8650831230,-80453.5292874051,-80496.6637726424,-2417.4171662980
5372077676,4458,1,0,-6718.4303038779,-80244.2327343536,-32219.1851129792,-12641.3730925623,-80527.5697225727,-48091.8969477197,-80467.2057786340,-80452.9817410480,-80496.5542633710,-2415.9935457697
5372077676,4458,1,0,-6718.0287698827,-80244.3787467155,-32241.6953521016,-12641.9571420098,-80523.2380225037,-47974.8437042830,-80467.1084370595,-80452.8722317766,-80496.3474125250,-2413.8641988257
5372077676,4458,1,0,-6717.6759066749,-80244.9749638598,-32240.2108930892,-12641.7746265575,-80523.1650163227,-48119.5419549014,-80467.1206047563,-80453.0669149258,-80496.3109094345,-2413.0002923513
5372077676,4458,1,0,-6717.0796895305,-80244.4030821092,-32215.9850087147,-12640.6430307529,-80526.5598037364,-48331.0408610778,-80467.2422817245,-80453.0425795321,-80496.0188847108,-2414.4725836668
5372077676,4458,1,0,-6718.1869499414,-80245.2548208868,-32202.1381697302,-12641.6042788019,-80530.9158391990,-48330.4933147208,-80468.8240823115,-80454.9772433270,-80497.0653066375,-2417.7578618090
5372077676,4458,1,0,-6717.7367451590,-80244.7559453170,-32215.3644561768,-12641.4704341369,-80529.2366970374,-48118.0453281922,-80467.6803188101,-80454.9042371461,-80498.2699086230,-2416.5897629140
5372077676,4458,1,0,-6717.5907327971,-80244.6342683488,-32238.8237756514,-12641.0810678386,-80523.8950781321,-47974.2231517450,-80466.9502570008,-80453.2615980750,-80496.4690894932,-2413.5356710115
5372081484,4459,1,0,-6717.7854159463,-80243.9650450235,-32240.8922841113,-12641.3974279560,-80523.5665503179,-48089.1835513282,-80467.4613002673,-80453.2129272877,-80497.6493560851,-2412.8907830799
5372081484,4459,1,0,-6718.2477884255,-80245.5711810042,-32218.2847034143,-12641.9449743130,-80527.9347534773,-48314.3954518240,-80468.1670266830,-80454.0281629748,-80497.6493560851,-2415.5555086841
5372081484,4459,1,0,-6717.7002420685,-80245.8267026374,-32201.2985986494,-12641.9206389193,-80531.6824040988,-48353.6971125621,-80469.4933056368,-80455.7803113173,-80498.5254302563,-2417.3563278139
5372081484,4459,1,0,-6717.9557637018,-80245.4373363391,-32211.4829608902,-12641.6651172861,-80530.5751436879,-48152.6745933503,-80468.3860452259,-80455.2449326571,-80498.8539580705,-2416.3220735839
5372081484,4459,1,0,-6717.6150681908,-80246.5810998405,-32234.7354295189,-12642.2369990367,-80526.0000896825,-47982.5823594624,-80469.0552685511,-80454.8068955715,-80498.1847347453,-2414.0832173685
5372081484,4459,1,0,-6717.4812235257,-80245.5468456105,-32238.1058815388,-12641.3609248655,-80523.6273888020,-48066.5881383280,-80467.6803188101,-80453.1885918940,-80497.5641822073,-2412.0755473927
5372081484,4459,1,0,-6717.5907327971,-80244.8654545884,-32215.4252946609,-12641.8354650416,-80527.1073500934,-48290.6197722320,-80467.2787848150,-80453.5657904955,-80497.2599897867,-2414.7767760874
5372081484,4459,1,0,-6718.5276454525,-80244.2570697473,-32195.2634210253,-12641.9936451003,-80530.1857773896,-48356.0211426553,-80467.5708095387,-80454.6852186032,-80497.0896420312,-2417.2589862393
5372110162,4460,1,0,-6718.1017760637,-80244.0502189013,-32201.5419525859,-12641.2879186845,-80528.7864922549,-48177.3141794168,-80466.9502570008,-80453.8821506129,-80496.7002757329,-2416.6384337013
5372110162,4460,1,0,-6717.1526957115,-80243.7825295712,-32225.1959552097,-12641.1905771100,-80524.6616430320,-47988.0456553359,-80466.2080274946,-80451.8136421530,-80496.3352448282,-2413.9250373098
5372110162,4460,1,0,-6717.6394035844,-80244.7194422265,-32233.5916660175,-12641.5921111051,-80522.8851592958,-48035.5605114295,-80467.0597662722,-80453.2007595908,-80496.7854496106,-2413.0732985322
5372110162,4460,1,0,-6718.2112853351,-80244.9262930725,-32213.4662954724,-12641.7137880734,-80525.7202326556,-48259.4948037589,-80467.7898280815,-80454.7095539969,-80498.2090701389,-2414.4360805764
5372110162,4460,1,0,-6717.7002420685,-80246.2404043294,-32191.5279381006,-12641.8354650416,-80530.8915038053,-48359.5376070371,-80468.6172314655,-80455.2814357476,-80498.4889271658,-2417.0277999997
5372110162,4460,1,0,-6717.8340867336,-80246.3255782072,-32193.8763035874,-12641.3487571687,-80532.2664535463,-48200.1772817471,-80469.6514856955,-80455.6099635618,-80497.9535485056,-2416.5167567331
5372110162,4460,1,0,-6718.0774406700,-80247.6031863736,-32217.4207969398,-12641.5677757115,-80528.3971259566,-47996.5022046278,-80469.1282747321,-80455.2692680507,-80499.5231813958,-2415.1053039016
5372110162,4460,1,0,-6717.4447204352,-80246.7149445055,-32229.4789844914,-12641.5069372274,-80525.1848539954,-48019.1462884153,-80469.7731626637,-80454.7582247842,-80497.8683746279,-2413.3044847718
5372139205,4461,1,0,-6716.9458448655,-80245.8997088184,-32213.8921648612,-12640.5091860879,-80526.3407851935,-48240.5740351992,-80469.1526101257,-80454.8190632683,-80497.7710330533,-2413.1098016227
5372139205,4461,1,0,-6718.0774406700,-80246.7757829896,-32191.0899010150,-12641.3000863814,-80531.3173731941,-48371.2794344713,-80470.0530196906,-80455.7681436205,-80498.6836103150,-2416.0908873443
5372139205,4461,1,0,-6718.3694653938,-80247.4936771022,-32191.4427642229,-12641.8963035257,-80533.7509125587,-48241.3162647054,-80471.4523048252,-80457.1430933615,-80499.1946535816,-2418.1837311978
5372139205,4461,1,0,-6718.2477884255,-80246.6419383246,-32214.7439036388,-12641.8841358289,-80527.8739149932,-48024.1958825969,-80469.3716286685,-80456.2548514934,-80498.8782934642,-2415.2999870508
5372139205,4461,1,0,-6718.6371547239,-80246.8001183833,-32229.6249968532,-12641.7137880734,-80525.5863879905,-48008.7307399349,-80470.2720382334,-80455.3179388380,-80498.4524240754,-2413.4748325274
5372139205,4461,1,0,-6718.4059684842,-80247.1286461975,-32215.4374623577,-12642.4073467923,-80526.8396607633,-48218.1246345609,-80469.0187654607,-80455.6951374395,-80498.4767594690,-2415.4338317159
5372139205,4461,1,0,-6717.8949252177,-80246.7879506864,-32190.7857085944,-12641.3609248655,-80531.1105223481,-48375.7449792053,-80469.1769455194,-80454.9529079333,-80498.4280886817,-2416.7236075791
5372139205,4461,1,0,-6717.7854159463,-80246.1430627548,-32187.0623933666,-12640.7282046307,-80531.4998886465,-48270.8472648947,-80468.9700946734,-80456.2791868870,-80497.8197038406,-2416.3585766744
5372189349,4462,1,0,-6718.0896083669,-80245.1453116154,-32209.3049431589,-12641.1054032322,-80527.5332194822,-48047.6917051620,-80468.2278651672,-80453.9429890970,-80497.3451636645,-2415.3486578381
5372189349,4462,1,0,-6718.1261114573,-80245.3399947645,-32226.5587372539,-12641.6651172861,-80523.6152211052,-48002.1601836505,-80467.0597662722,-80453.1520888035,-80496.7854496106,-2412.8421122926
5372189349,4462,1,0,-6717.7245774622,-80245.4981748232,-32216.6907351305,-12641.4826018337,-80525.1605186017,-48192.9740052279,-80467.1936109372,-80453.2981011654,-80497.0531389407,-2414.3265713050
5372189349,4462,1,0,-6718.1382791541,-80245.5225102169,-32191.6131119784,-12642.2126636431,-80529.4557155802,-48371.2064282903,-80468.8849207956,-80454.8799017524,-80497.8197038406,-2415.6771856523
5372189349,4462,1,0,-6718.0409375796,-80245.1209762217,-32182.6698548135,-12641.8232973448,-80530.5508082943,-48301.4976931917,-80468.5077221941,-80455.3909450190,-80497.5033437232,-2416.9669615156
5372189349,4462,1,0,-6717.8219190367,-80246.4715905691,-32201.9921573683,-12641.8111296479,-80528.7378214677,-48072.9275083727,-80468.3373744386,-80453.7726413415,-80497.9657162024,-2415.3243224445
5372189349,4462,1,0,-6717.5177266162,-80244.7194422265,-32221.1806152581,-12641.3852602591,-80523.6760595893,-47990.9293994829,-80467.0475985753,-80454.5148708477,-80497.2113189994,-2413.3044847718
5372189349,4462,1,0,-6717.5907327971,-80245.0723054344,-32214.1720218881,-12640.7282046307,-80524.2236059463,-48163.1996511021,-80466.7677415484,-80452.7870578989,-80496.6029341583,-2414.1075527622
5372195767,4463,1,0,-6717.0675218337,-80244.4274175028,-32188.7902063155,-12641.3244217750,-80528.2754489884,-48360.6205320544,-80466.3418721596,-80452.9574056544,-80495.9823816203,-2415.0444654175
5372195767,4463,1,0,-6717.2743726797,-80245.0723054344,-32177.4012420892,-12641.5312726210,-80531.1226900450,-48319.3598721278,-80466.9015862135,-80454.3688584858,-80497.6371883882,-2417.2589862393
5372195767,4463,1,0,-6718.7709993889,-80245.3278270677,-32193.0610679003,-12641.5556080147,-80528.6891506804,-48094.4764994462,-80468.7389084337,-80454.6243801191,-80497.2599897867,-2416.1760612221
5372195767,4463,1,0,-6717.8219190367,-80245.1939824026,-32213.6123078343,-12641.5556080147,-80524.5034629733,-47982.4606824942,-80468.4590514068,-80454.4540323636,-80497.8562069310,-2413.6451802829
5372195767,4463,1,0,-6717.6759066749,-80245.2669885836,-32208.4410366845,-12640.8742169926,-80523.2015194132,-48125.1025923495,-80466.4392137342,-80453.4197781337,-80496.6029341583,-2412.6960999307
5372195767,4463,1,0,-6718.0409375796,-80245.5346779137,-32183.3755812292,-12641.5921111051,-80529.1150200692,-48336.1391260466,-80468.2400328640,-80454.7825601778,-80497.6006852977,-2416.4924213395
5372195767,4463,1,0,-6717.9800990954,-80246.2769074199,-32169.1028728559,-12642.1518251590,-80531.9500934289,-48334.4964869755,-80468.7510761306,-80455.7073051364,-80498.2212378357,-2417.8187002932
5372195767,4463,1,0,-6717.3960496479,-80244.5977652583,-32181.7086067645,-12641.4095956528,-80529.2488647342,-48117.5342849256,-80468.5198898909,-80454.1011691557,-80497.0409712439,-2416.4315828553
5372237702,4464,1,0,-6717.7975836431,-80245.5833487010,-32204.1580074028,-12641.6894526797,-80524.5643014574,-47976.9608835302,-80467.4491325705,-80452.9330702607,-80496.7489465202,-2414.3387390018
5372237702,4464,1,0,-6717.8340867336,-80245.5225102169,-32203.8173118918,-12641.7746265575,-80523.7125626798,-48097.3724112900,-80467.3882940864,-80453.2859334686,-80496.9436296693,-2413.6451802829
5372237702,4464,1,0,-6718.1382791541,-80245.7171933660,-32181.5990974931,-12642.4681852764,-80528.3484551693,-48318.5568041375,-80468.1426912894,-80454.7825601778,-80498.2090701389,-2416.0057134665
5372237702,4464,1,0,-6718.3451300001,-80245.3521624613,-32163.7612539507,-12641.9328066162,-80531.8527518543,-48347.0535500968,-80468.6172314655,-80455.2327649603,-80498.2577409262,-2417.6726879313
5372237702,4464,1,0,-6717.2378695892,-80245.6685225787,-32174.6026718199,-12641.9571420098,-80529.6503987294,-48147.1626266895,-80467.9236727466,-80454.5878770287,-80497.2234866962,-2415.9935457697
5372237702,4464,1,0,-6716.9945156528,-80244.8532868916,-32198.3905191088,-12641.2514155941,-80524.4669598828,-47984.5778617414,-80467.4004617832,-80452.4706977815,-80495.8972077425,-2412.7447707180
5372237702,4464,1,0,-6717.7610805526,-80244.7316099234,-32204.3405228552,-12641.4217633496,-80522.7878177212,-48073.6697378789,-80467.5343064483,-80453.1642565004,-80496.0432201044,-2413.7425218575
5372237702,4464,1,0,-6717.4325527384,-80245.3034916740,-32182.1101407597,-12641.7016203765,-80526.9978408220,-48299.0884892208,-80467.3639586927,-80453.2981011654,-80496.8827911852,-2415.7623595301
5372302684,4465,1,0,-6718.1504468510,-80244.8532868916,-32162.5323165715,-12641.8354650416,-80530.6603175657,-48364.1856672235,-80468.4468837100,-80454.5027031509,-80497.1869836058,-2417.7578618090
5372302684,4465,1,0,-6717.2865403765,-80244.6707714393,-32170.8550211984,-12640.8377139021,-80528.8473307391,-48178.7256322482,-80467.5951449324,-80453.6631320701,-80496.2987417377,-2416.8696199410
5372302684,4465,1,0,-6719.1725333841,-80246.0092180898,-32196.2125013774,-12642.5898622446,-80526.3651205872,-47994.7135531949,-80469.2134486098,-80455.1475910825,-80496.9923004566,-2415.1783100826
5372302684,4465,1,0,-6718.5398131493,-80245.8753734247,-32205.2044293296,-12640.9593908703,-80524.6859784256,-48055.5277019159,-80467.8750019593,-80454.5148708477,-80498.4767594690,-2413.8033603416
5372302684,4465,1,0,-6717.8584221272,-80245.5225102169,-32187.3179149999,-12641.3730925623,-80527.0343439125,-48281.1411364069,-80467.7289895974,-80454.4540323636,-80497.3694990581,-2414.5820929383
5372302684,4465,1,0,-6717.7002420685,-80246.3134105104,-32167.5210722690,-12641.0932355354,-80531.3538762846,-48374.2118494056,-80468.9214238861,-80455.3666096253,-80498.0508900802,-2417.4293339948
5372302684,4465,1,0,-6717.6150681908,-80246.6541060214,-32172.0474554871,-12641.2757509877,-80531.9379257321,-48211.9069414844,-80469.6393179986,-80456.3035222807,-80498.3915855912,-2416.6506013982
5372302684,4465,1,0,-6718.3694653938,-80246.7879506864,-32197.5752834216,-12641.8963035257,-80527.6548964504,-48008.5360567857,-80468.8362500083,-80455.4517835031,-80498.6471072245,-2415.2513162635
5372314368,4466,1,0,-6717.2500372861,-80246.1673981485,-32209.7551479414,-12640.8377139021,-80523.7247303766,-48033.8692015711,-80467.1449401499,-80453.5536227987,-80497.0531389407,-2413.5113356178
5372314368,4466,1,0,-6717.6029004939,-80245.0844731312,-32194.1804960080,-12641.2879186845,-80525.5863879905,-48259.9571762382,-80467.0841016658,-80453.3589396495,-80496.4812571900,-2414.1318881558
5372314368,4466,1,0,-6718.3329623033,-80244.7316099234,-32174.1402993406,-12641.9936451003,-80529.9910942404,-48393.2421272367,-80466.8529154262,-80454.1011691557,-80496.7489465202,-2417.2833216329
5372314368,4466,1,0,-6718.5763162398,-80245.3521624613,-32175.9654538641,-12642.4560175796,-80530.8063299276,-48258.7647419495,-80467.9115050498,-80453.9429890970,-80497.0288035471,-2417.3441601171
5372314368,4466,1,0,-6717.5055589194,-80245.4008332486,-32199.0962455245,-12641.0932355354,-80525.8540773206,-48041.2914966331,-80466.7312384579,-80452.4341946910,-80496.7732819138,-2414.5455898478
5372314368,4466,1,0,-6717.8219190367,-80244.7559453170,-32214.0260095262,-12641.1297386259,-80522.2524390610,-48031.5695068716,-80465.7699904089,-80451.8014744562,-80495.5808476251,-2412.7934415053
5372314368,4466,1,0,-6717.1040249242,-80244.4882559869,-32200.8483938670,-12641.9449743130,-80524.4304567923,-48238.3108435902,-80466.6095614897,-80453.0912503194,-80495.7633630775,-2413.8033603416
5372314368,4466,1,0,-6718.2721238192,-80244.1597281727,-32176.9388696099,-12641.1297386259,-80529.1636908565,-48387.3407942776,-80466.7677415484,-80453.3346042559,-80496.3230771313,-2416.1395581316
5372321535,4467,1,0,-6717.4933912225,-80245.4251686423,-32173.9091131010,-12641.6529495892,-80530.4412990229,-48282.6255954193,-80467.8628342625,-80455.1354233857,-80497.5276791168,-2417.6240171440
5372321535,4467,1,0,-6717.1405280147,-80243.2836540014,-32195.8231350791,-12640.6917015402,-80526.8518284601,-48057.9125704932,-80466.6947353675,-80452.7262194147,-80497.1018097280,-2414.5212544541
5372321535,4467,1,0,-6718.8683409635,-80246.1430627548,-32214.5735558833,-12642.5411914573,-80524.2966121273,-48011.2616208741,-80468.4347160132,-80453.9794921875,-80497.6736914787,-2414.5334221510
5372321535,4467,1,0,-6718.5519808461,-80245.0723054344,-32203.7564734077,-12641.7989619511,-80525.1118478144,-48201.5887345785,-80467.7776603847,-80454.3688584858,-80497.9413808088,-2415.0079623271
5372321535,4467,1,0,-6716.8485032909,-80245.1453116154,-32177.7419376002,-12641.1297386259,-80529.0298461914,-48372.3136887012,-80466.5973937929,-80454.2350138208,-80496.6516049456,-2416.2368997062
5372321535,4467,1,0,-6717.7854159463,-80245.3764978550,-32170.3561456287,-12641.4826018337,-80530.9645099863,-48291.5566848874,-80468.2887036513,-80454.9285725397,-80497.9170454151,-2417.5266755694
5372321535,4467,1,0,-6717.0310187433,-80244.8046161043,-32187.5856043300,-12640.3510060292,-80527.4237102108,-48065.1523501029,-80467.8871696561,-80453.8821506129,-80496.8706234884,-2414.8497822684
5372321535,4467,1,0,-6717.9435960050,-80246.3255782072,-32209.5604647922,-12641.1297386259,-80524.4669598828,-47995.2854349456,-80468.3738775290,-80455.2692680507,-80498.3550825008,-2413.5843417988
5372358906,4468,1,0,-6718.3694653938,-80247.0678077134,-32202.7708899650,-12642.0301481907,-80526.5354683427,-48171.3520079735,-80470.3937152017,-80456.3156899775,-80499.0851443102,-2415.1418069921
5372358906,4468,1,0,-6718.1747822446,-80247.0678077134,-32177.2917328178,-12641.6164464988,-80530.1614419960,-48362.9202267539,-80469.8340011478,-80455.7559759237,-80499.6570260608,-2416.2125643125
5372358906,4468,1,0,-6719.3915519269,-80246.9704661388,-32166.6328304009,-12642.8088807874,-80533.4345524413,-48319.2260274627,-80470.1503612652,-80456.6685531854,-80499.2676597625,-2418.2202342883
5372358906,4468,1,0,-6717.9435960050,-80247.1894846816,-32183.7771152244,-12641.1175709290,-80529.6747341230,-48092.8216926783,-80469.1404424289,-80454.9894110238,-80497.3694990581,-2416.2125643125
5372358906,4468,1,0,-6717.5663974035,-80245.7293610629,-32204.7785599408,-12641.2149125036,-80524.4547921860,-47984.5170232572,-80468.7267407369,-80454.4662000604,-80498.1117285643,-2412.9637892608
5372358906,4468,1,0,-6717.6272358876,-80246.4472551754,-32200.4590275687,-12641.4460987432,-80526.0974312571,-48137.5744815930,-80468.2278651672,-80454.8920694492,-80498.0022192929,-2413.4504971337
5372358906,4468,1,0,-6717.5420620098,-80247.2868262562,-32177.7297699034,-12641.7381234670,-80530.2222804801,-48346.7006868889,-80469.3594609717,-80455.2814357476,-80497.8318715374,-2415.9570426792
5372358906,4468,1,0,-6717.4447204352,-80246.3012428135,-32164.4791480632,-12641.6042788019,-80532.3881305145,-48331.9412706427,-80469.3959640622,-80455.5977958650,-80497.8197038406,-2416.2612350998
5372386546,4469,1,0,-6717.9435960050,-80246.0092180898,-32178.5936763778,-12641.4947695305,-80530.3561251451,-48114.2125036930,-80468.6902376464,-80455.8289821046,-80498.8782934642,-2416.7844460632
5372386546,4469,1,0,-6717.8705898240,-80246.0822242707,-32202.2720143953,-12641.4460987432,-80525.0510093303,-47980.5503540930,-80467.9358404434,-80454.2593492144,-80497.7466976596,-2413.4261617401
5372386546,4469,1,0,-6718.2356207287,-80246.0213857866,-32203.5009517744,-12642.0423158876,-80524.8806615748,-48104.0768122395,-80469.3959640622,-80454.7703924810,-80498.5862687404,-2413.6208448892
5372386546,4469,1,0,-6718.8318378731,-80247.0678077134,-32179.2020612190,-12642.1518251590,-80528.2754489884,-48321.7447407051,-80468.8849207956,-80454.9407402365,-80498.2212378357,-2415.0322977207
5372386546,4469,1,0,-6717.1526957115,-80244.8532868916,-32162.5688196620,-12639.8642981563,-80531.2321993164,-48346.7615253731,-80467.7533249911,-80454.0281629748,-80496.7732819138,-2416.2734027966
5372386546,4469,1,0,-6716.7754971100,-80244.4639205933,-32174.3593178834,-12640.4118445133,-80528.5066352280,-48138.4992265516,-80467.9236727466,-80454.0281629748,-80496.6272695519,-2415.7015210460
5372386546,4469,1,0,-6717.4933912225,-80244.8289514980,-32198.4391898960,-12641.5312726210,-80524.3939537019,-47974.8072011925,-80466.9624246976,-80452.9695733512,-80496.6637726424,-2413.4261617401
5372386546,4469,1,0,-6717.6150681908,-80245.2061500995,-32202.4423621508,-12641.4704341369,-80523.4327056529,-48070.8589999128,-80467.5951449324,-80453.7483059479,-80496.9071265788,-2412.9759569576
5372433732,4470,1,0,-6717.3352111638,-80245.1209762217,-32180.7351910187,-12640.6430307529,-80527.7644057218,-48297.0443161545,-80468.3860452259,-80454.8799017524,-80498.2577409262,-2414.4360805764
5372433732,4470,1,0,-6717.9070929145,-80246.4715905691,-32161.7414162781,-12641.6407818924,-80532.7531614192,-48352.1153119751,-80469.2864547908,-80456.8997394250,-80498.8661257673,-2417.2711539361
5372433732,4470,1,0,-6717.6029004939,-80247.4571740117,-32170.1614624795,-12641.1419063227,-80531.5485594338,-48162.5182600801,-80469.4689702431,-80456.2061807061,-80499.0729766133,-2416.9791292124
5372433732,4470,1,0,-6718.4789746652,-80246.0092180898,-32194.1804960080,-12641.2149125036,-80526.5598037364,-47979.9054661614,-80469.2742870939,-80454.1498399430,-80498.2455732294,-2413.9493727035
5372433732,4470,1,0,-6717.7975836431,-80246.0213857866,-32201.0430770162,-12641.0567324449,-80524.8684938780,-48039.5150128969,-80468.1791943799,-80454.6000447255,-80498.3794178944,-2413.0732985322
5372433732,4470,1,0,-6718.2356207287,-80246.2282366326,-32181.6234328867,-12641.1540740195,-80527.9955919615,-48266.2722108893,-80468.9700946734,-80455.6708020459,-80498.3915855912,-2415.1904777794
5372433732,4470,1,0,-6717.6880743717,-80247.6031863736,-32160.9748513782,-12641.8476327384,-80532.0109319130,-48359.3064207975,-80470.3450444144,-80457.2647703297,-80499.4501752148,-2417.5631786599
5372433732,4470,1,0,-6716.9945156528,-80246.3985843881,-32166.1947933153,-12641.5556080147,-80531.8770872480,-48191.7450678488,-80468.6172314655,-80455.1719264761,-80498.4159209849,-2416.6506013982
5372465138,4471,1,0,-6716.9823479560,-80246.7271122023,-32190.1043175723,-12641.2879186845,-80525.6958972619,-47990.0168222212,-80468.6050637687,-80455.1719264761,-80498.2820763198,-2414.0223788844
5372465138,4471,1,0,-6717.4812235257,-80245.8145349406,-32201.2134247717,-12640.7403723275,-80523.8464073448,-48020.9106044547,-80467.9358404434,-80453.7239705542,-80497.3451636645,-2413.0246277449
5372465138,4471,1,0,-6719.0386887190,-80246.1187273612,-32185.2250711463,-12641.7989619511,-80527.4480456044,-48241.7664694879,-80468.1305235926,-80454.0281629748,-80497.6128529946,-2415.3973286254
5372465138,4471,1,0,-6718.4424715747,-80246.6054352341,-32162.3984719065,-12641.8719681320,-80531.3052054973,-48357.7489556042,-80468.3008713481,-80456.0845037379,-80498.1969024421,-2417.2833216329
5372465138,4471,1,0,-6717.9192606113,-80246.0092180898,-32163.9559370998,-12641.9206389193,-80532.0961057908,-48218.0881314704,-80469.4081317590,-80455.0745849016,-80498.8782934642,-2417.1494769679
5372465138,4471,1,0,-6717.6637389780,-80245.4860071264,-32187.7316166919,-12641.8598004352,-80526.7423191887,-48004.3990398659,-80469.0917716416,-80454.6608832096,-80497.4181698454,-2414.5699252414
5372465138,4471,1,0,-6717.9070929145,-80245.3034916740,-32200.8240584733,-12640.9228877799,-80522.7513146308,-47997.3539434054,-80468.3008713481,-80452.8235609893,-80497.4425052391,-2412.1850566641
5372465138,4471,1,0,-6717.8827575209,-80245.3521624613,-32186.3810023445,-12641.2149125036,-80525.8297419270,-48207.8550984423,-80468.3617098322,-80454.9285725397,-80497.6615237819,-2413.1584724100
5372491443,4472,1,0,-6717.6880743717,-80245.3521624613,-32162.3132980287,-12640.5943599656,-80529.8572495754,-48356.8242106456,-80467.6924865070,-80454.8068955715,-80497.3451636645,-2415.3973286254
5372491443,4472,1,0,-6717.6637389780,-80245.1331439185,-32158.5291443168,-12641.3730925623,-80531.1226900450,-48241.2310908277,-80468.9092561893,-80455.3179388380,-80497.0409712439,-2417.3319924202
5372491443,4472,1,0,-6718.2356207287,-80245.3886655518,-32181.5747620994,-12641.9693097066,-80527.4115425140,-48015.6419917303,-80467.9601758371,-80454.2350138208,-80498.4402563785,-2415.0809685080
5372491443,4472,1,0,-6717.9922667923,-80246.8609568674,-32198.2323390501,-12642.2491667336,-80524.9415000589,-47978.7251995695,-80468.5928960719,-80454.4540323636,-80497.9778838993,-2413.9007019162
5372491443,4472,1,0,-6718.5641485429,-80246.3499136008,-32186.4540085254,-12642.9183900588,-80526.4259590713,-48173.2258332843,-80468.1426912894,-80454.1863430335,-80498.5375979531,-2414.9836269334
5372491443,4472,1,0,-6717.3595465575,-80244.6707714393,-32158.7846659501,-12641.0932355354,-80528.9933431009,-48338.0129513574,-80467.9480081402,-80453.6874674638,-80497.6006852977,-2415.1174715985
5372491443,4472,1,0,-6717.1526957115,-80244.7072745297,-32152.7008175386,-12640.8863846894,-80530.8184976244,-48256.1243517390,-80468.4955544973,-80455.1354233857,-80497.3329959676,-2416.3342412808
5372491443,4472,1,0,-6718.2112853351,-80245.4738394296,-32173.0695420202,-12641.8963035257,-80527.8495795996,-48029.4644953212,-80468.1305235926,-80454.3931938795,-80497.4668406327,-2415.1418069921
5372550059,4473,1,0,-6717.0796895305,-80245.5225102169,-32191.5644411911,-12641.4339310464,-80522.8121531149,-47957.0301961342,-80467.2787848150,-80453.4197781337,-80497.6736914787,-2412.9029507767
5372550059,4473,1,0,-6719.8174213157,-80247.3720001340,-32184.1056430386,-12642.3951790954,-80526.2312759221,-48137.5258108057,-80469.7731626637,-80454.8312309651,-80499.5718521831,-2414.3387390018
5372550059,4473,1,0,-6717.8584221272,-80247.3111616498,-32159.3078769135,-12642.1396574622,-80530.4412990229,-48329.6659113368,-80469.7244918764,-80456.3400253712,-80498.8661257673,-2415.8597011047
5372550059,4473,1,0,-6717.8949252177,-80246.7392798991,-32148.5638006188,-12641.0080616576,-80533.7874156492,-48277.4056534823,-80469.9070073287,-80457.1674287551,-80499.5596844862,-2416.6384337013
5372550059,4473,1,0,-6717.7610805526,-80246.6054352341,-32167.4115629975,-12641.9571420098,-80529.7234049103,-48051.9260636563,-80469.3837963653,-80455.2936034444,-80498.4159209849,-2415.9327072856
5372550059,4473,1,0,-6717.5663974035,-80245.6320194883,-32188.8632124964,-12641.3244217750,-80523.6152211052,-47951.8832603781,-80468.1548589862,-80454.7703924810,-80497.4546729359,-2412.1607212705
5372550059,4473,1,0,-6718.7466639953,-80246.7392798991,-32186.2958284668,-12641.9084712225,-80524.8684938780,-48107.9218044355,-80468.5685606782,-80453.9916598843,-80497.8318715374,-2413.2923170750
5372550059,4473,1,0,-6718.6249870271,-80246.6784414150,-32160.9140128941,-12641.2149125036,-80528.9446723136,-48313.2395206259,-80468.9822623702,-80455.7924790141,-80498.4280886817,-2416.2977381903
5372553818,4474,1,0,-6717.3352111638,-80246.1795658453,-32147.4322048143,-12641.1905771100,-80531.6093979179,-48299.5021909127,-80468.5563929814,-80454.7095539969,-80498.0630577770,-2417.1008061806
