steady_timestamp,sequence,battery,flags,EEG-ch1,EEG-ch2,EEG-ch3,EEG-ch4,EEG-ch5,EEG-ch6,EEG-ch7,EEG-ch8,EEG-ch9,EEG-ch10
5400184533,4829,-2,0,-6718.9291794476,-80288.2189583686,-32438.5930220905,-12641.4339310464,-80534.9190114537,-49577.3658789549,-80471.5496463998,-80459.1142602468,-80502.0053915477,-2417.1494769679
5400184533,4829,-2,0,-6718.5276454525,-80288.0607783099,-32463.1596019760,-12640.4240122101,-80531.0131807735,-49374.2018451023,-80471.5131433094,-80457.8244843836,-80501.1536527701,-2414.1805589431
5400184533,4829,-2,0,-6719.2212041714,-80289.1315356303,-32475.9478513369,-12641.1297386259,-80528.7378214677,-49392.8305889382,-80471.3792986443,-80458.4328692247,-80501.7255345207,-2412.9151184735
5400184533,4829,-2,0,-6719.7687505284,-80289.5817404127,-32459.1077589339,-12641.7259557702,-80532.6436521478,-49608.3083319757,-80473.3748009233,-80460.2093529609,-80503.6601983156,-2415.3608255349
5400184533,4829,-2,0,-6719.8660921030,-80290.2509637380,-32434.7236945008,-12641.4095956528,-80535.7220794440,-49733.0028890172,-80473.6424902534,-80460.0998436894,-80502.8449626284,-2416.7601106696
5400184533,4829,-2,0,-6719.6227381665,-80289.3383864763,-32435.8066195180,-12641.2392478973,-80537.3282154247,-49600.0464658329,-80473.2409562582,-80460.2336883545,-80503.4533474696,-2417.3441601171
5400184533,4829,-2,0,-6720.5718185187,-80290.8715162760,-32461.6264721763,-12642.2004959463,-80534.3958004903,-49388.3285411137,-80474.3968874564,-80461.3652841590,-80504.5484401837,-2416.9669615156
5400184533,4829,-2,0,-6717.9192606113,-80288.1702875813,-32475.1812864370,-12640.5700245720,-80528.8229953454,-49372.1698397328,-80472.2918759060,-80459.2359372150,-80501.4091744033,-2413.2436462877
5400214031,4830,-2,0,-6719.3307134428,-80289.5452373223,-32462.8310741618,-12642.0301481907,-80531.4512178592,-49571.5132167831,-80473.3017947423,-80459.8564897530,-80503.5506890442,-2415.3364901413
5400214031,4830,-2,0,-6719.7930859221,-80290.0806159825,-32437.7656187065,-12641.8841358289,-80536.2817934979,-49723.1227191970,-80474.0196888549,-80461.0124209512,-80503.7332044965,-2417.2224831488
5400214031,4830,-2,0,-6718.9291794476,-80289.1802064176,-32435.1008931023,-12641.2635832909,-80536.5738182216,-49626.2191816991,-80473.1557823805,-80460.0998436894,-80502.2974162714,-2417.6605202345
5400214031,4830,-2,0,-6719.3428811396,-80289.8494297428,-32460.3488640099,-12642.4073467923,-80532.9356768716,-49410.6075939965,-80472.9002607472,-80460.2823591418,-80502.2000746968,-2415.4459994127
5400214031,4830,-2,0,-6719.2212041714,-80288.9855232684,-32478.8072600903,-12641.1054032322,-80529.8815849690,-49368.6412076542,-80472.0971927569,-80459.3697818801,-80502.2852485746,-2413.4748325274
5400214031,4830,-2,0,-6719.3793842301,-80288.8030078161,-32469.9613445000,-12640.8133785085,-80530.1857773896,-49559.8322278331,-80472.4500559647,-80459.3819495769,-80501.4213421002,-2414.4360805764
5400214031,4830,-2,0,-6719.2942103523,-80288.5353184860,-32444.2388334163,-12640.5335214815,-80534.3227943094,-49730.1069771733,-80472.9610992313,-80459.4184526674,-80502.2852485746,-2416.3950797649
5400214031,4830,-2,0,-6720.3284645823,-80288.9976909652,-32438.0698111271,-12641.3000863814,-80536.6468244026,-49655.4946602550,-80474.1778689136,-80461.1219302226,-80502.9909749903,-2418.1593958042
5400242949,4831,-2,0,-6719.7322474379,-80289.1680387208,-32458.9982496625,-12641.7624588606,-80533.3493785636,-49436.4639497453,-80472.4743913584,-80459.2967756991,-80501.1049819828,-2415.9448749824
5400242949,4831,-2,0,-6719.3793842301,-80288.7056662415,-32480.7784269756,-12641.7746265575,-80528.7256537708,-49364.0296505583,-80471.3427955538,-80458.1165091073,-80501.7620376112,-2415.2999870508
5400242949,4831,-2,0,-6719.0995272032,-80287.6227412242,-32473.7941689992,-12640.6551984498,-80529.3705417024,-49530.3742338247,-80471.0386031333,-80457.7879812931,-80501.5186836747,-2414.4117451827
5400242949,4831,-2,0,-6719.3428811396,-80288.6204923637,-32449.2640922042,-12641.5069372274,-80533.8604218301,-49720.0321242039,-80472.2188697251,-80459.0655894595,-80502.0418946381,-2415.9327072856
5400242949,4831,-2,0,-6719.2090364746,-80288.8273432097,-32439.6881148045,-12641.8598004352,-80536.4399735566,-49677.1531605999,-80473.3261301360,-80460.0146698117,-80503.1248196554,-2417.5875140535
5400242949,4831,-2,0,-6718.9170117508,-80288.3649707304,-32457.6111322247,-12640.8255462053,-80533.9577634047,-49454.4721410432,-80472.1458635442,-80458.9804155817,-80502.9423042030,-2415.5920117746
5400242949,4831,-2,0,-6720.1337814331,-80290.7498393077,-32483.0051154942,-12642.7115392128,-80530.6481498689,-49347.6397629378,-80472.8759253535,-80459.8443220562,-80502.5042671174,-2415.1904777794
5400242949,4831,-2,0,-6718.6736578144,-80287.8295920702,-32478.6855831220,-12640.6430307529,-80529.2975355215,-49494.6133728621,-80471.4279694316,-80458.4693723152,-80501.2509943446,-2414.0467142780
5400272863,4832,-2,0,-6719.5132288951,-80288.8273432097,-32454.0703324492,-12641.8111296479,-80533.2277015953,-49702.5228084757,-80473.5573163756,-80459.8808251466,-80503.5263536505,-2416.3585766744
5400272863,4832,-2,0,-6719.6227381665,-80288.5596538796,-32440.8927167900,-12641.3730925623,-80535.5638993853,-49696.2199415214,-80472.0241865759,-80459.4792911515,-80502.7719564475,-2417.7335264154
5400272863,4832,-2,0,-6719.5253965920,-80288.8395109065,-32456.6863872662,-12642.1274897653,-80534.2132850380,-49486.8382145923,-80472.8759253535,-80459.2724403055,-80502.0175592445,-2417.8795387773
5400272863,4832,-2,0,-6718.9291794476,-80288.0729460067,-32482.8104323450,-12641.2514155941,-80529.5773925484,-49352.2513200337,-80471.9633480918,-80458.2138506819,-80500.9833050145,-2414.2535651240
5400272863,4832,-2,0,-6719.5497319856,-80288.4258092146,-32483.6378357290,-12641.7624588606,-80529.1028523724,-49470.8863640574,-80471.7686649426,-80458.3355276501,-80501.8837145794,-2414.1927266399
5400272863,4832,-2,0,-6718.3816330906,-80288.5474861828,-32458.0126662199,-12640.9837262640,-80532.6923229351,-49687.3375228407,-80471.9876834855,-80458.2503537724,-80501.7742053080,-2414.8741176620
5400272863,4832,-2,0,-6719.7200797411,-80290.2996345253,-32443.0707345213,-12642.0909866749,-80537.4255569992,-49715.2380516557,-80473.8250057057,-80461.0245886480,-80502.8206272348,-2418.5122590121
5400272863,4832,-2,0,-6718.8683409635,-80289.4843988381,-32455.7008038235,-12640.9107200830,-80534.7729990918,-49515.2376189770,-80473.0584408059,-80459.1994341245,-80502.5651056015,-2416.5775952172
5400304417,4833,-2,0,-6719.2698749587,-80288.8151755129,-32481.6545011468,-12641.1297386259,-80530.6238144752,-49356.6316908899,-80472.2797082092,-80458.5788815866,-80501.9810561540,-2414.2170620336
5400304417,4833,-2,0,-6719.5010611983,-80288.7178339383,-32487.0934616267,-12641.5191049242,-80529.8450818785,-49449.0575159570,-80472.3040436029,-80458.8344032199,-80501.4821805843,-2414.1683912463
5400304417,4833,-2,0,-6719.1238625968,-80289.7155850778,-32463.9991730568,-12641.0080616576,-80532.9721799620,-49665.0219668674,-80472.1336958473,-80459.4184526674,-80502.9423042030,-2414.4847513637
5400304417,4833,-2,0,-6719.7079120443,-80290.1536221634,-32444.1414918417,-12641.7259557702,-80537.5594016643,-49722.3196512066,-80474.0561919454,-80460.5865515624,-80503.4655151664,-2417.1129738774
5400304417,4833,-2,0,-6719.2942103523,-80289.6182435032,-32452.6345442241,-12641.3487571687,-80536.1844519233,-49542.0552227748,-80473.4478071042,-80459.9659990244,-80502.8936334157,-2417.2711539361
5400304417,4833,-2,0,-6719.7687505284,-80290.3604730094,-32479.0506140267,-12641.7867942543,-80532.2786212431,-49365.7209604167,-80473.9345149771,-80459.7469804816,-80502.7232856602,-2415.0566331144
5400304417,4833,-2,0,-6718.5398131493,-80288.7300016351,-32486.3512321205,-12641.7381234670,-80528.0442627488,-49422.0938997974,-80472.2310374219,-80459.0290863690,-80502.9909749903,-2414.1318881558
5400304417,4833,-2,0,-6718.5763162398,-80289.1193679335,-32465.3619551009,-12640.8742169926,-80531.7067394925,-49642.0858583562,-80472.4987267520,-80458.9195770976,-80501.5430190684,-2414.1927266399
5400333987,4834,-2,0,-6719.4523904110,-80289.6425788968,-32444.6768705019,-12641.5799434083,-80536.1236134392,-49732.8325412617,-80473.7033287375,-80460.6960608338,-80503.1004842617,-2416.8209491537
5400333987,4834,-2,0,-6719.9390982839,-80290.3239699189,-32451.0649113340,-12641.9814774035,-80537.1943707596,-49570.0409254675,-80474.7984214516,-80460.5378807751,-80503.3195028045,-2417.5631786599
5400333987,4834,-2,0,-6720.2189553109,-80289.6060758064,-32476.5562361780,-12642.5168560637,-80531.4390501624,-49374.6398821879,-80473.5938194661,-80459.9903344180,-80503.1126519585,-2415.0444654175
5400333987,4834,-2,0,-6720.4379738537,-80289.6790819873,-32488.2007220376,-12642.4073467923,-80529.5773925484,-49404.0978761962,-80473.1436146836,-80458.8465709167,-80501.8228760953,-2414.6064283319
5400333987,4834,-2,0,-6719.6105704697,-80288.3284676400,-32468.8784194828,-12641.9206389193,-80531.6580687052,-49615.0857391061,-80472.5230621457,-80458.8587386135,-80501.7498699144,-2415.5190055936
5400333987,4834,-2,0,-6718.8075024794,-80287.4888965592,-32443.6791193624,-12640.8498815989,-80534.6634898204,-49728.9753813688,-80471.5739817935,-80457.9826644423,-80501.4213421002,-2417.0034646060
5400333987,4834,-2,0,-6718.8926763572,-80288.1459521876,-32446.0883233334,-12641.0202293544,-80535.2475392679,-49594.0964620865,-80471.9876834855,-80458.6640554643,-80501.7985407017,-2416.9182907283
5400333987,4834,-2,0,-6718.7953347826,-80287.0630271704,-32470.7765801871,-12640.3388383324,-80530.2101127832,-49383.9725056511,-80471.3062924634,-80458.4572046183,-80500.8616280463,-2413.9372050066
5400365346,4835,-2,0,-6718.6736578144,-80287.9756044321,-32485.7185118857,-12641.1297386259,-80529.0420138882,-49379.4461224330,-80472.3648820870,-80458.6032169802,-80501.6160252493,-2413.8155280384
5400365346,4835,-2,0,-6719.3063780491,-80288.7786724224,-32470.6184001284,-12640.9107200830,-80530.9401745926,-49585.8345959437,-80472.5108944488,-80458.6397200707,-80502.6381117824,-2414.5212544541
5400365346,4835,-2,0,-6718.6858255112,-80289.5452373223,-32445.9788140620,-12641.5434403178,-80536.0749426519,-49728.8172013101,-80473.2287885614,-80460.0146698117,-80503.4655151664,-2415.9083718920
5400365346,4835,-2,0,-6719.9756013744,-80290.2996345253,-32444.3605103845,-12642.0909866749,-80537.4863954834,-49615.9374778837,-80474.0440242485,-80460.8785762861,-80503.1978258363,-2417.3928309044
5400365346,4835,-2,0,-6719.3307134428,-80289.3992249604,-32467.5034697418,-12641.3974279560,-80532.0839380940,-49397.3083013690,-80472.7542483853,-80459.0899248531,-80502.1757393032,-2415.8231980142
5400365346,4835,-2,0,-6718.2842915160,-80288.2919645495,-32485.4994933429,-12640.5335214815,-80527.9469211742,-49362.5573592427,-80471.5618140967,-80458.5910492834,-80501.4700128875,-2412.9272861703
5400365346,4835,-2,0,-6718.6371547239,-80288.5839892732,-32474.7432493514,-12641.3852602591,-80530.3317897515,-49553.6145347566,-80472.0850250600,-80458.9439124913,-80501.6890314303,-2414.5577575446
5400365346,4835,-2,0,-6718.4303038779,-80288.5353184860,-32447.6457885267,-12641.3730925623,-80535.2718746616,-49719.1073792454,-80472.8029191726,-80459.5522973324,-80501.6768637334,-2415.5798440777
5400421719,4836,-2,0,-6719.6957443475,-80288.8030078161,-32442.9125544626,-12641.2635832909,-80537.4133893024,-49642.0371875689,-80472.9610992313,-80459.7956512689,-80503.0153103840,-2417.4901724789
5400421719,4836,-2,0,-6719.7200797411,-80288.9855232684,-32465.5809736437,-12641.3244217750,-80533.4953909254,-49418.7842862615,-80472.4865590552,-80460.2093529609,-80502.8327949316,-2415.5555086841
5400421719,4836,-2,0,-6719.4767258047,-80288.4258092146,-32485.7185118857,-12641.4582664401,-80528.6891506804,-49347.8344460870,-80471.8173357299,-80458.8344032199,-80501.3970067065,-2413.8155280384
5400421719,4836,-2,0,-6720.6448246997,-80289.1315356303,-32477.9068505254,-12641.4826018337,-80530.2101127832,-49522.4287277994,-80472.5108944488,-80459.3819495769,-80502.1757393032,-2414.8862853588
5400421719,4836,-2,0,-6719.4280550174,-80287.7809212829,-32452.1843394417,-12641.7502911638,-80533.4102170477,-49708.7405015522,-80472.1336958473,-80459.1385956404,-80501.6038575525,-2416.0057134665
5400421719,4836,-2,0,-6720.3406322791,-80288.6083246669,-32444.1293241449,-12640.9593908703,-80537.2308738501,-49659.2179754829,-80473.0949438963,-80459.6131358165,-80502.3095839682,-2417.6970233249
5400421719,4836,-2,0,-6719.4645581078,-80288.4866476987,-32463.6219744552,-12641.6772849829,-80533.9577634047,-49441.9515810124,-80473.1557823805,-80460.0633405990,-80501.9202176699,-2416.2855704935
5400421719,4836,-2,0,-6718.4424715747,-80288.2067906717,-32486.9717846585,-12640.8498815989,-80529.5287217611,-49344.3423170988,-80471.8660065172,-80458.4328692247,-80501.9810561540,-2413.4139940433
5400429829,4837,-2,0,-6719.1116949000,-80288.4744800019,-32483.7838480909,-12640.6795338434,-80529.4313801866,-49496.6940490188,-80471.6469879744,-80458.0191675327,-80501.3970067065,-2414.5455898478
5400429829,4837,-2,0,-6719.3550488364,-80288.1581198845,-32458.8400696038,-12641.3122540782,-80532.7288260256,-49697.9720898639,-80472.3162112997,-80457.4959565693,-80501.4943482811,-2415.6406825619
5400429829,4837,-2,0,-6719.9390982839,-80288.1824552781,-32446.3803480571,-12641.4582664401,-80535.2718746616,-49682.7868042289,-80472.0241865759,-80459.0047509754,-80501.2144912542,-2417.5753463567
5400429829,4837,-2,0,-6719.5618996824,-80287.4523934687,-32462.7459002840,-12642.0058127971,-80533.3615462604,-49467.1265457391,-80472.8759253535,-80459.3211110928,-80501.3118328288,-2416.9669615156
5400429829,4837,-2,0,-6718.7223286016,-80286.9535178990,-32485.7185118857,-12640.8012108116,-80528.2146105043,-49336.3846433766,-80471.0629385269,-80457.8731551708,-80501.1049819828,-2414.0710496717
5400429829,4837,-2,0,-6719.8417567094,-80288.1094490972,-32486.3025613332,-12642.4681852764,-80529.5652248516,-49464.2184661984,-80472.1093604537,-80458.1530121978,-80501.3483359192,-2414.8011114811
5400429829,4837,-2,0,-6718.8926763572,-80287.8174243734,-32460.7990687923,-12641.0445647481,-80532.0352673067,-49674.5979442671,-80470.4423859890,-80457.9339936550,-80500.9346342272,-2415.7136887428
5400429829,4837,-2,0,-6719.6714089538,-80286.4303069356,-32444.6038643210,-12641.7381234670,-80535.3205454489,-49689.1383419705,-80471.8538388204,-80458.8100678262,-80502.0418946381,-2417.4049986012
5400458029,4838,-2,0,-6719.4402227142,-80286.9170148085,-32457.5502937406,-12641.7989619511,-80533.7874156492,-49489.0527354140,-80471.6104848839,-80458.7127262516,-80501.3970067065,-2416.8939553346
5400458029,4838,-2,0,-6719.6105704697,-80287.8904305543,-32483.1389601592,-12642.2613344304,-80529.2488647342,-49337.9907793572,-80471.4766402189,-80457.5446273566,-80502.2244100905,-2415.7745272269
5400458029,4838,-2,0,-6719.6714089538,-80287.1116979577,-32485.8888596412,-12641.3244217750,-80528.0077596583,-49431.7428833780,-80470.5518952603,-80457.0457517869,-80500.0707277528,-2414.0832173685
5400458029,4838,-2,0,-6719.5984027729,-80287.6714120115,-32462.7702356776,-12641.1419063227,-80532.4368013018,-49648.8632654865,-80473.2531239550,-80458.8952417040,-80502.1392362127,-2416.0057134665
5400458029,4838,-2,0,-6718.7709993889,-80287.4402257719,-32443.8372994211,-12641.9936451003,-80536.2087873170,-49697.0473449054,-80473.0097700186,-80458.6032169802,-80501.2996651319,-2417.5145078726
5400458029,4838,-2,0,-6719.7444151348,-80288.6326600605,-32454.8490650459,-12641.9449743130,-80535.7464148377,-49509.7986584971,-80472.4013851774,-80459.9173282371,-80502.6867825697,-2417.5996817503
5400458029,4838,-2,0,-6718.3207946065,-80287.0508594736,-32478.3327199142,-12640.0711490023,-80529.2366970374,-49334.2309610389,-80471.5496463998,-80457.8731551708,-80501.5065159779,-2413.9372050066
5400458029,4838,-2,0,-6718.4181361811,-80286.6006546911,-32486.2052197586,-12640.6673661466,-80527.7279026314,-49402.3822309442,-80471.0994416174,-80457.4594534789,-80499.7908707259,-2413.2436462877
5400490361,4839,-2,0,-6719.3063780491,-80286.9291825053,-32467.0045941720,-12641.0323970513,-80531.1348577418,-49623.7613069408,-80470.7100753190,-80458.1286768041,-80500.9711373177,-2414.8011114811
5400490361,4839,-2,0,-6718.9900179317,-80286.7344993562,-32446.1734972111,-12641.2027448068,-80535.1501976934,-49700.9896786760,-80471.9268450013,-80458.8709063103,-80501.2753297383,-2416.7966137600
5400490361,4839,-2,0,-6719.5132288951,-80288.1216167940,-32453.4497799113,-12641.8719681320,-80534.7608313950,-49535.6793496395,-80473.0341054122,-80459.6496389070,-80502.5164348142,-2417.1129738774
5400490361,4839,-2,0,-6719.0995272032,-80289.2532125985,-32481.1191224866,-12642.0909866749,-80531.3660439814,-49343.6852614703,-80471.4401371284,-80458.6640554643,-80501.3118328288,-2415.6163471682
5400490361,4839,-2,0,-6718.4789746652,-80287.7809212829,-32490.3544043752,-12641.2027448068,-80528.3971259566,-49377.0247507652,-80472.2797082092,-80458.2868568628,-80501.0076404082,-2413.8276957352
5400490361,4839,-2,0,-6718.8196701762,-80287.1968718354,-32471.7013251457,-12640.4605153006,-80531.1470254386,-49593.0135370692,-80471.1116093142,-80458.0191675327,-80500.9711373177,-2414.2900682145
5400490361,4839,-2,0,-6719.5497319856,-80287.7079151020,-32449.2640922042,-12641.4339310464,-80535.6004024758,-49704.9928509308,-80472.0971927569,-80459.2724403055,-80501.2631620415,-2416.9304584251
5400490361,4839,-2,0,-6719.1116949000,-80287.5497350433,-32451.6854638719,-12642.1274897653,-80534.3349620062,-49558.4816134857,-80471.8416711236,-80459.0899248531,-80501.1414850732,-2416.3464089776
5400540588,4840,-2,0,-6718.7831670858,-80287.2698780164,-32477.2862979874,-12641.3852602591,-80530.5873113847,-49352.6771894225,-80470.6614045318,-80457.7514782026,-80499.8760446036,-2415.3243224445
5400540588,4840,-2,0,-6719.9390982839,-80287.9269336448,-32492.5324221066,-12641.8598004352,-80527.9104180837,-49358.8705471054,-80472.2432051187,-80457.5324596598,-80501.8715468826,-2415.1296392953
5400540588,4840,-2,0,-6719.5862350761,-80287.9877721289,-32476.6049069653,-12641.4826018337,-80530.7819945339,-49563.6407169387,-80472.4378882679,-80458.7005585548,-80502.4069255428,-2415.6285148650
5400540588,4840,-2,0,-6719.5497319856,-80288.9855232684,-32452.4276933781,-12642.0301481907,-80536.1114457424,-49697.9477544703,-80473.2287885614,-80459.2116018214,-80501.9080499731,-2418.2810727724
5400540588,4840,-2,0,-6719.5253965920,-80288.2676291559,-32450.2740110405,-12641.2149125036,-80535.3813839330,-49581.9287652635,-80473.1314469868,-80460.1728498704,-80502.4677640269,-2417.7213587186
5400540588,4840,-2,0,-6719.5497319856,-80288.4014738209,-32474.3538830531,-12641.0810678386,-80531.2808701037,-49366.0008174436,-80471.0507708301,-80457.8123166867,-80501.3848390097,-2415.7380241364
5400540588,4840,-2,0,-6720.2919614918,-80288.2067906717,-32493.0556330699,-12642.1153220685,-80529.0663492819,-49335.4720661149,-80472.4257205711,-80458.4693723152,-80501.2509943446,-2414.6064283319
5400540588,4840,-2,0,-6718.8561732667,-80286.6128223879,-32479.4278126282,-12640.7038692370,-80528.5796414090,-49528.8167686314,-80470.5883983508,-80456.7050562758,-80500.4722617480,-2414.3265713050
5400555350,4841,-2,0,-6719.2698749587,-80287.7565858893,-32454.6543818967,-12641.6042788019,-80533.7874156492,-49693.1536819221,-80472.4743913584,-80457.8853228677,-80499.8395415132,-2416.5289244299
5400555350,4841,-2,0,-6720.8638432425,-80287.6714120115,-32451.0405759403,-12641.9814774035,-80535.7464148377,-49602.6138498625,-80472.4622236616,-80459.4549557578,-80502.2487454841,-2417.8065325963
5400555350,4841,-2,0,-6719.5375642888,-80288.4623123050,-32471.4214681188,-12641.5312726210,-80531.9135903384,-49378.9594145600,-80471.9390126982,-80458.8344032199,-80502.3947578460,-2416.0178811634
5400555350,4841,-2,0,-6719.7687505284,-80288.4379769114,-32491.4981678766,-12641.9449743130,-80528.9446723136,-49317.8045703279,-80472.3040436029,-80459.0777571563,-80502.5529379047,-2414.2292297304
5400555350,4841,-2,0,-6719.3063780491,-80288.3406353368,-32482.7252584673,-12641.7746265575,-80530.0641004214,-49492.3258458594,-80471.9025096077,-80458.7005585548,-80501.2631620415,-2414.5212544541
5400555350,4841,-2,0,-6719.2942103523,-80288.5474861828,-32454.9585743173,-12641.3365894718,-80534.2984589157,-49670.3879211663,-80472.5595652361,-80459.8929928435,-80502.4434286333,-2416.4194151585
5400555350,4841,-2,0,-6719.0386887190,-80287.6349089211,-32446.1248264239,-12641.0567324449,-80536.6833274930,-49615.9983163678,-80472.9245961408,-80460.3431976259,-80502.6259440856,-2416.9791292124
5400555350,4841,-2,0,-6719.1847010809,-80287.4402257719,-32465.4836320692,-12640.6186953593,-80532.5828136637,-49394.4488926156,-80472.5108944488,-80458.3355276501,-80501.6646960366,-2415.8597011047
5400585610,4842,-2,0,-6719.6714089538,-80287.1603687450,-32488.4562436709,-12641.7867942543,-80529.1636908565,-49303.5561973483,-80471.8051680331,-80458.2503537724,-80501.1901558605,-2414.9227884493
5400585610,4842,-2,0,-6720.3893030664,-80288.6813308478,-32483.5161587608,-12641.9206389193,-80530.6846529593,-49464.0846215334,-80472.7907514758,-80458.7370616453,-80501.4821805843,-2415.3608255349
5400585610,4842,-2,0,-6719.4523904110,-80288.0242752194,-32457.5867968311,-12640.3996768165,-80532.9600122652,-49662.6492659869,-80472.4622236616,-80458.4328692247,-80500.9833050145,-2415.8231980142
5400585610,4842,-2,0,-6718.9656825381,-80288.1581198845,-32446.8548882332,-12641.0689001417,-80536.6468244026,-49637.2917858079,-80472.4378882679,-80457.8366520804,-80502.4920994206,-2416.3585766744
5400585610,4842,-2,0,-6719.1725333841,-80288.9125170875,-32465.8121598834,-12640.4848506942,-80533.6900740746,-49424.7342900080,-80472.3283789965,-80459.9051605403,-80502.4677640269,-2416.6749367918
5400585610,4842,-2,0,-6718.1991176383,-80287.3793872878,-32490.2692304975,-12640.6065276625,-80528.2146105043,-49307.6810465713,-80470.5032244731,-80457.6541366280,-80500.9954727114,-2413.3653232560
5400585610,4842,-2,0,-6719.2333718682,-80287.4767288624,-32490.8167768545,-12641.2514155941,-80528.7743245581,-49440.0534203080,-80471.6713233681,-80457.9583290486,-80500.7156156844,-2413.9980434908
5400585610,4842,-2,0,-6718.5763162398,-80287.5132319528,-32465.6661475215,-12640.1684905768,-80531.9865965194,-49647.3179679900,-80471.0994416174,-80457.6541366280,-80501.1049819828,-2415.0201300239
5400620330,4843,-2,0,-6719.7079120443,-80289.3748895667,-32452.8657304638,-12642.0909866749,-80537.3768862119,-49659.9845403827,-80473.4964778915,-80460.6230546528,-80502.7962918412,-2417.8430356868
5400620330,4843,-2,0,-6719.9634336776,-80289.9711067111,-32467.9171714337,-12642.1153220685,-80535.0893592092,-49455.7740846033,-80472.7664160821,-80460.1728498704,-80503.2221612299,-2416.7844460632
5400620330,4843,-2,0,-6718.7101609048,-80289.4113926572,-32493.1773100382,-12641.1297386259,-80530.3317897515,-49308.1555867473,-80472.0971927569,-80458.5788815866,-80502.1514039095,-2413.8276957352
5400620330,4843,-2,0,-6719.6227381665,-80288.6934985447,-32497.0953084152,-12641.7137880734,-80529.2488647342,-49415.1339772147,-80473.2409562582,-80459.3819495769,-80502.0175592445,-2413.7181864638
5400620330,4843,-2,0,-6718.7831670858,-80287.0021886863,-32472.9545979184,-12640.4848506942,-80531.5728948274,-49629.2976089953,-80470.9290938619,-80457.9339936550,-80500.8616280463,-2415.1783100826
5400620330,4843,-2,0,-6720.8638432425,-80288.3771384273,-32455.8589838822,-12642.7602100001,-80537.1335322755,-49666.7254444226,-80473.8493410994,-80460.5013776846,-80502.1757393032,-2419.1449792469
5400620330,4843,-2,0,-6718.5398131493,-80286.1261145150,-32464.8265764407,-12640.8133785085,-80532.4489689987,-49475.4005795787,-80470.9169261650,-80457.7271428090,-80499.7665353322,-2416.4559182490
5400620330,4843,-2,0,-6718.7466639953,-80286.7344993562,-32491.8753664781,-12641.3852602591,-80529.6990695167,-49309.2628471582,-80471.1724477983,-80456.1818453125,-80499.9855538750,-2414.3752420923
5400682152,4844,-2,0,-6719.9390982839,-80286.8318409308,-32498.0322210705,-12640.9837262640,-80527.8009088123,-49385.4082938762,-80470.9534292555,-80457.1552610583,-80500.1437339337,-2414.5820929383
5400682152,4844,-2,0,-6719.9877690712,-80286.5641516006,-32477.1402856255,-12641.2149125036,-80531.3417085878,-49607.4565931981,-80472.6812422044,-80458.8587386135,-80501.1414850732,-2415.8353657110
5400682152,4844,-2,0,-6718.7223286016,-80286.7466670530,-32455.4574498870,-12640.0711490023,-80534.3592973999,-49681.0224881896,-80471.7321618522,-80457.1430933615,-80500.6061064130,-2416.7722783664
5400682152,4844,-2,0,-6718.8926763572,-80288.5109830923,-32463.1839373696,-12641.5434403178,-80534.5053097617,-49508.2533610006,-80472.6812422044,-80459.1994341245,-80502.5407702079,-2416.8331168505
5400682152,4844,-2,0,-6719.7565828316,-80288.3893061241,-32487.9086973138,-12641.3852602591,-80531.0010130767,-49318.6198060151,-80472.6690745075,-80458.9195770976,-80502.0783977286,-2414.9714592366
5400682152,4844,-2,0,-6719.6227381665,-80288.6813308478,-32497.3143269580,-12642.0909866749,-80529.4192124897,-49362.8737193601,-80472.7177452948,-80458.8465709167,-80501.7498699144,-2414.5577575446
5400682152,4844,-2,0,-6719.1603656873,-80287.1968718354,-32477.3593041683,-12641.3974279560,-80531.4147147687,-49577.8890899183,-80472.5108944488,-80458.1165091073,-80501.0563111955,-2414.6672668160
5400682152,4844,-2,0,-6718.3572976970,-80287.0508594736,-32453.2185936716,-12640.4605153006,-80534.7486636982,-49676.1675771572,-80471.9511803950,-80459.1264279436,-80501.9202176699,-2415.7988626206
5400689301,4845,-2,0,-6719.2820426555,-80288.0729460067,-32456.8202319312,-12641.3974279560,-80536.4399735566,-49529.7658489836,-80472.7785837790,-80459.0899248531,-80501.5673544620,-2417.0277999997
5400689301,4845,-2,0,-6720.2919614918,-80288.5718215764,-32483.1997986434,-12641.2879186845,-80532.2421181527,-49326.4801381627,-80473.3504655296,-80459.3454464864,-80502.5529379047,-2415.6285148650
5400689301,4845,-2,0,-6719.0995272032,-80287.4037226814,-32494.8442845029,-12640.8620492957,-80527.7400703282,-49331.5784031315,-80471.1481124047,-80457.5689627503,-80501.2753297383,-2413.5235033147
5400689301,4845,-2,0,-6718.2842915160,-80287.7200827988,-32475.9478513369,-12641.3000863814,-80530.9523422894,-49538.4900876056,-80472.9002607472,-80458.9074094008,-80501.8715468826,-2414.7767760874
5400689301,4845,-2,0,-6719.1238625968,-80287.8904305543,-32449.8116385612,-12641.3974279560,-80535.2840423584,-49665.8493702514,-80473.0827761995,-80459.4427880610,-80502.4434286333,-2416.4559182490
5400689301,4845,-2,0,-6719.9756013744,-80288.9976909652,-32448.9720674804,-12641.7137880734,-80536.7198305835,-49540.7289438211,-80473.3869686201,-80460.0268375085,-80502.6502794793,-2417.3928309044
5400689301,4845,-2,0,-6718.0287698827,-80288.0486106130,-32471.3119588473,-12641.2270802004,-80531.7189071893,-49326.2246165294,-80472.6204037203,-80458.9439124913,-80501.9688884572,-2414.7646083906
5400689301,4845,-2,0,-6720.4379738537,-80289.1072002366,-32487.9817034948,-12642.5046883668,-80529.7355726071,-49309.2385117646,-80473.9345149771,-80459.4549557578,-80503.4168443791,-2415.2878193540
5400727714,4846,-2,0,-6719.9390982839,-80288.8881816938,-32473.9523490579,-12641.6529495892,-80531.6580687052,-49509.0320935973,-80473.2774593487,-80459.5157942419,-80502.5164348142,-2415.8475334078
5400727714,4846,-2,0,-6718.8926763572,-80287.6349089211,-32446.6602050841,-12641.1540740195,-80535.1745330870,-49662.4789182314,-80472.5595652361,-80458.8222355230,-80501.6281929461,-2416.1638935252
5400727714,4846,-2,0,-6718.7466639953,-80287.8174243734,-32442.2433311373,-12641.7989619511,-80535.3570485393,-49567.6560568902,-80472.6325714171,-80458.7005585548,-80501.6890314303,-2417.0156323028
5400727714,4846,-2,0,-6719.2698749587,-80288.1216167940,-32464.8265764407,-12641.5312726210,-80533.3737139572,-49349.5987621263,-80472.6934099012,-80459.2116018214,-80502.2244100905,-2415.7745272269
5400727714,4846,-2,0,-6719.6592412570,-80287.6592443147,-32483.1754632497,-12641.1054032322,-80528.3971259566,-49295.2821635087,-80472.3648820870,-80458.5545461929,-80500.9589696209,-2413.3531555591
5400727714,4846,-2,0,-6718.6006516334,-80287.6470766179,-32471.7013251457,-12641.3609248655,-80530.4291313260,-49478.1626467575,-80472.2553728156,-80458.9925832786,-80502.1027331222,-2414.1683912463
5400727714,4846,-2,0,-6719.1360302936,-80288.6813308478,-32446.5020250254,-12641.4460987432,-80534.4931420649,-49657.4901625340,-80473.3017947423,-80459.5401296356,-80502.7719564475,-2416.1152227379
5400727714,4846,-2,0,-6720.5353154283,-80289.9832744079,-32440.5398535821,-12642.4438498827,-80538.2894634737,-49591.7845996901,-80474.0561919454,-80461.2314394940,-80504.1347384917,-2418.2445696820
5400744101,4847,-2,0,-6719.0143533254,-80288.2554614590,-32458.2560201563,-12641.2757509877,-80533.4588878350,-49371.4519456203,-80473.2774593487,-80458.1651798946,-80502.5164348142,-2415.2756516572
5400744101,4847,-2,0,-6719.3185457460,-80289.3992249604,-32480.9974455184,-12641.0080616576,-80531.0131807735,-49291.4858420999,-80473.0341054122,-80459.5644650292,-80501.9810561540,-2414.3387390018
5400744101,4847,-2,0,-6719.0873595063,-80288.8395109065,-32475.7775035814,-12641.1419063227,-80531.7797456734,-49452.1602786469,-80472.5108944488,-80459.4671234547,-80502.7111179634,-2414.3509066986
5400744101,4847,-2,0,-6719.3793842301,-80288.5231507891,-32448.0351548251,-12641.3000863814,-80534.8703406664,-49643.3756342194,-80473.3626332265,-80459.9173282371,-80503.2829997141,-2416.1395581316
5400744101,4847,-2,0,-6719.0143533254,-80288.0851137035,-32436.8408737480,-12640.6186953593,-80537.2187061532,-49612.0438149003,-80473.5573163756,-80460.3918684132,-80501.9810561540,-2417.7335264154
5400744101,4847,-2,0,-6719.1360302936,-80288.8273432097,-32455.2140959506,-12641.0567324449,-80534.7364960014,-49395.1424513346,-80472.6690745075,-80459.5888004229,-80502.7111179634,-2416.5289244299
5400744101,4847,-2,0,-6718.9291794476,-80288.0486106130,-32478.0406951904,-12641.1540740195,-80531.1226900450,-49281.2893121623,-80472.2918759060,-80459.5279619388,-80501.6890314303,-2414.9714592366
5400744101,4847,-2,0,-6719.3915519269,-80288.3893061241,-32475.3151311021,-12642.0301481907,-80530.3439574483,-49423.0308124527,-80473.1314469868,-80459.3819495769,-80502.6624471761,-2414.3874097891
5400777719,4848,-2,0,-6719.5740673793,-80289.3262187794,-32450.7120481261,-12642.2978375209,-80535.1501976934,-49633.3616197341,-80472.8759253535,-80460.2701914450,-80503.1734904427,-2416.4194151585
5400777719,4848,-2,0,-6719.4280550174,-80289.1193679335,-32436.2203212100,-12641.5556080147,-80537.2187061532,-49634.9312526243,-80473.5573163756,-80460.3675330196,-80502.8571303253,-2417.0399676965
5400777719,4848,-2,0,-6719.6470735602,-80289.6425788968,-32450.7242158229,-12641.8232973448,-80536.2817934979,-49429.4310209816,-80473.8250057057,-80460.8055701052,-80503.1613227458,-2416.9669615156
5400777719,4848,-2,0,-6718.6736578144,-80289.1558710239,-32476.9821055668,-12640.7038692370,-80531.5850625242,-49293.4448412884,-80472.0850250600,-80459.7348127848,-80502.0662300318,-2414.5212544541
5400777719,4848,-2,0,-6718.3816330906,-80288.0851137035,-32479.3548064473,-12641.2027448068,-80530.0032619373,-49406.1542169593,-80471.9511803950,-80458.8587386135,-80500.9102988336,-2413.9007019162
5400777719,4848,-2,0,-6717.9922667923,-80287.5497350433,-32455.3114375252,-12640.6795338434,-80533.2520369890,-49621.9848232047,-80471.5496463998,-80458.7857324326,-80501.4335097970,-2415.1661423858
5400777719,4848,-2,0,-6720.5231477314,-80289.2167095081,-32439.1040653570,-12641.8111296479,-80536.7685013708,-49657.8430257419,-80473.1436146836,-80460.2580237481,-80502.4677640269,-2418.2932404693
5400777719,4848,-2,0,-6719.9025951935,-80289.3748895667,-32450.5782034611,-12641.9328066162,-80535.5517316885,-49463.4762366922,-80472.3283789965,-80459.6861419975,-80502.9909749903,-2416.5167567331
5400797741,4849,-2,0,-6719.2820426555,-80288.5718215764,-32476.2155406670,-12641.3974279560,-80530.8915038053,-49300.8306332599,-80472.3527143901,-80458.9195770976,-80501.7985407017,-2415.0201300239
5400797741,4849,-2,0,-6719.4402227142,-80289.5574050191,-32482.3115567753,-12641.5434403178,-80530.9158391990,-49389.6548200674,-80472.9489315345,-80459.8808251466,-80502.2852485746,-2415.1418069921
5400797741,4849,-2,0,-6719.4158873206,-80289.0585294494,-32461.0789258192,-12641.6286141956,-80535.0163530283,-49610.6932005530,-80473.6303225565,-80460.3553653227,-80502.4434286333,-2416.1152227379
5400797741,4849,-2,0,-6719.4280550174,-80289.8737651365,-32441.3794246629,-12641.5434403178,-80537.3038800310,-49675.2063291082,-80472.9002607472,-80460.0146698117,-80501.8472114890,-2417.7213587186
5400797741,4849,-2,0,-6718.9656825381,-80287.7687535861,-32449.9211478326,-12641.1662417163,-80536.3182965883,-49500.9770783005,-80473.1071115932,-80459.6983096943,-80502.0905654254,-2417.2711539361
5400797741,4849,-2,0,-6720.2432907045,-80289.1072002366,-32477.6634965889,-12641.3852602591,-80532.1326088813,-49322.2701150620,-80472.5595652361,-80458.7005585548,-80502.1635716064,-2414.8376145715
5400797741,4849,-2,0,-6718.9778502349,-80288.1702875813,-32487.4219894409,-12641.4339310464,-80529.6017279421,-49374.9684100021,-80472.2918759060,-80459.0899248531,-80502.5042671174,-2414.6794345128
5400797741,4849,-2,0,-6719.0995272032,-80288.4258092146,-32466.9559233847,-12641.6164464988,-80533.1060246271,-49595.0333747418,-80472.8515899599,-80458.8100678262,-80501.6646960366,-2415.7258564396
5400828453,4850,-2,0,-6718.6979932080,-80288.4866476987,-32445.9909817588,-12641.5677757115,-80536.4764766470,-49695.3316996534,-80473.5451486788,-80459.5522973324,-80502.3460870587,-2416.7966137600
5400828453,4850,-2,0,-6718.4546392715,-80288.3041322463,-32450.2253402532,-12640.6795338434,-80536.1966196201,-49540.4369190973,-80472.5230621457,-80459.5279619388,-80502.2122423937,-2417.0521353933
5400828453,4850,-2,0,-6719.7930859221,-80288.3406353368,-32477.2984656842,-12641.8598004352,-80531.4268824655,-49338.5383257142,-80472.7299129917,-80458.4815400120,-80501.0198081050,-2416.7114398823
5400828453,4850,-2,0,-6719.7200797411,-80288.4379769114,-32489.1619700866,-12641.7624588606,-80529.5165540643,-49360.5618569638,-80471.2211185856,-80459.1020925500,-80500.8859634399,-2415.2391485667
5400828453,4850,-2,0,-6718.8561732667,-80287.2942134100,-32470.3872138888,-12640.7525400243,-80531.0375161672,-49569.4812114137,-80471.9025096077,-80458.3233599533,-80500.9954727114,-2414.9471238429
5400828453,4850,-2,0,-6718.6006516334,-80287.3307165005,-32444.6160320178,-12640.9228877799,-80534.5904836395,-49687.6052121708,-80471.3792986443,-80458.1165091073,-80501.0441434986,-2416.8817876378
5400828453,4850,-2,0,-6719.1725333841,-80288.1094490972,-32444.4091811718,-12640.6551984498,-80535.2840423584,-49557.2891791971,-80471.6226525808,-80458.8952417040,-80501.5430190684,-2416.0908873443
5400828453,4850,-2,0,-6719.6957443475,-80287.5984058306,-32470.0708537714,-12641.0445647481,-80532.3029566368,-49347.9074522679,-80472.0363542728,-80458.0435029264,-80501.6038575525,-2415.0688008112
5400858822,4851,-2,0,-6718.9170117508,-80287.8174243734,-32487.1056293235,-12641.8476327384,-80529.7599080008,-49340.0349524235,-80471.7930003363,-80458.4693723152,-80501.3848390097,-2415.2513162635
5400858822,4851,-2,0,-6720.6569923965,-80289.3748895667,-32475.1326156497,-12642.4073467923,-80531.9014226416,-49547.3846739832,-80473.1679500773,-80459.7591481784,-80502.1635716064,-2417.0399676965
5400858822,4851,-2,0,-6719.3793842301,-80288.6691631510,-32450.1036632850,-12641.5191049242,-80535.0650238156,-49698.9211702161,-80472.8759253535,-80459.7469804816,-80502.3704224523,-2416.8574522441
5400858822,4851,-2,0,-6719.0508564159,-80287.6105735274,-32447.4267699839,-12641.6164464988,-80535.5760670821,-49595.7877719449,-80471.6104848839,-80458.8709063103,-80501.3483359192,-2417.2468185425
5400858822,4851,-2,0,-6719.6105704697,-80287.9269336448,-32471.7864990234,-12641.3609248655,-80533.4102170477,-49377.2924400953,-80472.2432051187,-80459.0655894595,-80501.7620376112,-2415.4338317159
5400858822,4851,-2,0,-6719.5740673793,-80286.9900209895,-32490.0502119547,-12640.4483476038,-80528.6769829835,-49334.1092840707,-80471.1846154951,-80457.3256088138,-80501.2266589510,-2414.1927266399
5400858822,4851,-2,0,-6719.2820426555,-80288.9125170875,-32482.3480598658,-12641.0810678386,-80532.3272920304,-49522.8424294913,-80472.8515899599,-80459.9294959339,-80502.4677640269,-2415.1783100826
5400858822,4851,-2,0,-6719.9025951935,-80288.4623123050,-32456.3578594519,-12641.2635832909,-80535.4665578108,-49692.1924338730,-80473.6303225565,-80460.2701914450,-80502.3947578460,-2416.2734027966
5400895489,4852,-2,0,-6719.2942103523,-80288.3528030336,-32449.7508000771,-12641.5677757115,-80537.1700353660,-49624.0046608773,-80472.6447391139,-80459.7104773911,-80501.5916898557,-2417.8795387773
5400895489,4852,-2,0,-6719.5375642888,-80287.5862381338,-32472.4435546519,-12641.6651172861,-80534.2254527348,-49404.2803916486,-80473.3017947423,-80458.6518877675,-80502.2365777873,-2417.0156323028
5400895489,4852,-2,0,-6720.3893030664,-80288.0121075226,-32494.2237319649,-12641.7381234670,-80530.8793361085,-49323.9005864362,-80472.5595652361,-80458.9560801881,-80502.0662300318,-2414.9227884493
5400895489,4852,-2,0,-6720.2554584013,-80288.7786724224,-32488.2007220376,-12642.5046883668,-80531.4390501624,-49489.6367848615,-80473.1071115932,-80459.3089433960,-80502.5042671174,-2416.0665519507
5400895489,4852,-2,0,-6719.9877690712,-80287.6227412242,-32462.1375154428,-12641.0202293544,-80535.4422224171,-49677.9805639838,-80472.6934099012,-80460.1850175672,-80502.4434286333,-2416.9669615156
5400895489,4852,-2,0,-6718.4789746652,-80288.0121075226,-32450.8823958816,-12640.8498815989,-80537.1456999723,-49634.9677557147,-80472.0241865759,-80459.4549557578,-80502.1392362127,-2417.3076570266
5400895489,4852,-2,0,-6718.5641485429,-80288.0486106130,-32469.0244318446,-12641.0932355354,-80534.4931420649,-49417.8108705157,-80472.4135528743,-80459.4792911515,-80502.0783977286,-2415.5555086841
5400895489,4852,-2,0,-6718.8075024794,-80288.6934985447,-32493.0678007668,-12640.8133785085,-80530.2466158737,-49313.3633609876,-80471.5374787030,-80458.5910492834,-80501.3483359192,-2414.5820929383
5400924284,4853,-2,0,-6719.3793842301,-80289.1802064176,-32491.3156524243,-12641.5434403178,-80530.3926282356,-49459.7407537676,-80473.0584408059,-80458.5788815866,-80502.3704224523,-2415.4946702000
5400924284,4853,-2,0,-6719.2212041714,-80288.4501446082,-32465.4471289787,-12642.0423158876,-80535.4300547203,-49662.9047876202,-80473.1314469868,-80460.4040361100,-80502.9788072935,-2416.6506013982
5400924284,4853,-2,0,-6718.9413471445,-80288.3528030336,-32450.1523340722,-12640.5456891783,-80537.2917123342,-49655.0201200790,-80472.8880930504,-80460.3797007164,-80502.4434286333,-2417.2346508457
5400924284,4853,-2,0,-6718.5519808461,-80288.6448277574,-32466.2745323626,-12640.9107200830,-80535.0406884219,-49444.5798035262,-80472.4865590552,-80459.1994341245,-80502.3460870587,-2416.7357752759
5400924284,4853,-2,0,-6718.6493224207,-80288.8516786034,-32491.0844661846,-12641.3487571687,-80531.2443670132,-49309.9807412708,-80472.2067020283,-80459.1385956404,-80502.0662300318,-2415.5311732904
5400924284,4853,-2,0,-6719.0386887190,-80288.9976909652,-32491.5833417544,-12641.7381234670,-80530.3682928419,-49430.7694676321,-80472.9610992313,-80459.1994341245,-80502.6137763888,-2415.2269808699
5400924284,4853,-2,0,-6719.4402227142,-80289.2167095081,-32468.2700346416,-12641.9206389193,-80534.8216698791,-49647.5856573201,-80473.8493410994,-80460.3310299291,-80502.3339193619,-2416.4194151585
5400924284,4853,-2,0,-6718.9535148413,-80289.3992249604,-32451.9288178084,-12641.2149125036,-80538.3989727451,-49670.0715610489,-80473.6181548597,-80460.6473900465,-80502.7962918412,-2417.2468185425
5400953063,4854,-2,0,-6718.5641485429,-80289.1437033271,-32464.5832225043,-12641.5069372274,-80535.7099117472,-49474.0377975345,-80473.9345149771,-80460.0511729022,-80503.1248196554,-2416.8817876378
5400953063,4854,-2,0,-6720.0851106458,-80289.6547465937,-32490.7072675831,-12641.6407818924,-80531.9014226416,-49320.8221591400,-80474.2143720041,-80460.6108869560,-80503.1613227458,-2416.4559182490
5400953063,4854,-2,0,-6718.9778502349,-80287.8660951607,-32496.0732218820,-12641.7746265575,-80530.1736096928,-49410.0235445490,-80472.4987267520,-80459.7713158752,-80502.0053915477,-2415.1174715985
5400953063,4854,-2,0,-6719.5010611983,-80289.2410449017,-32473.6359889405,-12641.1540740195,-80532.8991737811,-49627.2047651417,-80473.0097700186,-80459.0777571563,-80502.5651056015,-2417.0521353933
5400953063,4854,-2,0,-6719.1481979904,-80287.8539274639,-32454.0459970556,-12641.1297386259,-80536.1479488328,-49683.4925306446,-80472.6812422044,-80459.3697818801,-80502.1635716064,-2417.0643030901
5400953063,4854,-2,0,-6720.0364398585,-80288.6813308478,-32465.2037750422,-12641.8354650416,-80536.6589920994,-49504.4083688046,-80473.8736764930,-80461.2192717971,-80503.4655151664,-2418.5122590121
5400953063,4854,-2,0,-6719.3915519269,-80288.2189583686,-32490.8897830355,-12641.4704341369,-80531.1713608322,-49325.3242069645,-80471.7686649426,-80459.2724403055,-80501.6281929461,-2414.7159376033
5400953063,4854,-2,0,-6719.3672165333,-80287.2212072291,-32499.6991955353,-12641.1662417163,-80529.4435478834,-49387.7566593630,-80471.9268450013,-80458.4572046183,-80500.8859634399,-2414.7159376033
5401007708,4855,-2,0,-6719.5132288951,-80286.7223316593,-32480.4985699487,-12641.3000863814,-80531.9865965194,-49611.2164115164,-80471.0386031333,-80458.2990245596,-80501.6768637334,-2416.1638935252
5401007708,4855,-2,0,-6720.0364398585,-80287.2090395323,-32459.6918083814,-12642.0666512812,-80535.8802595027,-49695.6602274676,-80472.1945343314,-80458.7613970389,-80501.2996651319,-2417.8795387773
5401007708,4855,-2,0,-6719.6592412570,-80288.2919645495,-32466.5787247832,-12641.6407818924,-80536.3304642852,-49533.8906982066,-80472.5230621457,-80459.1142602468,-80501.9080499731,-2417.3563278139
5401007708,4855,-2,0,-6719.6470735602,-80288.4623123050,-32492.8609499208,-12642.0909866749,-80531.9379257321,-49338.1367917191,-80473.0341054122,-80459.6131358165,-80501.4943482811,-2416.6992721854
5401007708,4855,-2,0,-6719.6714089538,-80288.1337844908,-32503.3616722790,-12641.6407818924,-80529.7355726071,-49363.7619612282,-80472.5595652361,-80458.1895152882,-80501.9080499731,-2414.7159376033
5401007708,4855,-2,0,-6719.9269305871,-80289.0828648430,-32485.7671826730,-12642.1518251590,-80533.0086830525,-49577.4632205295,-80473.1801177741,-80459.1142602468,-80502.8936334157,-2416.7966137600
5401007708,4855,-2,0,-6718.3816330906,-80286.6858285689,-32461.3101120589,-12640.5578568752,-80535.0650238156,-49692.1437630857,-80471.9390126982,-80458.8952417040,-80501.7011991271,-2415.9448749824
5401007708,4855,-2,0,-6718.8561732667,-80286.6371577816,-32462.8919126459,-12640.6551984498,-80535.7464148377,-49553.7605471184,-80472.0850250600,-80458.8709063103,-80501.7498699144,-2416.9426261219
5401030408,4856,-2,0,-6720.0607752522,-80287.3185488037,-32487.6166725901,-12641.6529495892,-80531.3417085878,-49343.4297398371,-80471.7564972458,-80457.9948321391,-80500.7886218654,-2415.8840364983
5401030408,4856,-2,0,-6719.9756013744,-80288.0242752194,-32502.3639211395,-12642.8210484842,-80529.7842433944,-49341.1787159248,-80470.8560876809,-80457.8853228677,-80501.6525283398,-2415.1904777794
5401030408,4856,-2,0,-6719.6470735602,-80287.1603687450,-32487.4828279250,-12642.4195144891,-80531.2808701037,-49544.3792528679,-80471.8416711236,-80458.5667138898,-80501.3970067065,-2415.5068378968
5401030408,4856,-2,0,-6719.4767258047,-80287.5862381338,-32461.2979443621,-12641.6894526797,-80535.7220794440,-49684.5267848746,-80472.3040436029,-80460.1728498704,-80502.0662300318,-2416.7601106696
5401030408,4856,-2,0,-6719.1481979904,-80287.0386917767,-32458.2316847627,-12640.7403723275,-80534.6999929109,-49573.0463465828,-80471.5739817935,-80458.0556706232,-80500.4114232639,-2417.2346508457
5401030408,4856,-2,0,-6718.9778502349,-80287.5740704370,-32483.9663635432,-12641.7746265575,-80532.7288260256,-49359.5397704306,-80472.2310374219,-80459.2481049118,-80501.5795221588,-2416.3099058871
5401030408,4856,-2,0,-6719.2333718682,-80287.7687535861,-32502.6437781664,-12641.5069372274,-80528.2876166852,-49318.6684768024,-80471.1846154951,-80457.7393105058,-80501.0806465891,-2415.1904777794
5401030408,4856,-2,0,-6719.9877690712,-80287.1847041386,-32491.0966338814,-12642.0058127971,-80530.9401745926,-49508.8739135386,-80471.5374787030,-80458.4328692247,-80501.3848390097,-2415.3243224445
5401050589,4857,-2,0,-6719.2820426555,-80286.4789777229,-32465.2402781327,-12641.8598004352,-80534.4809743681,-49677.7250423506,-80470.4058828985,-80458.8709063103,-80501.2144912542,-2416.1395581316
5401050589,4857,-2,0,-6720.4258061569,-80287.4402257719,-32459.9594977115,-12641.8476327384,-80536.3426319820,-49596.4448275733,-80471.5983171871,-80459.5766327261,-80501.6768637334,-2418.0985573201
5401050589,4857,-2,0,-6719.0265210222,-80286.3694684515,-32481.0704516993,-12641.1540740195,-80531.1835285291,-49371.7196349504,-80470.7100753190,-80457.7393105058,-80500.2775785988,-2415.4946702000
5401050589,4857,-2,0,-6720.1581168268,-80287.2820457132,-32502.1327348999,-12641.7746265575,-80528.9325046168,-49302.7166262675,-80473.5086455883,-80458.4937077088,-80501.5186836747,-2415.0201300239
5401050589,4857,-2,0,-6719.0751918095,-80286.4303069356,-32493.8587010603,-12641.8232973448,-80529.5530571548,-49472.5411708253,-80471.8903419109,-80457.7514782026,-80501.3240005256,-2414.6064283319
5401050589,4857,-2,0,-6719.3307134428,-80286.6614931752,-32467.8441652528,-12641.0567324449,-80533.3858816540,-49655.4703248614,-80471.1481124047,-80457.9948321391,-80501.0563111955,-2415.9327072856
5401050589,4857,-2,0,-6719.5740673793,-80286.5276485102,-32458.1100077945,-12640.6308630561,-80535.1136946029,-49608.8558783327,-80471.4523048252,-80458.8830740072,-80501.0563111955,-2417.6240171440
5401050589,4857,-2,0,-6719.2333718682,-80286.9291825053,-32479.4399803251,-12641.3852602591,-80532.6193167542,-49393.4024706889,-80470.9655969523,-80459.0290863690,-80501.0319758018,-2416.5897629140
5401080048,4858,-2,0,-6718.7344962985,-80285.9557667595,-32502.7532874378,-12641.4826018337,-80528.4457967439,-49294.6007724866,-80469.7609949669,-80456.7050562758,-80500.0707277528,-2415.0688008112
5401080048,4858,-2,0,-6719.4645581078,-80285.9922698500,-32499.9912202590,-12641.9328066162,-80528.9933431009,-49447.3905414923,-80471.6713233681,-80457.8123166867,-80501.4700128875,-2415.0079623271
5401080048,4858,-2,0,-6719.9756013744,-80287.7687535861,-32475.7288327941,-12642.1274897653,-80534.3592973999,-49647.6221604106,-80472.5352298425,-80458.6883908580,-80501.5430190684,-2416.6384337013
5401080048,4858,-2,0,-6718.5033100588,-80287.0751948672,-32461.0910935161,-12640.3996768165,-80535.7099117472,-49626.7545603593,-80471.8903419109,-80458.2138506819,-80501.1414850732,-2416.5045890363
5401080048,4858,-2,0,-6718.5033100588,-80286.6249900848,-32477.6999996794,-12640.3996768165,-80533.3615462604,-49412.4205808231,-80472.0850250600,-80457.9826644423,-80501.2631620415,-2415.5433409873
5401080048,4858,-2,0,-6719.7565828316,-80287.5132319528,-32502.7654551346,-12641.7016203765,-80530.4534667197,-49287.2758189992,-80472.3162112997,-80458.4693723152,-80501.7498699144,-2415.4581671095
5401080048,4858,-2,0,-6719.0021856286,-80287.0995302608,-32501.6460270269,-12640.8012108116,-80529.5165540643,-49412.5909285787,-80471.5496463998,-80457.8609874740,-80500.6304418067,-2414.3995774859
5401080048,4858,-2,0,-6718.1139437605,-80286.7101639625,-32476.7144162367,-12640.6430307529,-80532.8626706906,-49621.7779723587,-80470.5518952603,-80457.4351180852,-80500.4965971416,-2415.4459994127
5401141726,4859,-2,0,-6718.9170117508,-80285.6029035516,-32461.2249381811,-12640.8377139021,-80535.1258622997,-49640.2607038327,-80471.0507708301,-80457.3499442075,-80500.7642864717,-2417.8552033836
5401141726,4859,-2,0,-6719.3063780491,-80286.5519839038,-32475.5828204322,-12641.5556080147,-80534.0186018888,-49438.4472843274,-80471.0142677396,-80458.2138506819,-80501.3118328288,-2417.4415016916
5401141726,4859,-2,0,-6719.5862350761,-80286.3207976642,-32501.1106483667,-12641.9328066162,-80529.0785169787,-49282.4087402700,-80469.8705042383,-80456.8632363345,-80500.1437339337,-2415.3486578381
5401141726,4859,-2,0,-6719.9269305871,-80287.7687535861,-32504.3959265089,-12642.1031543717,-80528.8108276486,-49380.0423395773,-80470.3207090207,-80457.6906397185,-80500.8859634399,-2416.2734027966
5401141726,4859,-2,0,-6719.3185457460,-80287.1725364418,-32481.5814949659,-12641.5434403178,-80532.5706459669,-49599.9491242583,-80472.1093604537,-80458.2138506819,-80501.5065159779,-2416.2247320094
5401141726,4859,-2,0,-6718.6371547239,-80286.4546423292,-32462.9892542205,-12641.2149125036,-80535.4908932044,-49647.5369865328,-80471.5131433094,-80458.3111922565,-80501.2144912542,-2416.9061230314
5401141726,4859,-2,0,-6718.6979932080,-80286.3086299674,-32474.0253552389,-12640.2658321514,-80533.6414032873,-49461.7240883497,-80471.1237770110,-80457.4837888725,-80500.3019139924,-2416.5897629140
5401141726,4859,-2,0,-6719.0143533254,-80286.4424746324,-32501.1106483667,-12640.6308630561,-80529.9302557563,-49289.3808305495,-80471.2089508888,-80457.4472857820,-80500.3749201734,-2414.8376145715
5401147988,4860,1,0,-6719.3793842301,-80286.5154808134,-32508.8006327588,-12641.1905771100,-80527.9104180837,-49357.0210571883,-80470.7952491968,-80456.5468762172,-80499.9125476941,-2414.1805589431
5401147988,4860,1,0,-6720.0364398585,-80287.2820457132,-32487.9695357980,-12642.4195144891,-80531.3903793751,-49574.7741595317,-80471.6104848839,-80458.4207015279,-80501.2509943446,-2416.2612350998
5401147988,4860,1,0,-6718.9291794476,-80285.8949282754,-32465.4957997660,-12641.0202293544,-80534.7364960014,-49654.4969091156,-80470.1138581747,-80458.0678383200,-80500.6304418067,-2417.8187002932
5401147988,4860,1,0,-6718.7831670858,-80286.6614931752,-32472.2123684122,-12641.8963035257,-80533.4588878350,-49486.8260468954,-80470.2111997493,-80456.6320500949,-80499.6326906672,-2416.5532598236
5401147988,4860,1,0,-6718.9291794476,-80285.8827605786,-32498.2512396133,-12641.6772849829,-80529.6747341230,-49292.8972949314,-80471.1846154951,-80456.4130315521,-80499.5475167894,-2415.8353657110
5401147988,4860,1,0,-6718.9291794476,-80285.8340897913,-32508.6424527001,-12641.4095956528,-80528.5674737121,-49328.9015098305,-80470.2111997493,-80456.8145655472,-80500.0342246623,-2414.2900682145
5401147988,4860,1,0,-6719.1360302936,-80286.5519839038,-32491.0601307910,-12641.4339310464,-80530.9036715022,-49544.9024638313,-80471.0629385269,-80457.2404349361,-80500.4357586575,-2414.9836269334
5401147988,4860,1,0,-6719.1968687777,-80286.4059715419,-32468.0753514924,-12640.8985523862,-80535.6612409599,-49652.1485436287,-80471.7321618522,-80458.3963661342,-80501.0684788923,-2417.0277999997
5401179425,4861,1,0,-6719.1360302936,-80285.5298973707,-32469.7179905635,-12641.7381234670,-80534.3836327935,-49507.4016222230,-80472.0728573632,-80458.1530121978,-80500.4722617480,-2417.0643030901
5401179425,4861,1,0,-6720.4988123378,-80288.2676291559,-32497.6550224690,-12643.0522347239,-80532.3637951209,-49305.2475072067,-80473.2287885614,-80458.7248939485,-80502.1879070000,-2416.5410921267
5401179425,4861,1,0,-6720.5231477314,-80287.5132319528,-32511.8060538741,-12641.7016203765,-80529.6625664262,-49306.3304322239,-80471.8538388204,-80459.2481049118,-80501.8837145794,-2415.5676763809
5401179425,4861,1,0,-6718.8926763572,-80287.8539274639,-32494.6252659601,-12641.6286141956,-80530.9158391990,-49509.3849568052,-80471.6104848839,-80458.8952417040,-80501.7863730048,-2414.5455898478
5401179425,4861,1,0,-6719.0386887190,-80287.0386917767,-32470.2412015269,-12640.6795338434,-80534.9676822410,-49646.1133660046,-80471.4888079157,-80459.5157942419,-80501.8107083985,-2416.3950797649
5401179425,4861,1,0,-6719.1360302936,-80287.0143563831,-32468.7932456050,-12641.6894526797,-80536.3791350725,-49528.3665638489,-80473.4356394074,-80459.5522973324,-80501.3605036160,-2417.0399676965
5401179425,4861,1,0,-6719.6105704697,-80286.7831701435,-32492.9096207081,-12641.6164464988,-80532.4368013018,-49310.2727659945,-80472.1580312410,-80458.3963661342,-80501.1536527701,-2415.9205395888
5401179425,4861,1,0,-6718.7223286016,-80288.4623123050,-32509.6158684460,-12641.1662417163,-80529.8085787881,-49281.6908461574,-80471.8051680331,-80458.7613970389,-80502.1635716064,-2414.5212544541
5401206942,4862,1,0,-6719.5862350761,-80287.9269336448,-32497.7645317404,-12641.7502911638,-80531.3052054973,-49475.7656104834,-80472.3162112997,-80459.5766327261,-80501.3361682224,-2415.0079623271
5401206942,4862,1,0,-6718.6979932080,-80287.0508594736,-32471.5796481774,-12640.5821922688,-80535.2232038743,-49631.1836020028,-80471.8051680331,-80458.4693723152,-80501.5065159779,-2416.9912969092
5401206942,4862,1,0,-6718.4059684842,-80286.3086299674,-32464.7535702598,-12641.2149125036,-80534.3106266126,-49540.9114592734,-80470.6979076222,-80457.4351180852,-80500.4600940511,-2416.4680859458
5401206942,4862,1,0,-6719.0630241127,-80285.7489159135,-32488.0547096757,-12642.0058127971,-80531.6215656147,-49322.3674566365,-80470.5153921699,-80457.6541366280,-80500.5696033226,-2416.4924213395
5401206942,4862,1,0,-6719.5132288951,-80285.5420650675,-32506.6104473307,-12640.9228877799,-80527.5332194822,-49259.0954331572,-80470.8074168936,-80456.5955470044,-80501.0563111955,-2414.2900682145
5401206942,4862,1,0,-6719.1725333841,-80286.3938038451,-32499.0178045132,-12642.1883282494,-80530.3196220546,-49438.3256073592,-80471.7199941554,-80457.4716211757,-80500.8616280463,-2414.8011114811
5401206942,4862,1,0,-6718.7831670858,-80286.7953378403,-32473.4534734882,-12641.2149125036,-80534.0916080697,-49622.4593633808,-80471.2089508888,-80458.4085338311,-80501.1658204669,-2415.6406825619
5401206942,4862,1,0,-6718.9048440540,-80286.5884869943,-32464.2546946900,-12640.3753414228,-80534.3836327935,-49565.9769147287,-80471.2941247665,-80458.1773475914,-80501.0684788923,-2416.7357752759
5401242817,4863,1,0,-6719.9269305871,-80287.3185488037,-32486.2173874555,-12641.2027448068,-80532.9721799620,-49347.7371045124,-80471.1602801015,-80458.0800060168,-80501.0198081050,-2416.4437505522
5401242817,4863,1,0,-6719.9512659808,-80287.3915549846,-32510.0174024411,-12641.8232973448,-80529.2732001279,-49259.7646564825,-80470.4667213826,-80457.6054658407,-80501.3848390097,-2415.1539746889
5401242817,4863,1,0,-6718.7588316921,-80285.8949282754,-32503.7023677900,-12641.5556080147,-80528.6769829835,-49415.6571881780,-80470.1503612652,-80456.6077147013,-80500.1193985401,-2413.8520311289
5401242817,4863,1,0,-6719.2698749587,-80285.0918602851,-32478.6247446379,-12641.0932355354,-80532.6923229351,-49608.8802137264,-80470.6857399254,-80457.3012734202,-80499.6205229704,-2415.3973286254
5401242817,4863,1,0,-6719.5740673793,-80286.9170148085,-32466.3718739372,-12641.6651172861,-80535.5638993853,-49586.1387883643,-80472.3527143901,-80458.3720307406,-80500.7156156844,-2417.9160418677
5401242817,4863,1,0,-6720.1216137363,-80286.3694684515,-32484.8667731081,-12641.9084712225,-80533.5318940159,-49373.1189200850,-80471.0994416174,-80457.3621119043,-80500.2775785988,-2416.3342412808
5401242817,4863,1,0,-6718.6371547239,-80285.9435990627,-32508.3017571891,-12641.2392478973,-80528.4336290471,-49252.1111751809,-80470.8074168936,-80456.7537270631,-80499.3650013371,-2413.5721741020
5401242817,4863,1,0,-6720.1459491299,-80286.7223316593,-32509.5915330523,-12641.8841358289,-80529.3097032183,-49386.6737343458,-80471.1602801015,-80458.3355276501,-80500.7521187749,-2414.8619499652
5401267369,4864,1,0,-6719.2333718682,-80286.7344993562,-32485.7915180666,-12640.9350554767,-80532.4246336050,-49598.8783669379,-80471.2576216761,-80457.7636458994,-80500.0342246623,-2415.9448749824
5401267369,4864,1,0,-6719.7079120443,-80286.3207976642,-32472.0176852631,-12641.1054032322,-80535.2962100552,-49606.1424819412,-80471.6226525808,-80458.5423784961,-80501.0928142859,-2417.9890480487
5401267369,4864,1,0,-6718.5398131493,-80285.6637420357,-32485.8158534603,-12640.6795338434,-80532.1812796686,-49398.0505308752,-80470.7587461063,-80456.9605779091,-80500.3019139924,-2416.0057134665
5401267369,4864,1,0,-6719.6835766507,-80286.4424746324,-32511.9277308423,-12642.3830113986,-80529.8085787881,-49253.6443049806,-80471.1724477983,-80457.6906397185,-80500.6426095035,-2415.9570426792
5401267369,4864,1,0,-6719.2698749587,-80286.1261145150,-32514.5437856593,-12640.7282046307,-80528.5431383185,-49357.5686035453,-80471.0264354364,-80457.7758135963,-80500.8859634399,-2414.8376145715
5401267369,4864,1,0,-6718.7101609048,-80286.8196732339,-32491.4860001798,-12640.6065276625,-80531.2687024068,-49571.9877569592,-80471.1967831920,-80458.6883908580,-80501.3361682224,-2416.3707443712
5401267369,4864,1,0,-6719.6227381665,-80287.8660951607,-32474.2808768721,-12642.2004959463,-80536.5616505248,-49616.4850242407,-80472.8150868694,-80459.1385956404,-80501.6281929461,-2417.4171662980
5401267369,4864,1,0,-6718.8683409635,-80286.5154808134,-32484.6720899589,-12640.8255462053,-80533.8604218301,-49427.8978911819,-80470.7465784095,-80457.8366520804,-80499.6570260608,-2416.2612350998
5401330572,4865,1,0,-6718.6128193302,-80287.5375673465,-32511.2098367298,-12640.4726829974,-80529.9545911500,-49259.4239609715,-80471.4401371284,-80456.9119071218,-80499.7908707259,-2414.4969190605
5401330572,4865,1,0,-6719.2942103523,-80287.4523934687,-32518.2549331903,-12641.7381234670,-80529.4922186707,-49336.8348481590,-80473.0219377154,-80458.9317447944,-80501.7498699144,-2414.9227884493
5401330572,4865,1,0,-6719.3185457460,-80287.4158903783,-32496.0367187916,-12641.4460987432,-80532.9721799620,-49554.7704659547,-80472.1580312410,-80459.1385956404,-80502.2487454841,-2415.6528502587
5401330572,4865,1,0,-6718.9413471445,-80288.1216167940,-32475.1326156497,-12640.9593908703,-80536.6833274930,-49622.0334939920,-80473.5694840724,-80459.7469804816,-80503.3316705014,-2417.5388432662
5401330572,4865,1,0,-6719.8660921030,-80288.0486106130,-32481.2042963644,-12641.0445647481,-80535.6490732631,-49446.1859395068,-80473.1557823805,-80459.2967756991,-80501.6038575525,-2416.7114398823
5401330572,4865,1,0,-6718.7953347826,-80287.7930889798,-32506.1237394578,-12641.0445647481,-80531.9744288226,-49257.9760050495,-80471.7199941554,-80459.0899248531,-80501.7863730048,-2415.2999870508
5401330572,4865,1,0,-6719.2333718682,-80286.9535178990,-32516.2350955176,-12641.5556080147,-80527.9469211742,-49299.6868697586,-80472.4622236616,-80458.2868568628,-80501.4213421002,-2414.5334221510
5401330572,4865,1,0,-6718.6736578144,-80286.6614931752,-32495.0754707426,-12640.5213537847,-80530.8063299276,-49511.4412975682,-80471.1846154951,-80458.3598630438,-80500.9224665304,-2414.7037699065
5401359464,4866,1,0,-6719.4402227142,-80287.2698780164,-32471.3971327251,-12641.3852602591,-80535.8802595027,-49613.3822615508,-80472.0606896664,-80458.5667138898,-80501.3605036160,-2416.9182907283
5401359464,4866,1,0,-6720.2797937950,-80288.1216167940,-32474.7189139578,-12642.2613344304,-80537.5959047548,-49463.0625350002,-80473.5573163756,-80459.8443220562,-80504.0373969171,-2417.9038741709
5401359464,4866,1,0,-6719.5618996824,-80289.0706971462,-32498.6041028212,-12641.7746265575,-80532.2786212431,-49255.0922609025,-80473.2287885614,-80459.2602726087,-80502.0053915477,-2415.3243224445
5401359464,4866,1,0,-6719.0751918095,-80288.5353184860,-32511.9033954487,-12642.0423158876,-80530.0519327245,-49266.2743742828,-80472.6690745075,-80459.0290863690,-80501.5186836747,-2414.3995774859
5401359464,4866,1,0,-6718.5154777557,-80287.3672195910,-32493.8708687571,-12641.2392478973,-80530.5143052038,-49477.2865725862,-80471.6713233681,-80458.9560801881,-80501.6038575525,-2415.6893533491
5401359464,4866,1,0,-6719.0021856286,-80287.2212072291,-32468.4525500940,-12641.1540740195,-80534.8946760601,-49606.8238729633,-80472.0606896664,-80458.8830740072,-80500.9833050145,-2416.3707443712
5401359464,4866,1,0,-6719.1725333841,-80286.1261145150,-32468.0266807051,-12641.6286141956,-80535.4665578108,-49482.8107069439,-80472.5839006298,-80457.7393105058,-80500.7886218654,-2417.3684955107
5401359464,4866,1,0,-6719.2090364746,-80286.1869529991,-32491.7171864194,-12642.3100052177,-80530.5994790816,-49269.9733541170,-80470.2842059302,-80457.4107826916,-80499.6570260608,-2415.8718688015
5401366293,4867,1,0,-6719.5253965920,-80286.4181392388,-32507.6568692575,-12642.1518251590,-80528.1416043233,-49247.0980840898,-80470.3815475048,-80457.6663043249,-80500.2289078115,-2414.4239128796
5401366293,4867,1,0,-6719.1238625968,-80286.0166052436,-32492.3620743510,-12641.6407818924,-80530.0275973309,-49441.8420717410,-80471.4888079157,-80457.5324596598,-80499.9368830878,-2415.2634839603
5401366293,4867,1,0,-6719.3672165333,-80286.6736608721,-32467.1384388371,-12641.6164464988,-80533.7874156492,-49595.6539272798,-80472.2675405124,-80458.7857324326,-80501.2996651319,-2418.1107250169
5401366293,4867,1,0,-6719.2820426555,-80286.6128223879,-32461.9063292032,-12641.4217633496,-80535.4787255076,-49498.6652159041,-80472.6569068107,-80459.2116018214,-80500.8737957431,-2418.2810727724
5401366293,4867,1,0,-6719.0630241127,-80286.4303069356,-32482.7617615577,-12641.3000863814,-80531.8892549448,-49274.4754019414,-80471.8781742141,-80458.7127262516,-80501.0563111955,-2415.7015210460
5401366293,4867,1,0,-6719.3793842301,-80286.1017791214,-32501.0498098826,-12641.5677757115,-80528.4092936534,-49219.3800707272,-80470.8074168936,-80457.7393105058,-80501.2509943446,-2414.6794345128
5401366293,4867,1,0,-6720.3649676727,-80287.2090395323,-32491.5833417544,-12642.4803529732,-80531.7797456734,-49403.8301868661,-80473.0097700186,-80459.1750987309,-80502.3460870587,-2416.5289244299
5401366293,4867,1,0,-6719.7322474379,-80286.6128223879,-32464.1086823282,-12641.4947695305,-80534.5904836395,-49576.8305002947,-80471.0994416174,-80459.0534217627,-80501.7377022175,-2416.5654275204
5401395524,4868,1,0,-6718.9656825381,-80286.7588347498,-32454.8490650459,-12640.8377139021,-80536.8050044613,-49511.2466144191,-80472.5717329330,-80459.4184526674,-80501.1536527701,-2416.5775952172
5401395524,4868,1,0,-6719.5132288951,-80286.6858285689,-32474.9379325006,-12641.7502911638,-80533.0451861430,-49289.9527123002,-80472.0485219696,-80458.6762231612,-80501.1049819828,-2415.9570426792
5401395524,4868,1,0,-6719.6105704697,-80286.4181392388,-32495.8785387329,-12642.0179804939,-80528.9690077073,-49202.1384443291,-80471.1116093142,-80457.1552610583,-80500.6547772003,-2415.1053039016
5401395524,4868,1,0,-6718.8075024794,-80284.8485063486,-32487.3976540473,-12641.6772849829,-80528.2997843820,-49358.4203423229,-80469.9556781160,-80455.6464666523,-80499.1703181879,-2414.8984530557
5401395524,4868,1,0,-6719.5984027729,-80285.3230465247,-32461.8089876286,-12641.9693097066,-80532.0961057908,-49554.4297704437,-80470.8195845905,-80456.8875717282,-80498.8417903737,-2416.4559182490
5401395524,4868,1,0,-6719.5618996824,-80284.9701833168,-32449.8603093485,-12641.6529495892,-80535.1501976934,-49523.6576651785,-80469.4568025463,-80457.3499442075,-80500.3749201734,-2416.7357752759
5401395524,4868,1,0,-6718.4668069684,-80284.6294878058,-32467.9293391306,-12640.7647077212,-80531.9865965194,-49306.8049724000,-80470.2842059302,-80457.5202919630,-80499.7543676354,-2415.7258564396
5401395524,4868,1,0,-6719.3915519269,-80286.4546423292,-32491.5955094512,-12640.8255462053,-80528.7256537708,-49197.4903841427,-80471.0386031333,-80456.4373669457,-80500.4965971416,-2413.8398634321
5401426549,4869,1,0,-6718.3938007874,-80285.6150712485,-32490.0502119547,-12640.1684905768,-80528.4822998344,-49338.1124563254,-80470.0165166001,-80456.7293916695,-80500.0463923592,-2413.6573479797
5401426549,4869,1,0,-6718.9778502349,-80286.3816361483,-32465.5809736437,-12641.0932355354,-80533.1790308080,-49544.2940789902,-80470.6614045318,-80457.9339936550,-80501.2023235573,-2416.4072474617
5401426549,4869,1,0,-6719.6470735602,-80286.6249900848,-32451.4056068450,-12641.7624588606,-80535.5030609012,-49544.9389669218,-80471.9876834855,-80458.4207015279,-80501.0441434986,-2418.5122590121
5401426549,4869,1,0,-6720.0364398585,-80287.5132319528,-32466.7977433260,-12641.9084712225,-80533.6779063778,-49339.9862816362,-80471.9633480918,-80458.2990245596,-80500.9224665304,-2417.2103154520
5401426549,4869,1,0,-6719.0751918095,-80286.1991206960,-32491.4129939988,-12641.8719681320,-80528.9325046168,-49198.7679923091,-80471.0629385269,-80457.2282672392,-80500.2897462956,-2415.0809685080
5401426549,4869,1,0,-6719.9269305871,-80287.3063811068,-32493.7126886984,-12642.2369990367,-80529.6747341230,-49310.9906601071,-80471.4279694316,-80457.9461613518,-80500.4722617480,-2415.4216640190
5401426549,4869,1,0,-6718.5884839366,-80285.2743757374,-32468.5498916685,-12640.1806582737,-80531.9500934289,-49528.2935576680,-80471.1359447079,-80457.9826644423,-80499.5840198799,-2416.1760612221
5401426549,4869,1,0,-6718.8075024794,-80285.9922698500,-32452.8535627669,-12641.5434403178,-80534.8338375759,-49563.8840708751,-80471.4644725221,-80458.5667138898,-80500.0342246623,-2416.7236075791
5401455229,4870,1,0,-6718.9413471445,-80285.9192636690,-32464.5223840201,-12640.8012108116,-80534.2132850380,-49371.1720885934,-80471.7199941554,-80458.0800060168,-80501.3848390097,-2417.2346508457
5401455229,4870,1,0,-6718.8561732667,-80285.4933942802,-32491.2183108497,-12641.1054032322,-80529.8450818785,-49209.8892672053,-80470.5275598667,-80456.6320500949,-80500.3384170829,-2415.6771856523
5401455229,4870,1,0,-6718.9900179317,-80284.8363386518,-32497.2778238675,-12641.2635832909,-80526.9613377315,-49292.7756179631,-80469.4446348495,-80455.8654851951,-80498.7322811023,-2414.6307637255
5401455229,4870,1,0,-6717.9557637018,-80284.2522892043,-32474.9379325006,-12640.6795338434,-80530.0275973309,-49509.0685966878,-80469.6393179986,-80455.9506590728,-80498.8296226769,-2415.1053039016
5401455229,4870,1,0,-6719.3793842301,-80285.6759097326,-32453.9729908747,-12641.2149125036,-80534.1646142507,-49574.3239547492,-80469.8705042383,-80456.9484102123,-80499.2676597625,-2417.4171662980
5401455229,4870,1,0,-6718.6006516334,-80284.5199785344,-32462.7093971935,-12640.0954843959,-80533.7265771651,-49398.4033940831,-80469.3472932749,-80455.8046467110,-80499.4745106085,-2416.2855704935
5401455229,4870,1,0,-6718.8926763572,-80285.3473819184,-32489.3201501453,-12641.0689001417,-80529.1028523724,-49216.0947925850,-80470.2598705366,-80455.8289821046,-80499.6083552735,-2414.7524406938
5401455229,4870,1,0,-6718.8196701762,-80286.6614931752,-32498.5919351244,-12640.2293290610,-80528.4822998344,-49270.2775465375,-80471.3184601602,-80457.0944225742,-80501.1779881637,-2413.8520311289
5401486398,4871,1,0,-6719.2820426555,-80287.6592443147,-32480.0240297726,-12641.0080616576,-80531.7554102797,-49491.7174610182,-80471.6834910649,-80458.5058754056,-80501.4335097970,-2415.8597011047
5401486398,4871,1,0,-6719.7687505284,-80286.4668100261,-32459.6553052910,-12641.5556080147,-80535.8194210186,-49585.4330619485,-80471.9633480918,-80458.7005585548,-80501.1049819828,-2418.0133834423
5401486398,4871,1,0,-6719.2577072619,-80286.4181392388,-32463.5124651838,-12641.6894526797,-80534.8216698791,-49425.4035133332,-80471.4036340380,-80458.1773475914,-80500.1437339337,-2416.9061230314
5401486398,4871,1,0,-6720.0607752522,-80285.4812265834,-32489.3079824485,-12641.1175709290,-80530.1371066023,-49225.1232236276,-80470.4545536858,-80456.3278576743,-80499.4988460021,-2415.9327072856
5401486398,4871,1,0,-6719.9512659808,-80285.0796925882,-32503.6293616091,-12642.1518251590,-80527.8860826900,-49245.5041158060,-80469.8340011478,-80456.4495346426,-80499.4501752148,-2415.3121547476
5401486398,4871,1,0,-6719.9756013744,-80285.8340897913,-32487.3611509568,-12642.4681852764,-80529.9180880595,-49461.5902436846,-80471.1602801015,-80457.0092486964,-80500.3140816893,-2416.7601106696
5401486398,4871,1,0,-6718.7953347826,-80284.5078108376,-32464.2303592964,-12640.6795338434,-80532.7166583288,-49592.3686491376,-80470.1138581747,-80456.5103731267,-80499.3650013371,-2415.8962041951
5401486398,4871,1,0,-6718.6614901175,-80284.5686493217,-32466.6882340546,-12640.4118445133,-80533.2642046858,-49469.4140727418,-80469.4081317590,-80456.0236652538,-80498.5862687404,-2416.8452845473
5401513972,4872,1,0,-6719.3550488364,-80284.3739661725,-32493.1408069477,-12641.7259557702,-80529.2732001279,-49260.7502399252,-80469.7123241796,-80456.6928885790,-80499.2433243688,-2415.6406825619
5401513972,4872,1,0,-6720.6083216092,-80284.6173201090,-32509.5915330523,-12642.3100052177,-80526.4016236777,-49246.9277363343,-80470.1990320525,-80455.7924790141,-80498.4645917722,-2415.5068378968
5401513972,4872,1,0,-6718.8318378731,-80284.1184445392,-32496.0610541852,-12642.2369990367,-80528.1051012329,-49447.2201937367,-80469.0065977638,-80455.5126219872,-80497.8197038406,-2416.3585766744
5401513972,4872,1,0,-6719.7687505284,-80284.9945187105,-32471.0199341236,-12641.6894526797,-80533.2277015953,-49592.5146614995,-80470.5883983508,-80456.9119071218,-80499.6935291513,-2417.5023401758
5401513972,4872,1,0,-6719.4767258047,-80284.8971771359,-32467.6251467100,-12641.3730925623,-80534.0551049793,-49489.6489525584,-80470.6249014413,-80456.9605779091,-80499.8030384227,-2417.3928309044
5401513972,4872,1,0,-6719.7809182252,-80285.7124128230,-32492.6297636811,-12642.0788189780,-80531.4147147687,-49275.3149730222,-80470.7709138032,-80457.7758135963,-80500.3992555670,-2417.1008061806
5401513972,4872,1,0,-6718.8318378731,-80284.6294878058,-32511.7087122995,-12641.2879186845,-80527.0100085188,-49228.7370295840,-80468.6537345560,-80455.5491250777,-80498.5254302563,-2414.7281053001
5401513972,4872,1,0,-6719.3793842301,-80284.5321462312,-32503.0574798584,-12641.3000863814,-80528.7256537708,-49412.4449162168,-80469.0917716416,-80456.0845037379,-80499.4258398212,-2415.6163471682
5401560312,4873,1,0,-6719.5253965920,-80284.9215125295,-32477.3593041683,-12641.4339310464,-80533.4345524413,-49583.7052489997,-80469.7001564828,-80457.9948321391,-80499.6205229704,-2417.3198247234
5401560312,4873,1,0,-6719.1603656873,-80285.0431894978,-32470.4480523729,-12641.7259557702,-80534.1402788570,-49511.5264714460,-80469.9556781160,-80457.1674287551,-80499.3284982466,-2417.8673710805
5401560312,4873,1,0,-6719.3915519269,-80284.1427799329,-32490.8532799450,-12641.2757509877,-80530.2831189642,-49285.2803167202,-80470.5518952603,-80456.1696776156,-80499.2433243688,-2415.9813780729
5401560312,4873,1,0,-6718.9413471445,-80285.0188541041,-32511.0759920647,-12641.4095956528,-80527.3507040298,-49208.8185098848,-80469.7488272700,-80455.4761188967,-80498.0387223834,-2414.4847513637
5401560312,4873,1,0,-6719.0265210222,-80285.8949282754,-32503.7388708805,-12641.6529495892,-80529.8085787881,-49378.5092097776,-80470.6857399254,-80457.1674287551,-80500.1559016306,-2415.2026454762
5401560312,4873,1,0,-6719.9756013744,-80286.3207976642,-32479.0019432394,-12640.9715585672,-80532.7653291161,-49567.6682245871,-80470.9899323460,-80457.6541366280,-80501.2631620415,-2416.8209491537
5401560312,4873,1,0,-6719.1360302936,-80285.3960527056,-32467.6494821036,-12641.0567324449,-80535.6855763536,-49526.3953969636,-80471.8538388204,-80458.7613970389,-80500.7521187749,-2417.1008061806
5401560312,4873,1,0,-6719.6227381665,-80286.0044375468,-32487.5193310155,-12641.0080616576,-80532.9478445684,-49309.5305364883,-80471.0872739206,-80457.6663043249,-80501.1536527701,-2416.7114398823
5401598674,4874,1,0,-6719.1847010809,-80285.7610836103,-32510.6501226759,-12641.4704341369,-80528.2876166852,-49204.3164620604,-80470.1503612652,-80457.0214163932,-80499.2189889752,-2414.6672668160
5401598674,4874,1,0,-6719.9634336776,-80284.9823510137,-32507.9975647685,-12642.1396574622,-80528.9081692232,-49350.0367992119,-80470.2598705366,-80456.9849133028,-80499.9733861782,-2415.2878193540
5401598674,4874,1,0,-6718.8561732667,-80285.5907358548,-32482.3602275626,-12641.8354650416,-80531.9257580353,-49556.4374404195,-80470.5518952603,-80457.2039318456,-80500.1437339337,-2416.0178811634
5401598674,4874,1,0,-6719.2942103523,-80285.6880774294,-32469.9613445000,-12642.0666512812,-80535.7464148377,-49550.0980703747,-80470.5032244731,-80457.6176335376,-80500.0098892687,-2417.8308679900
5401598674,4874,1,0,-6719.4888935015,-80286.2721268769,-32485.9253627317,-12641.7381234670,-80533.1790308080,-49337.5162391811,-80470.9534292555,-80457.7271428090,-80500.0098892687,-2416.1273904348
5401598674,4874,1,0,-6718.7709993889,-80285.8219220944,-32511.6357061186,-12641.5677757115,-80529.0906846755,-49204.3651328476,-80471.0021000428,-80456.9605779091,-80500.0828954496,-2415.2878193540
5401598674,4874,1,0,-6719.0265210222,-80285.7245805199,-32512.8403081040,-12640.8498815989,-80529.4557155802,-49323.7910771648,-80470.3328767175,-80457.1552610583,-80501.1536527701,-2414.4969190605
5401598674,4874,1,0,-6718.2477884255,-80285.5785681580,-32488.0790450694,-12640.8863846894,-80531.5363917369,-49533.6473442701,-80470.1260258715,-80457.0944225742,-80499.5718521831,-2415.6893533491
5401616358,4875,1,0,-6719.9025951935,-80285.8705928817,-32471.1659464855,-12641.2270802004,-80535.0771915124,-49559.4428615347,-80471.2697893729,-80458.3111922565,-80500.6182741098,-2416.8087814569
5401616358,4875,1,0,-6719.6470735602,-80286.0166052436,-32484.0272020273,-12641.4460987432,-80534.8216698791,-49364.5893646122,-80472.1458635442,-80458.4572046183,-80500.8859634399,-2416.4924213395
5401616358,4875,1,0,-6720.0364398585,-80284.9823510137,-32509.1169928762,-12641.3852602591,-80528.7621568613,-49202.1506120259,-80470.6492368349,-80456.9362425155,-80499.5718521831,-2415.3729932317
5401616358,4875,1,0,-6719.2820426555,-80285.0310218010,-32513.1931713119,-12641.2270802004,-80527.3020332426,-49287.2028128182,-80470.5275598667,-80456.3035222807,-80499.3284982466,-2414.8254468747
5401616358,4875,1,0,-6718.9170117508,-80284.7755001677,-32489.1984731771,-12640.5821922688,-80531.3660439814,-49504.7977351029,-80469.7244918764,-80457.1795964519,-80499.0364735229,-2416.3099058871
5401616358,4875,1,0,-6718.7588316921,-80285.8097543976,-32469.9370091064,-12641.5677757115,-80534.3836327935,-49561.6087115692,-80471.5861494903,-80458.4815400120,-80499.9368830878,-2417.3563278139
5401616358,4875,1,0,-6718.5519808461,-80284.1549476297,-32477.7730058603,-12640.3023352419,-80532.5828136637,-49376.6597198605,-80469.1769455194,-80456.8632363345,-80499.7178645449,-2416.5532598236
5401616358,4875,1,0,-6719.1116949000,-80284.3009599916,-32503.4590138536,-12640.9715585672,-80529.1028523724,-49198.6706507345,-80470.1016904779,-80456.7537270631,-80499.7543676354,-2414.4725836668
5401647600,4876,1,0,-6720.0851106458,-80285.7732513072,-32512.9619850723,-12642.5290237605,-80528.8960015264,-49259.8619980571,-80470.8074168936,-80457.8731551708,-80500.3992555670,-2415.1904777794
5401647600,4876,1,0,-6719.7200797411,-80286.2477914832,-32491.3764909084,-12642.1518251590,-80531.3417085878,-49475.3519087914,-80471.4401371284,-80458.3476953469,-80501.0319758018,-2416.6992721854
5401647600,4876,1,0,-6720.1337814331,-80285.6150712485,-32468.9757610573,-12641.2514155941,-80535.1501976934,-49562.0710840485,-80471.5618140967,-80459.3697818801,-80501.4578451906,-2418.0133834423
5401647600,4876,1,0,-6718.7588316921,-80284.2766245979,-32473.0032687057,-12641.2027448068,-80534.8460052728,-49402.1510447046,-80470.5640629572,-80457.9096582613,-80500.3505847797,-2416.3829120681
5401647600,4876,1,0,-6718.3816330906,-80285.0553571946,-32498.8474567577,-12640.9715585672,-80529.7842433944,-49205.6670764077,-80470.0651873874,-80456.7780624568,-80499.3893367307,-2414.6307637255
5401647600,4876,1,0,-6718.7709993889,-80284.9215125295,-32511.6843769059,-12641.3244217750,-80527.3507040298,-49233.1417358339,-80470.1503612652,-80456.5225408235,-80499.6448583640,-2414.4117451827
5401647600,4876,1,0,-6720.1094460395,-80285.7124128230,-32495.3431600727,-12642.2613344304,-80530.9523422894,-49451.2355336883,-80471.9755157886,-80457.8731551708,-80501.0806465891,-2416.2490674030
5401647600,4876,1,0,-6719.6470735602,-80285.3595496152,-32471.7134928425,-12641.6042788019,-80534.2497881285,-49568.9214973598,-80470.7952491968,-80457.8123166867,-80500.2167401147,-2417.0034646060
5401675285,4877,1,0,-6719.2820426555,-80285.2257049501,-32473.0032687057,-12641.3122540782,-80535.5030609012,-49433.1908392999,-80470.7465784095,-80457.1552610583,-80499.8638769068,-2417.1981477552
5401675285,4877,1,0,-6719.2698749587,-80284.6051524122,-32499.6505247480,-12641.9206389193,-80530.7089883530,-49227.2525705716,-80470.6614045318,-80457.4351180852,-80499.7908707259,-2415.9935457697
5401675285,4877,1,0,-6719.4523904110,-80285.9435990627,-32516.5392879382,-12641.1905771100,-80528.0077596583,-49223.4319137692,-80470.5762306540,-80456.2305160997,-80500.0098892687,-2414.3509066986
5401675285,4877,1,0,-6720.1094460395,-80285.5055619770,-32502.6437781664,-12642.2004959463,-80530.3804605388,-49426.3404259886,-80470.7587461063,-80457.9461613518,-80500.8007895622,-2415.6771856523
5401675285,4877,1,0,-6719.6349058634,-80286.7953378403,-32478.3083845205,-12642.1031543717,-80534.7121606077,-49571.4888813895,-80471.9511803950,-80459.2967756991,-80501.0441434986,-2417.1981477552
5401675285,4877,1,0,-6719.3428811396,-80287.0508594736,-32477.7851735571,-12641.1054032322,-80536.1966196201,-49466.3599808392,-80472.5230621457,-80459.0655894595,-80501.8472114890,-2417.8430356868
5401675285,4877,1,0,-6719.6105704697,-80287.3185488037,-32502.6194427728,-12642.0058127971,-80533.1181923239,-49249.8844866623,-80471.8416711236,-80459.5522973324,-80502.0662300318,-2415.9083718920
5401675285,4877,1,0,-6718.5033100588,-80287.1847041386,-32520.9196587945,-12641.6286141956,-80529.6138956389,-49212.2376326921,-80471.7199941554,-80458.5667138898,-80501.1171496796,-2414.1562235495
5401724182,4878,1,0,-6718.1261114573,-80285.4690588866,-32509.1169928762,-12639.8156273690,-80529.3583740056,-49404.4750747978,-80470.5275598667,-80457.8853228677,-80499.7178645449,-2414.2657328209
5401724182,4878,1,0,-6719.3550488364,-80287.4280580751,-32485.7793503698,-12641.4704341369,-80534.6391544268,-49572.8394957368,-80472.7055775980,-80458.8952417040,-80501.4821805843,-2417.0764707870
5401724182,4878,1,0,-6718.0044344891,-80285.1892018597,-32479.5251542028,-12641.0202293544,-80535.3083777521,-49491.1820823580,-80471.2576216761,-80457.9461613518,-80499.5110136990,-2416.6627690950
5401724182,4878,1,0,-6720.1581168268,-80286.6249900848,-32503.0574798584,-12641.9206389193,-80532.5706459669,-49272.8692659608,-80471.4523048252,-80458.9317447944,-80501.2388266478,-2416.5654275204
5401724182,4878,1,0,-6719.6227381665,-80287.0630271704,-32525.4095389221,-12641.4217633496,-80529.2366970374,-49204.0731081239,-80471.8295034268,-80458.5545461929,-80501.4091744033,-2415.4459994127
5401724182,4878,1,0,-6718.7466639953,-80286.3451330578,-32517.4031944126,-12641.4947695305,-80530.3196220546,-49372.9850754200,-80471.9876834855,-80457.8609874740,-80500.8251249558,-2414.7037699065
5401724182,4878,1,0,-6719.2577072619,-80286.9778532926,-32491.8753664781,-12641.1905771100,-80533.5562294095,-49560.1729233441,-80472.4622236616,-80458.0921737137,-80501.1049819828,-2416.7114398823
5401724182,4878,1,0,-6720.1216137363,-80287.0630271704,-32483.2849725211,-12641.5191049242,-80536.9875199136,-49515.8460038181,-80472.9976023218,-80460.1728498704,-80501.5065159779,-2417.7700295059
5401740521,4879,1,0,-6718.5276454525,-80286.1382822118,-32502.7046166505,-12641.7016203765,-80532.9721799620,-49295.0144741786,-80471.1359447079,-80457.2526026329,-80501.0928142859,-2416.3099058871
5401740521,4879,1,0,-6719.0630241127,-80286.2599591801,-32525.8840790982,-12641.6407818924,-80529.0298461914,-49195.7139004065,-80471.0751062237,-80457.6784720217,-80501.7255345207,-2414.0588819749
5401740521,4879,1,0,-6719.3063780491,-80287.8539274639,-32521.7957329657,-12642.1153220685,-80530.8306653212,-49347.9074522679,-80472.4500559647,-80458.5545461929,-80501.6890314303,-2415.2999870508
5401740521,4879,1,0,-6719.6349058634,-80286.6614931752,-32496.5112589677,-12642.0666512812,-80535.2353715711,-49546.3869228437,-80472.6569068107,-80459.7834835720,-80501.2509943446,-2416.9912969092
5401740521,4879,1,0,-6719.9025951935,-80287.5132319528,-32483.3336433084,-12642.5776945478,-80537.2795446374,-49528.6342531791,-80473.3869686201,-80460.5500484719,-80501.7133668239,-2418.2810727724
5401740521,4879,1,0,-6719.9147628903,-80286.2234560896,-32499.0664753005,-12641.7016203765,-80534.2862912189,-49318.4859613500,-80472.3892174806,-80459.8199866625,-80501.7133668239,-2416.7236075791
5401740521,4879,1,0,-6720.0486075553,-80287.4158903783,-32523.6695582765,-12642.5411914573,-80530.7941622307,-49191.5038773058,-80472.5230621457,-80458.8222355230,-80501.7377022175,-2414.3630743954
5401740521,4879,1,0,-6720.0364398585,-80287.8539274639,-32523.0125026480,-12641.7381234670,-80530.6968206562,-49312.8644854178,-80472.6812422044,-80458.3841984374,-80501.8228760953,-2415.3729932317
5401768321,4880,1,0,-6719.4402227142,-80287.2090395323,-32499.3706677211,-12641.8719681320,-80533.7144094682,-49525.4098135210,-80472.3405466933,-80459.5766327261,-80502.1635716064,-2416.3220735839
5401768321,4880,1,0,-6719.8660921030,-80286.7953378403,-32483.7108419099,-12642.0423158876,-80537.3890539088,-49540.9722977575,-80473.1071115932,-80459.9659990244,-80501.8350437921,-2417.4901724789
5401768321,4880,1,0,-6719.1725333841,-80285.6637420357,-32495.8542033392,-12641.4947695305,-80533.7265771651,-49334.8393458801,-80471.2454539793,-80457.6663043249,-80501.0928142859,-2416.2490674030
5401768321,4880,1,0,-6719.6105704697,-80286.5033131165,-32520.6884725548,-12641.0080616576,-80530.5143052038,-49180.9788195540,-80471.8903419109,-80458.5545461929,-80501.1293173764,-2415.1418069921
5401768321,4880,1,0,-6719.6835766507,-80287.5497350433,-32524.7646509905,-12641.9206389193,-80530.0397650277,-49279.3059775802,-80472.3892174806,-80459.3576141832,-80501.7620376112,-2415.1053039016
5401768321,4880,1,0,-6719.6227381665,-80288.1702875813,-32500.7821205525,-12641.3974279560,-80533.1790308080,-49494.6985467399,-80472.4257205711,-80460.1971852640,-80502.6502794793,-2416.1517258284
5401768321,4880,1,0,-6719.0751918095,-80286.6736608721,-32481.2164640612,-12640.6673661466,-80537.5107308770,-49542.9434646428,-80473.1192792900,-80459.4792911515,-80502.1757393032,-2416.6140983077
5401768321,4880,1,0,-6718.4059684842,-80286.7831701435,-32491.6806833289,-12640.3388383324,-80535.3935516298,-49359.3329195846,-80471.9025096077,-80459.0534217627,-80501.6160252493,-2415.6771856523
5401795367,4881,1,0,-6719.1847010809,-80286.0166052436,-32517.5370390777,-12640.3631737260,-80530.5386405975,-49184.9941595055,-80471.2089508888,-80458.5180431025,-80500.3140816893,-2414.8132791779
5401795367,4881,1,0,-6718.8440055699,-80286.1382822118,-32525.8840790982,-12641.9571420098,-80529.0176784946,-49249.5802942417,-80472.0363542728,-80458.4693723152,-80500.9589696209,-2415.1904777794
5401795367,4881,1,0,-6719.8782597998,-80286.8805117180,-32504.2985849343,-12642.1883282494,-80532.9843476589,-49469.1950541990,-80471.7808326395,-80459.3576141832,-80501.9688884572,-2416.1030550411
5401795367,4881,1,0,-6719.3185457460,-80287.0630271704,-32483.0781216751,-12640.9958939608,-80536.9631845200,-49550.3414243112,-80472.7055775980,-80459.6983096943,-80502.8449626284,-2416.8939553346
5401795367,4881,1,0,-6718.9778502349,-80288.3284676400,-32489.6000071722,-12641.5921111051,-80536.9510168231,-49383.4371269909,-80472.5230621457,-80460.0633405990,-80501.8350437921,-2417.7700295059
5401795367,4881,1,0,-6720.0486075553,-80287.4037226814,-32515.5780398892,-12641.8719681320,-80531.7675779766,-49191.3700326407,-80472.0728573632,-80459.0412540658,-80502.8692980221,-2416.2125643125
5401795367,4881,1,0,-6719.2333718682,-80285.7002451262,-32526.3586192743,-12640.0224782150,-80529.4922186707,-49228.0556385619,-80471.8781742141,-80457.6541366280,-80499.8638769068,-2414.2657328209
5401795367,4881,1,0,-6718.3451300001,-80284.9458479232,-32508.3747633700,-12640.2414967578,-80530.6846529593,-49442.1340964648,-80470.8074168936,-80457.6784720217,-80500.1437339337,-2413.5600064051
5401838902,4882,1,0,-6718.9535148413,-80285.8949282754,-32486.6675922379,-12640.9228877799,-80535.0041853315,-49553.7483794216,-80471.8051680331,-80458.0069998359,-80499.8638769068,-2417.3684955107
5401838902,4882,1,0,-6719.3550488364,-80286.2356237864,-32490.4882490403,-12642.4195144891,-80536.4278058598,-49413.7103566864,-80472.1823666346,-80458.8952417040,-80501.6160252493,-2418.2080665915
5401838902,4882,1,0,-6719.4280550174,-80285.6394066421,-32514.6532949307,-12641.5799434083,-80530.5873113847,-49205.0343561729,-80470.7587461063,-80457.5446273566,-80501.2509943446,-2415.8597011047
5401838902,4882,1,0,-6720.3771353696,-80286.6006546911,-32530.1427729863,-12642.2491667336,-80528.7621568613,-49207.1880385106,-80471.1724477983,-80457.7028074153,-80499.7300322418,-2414.8741176620
5401838902,4882,1,0,-6719.5618996824,-80286.8318409308,-32515.2495120750,-12641.4460987432,-80531.5120563433,-49416.6427716207,-80471.6956587617,-80458.9439124913,-80500.7764541685,-2416.1517258284
5401838902,4882,1,0,-6720.4136384600,-80286.6979962657,-32491.3643232116,-12642.5533591541,-80535.3935516298,-49554.7461305611,-80473.0827761995,-80460.1363467799,-80502.4677640269,-2417.7578618090
5401838902,4882,1,0,-6719.1847010809,-80285.6029035516,-32490.0380442579,-12640.7160369339,-80535.1258622997,-49436.0989188406,-80471.3062924634,-80458.1043414105,-80501.2144912542,-2416.7114398823
5401838902,4882,1,0,-6718.8805086603,-80285.5907358548,-32514.2152578450,-12641.1054032322,-80531.6702364020,-49221.8987839695,-80471.4158017348,-80457.8609874740,-80500.3140816893,-2416.0178811634
5401870307,4883,1,0,-6719.5984027729,-80286.3329653610,-32532.2599522335,-12641.7624588606,-80529.0785169787,-49194.5579692084,-80471.5496463998,-80457.6176335376,-80500.4600940511,-2415.4216640190
5401870307,4883,1,0,-6719.1360302936,-80285.9801021531,-32519.5812121440,-12641.6164464988,-80531.1348577418,-49386.0896848983,-80471.3306278570,-80457.2526026329,-80500.3262493861,-2415.2756516572
5401870307,4883,1,0,-6719.3063780491,-80286.6371577816,-32494.1628934808,-12642.4073467923,-80535.5882347790,-49546.0340596359,-80471.9511803950,-80459.3697818801,-80501.4213421002,-2417.6970233249
5401870307,4883,1,0,-6718.8318378731,-80285.9557667595,-32487.5680018028,-12641.3244217750,-80535.6490732631,-49458.9985242614,-80470.8560876809,-80458.3111922565,-80500.9833050145,-2417.5631786599
5401870307,4883,1,0,-6719.4523904110,-80285.1405310724,-32510.0295701379,-12641.5434403178,-80532.1691119717,-49238.0331499567,-80470.8195845905,-80457.3864472979,-80500.0098892687,-2416.8209491537
5401870307,4883,1,0,-6719.0143533254,-80285.7245805199,-32530.3131207418,-12641.6286141956,-80529.5895602453,-49175.8805545851,-80470.6979076222,-80458.1408445009,-80500.0707277528,-2414.9349561461
5401870307,4883,1,0,-6718.9048440540,-80285.3960527056,-32520.7493110390,-12640.8863846894,-80530.0154296341,-49356.3883369535,-80470.6005660476,-80456.9849133028,-80499.9977215719,-2414.4604159700
5401870307,4883,1,0,-6717.4812235257,-80285.8705928817,-32495.7203586742,-12640.2049936673,-80533.5683971064,-49538.5022553025,-80471.3792986443,-80457.6784720217,-80499.8760446036,-2415.3486578381
5401897505,4884,1,0,-6719.4037196237,-80287.6349089211,-32487.9330327075,-12641.3365894718,-80536.6954951899,-49485.3780909735,-80474.0561919454,-80459.9173282371,-80502.4555963301,-2417.4536693885
5401897505,4884,1,0,-6719.8660921030,-80287.9512690385,-32509.2386698445,-12642.3465083081,-80534.8703406664,-49269.6083232123,-80472.3283789965,-80459.2237695182,-80502.6989502666,-2417.4415016916
5401897505,4884,1,0,-6718.7223286016,-80286.7344993562,-32532.0165982970,-12640.5821922688,-80529.3948770961,-49177.7300445022,-80471.3427955538,-80457.1917641488,-80500.8494603495,-2413.8885342193
5401897505,4884,1,0,-6720.4258061569,-80286.4789777229,-32529.2058603309,-12641.8354650416,-80529.6747341230,-49331.3593845887,-80471.4644725221,-80457.2769380265,-80500.7521187749,-2415.8597011047
5401897505,4884,1,0,-6719.3307134428,-80285.1648664660,-32503.8240447582,-12641.9206389193,-80533.5805648032,-49531.4936619324,-80471.3306278570,-80458.4207015279,-80500.0098892687,-2416.3099058871
5401897505,4884,1,0,-6718.9048440540,-80284.1306122361,-32493.2868193096,-12640.7282046307,-80534.6878252141,-49512.3538748300,-80470.4058828985,-80457.1674287551,-80499.3163305498,-2417.1981477552
5401897505,4884,1,0,-6718.5033100588,-80283.5952335758,-32511.9277308423,-12641.0810678386,-80531.9987642162,-49299.5895281840,-80469.8096657541,-80455.9993298601,-80498.6836103150,-2415.5190055936
5401897505,4884,1,0,-6719.4402227142,-80283.9602644805,-32537.3217141118,-12640.7160369339,-80527.0951823966,-49179.8958945367,-80469.4568025463,-80455.6221312586,-80498.8296226769,-2415.2026454762
5401958942,4885,1,0,-6719.1725333841,-80283.4857243044,-32537.4068879896,-12641.8841358289,-80527.5818902695,-49313.2295163225,-80470.1138581747,-80455.7559759237,-80498.7079457086,-2415.2269808699
5401958942,4885,1,0,-6718.6614901175,-80284.1427799329,-32513.4000221579,-12641.5677757115,-80531.0618515608,-49520.2872131585,-80469.0309331575,-80456.7537270631,-80498.9878027356,-2416.4559182490
5401958942,4885,1,0,-6719.4645581078,-80284.0819414488,-32497.6915255595,-12641.7502911638,-80534.3106266126,-49527.4418188904,-80470.8804230746,-80457.3499442075,-80499.0486412197,-2417.7943648995
5401958942,4885,1,0,-6720.4623092473,-80285.3230465247,-32512.5482833803,-12641.8598004352,-80533.3980493508,-49326.6383182214,-80470.2111997493,-80457.4107826916,-80499.8517092100,-2417.1494769679
5401958942,4885,1,0,-6718.3207946065,-80283.8142521187,-32536.6159876961,-12640.8377139021,-80527.5940579663,-49180.2974285319,-80469.3959640622,-80455.6829697427,-80498.3185794103,-2415.3121547476
5401958942,4885,1,0,-6719.0630241127,-80283.8994259964,-32538.8548439115,-12641.1540740195,-80527.6670641472,-49283.0779635953,-80470.2233674461,-80455.9384913760,-80498.4037532881,-2414.9957946302
5401958942,4885,1,0,-6719.5740673793,-80285.1648664660,-32516.2472632145,-12641.4704341369,-80531.4390501624,-49499.8576501928,-80470.3450444144,-80456.6442177917,-80499.7665353322,-2416.5167567331
5401958942,4885,1,0,-6719.3428811396,-80284.7511647740,-32496.9614637501,-12640.8985523862,-80535.2475392679,-49541.6780241732,-80470.6979076222,-80457.6906397185,-80499.9247153909,-2416.9304584251
5401990448,4886,1,0,-6719.7565828316,-80286.1747853023,-32507.8758878003,-12640.7160369339,-80534.7243283046,-49349.7326067913,-80471.4644725221,-80458.7979001294,-80500.7764541685,-2416.5897629140
5401990448,4886,1,0,-6720.1824522204,-80285.8827605786,-32533.3185418571,-12642.1153220685,-80531.3417085878,-49179.8228883558,-80472.5108944488,-80458.7613970389,-80502.3460870587,-2415.7988626206
5401990448,4886,1,0,-6719.2577072619,-80286.2477914832,-32538.4776453100,-12642.2856698240,-80529.3705417024,-49253.7903173424,-80471.5253110062,-80458.2381860755,-80500.1072308433,-2415.3121547476
5401990448,4886,1,0,-6719.3915519269,-80285.2865434342,-32516.0525800653,-12642.2248313399,-80532.4489689987,-49468.6110047515,-80472.1580312410,-80458.7857324326,-80501.1414850732,-2416.6627690950
5401990448,4886,1,0,-6719.3307134428,-80285.5664004612,-32493.3719931873,-12641.9328066162,-80535.7829179281,-49539.0741370531,-80470.9169261650,-80458.1286768041,-80500.6304418067,-2417.3076570266
5401990448,4886,1,0,-6719.1603656873,-80285.2257049501,-32500.3684188605,-12640.9107200830,-80535.3570485393,-49368.7507169256,-80471.0751062237,-80457.9218259581,-80500.8981311368,-2416.7114398823
5401990448,4886,1,0,-6719.0873595063,-80285.3352142215,-32525.4217066190,-12640.4240122101,-80529.7964110913,-49180.4556085906,-80470.1016904779,-80456.7658947600,-80499.9247153909,-2415.7258564396
5401990448,4886,1,0,-6718.8196701762,-80284.8728417423,-32534.7056592949,-12640.5578568752,-80527.8860826900,-49220.2804802921,-80470.8074168936,-80456.5712116108,-80499.8517092100,-2414.3022359113
5401996487,4887,1,0,-6719.1116949000,-80285.0066864073,-32515.2008412877,-12642.5776945478,-80530.0032619373,-49439.8830725525,-80470.4180505953,-80457.1430933615,-80500.0220569655,-2415.7501918333
5401996487,4887,1,0,-6719.1360302936,-80284.7268293804,-32492.9217884049,-12642.4316821859,-80534.7364960014,-49545.7420349121,-80470.8804230746,-80457.8488197772,-80500.6061064130,-2418.3175758629
5401996487,4887,1,0,-6719.5010611983,-80284.6538231994,-32494.5765951728,-12642.2004959463,-80534.1524465539,-49393.7918369872,-80470.4545536858,-80457.2526026329,-80499.6935291513,-2417.4780047821
5401996487,4887,1,0,-6720.1459491299,-80285.9192636690,-32519.5690444471,-12642.2735021272,-80531.5728948274,-49192.2704422056,-80471.0507708301,-80458.0191675327,-80500.6669448971,-2416.4315828553
5401996487,4887,1,0,-6718.6614901175,-80284.3496307789,-32532.6249831382,-12640.7160369339,-80528.0564304456,-49204.7058283587,-80469.7366595732,-80456.0236652538,-80499.3771690339,-2414.8132791779
5401996487,4887,1,0,-6718.8926763572,-80284.0576060551,-32517.4396975031,-12640.9593908703,-80530.0884358150,-49413.9780460165,-80470.9047584682,-80458.2138506819,-80500.3749201734,-2415.6771856523
5401996487,4887,1,0,-6719.0630241127,-80284.8850094391,-32492.2160619892,-12641.4217633496,-80533.2520369890,-49546.7397860516,-80469.6149826050,-80457.4107826916,-80499.2676597625,-2416.8696199410
5401996487,4887,1,0,-6719.4767258047,-80285.1405310724,-32493.4571670651,-12641.2879186845,-80534.4931420649,-49430.2462566687,-80470.2842059302,-80457.5202919630,-80499.5353490926,-2417.1616446647
5402015463,4888,1,0,-6719.4158873206,-80285.3717173120,-32519.7150568090,-12641.5434403178,-80532.1326088813,-49219.3192322430,-80470.7830815000,-80457.4107826916,-80500.2654109020,-2416.3707443712
5402015463,4888,1,0,-6719.4888935015,-80285.6880774294,-32537.4798941705,-12641.6286141956,-80529.5895602453,-49195.6408942256,-80470.9655969523,-80457.4351180852,-80501.3726713129,-2416.1760612221
5402015463,4888,1,0,-6718.4668069684,-80284.5443139280,-32522.4162855037,-12640.9837262640,-80530.2952866610,-49391.6016515591,-80470.6857399254,-80456.5468762172,-80499.0608089165,-2415.5676763809
5402015463,4888,1,0,-6719.8295890125,-80285.1526987692,-32497.2899915643,-12641.9936451003,-80534.3227943094,-49545.9610534549,-80470.8925907714,-80458.5667138898,-80499.7543676354,-2417.2468185425
5402015463,4888,1,0,-6718.8926763572,-80284.6659908963,-32491.1818077592,-12641.2757509877,-80534.2011173412,-49447.5122184605,-80469.6636533923,-80456.3035222807,-80499.6083552735,-2416.9061230314
5402015463,4888,1,0,-6720.5961539124,-80286.5884869943,-32513.6312083975,-12642.2491667336,-80533.5197263191,-49231.3165813105,-80471.5374787030,-80457.0700871805,-80501.7985407017,-2416.9304584251
5402015463,4888,1,0,-6718.9656825381,-80285.4568911898,-32532.9778463460,-12642.1396574622,-80528.9933431009,-49178.9103110941,-80470.5032244731,-80457.1309256646,-80500.3019139924,-2415.0809685080
5402015463,4888,1,0,-6719.2212041714,-80285.4203880993,-32522.7569810147,-12641.4217633496,-80530.8063299276,-49359.4910996433,-80470.5640629572,-80458.0069998359,-80500.9102988336,-2415.1904777794
5402045756,4889,1,0,-6719.7079120443,-80286.2599591801,-32497.7645317404,-12641.4339310464,-80535.0285207251,-49536.7622746568,-80472.2188697251,-80458.6032169802,-80500.6426095035,-2416.3220735839
5402045756,4889,1,0,-6719.7809182252,-80286.3573007547,-32489.6121748690,-12642.0423158876,-80536.7319982803,-49478.1139759702,-80472.1215281505,-80459.3211110928,-80501.1536527701,-2418.0620542296
5402045756,4889,1,0,-6719.4158873206,-80285.8949282754,-32510.0052347443,-12641.7259557702,-80532.8870060843,-49255.2747763548,-80471.1724477983,-80457.3499442075,-80499.9247153909,-2416.2125643125
5402045756,4889,1,0,-6719.0143533254,-80285.2622080406,-32529.9480898371,-12641.1175709290,-80528.3484551693,-49166.8399558457,-80470.3815475048,-80456.6563854885,-80499.6935291513,-2415.3121547476
5402045756,4889,1,0,-6719.5740673793,-80285.2378726469,-32524.2536077240,-12641.7867942543,-80529.1393554628,-49327.2588707594,-80470.6127337445,-80456.6685531854,-80500.4722617480,-2415.5433409873
5402045756,4889,1,0,-6719.2455395650,-80284.9945187105,-32496.9979668406,-12641.5799434083,-80533.4345524413,-49522.2340446502,-80470.7344107127,-80457.0944225742,-80500.5087648384,-2416.4315828553
5402045756,4889,1,0,-6718.9900179317,-80284.4348046566,-32484.7085930494,-12640.5456891783,-80535.5273962949,-49491.4619393850,-80471.0021000428,-80458.5667138898,-80500.2410755083,-2416.7844460632
5402045756,4889,1,0,-6720.4744769441,-80286.6249900848,-32504.4932680835,-12642.2369990367,-80534.6269867300,-49280.3280641133,-80472.8880930504,-80459.1994341245,-80502.3582547555,-2417.7821972027
5402093393,4890,1,0,-6719.0995272032,-80285.5177296739,-32527.1495195678,-12641.1662417163,-80529.5287217611,-49167.5821853519,-80470.3815475048,-80457.3012734202,-80500.8372926526,-2415.8110303174
5402093393,4890,1,0,-6719.9390982839,-80285.6394066421,-32526.1274330347,-12641.7259557702,-80530.4778021133,-49302.4002661501,-80472.2553728156,-80458.2381860755,-80500.6061064130,-2416.0057134665
5402093393,4890,1,0,-6719.4158873206,-80285.6272389453,-32500.2832449828,-12641.5191049242,-80533.7630802555,-49507.4016222230,-80470.8925907714,-80457.9339936550,-80500.7277833812,-2416.6749367918
5402093393,4890,1,0,-6719.4402227142,-80285.7732513072,-32485.3778163747,-12641.7381234670,-80535.9410979868,-49510.3583725510,-80471.8051680331,-80458.0069998359,-80501.2144912542,-2417.8673710805
5402093393,4890,1,0,-6719.8417567094,-80284.9215125295,-32500.0398910463,-12641.3365894718,-80533.9577634047,-49303.5805327419,-80471.0994416174,-80457.6541366280,-80500.4965971416,-2417.2589862393
5402093393,4890,1,0,-6719.1847010809,-80284.7146616836,-32524.4604585700,-12640.8863846894,-80528.1781074138,-49164.1508948478,-80469.7366595732,-80457.4351180852,-80499.3406659434,-2415.0809685080
5402093393,4890,1,0,-6718.5519808461,-80284.5808170185,-32526.8574948441,-12641.0323970513,-80528.0807658392,-49277.5294938440,-80469.7488272700,-80457.6176335376,-80499.8395415132,-2414.7402729970
5402093393,4890,1,0,-6718.8440055699,-80284.6173201090,-32504.0308956042,-12640.7647077212,-80532.0352673067,-49490.2573373995,-80470.3328767175,-80457.2282672392,-80500.1924047210,-2416.1395581316
5402113044,4891,1,0,-6720.3162968855,-80286.5763192975,-32487.4706602282,-12642.6263653351,-80535.7464148377,-49525.5314904892,-80471.0507708301,-80458.4693723152,-80501.3361682224,-2418.6096005867
5402113044,4891,1,0,-6719.0021856286,-80285.0431894978,-32498.5432643371,-12641.6286141956,-80534.0916080697,-49335.5085692053,-80471.4766402189,-80457.5567950534,-80500.1802370242,-2416.6871044886
5402113044,4891,1,0,-6719.9756013744,-80286.1626176055,-32525.1053465016,-12641.7016203765,-80529.4070447929,-49172.7777918953,-80471.5739817935,-80458.1651798946,-80500.7034479876,-2416.2490674030
5402113044,4891,1,0,-6720.0121044649,-80284.4713077471,-32530.3252884386,-12642.2491667336,-80529.4557155802,-49253.5712987996,-80470.3085413239,-80457.6298012344,-80500.7886218654,-2415.2999870508
5402113044,4891,1,0,-6719.4280550174,-80285.1040279819,-32508.8371358493,-12640.4848506942,-80531.9257580353,-49472.0057921651,-80470.5883983508,-80456.6928885790,-80500.6182741098,-2416.4559182490
5402113044,4891,1,0,-6718.2112853351,-80284.5929847153,-32489.1011316025,-12640.8255462053,-80535.5517316885,-49536.3972437521,-80470.8560876809,-80457.1430933615,-80499.9612184814,-2416.6019306109
5402113044,4891,1,0,-6717.9557637018,-80284.3617984757,-32497.4603393198,-12640.8012108116,-80533.9699311015,-49356.7046970709,-80470.1868643557,-80456.8389009409,-80499.4258398212,-2416.4924213395
5402113044,4891,1,0,-6718.8926763572,-80283.9845998742,-32522.8908256798,-12640.9107200830,-80530.8184976244,-49168.4825949168,-80470.9899323460,-80457.2526026329,-80499.3893367307,-2414.7159376033
5402150565,4892,0,0,-6720.2554584013,-80285.2135372533,-32534.0364359696,-12642.1396574622,-80528.8108276486,-49221.3025668252,-80470.4058828985,-80457.8001489899,-80500.0463923592,-2415.6771856523
5402150565,4892,0,0,-6719.4402227142,-80284.8606740454,-32514.4221086910,-12641.5556080147,-80531.1105223481,-49440.1142587921,-80471.4888079157,-80457.3986149947,-80499.9490507846,-2416.8452845473
5402150565,4892,0,0,-6719.3793842301,-80285.2500403438,-32492.7149375589,-12641.2635832909,-80534.9798499378,-49539.9623789212,-80471.8173357299,-80458.1773475914,-80501.1779881637,-2416.8817876378
5402150565,4892,0,0,-6718.5033100588,-80284.9580156200,-32498.4702581562,-12641.4826018337,-80534.5783159427,-49392.2952102780,-80470.3328767175,-80458.0191675327,-80500.2897462956,-2418.0620542296
5402150565,4892,0,0,-6718.1139437605,-80284.3131276884,-32525.3000296507,-12640.8255462053,-80531.1226900450,-49195.1906894432,-80469.4446348495,-80455.7316405300,-80498.7566164959,-2415.2148131730
5402150565,4892,0,0,-6720.5961539124,-80285.4203880993,-32539.5118995399,-12641.7867942543,-80528.9081692232,-49210.7653413765,-80470.4180505953,-80456.8023978504,-80500.0098892687,-2415.4703348063
5402150565,4892,0,0,-6719.1360302936,-80284.2401215075,-32521.6010498166,-12641.1054032322,-80529.3827093993,-49417.9447151808,-80470.6857399254,-80456.9484102123,-80499.9368830878,-2415.1539746889
5402150565,4892,0,0,-6719.0508564159,-80285.2135372533,-32497.8010348309,-12640.7403723275,-80535.4057193266,-49541.5928502955,-80471.5009756125,-80458.0435029264,-80500.4600940511,-2417.1981477552
5402186130,4893,0,0,-6718.7101609048,-80285.2500403438,-32497.8132025277,-12641.1784094131,-80534.5783159427,-49408.7581040794,-80470.2963736271,-80457.0214163932,-80499.5596844862,-2416.9912969092
5402186130,4893,0,0,-6720.1459491299,-80284.9458479232,-32522.3311116259,-12641.9449743130,-80531.5972302211,-49197.7459057760,-80471.0751062237,-80458.1165091073,-80501.0928142859,-2416.5289244299
5402186130,4893,0,0,-6719.0021856286,-80284.1062768424,-32538.3316329481,-12641.4704341369,-80527.9590888710,-49183.2663465567,-80470.9169261650,-80456.2791868870,-80499.3528336403,-2414.9714592366
5402186130,4893,0,0,-6719.6592412570,-80284.3983015662,-32525.1905203793,-12641.6042788019,-80529.4557155802,-49379.7259794599,-80471.4401371284,-80457.0335840901,-80501.1901558605,-2415.8840364983
5402186130,4893,0,0,-6719.1725333841,-80285.3960527056,-32498.9326306354,-12641.5556080147,-80534.4201358840,-49523.7915098435,-80471.3549632507,-80458.6153846770,-80500.8372926526,-2417.3806632075
5402186130,4893,0,0,-6719.0630241127,-80285.8949282754,-32496.2314019407,-12641.3974279560,-80536.3182965883,-49423.2985017828,-80472.6082360234,-80459.0290863690,-80501.8958822763,-2417.2954893298
5402186130,4893,0,0,-6720.1702845236,-80286.6858285689,-32520.7493110390,-12641.5921111051,-80533.1911985049,-49205.3993870776,-80472.4257205711,-80459.2724403055,-80502.9301365062,-2416.8939553346
5402186130,4893,0,0,-6719.0508564159,-80285.4933942802,-32538.3072975545,-12641.3609248655,-80529.2366970374,-49157.7020155317,-80470.9412615587,-80457.3742796011,-80501.0928142859,-2415.8597011047
5402204288,4894,0,0,-6718.9900179317,-80285.2743757374,-32528.1107676168,-12640.8620492957,-80529.5895602453,-49347.4450797886,-80470.5518952603,-80457.4351180852,-80500.2167401147,-2414.9592915398
5402204288,4894,0,0,-6719.6957443475,-80285.9922698500,-32504.4324295994,-12641.3365894718,-80534.6026513363,-49522.4165601025,-80471.0142677396,-80458.3355276501,-80501.7377022175,-2417.1738123615
5402204288,4894,0,0,-6719.1116949000,-80284.2401215075,-32497.1074761120,-12640.6186953593,-80534.9798499378,-49447.2566968272,-80471.9633480918,-80456.9970809996,-80500.1559016306,-2417.7943648995
5402204288,4894,0,0,-6718.9900179317,-80285.0310218010,-32518.0480823443,-12641.2757509877,-80531.8527518543,-49225.8532854370,-80469.8461688446,-80456.6442177917,-80499.9003799973,-2416.1273904348
5402204288,4894,0,0,-6718.8196701762,-80284.9580156200,-32538.7209992464,-12640.8863846894,-80527.8982503869,-49149.8295156872,-80469.8583365414,-80456.7658947600,-80499.3041628530,-2414.5334221510
5402204288,4894,0,0,-6719.1968687777,-80284.8606740454,-32532.1261075684,-12640.9715585672,-80528.8716661327,-49315.1155093301,-80469.6393179986,-80456.9484102123,-80499.4745106085,-2414.9592915398
5402204288,4894,0,0,-6718.6249870271,-80283.2788734584,-32505.3815099516,-12640.9837262640,-80530.9280068958,-49501.3907799925,-80469.8096657541,-80456.0601683442,-80499.0608089165,-2415.8597011047
5402204288,4894,0,0,-6719.8782597998,-80283.9845998742,-32495.1119738330,-12641.6407818924,-80535.0406884219,-49465.0945403697,-80469.9435104192,-80456.3400253712,-80499.3406659434,-2417.9890480487
5402245574,4895,0,0,-6719.8782597998,-80284.0454383583,-32514.2639286323,-12641.8232973448,-80533.1181923239,-49247.7551397183,-80469.8096657541,-80457.2647703297,-80499.2919951561,-2417.0521353933
5402245574,4895,0,0,-6718.9778502349,-80283.7655813314,-32537.3703848991,-12640.9715585672,-80528.2146105043,-49137.5279741992,-80470.9047584682,-80457.1674287551,-80500.0342246623,-2415.1539746889
5402245574,4895,0,0,-6720.0242721617,-80285.5542327643,-32534.6204854171,-12641.0689001417,-80529.2366970374,-49281.1432998004,-80470.3085413239,-80457.3986149947,-80500.6547772003,-2415.5433409873
5402245574,4895,0,0,-6719.3550488364,-80285.4447234929,-32510.4189364363,-12641.0810678386,-80533.0695215366,-49485.5971095163,-80470.4667213826,-80458.5910492834,-80500.5331002321,-2416.7114398823
5402245574,4895,0,0,-6719.0873595063,-80285.7002451262,-32496.5599297549,-12641.8719681320,-80535.8924271995,-49477.5542619163,-80471.5861494903,-80458.4815400120,-80501.3240005256,-2418.2324019851
5402245574,4895,0,0,-6718.6006516334,-80284.5321462312,-32512.3292648375,-12641.4947695305,-80533.6414032873,-49268.9756029775,-80470.7465784095,-80458.2138506819,-80500.7521187749,-2416.6384337013
5402245574,4895,0,0,-6719.7687505284,-80284.9093448327,-32538.6601607623,-12641.7259557702,-80529.0176784946,-49136.2138629423,-80470.3693798080,-80456.9970809996,-80500.0463923592,-2415.4094963222
5402245574,4895,0,0,-6718.7709993889,-80283.5708981822,-32538.5141484005,-12640.3753414228,-80527.6183933600,-49251.3932810683,-80469.1282747321,-80455.7924790141,-80499.3041628530,-2414.2413974272
5402270415,4896,0,0,-6719.8539244062,-80284.6538231994,-32515.1400028036,-12641.7137880734,-80532.2056150622,-49464.9120249173,-80470.4545536858,-80458.3355276501,-80501.1414850732,-2416.4559182490
5402270415,4896,0,0,-6720.4623092473,-80285.8340897913,-32498.3972519752,-12642.6020299414,-80536.7076628867,-49492.6665413704,-80472.7664160821,-80459.2237695182,-80501.7620376112,-2418.8286191295
5402270415,4896,0,0,-6719.5132288951,-80286.2964622705,-32508.9953159080,-12641.7867942543,-80535.6125701726,-49292.0577238506,-80472.7299129917,-80459.2116018214,-80501.7620376112,-2417.1129738774
5402270415,4896,0,0,-6719.1238625968,-80286.0166052436,-32533.5497280967,-12640.9107200830,-80530.1006035118,-49127.9276614059,-80471.7564972458,-80458.2625214692,-80500.6547772003,-2414.7402729970
5402270415,4896,0,0,-6719.2820426555,-80285.8705928817,-32537.5042295642,-12641.3244217750,-80529.6382310326,-49215.8027678612,-80471.6591556712,-80457.8974905645,-80500.5939387162,-2415.3243224445
5402270415,4896,0,0,-6718.9778502349,-80285.5177296739,-32514.3734379037,-12640.5578568752,-80531.7067394925,-49432.7041314270,-80471.5253110062,-80457.2769380265,-80500.6426095035,-2414.8132791779
5402270415,4896,0,0,-6718.0531052764,-80285.5420650675,-32493.4693347619,-12640.5700245720,-80534.7973344855,-49489.2474185632,-80471.1967831920,-80458.5545461929,-80501.9323853667,-2416.7601106696
5402270415,4896,0,0,-6718.5641485429,-80284.9458479232,-32501.8407101761,-12640.7647077212,-80535.0406884219,-49309.8955673930,-80471.4036340380,-80458.4328692247,-80499.8760446036,-2416.4194151585
5402307113,4897,0,0,-6719.7079120443,-80285.7975867008,-32527.9647552550,-12641.6407818924,-80530.5021375070,-49133.9263359396,-80472.0241865759,-80457.4107826916,-80501.2996651319,-2415.4459994127
5402307113,4897,0,0,-6720.1946199172,-80286.2721268769,-32537.2243725372,-12642.2735021272,-80530.3439574483,-49190.5547969536,-80471.9633480918,-80459.0777571563,-80502.0783977286,-2415.9935457697
5402307113,4897,0,0,-6719.2820426555,-80285.2743757374,-32515.9065677034,-12641.3000863814,-80532.4733043923,-49407.2736450670,-80471.4644725221,-80458.1773475914,-80501.0928142859,-2416.3099058871
5402307113,4897,0,0,-6718.5276454525,-80284.4834754439,-32494.1385580872,-12640.9107200830,-80533.6170678937,-49500.0888364324,-80470.4667213826,-80458.4937077088,-80500.0585600560,-2416.8817876378
5402307113,4897,0,0,-6719.1968687777,-80284.6659908963,-32500.7577851589,-12641.5556080147,-80534.9920176346,-49342.2008024579,-80470.8074168936,-80457.2647703297,-80500.4965971416,-2417.5266755694
5402307113,4897,0,0,-6719.5010611983,-80284.9701833168,-32527.1738549615,-12640.9472231735,-80530.9158391990,-49148.4180628558,-80470.9412615587,-80457.2769380265,-80500.3870878702,-2415.7623595301
5402307113,4897,0,0,-6718.4546392715,-80284.4834754439,-32540.2297936525,-12640.7647077212,-80528.2267782011,-49176.9999826929,-80470.7709138032,-80456.1088391315,-80499.4380075180,-2414.4239128796
5402307113,4897,0,0,-6718.9048440540,-80284.8606740454,-32525.5555512840,-12641.9814774035,-80531.0861869545,-49390.6160681164,-80470.9169261650,-80456.8510686377,-80500.5817710194,-2416.4802536426
5402329380,4898,0,0,-6719.3915519269,-80285.3108788279,-32502.0840641126,-12641.7381234670,-80535.1015269061,-49509.0077582036,-80471.4036340380,-80458.1408445009,-80500.6182741098,-2416.7479429727
5402329380,4898,0,0,-6719.0265210222,-80285.3230465247,-32505.9047209150,-12641.8476327384,-80534.8946760601,-49379.0810915283,-80471.3671309475,-80457.8488197772,-80501.3605036160,-2417.3684955107
5402329380,4898,0,0,-6718.9778502349,-80284.5686493217,-32530.9093378861,-12642.0788189780,-80531.1591931354,-49170.9769727655,-80470.2842059302,-80457.3621119043,-80499.6935291513,-2416.7844460632
5402329380,4898,0,0,-6719.1968687777,-80284.5929847153,-32546.1311266116,-12641.5799434083,-80527.5940579663,-49159.7461885979,-80469.3107901844,-80455.4882865936,-80499.3163305498,-2414.9471238429
5402329380,4898,0,0,-6719.7687505284,-80284.1549476297,-32531.5420581209,-12641.4582664401,-80530.7333237466,-49363.1535763870,-80471.0629385269,-80457.0214163932,-80500.4844294448,-2416.5532598236
5402329380,4898,0,0,-6718.7588316921,-80284.6659908963,-32506.6347827243,-12640.7403723275,-80533.5075586223,-49507.8396593087,-80470.3693798080,-80457.5324596598,-80499.7543676354,-2416.0422165570
5402329380,4898,0,0,-6719.5010611983,-80284.9336802264,-32505.4788515262,-12641.9449743130,-80535.5273962949,-49399.4133129194,-80471.2819570697,-80457.4594534789,-80499.5596844862,-2416.8574522441
5402329380,4898,0,0,-6720.3041291886,-80286.0287729404,-32529.4005434801,-12641.8841358289,-80532.3029566368,-49184.5439547231,-80471.5131433094,-80458.7005585548,-80501.7498699144,-2416.2612350998
5402383315,4899,0,0,-6718.6249870271,-80284.8728417423,-32547.0802069638,-12641.8232973448,-80528.6526475899,-49150.7907637362,-80470.7952491968,-80456.7902301536,-80500.3505847797,-2414.9349561461
5402383315,4899,0,0,-6720.0486075553,-80285.4447234929,-32538.0396082244,-12642.1639928558,-80530.7576591403,-49341.2152190153,-80471.0264354364,-80457.6054658407,-80500.9346342272,-2416.4802536426
5402383315,4899,0,0,-6719.3063780491,-80284.4348046566,-32512.1345816883,-12641.5434403178,-80533.8725895269,-49504.2866918364,-80470.9777646492,-80458.5058754056,-80499.9125476941,-2416.7114398823
5402383315,4899,0,0,-6719.3307134428,-80284.6051524122,-32506.0629009737,-12641.5191049242,-80535.2232038743,-49429.0659900769,-80471.3306278570,-80458.9804155817,-80500.4722617480,-2417.8308679900
5402383315,4899,0,0,-6719.5253965920,-80284.3252953852,-32527.7944074994,-12641.0323970513,-80531.7067394925,-49208.7576714007,-80470.8682553777,-80456.6685531854,-80500.0342246623,-2416.3829120681
5402383315,4899,0,0,-6719.2333718682,-80284.8363386518,-32549.1487154237,-12642.1031543717,-80528.2267782011,-49138.8420854561,-80470.0165166001,-80456.8754040314,-80500.2775785988,-2415.2148131730
5402383315,4899,0,0,-6719.3915519269,-80284.6294878058,-32541.7872588458,-12641.3122540782,-80528.7134860740,-49310.6499645961,-80469.9191750256,-80456.6807208822,-80499.9490507846,-2415.7015210460
5402383315,4899,0,0,-6718.5276454525,-80284.1549476297,-32517.3788590190,-12640.9107200830,-80532.8626706906,-49497.8743156107,-80470.2963736271,-80456.7658947600,-80499.3771690339,-2416.2977381903
5402425441,4900,0,0,-6718.9656825381,-80284.3374630820,-32508.1557448272,-12641.3000863814,-80535.8072533218,-49450.7731612091,-80470.5153921699,-80457.3377765106,-80499.8030384227,-2417.2468185425
5402425441,4900,0,0,-6719.9999367681,-80283.9967675710,-32527.0400102964,-12642.0666512812,-80532.4611366955,-49231.9614692421,-80470.4423859890,-80457.7758135963,-80500.1437339337,-2417.0034646060
5402425441,4900,0,0,-6719.2212041714,-80283.6925751504,-32549.9882865045,-12640.9228877799,-80528.6769829835,-49132.1011814162,-80470.3937152017,-80456.7658947600,-80498.8539580705,-2415.1783100826
5402425441,4900,0,0,-6719.3307134428,-80284.5078108376,-32546.2406358830,-12640.9593908703,-80528.5553060153,-49278.3568972280,-80470.0651873874,-80456.1696776156,-80498.3915855912,-2415.0322977207
5402425441,4900,0,0,-6719.0630241127,-80284.2401215075,-32520.7371433421,-12641.8232973448,-80531.4755532528,-49477.3839141608,-80470.7709138032,-80456.7050562758,-80499.5110136990,-2416.4194151585
5402425441,4900,0,0,-6718.4303038779,-80284.3374630820,-32507.7055400448,-12640.9107200830,-80534.8703406664,-49465.0093664919,-80470.6735722286,-80457.5689627503,-80500.2410755083,-2417.5875140535
5402425441,4900,0,0,-6719.3550488364,-80283.8507552091,-32524.3509492986,-12641.0202293544,-80533.4832232286,-49253.5956341933,-80470.0408519938,-80457.5324596598,-80499.7300322418,-2417.0034646060
5402425441,4900,0,0,-6718.3572976970,-80283.7777490282,-32547.9197780446,-12640.5821922688,-80528.7864922549,-49120.9312357327,-80469.6393179986,-80456.3886961585,-80499.8638769068,-2414.9592915398
5402432330,4901,0,0,-6720.1581168268,-80284.4956431407,-32548.8323553063,-12642.1518251590,-80528.7499891645,-49247.1102517866,-80470.3328767175,-80456.7415593663,-80499.8760446036,-2415.4094963222
5402432330,4901,0,0,-6720.0729429490,-80283.8994259964,-32524.9593341397,-12641.3974279560,-80531.8162487639,-49457.8790961537,-80470.9047584682,-80457.7149751121,-80500.8737957431,-2417.0277999997
5402432330,4901,0,0,-6720.3041291886,-80285.3230465247,-32508.4964403383,-12641.2879186845,-80536.8293398549,-49474.0256298377,-80472.0728573632,-80457.7149751121,-80501.4456774938,-2418.3054081661
5402432330,4901,0,0,-6719.9877690712,-80285.7002451262,-32521.3333604865,-12640.9715585672,-80534.7851667887,-49273.1126198973,-80471.8538388204,-80457.6906397185,-80500.9954727114,-2416.6019306109
5402432330,4901,0,0,-6719.4888935015,-80286.0652760309,-32546.3623128513,-12640.9350554767,-80530.1127712086,-49120.6635464026,-80471.5618140967,-80457.9948321391,-80501.1293173764,-2415.6528502587
5402432330,4901,0,0,-6717.4568881321,-80284.1184445392,-32550.1099634727,-12639.5722734325,-80528.6404798931,-49212.1767942080,-80470.3450444144,-80456.4738700362,-80499.9612184814,-2413.1219693195
5402432330,4901,0,0,-6718.5763162398,-80284.0576060551,-32526.6384763013,-12640.3510060292,-80532.1934473654,-49427.9587296660,-80471.0872739206,-80456.9240748187,-80499.4866783053,-2415.4338317159
5402432330,4901,0,0,-6719.2698749587,-80284.5929847153,-32508.4112664605,-12641.2027448068,-80534.9190114537,-49480.6813599998,-80470.8439199841,-80457.0822548774,-80499.2676597625,-2417.0764707870
5402449772,4902,0,0,-6719.5132288951,-80283.2302026712,-32517.0381635080,-12641.3730925623,-80533.2277015953,-49296.9248025798,-80471.2089508888,-80456.6685531854,-80499.3893367307,-2416.3707443712
5402449772,4902,0,0,-6720.1702845236,-80284.4834754439,-32543.8801026994,-12642.0666512812,-80530.8428330180,-49121.1137511851,-80470.9655969523,-80457.4229503884,-80499.7665353322,-2417.0034646060
5402449772,4902,0,0,-6718.9048440540,-80284.7024939867,-32550.9130314630,-12641.1784094131,-80528.3484551693,-49184.6047932072,-80470.4423859890,-80457.0092486964,-80498.9269642515,-2415.3608255349
5402449772,4902,0,0,-6718.9291794476,-80284.6781585931,-32529.6560651134,-12641.7381234670,-80531.3173731941,-49400.7152564795,-80470.1868643557,-80456.8510686377,-80500.0098892687,-2415.1296392953
5402449772,4902,0,0,-6719.1116949000,-80283.8629229060,-32507.8758878003,-12641.3122540782,-80533.9699311015,-49480.6326892126,-80471.0021000428,-80457.0700871805,-80499.9490507846,-2417.6726879313
5402449772,4902,0,0,-6720.9003463330,-80284.7511647740,-32515.3468536496,-12642.4803529732,-80535.4057193266,-49318.3764520786,-80471.6104848839,-80458.1895152882,-80500.2167401147,-2418.5974328898
5402449772,4902,0,0,-6719.6714089538,-80283.7899167250,-32540.5218183762,-12642.0909866749,-80528.7743245581,-49125.9929976111,-80469.6758210891,-80455.5856281681,-80498.1847347453,-2416.2977381903
5402449772,4902,0,0,-6719.3550488364,-80282.7313271014,-32551.9107826025,-12641.2392478973,-80527.3020332426,-49156.5825874240,-80469.2499517003,-80455.5491250777,-80498.2942440167,-2415.5068378968
5402492849,4903,0,0,-6719.2090364746,-80283.1450287934,-32533.5253927030,-12641.5799434083,-80529.0541815851,-49373.3257709310,-80469.0309331575,-80455.9628267696,-80499.3041628530,-2415.9205395888
5402492849,4903,0,0,-6720.2311230077,-80283.3518796394,-32511.6235384218,-12641.4339310464,-80533.3615462604,-49488.0184811841,-80468.7389084337,-80456.8632363345,-80499.8517092100,-2416.9791292124
5402492849,4903,0,0,-6719.4402227142,-80282.9260102506,-32513.1323328278,-12641.3365894718,-80533.5075586223,-49345.5469190842,-80470.2720382334,-80455.9628267696,-80499.2068212784,-2417.8187002932
5402492849,4903,0,0,-6718.6979932080,-80282.4636377713,-32537.7962542879,-12641.2149125036,-80529.3705417024,-49138.1606944340,-80469.5054733336,-80455.3666096253,-80498.2577409262,-2415.2391485667
5402492849,4903,0,0,-6719.3428811396,-80284.4226369598,-32552.8720306515,-12641.4704341369,-80527.4480456044,-49142.3463821411,-80468.9092561893,-80455.3787773221,-80498.4889271658,-2415.1418069921
5402492849,4903,0,0,-6719.9390982839,-80283.1936995807,-32537.3947202927,-12641.5677757115,-80529.4557155802,-49348.9052034074,-80469.7123241796,-80456.0723360410,-80498.9147965546,-2415.0322977207
5402492849,4903,0,0,-6719.3672165333,-80283.1450287934,-32512.5726187739,-12641.5799434083,-80533.4710555318,-49484.5871906800,-80470.6979076222,-80456.5833793076,-80499.5961875767,-2417.1494769679
5402492849,4903,0,0,-6719.4523904110,-80283.3032088521,-32511.2585075171,-12641.3122540782,-80534.0307695856,-49370.5028652681,-80470.5518952603,-80456.9970809996,-80499.3284982466,-2417.0521353933
5402543038,4904,0,0,-6720.4379738537,-80284.1427799329,-32536.0927767327,-12642.1396574622,-80530.9280068958,-49158.8336113362,-80470.9899323460,-80456.8267332441,-80499.7787030291,-2417.1129738774
