steady_timestamp,sequence,battery,flags,EEG-ch1,EEG-ch2,EEG-ch3,EEG-ch4,EEG-ch5,EEG-ch6,EEG-ch7,EEG-ch8,EEG-ch9,EEG-ch10
4031681417,25900,-2,0,-6883.4486081906,46980.1223213107,15716.3934336562,35218.6683921962,57109.2067154465,17210.5744358167,50254.4130332739,63753.6695903377,65864.8988337832,15672.5653897000
4031681417,25900,-2,0,-6881.9884845719,46980.1466567043,15712.4145967951,35219.6053048516,57110.9101930017,17200.5847567250,50274.7939254523,63752.9881993157,65859.7640657239,15669.4869624038
4031681417,25900,-2,0,-6884.1421669095,46972.0064675298,15710.0418959146,35212.9739100831,57104.7290030157,17200.8646137520,50255.6663060467,63745.0670286839,65850.7356346813,15664.4008651318
4031681417,25900,-2,0,-6885.7117997997,46971.7144428060,15714.9454777343,35211.2217617406,57106.7245052946,17199.9033657029,50244.8005527838,63743.4122219160,65849.2146725785,15665.3864485744
4031681417,25900,-2,0,-6887.2814326899,46972.9433801851,15715.6998749373,35210.3335198725,57109.8637710749,17192.1647105236,50262.5532224484,63742.6578247130,65846.1119098886,15669.2192730737
4031681417,25900,-2,0,-6887.7316374723,46972.7365293391,15717.1843339497,35205.0770748450,57107.6370825563,17198.0660434827,50254.0358346724,63738.3626277345,65842.3764269640,15671.2391107463
4031681417,25900,-2,0,-6886.1863399758,46976.2773291146,15723.6088778722,35203.9454790405,57104.8993507712,17201.4121601090,50238.3395057708,63737.2066965363,65841.1353218880,15669.9249994894
4031681417,25900,-2,0,-6883.4242727970,46978.7352038729,15723.1708407866,35204.9797332704,57106.4568159645,17197.8105218494,50254.7172256945,63738.5329754900,65840.5512724405,15671.2877815336
4031712390,25901,-2,0,-6884.3976885428,46975.9001305131,15721.9662388011,35204.3226776420,57105.1792077981,17198.1755527541,50255.7149768340,63738.8858386979,65840.6851171056,15672.0543464334
4031712390,25901,-2,0,-6890.0069967782,46969.9987975540,15724.2537658038,35202.1081568202,57096.3576276015,17197.9078634240,50229.1650623663,63733.3982074307,65841.9018867879,15667.6009693962
4031712390,25901,-2,0,-6890.5788785289,46971.6779397156,15725.7260571194,35203.0572371724,57097.7082419488,17199.1368008031,50241.4057653702,63734.0187599687,65844.8951402063,15663.7924802906
4031712390,25901,-2,0,-6888.9727425482,46974.6103546499,15727.6972240047,35205.0162363609,57100.9326816069,17198.2850620255,50258.0876777144,63735.3085358319,65847.9127290184,15666.6640567408
4031712390,25901,-2,0,-6892.7082254729,46969.8406174953,15730.7878189978,35202.7165416614,57095.3233733715,17202.6410974881,50240.9312251941,63732.7046487118,65847.2191702995,15667.9051618168
4031712390,25901,-2,0,-6892.7082254729,46971.4467534759,15736.0077609348,35204.6147023657,57093.8510820560,17204.5149227988,50238.2421641962,63735.5518897684,65850.6626285004,15675.9966802040
4031712390,25901,-2,0,-6894.7280631455,46972.5540138868,15736.3971272331,35202.4001815440,57095.4815534302,17200.5482536346,50254.4860394548,63736.2332807905,65851.0033240114,15683.1512859359
4031712390,25901,-2,0,-6897.7943227449,46969.4877542874,15737.7720769741,35198.7742078907,57091.3323688136,17202.0813834343,50240.1281572038,63731.0498419439,65845.6738728030,15679.6226538573
4031739851,25902,-2,0,-6898.8164092780,46967.5895935830,15737.6504000059,35196.4988485848,57088.7893201776,17198.2120558446,50228.7513606743,63728.1660977968,65842.6806193845,15671.0079245066
4031739851,25902,-2,0,-6897.3562856593,46967.5895935830,15735.6670654238,35198.4213446829,57094.8244978018,17188.9646062591,50245.7739685296,63730.9525003693,65840.5877755310,15670.9592537193
4031739851,25902,-2,0,-6904.1823635769,46960.6418386971,15732.9901721227,35193.9679676457,57089.5193819870,17181.7369943463,50241.5639454289,63723.6032114882,65835.2096535352,15666.3598643203
4031739851,25902,-2,0,-6903.0507677724,46958.3664793913,15737.3340398885,35195.6349421104,57086.0515883924,17190.3152206065,50223.9329527324,63721.0479951554,65835.5503490463,15663.4031139923
4031739851,25902,-2,0,-6893.1705979522,46965.3142342772,15742.9798512143,35202.1446599107,57096.2846214205,17193.0651200885,50242.2940072382,63727.8254022858,65840.7337878929,15666.1530134743
4031739851,25902,-2,0,-6888.4008607976,46968.2344815147,15745.7662537868,35204.3105099452,57101.7114142036,17198.0903788763,50256.3111939783,63729.9060784425,65843.5080227685,15670.2535273036
4031739851,25902,-2,0,-6880.3093424103,46972.2619891631,15756.5224977783,35209.8589796964,57103.6217426048,17214.5411049809,50241.7586285780,63735.4788835874,65849.2025048816,15674.2932026488
4031739851,25902,-2,0,-6871.5486006978,46980.9375569978,15767.6924434617,35218.0235042646,57114.0129556916,17219.2621713482,50247.1367505738,63746.5028169090,65860.3724505651,15679.0264367130
4031792436,25903,-2,0,-6876.0628162191,46983.2129163037,15766.1228105716,35216.3443621031,57120.4496673109,17214.2977510445,50262.9425887468,63748.6930023372,65862.7329837487,15680.3527156667
4031792436,25903,-2,0,-6883.1444157701,46977.3845895255,15766.0498043906,35208.7152161951,57115.0472099215,17210.4284234548,50243.3890999523,63743.9110974857,65859.0826747019,15674.7677428249
4031792436,25903,-2,0,-6882.7672171685,46976.4233414765,15765.3562456717,35207.3037633636,57111.1048761509,17207.6420208823,50233.6306071003,63742.7429985907,65856.1259243739,15667.3819508534
4031792436,25903,-2,0,-6878.3016724345,46978.3945083618,15763.1295571531,35209.1167501902,57115.1688868897,17202.7141036690,50253.4761206185,63744.9210163220,65854.6779684520,15672.1273526143
4031792436,25903,-2,0,-6879.5062744200,46972.5905169773,15758.4206584827,35205.9044782290,57107.2598839548,17208.2990765108,50246.8203904564,63738.3626277345,65849.8473928132,15674.5487242821
4031792436,25903,-2,0,-6878.2164985568,46969.8527851921,15758.7735216905,35208.3501852904,57101.5167310544,17216.3054210203,50232.2434896625,63737.1093549617,65854.0452482172,15672.9304206047
4031792436,25903,-2,0,-6873.0938981943,46975.5472673052,15761.2678995392,35214.3975306114,57107.3085547421,17212.8984659098,50250.9330719825,63743.0471910113,65857.7928988386,15673.9768425314
4031792436,25903,-2,0,-6872.1326501453,46977.7009496429,15762.3508245565,35214.5800460637,57111.5429132365,17213.3243352987,50259.4382920618,63743.7650851239,65857.4278679339,15675.1327737296
4031813727,25904,-2,0,-6872.3760040818,46975.4012549434,15761.3652411138,35213.8743196480,57108.9390261164,17224.5429517694,50241.1624114337,63742.8281724685,65859.0096685209,15667.2724415820
4031813727,25904,-2,0,-6868.7500304285,46980.1953274916,15758.2624784240,35221.9536703384,57116.1179672419,17231.4298681712,50252.4783694791,63751.0535355208,65866.2981189179,15667.9294972104
4031813727,25904,-2,0,-6870.0154708981,46983.3832640592,15743.7707515078,35223.9491726174,57119.6100962301,17236.9174994383,50269.8903436327,63756.4073221229,65872.4793089039,15676.9457605562
4031813727,25904,-2,0,-6867.6671054113,46982.8113823085,15723.2438469675,35224.7765760014,57116.4708304498,17244.4979745590,50257.3332805114,63756.6263406657,65875.7159162588,15677.2742883705
4031813727,25904,-2,0,-6865.8054477974,46981.9353081373,15690.8047672376,35223.9856757079,57109.5595786544,17237.2216918589,50254.9240765405,63755.2635586215,65872.5888181753,15665.8853241442
4031813727,25904,-2,0,-6863.8829516993,46981.6554511104,15647.4755988511,35224.8252467886,57111.5672486302,17236.9418348320,50277.3613094820,63756.8940299958,65868.2084473191,15661.5779594689
4031813727,25904,-2,0,-6865.3309076213,46974.8902116768,15605.1806846945,35222.1970242749,57103.6339103016,17248.7810038407,50268.1260275934,63754.3023105725,65867.7460748398,15663.6099648383
4031813727,25904,-2,0,-6865.9149570688,46973.4179203612,15564.3580618536,35225.4214639330,57097.3310433473,17256.8481868343,50254.4860394548,63755.5312479516,65870.9948498915,15664.9970822761
4031831480,25905,-2,0,-6861.7779401490,46978.1633221222,15521.9901415161,35231.4323061635,57102.0399420178,17253.7454241445,50275.9741920442,63763.7687787008,65874.3166311242,15671.9326694652
4031831480,25905,-2,0,-6858.1032957084,46978.9177193252,15475.4973719556,35234.7905904866,57102.0156066241,17254.3294735920,50282.4960775412,63763.4889216739,65872.8443398086,15674.8650843995
4031831480,25905,-2,0,-6857.9937864370,46976.7275338971,15433.1051162245,35237.9785270542,57097.5622295869,17259.2573908053,50264.5487247274,63760.9945438251,65872.0047687278,15672.1030172207
4031831480,25905,-2,0,-6865.6107646482,46974.6711931340,15386.0161295197,35238.9519428001,57094.8488331954,17255.5340755774,50269.8173374517,63759.5952586905,65872.3576319357,15666.7613983154
4031831480,25905,-2,0,-6871.4634268200,46969.3417419255,15339.2678383259,35236.5427388291,57091.9042505643,17253.4655671175,50278.5294083770,63758.2081412527,65869.5712293632,15664.9240760952
4031831480,25905,-2,0,-6876.7198718475,46961.5787513525,15298.9075879642,35233.1479514155,57081.3426897220,17253.6359148731,50254.9484119341,63750.4694860733,65865.1786908101,15661.8699841926
4031831480,25905,-2,0,-6876.9267226935,46962.2723100714,15266.7727006549,35238.1732102034,57083.1313411549,17257.2253854358,50256.0556723450,63752.2094667190,65866.7848267908,15661.2129285642
4031831480,25905,-2,0,-6871.4877622137,46968.4656677543,15241.2327050235,35247.8951999650,57092.3179522563,17260.6810113335,50277.3004709979,63757.7092656829,65871.0435206788,15669.2436084673
4031864762,25906,-2,0,-6869.9181293235,46967.1515564974,15217.1528330109,35249.4648328551,57088.4486246666,17260.9973714509,50262.9912595341,63754.8255215359,65870.2039495980,15669.2679438610
4031864762,25906,-2,0,-6871.2565759740,46965.1317188248,15193.9490351695,35252.4945893640,57083.8492352675,17259.0262045656,50250.7870596207,63754.6795091740,65870.6784897741,15666.5423797726
4031864762,25906,-2,0,-6873.1425689816,46964.7666879201,15169.0052566825,35255.3296627238,57087.5847181921,17245.9702658746,50268.0286860188,63754.9593662010,65869.8632540870,15660.2760159088
4031864762,25906,-2,0,-6882.1223292369,46958.9505288388,15146.2881667141,35250.3287393295,57084.7374771356,17245.9337627841,50260.6063909568,63749.2527163910,65864.1931073675,15653.9123104704
4031864762,25906,-2,0,-6885.1885888363,46958.0379515770,15137.5517603952,35249.5743421265,57080.9289880300,17255.3393924283,50242.0019825145,63748.1454559801,65865.0570138419,15654.4598568274
4031864762,25906,-2,0,-6876.2574993683,46968.8185309622,15137.7586112412,35262.0949021573,57093.8389143591,17261.3137315683,50262.0665145755,63759.6926002651,65874.9250159653,15665.4107839681
4031864762,25906,-2,0,-6871.4512591232,46972.4445046154,15131.6869305266,35267.7285457863,57098.5721484233,17257.5782486437,50272.5672369337,63762.4181643534,65875.9592701953,15669.9858379735
4031864762,25906,-2,0,-6869.9911355045,46970.9843809966,15125.4327343596,35271.1598362904,57094.8488331954,17257.6999256119,50253.6464683741,63760.9215376442,65874.0976125814,15666.6032182567
4031921207,25907,-2,0,-6867.2534037193,46976.4841799606,15120.3344693908,35277.7547279685,57104.5221521697,17258.8436891133,50261.1052665265,63765.9832995226,65875.7402516525,15669.1827699832
4031921207,25907,-2,0,-6867.2169006288,46978.2606636968,15115.2848752092,35278.5942990492,57107.9291072801,17251.5917418068,50276.3148875552,63766.3604981241,65872.2481226643,15671.6893155287
4031921207,25907,-2,0,-6874.3228355734,46969.7067728302,15109.8094116389,35271.9142334934,57097.8542543107,17248.0631097282,50254.6807226040,63757.1130485386,65867.5635593874,15667.3941185502
4031921207,25907,-2,0,-6874.2985001798,46969.0253818082,15111.2208644704,35276.7813122226,57097.0876894109,17259.8292725559,50248.8523958258,63759.6317617810,65872.0047687278,15665.5811317236
4031921207,25907,-2,0,-6869.0907259396,46975.4255903370,15112.4376341527,35284.0089241354,57106.3959774804,17257.7729317929,50272.7375846893,63765.5209270433,65876.7745058824,15666.6275536504
4031921207,25907,-2,0,-6874.1524878179,46970.6071823951,15108.8968343772,35276.2581012592,57102.0277743210,17250.1681212785,50262.2003592406,63760.7025191014,65873.0876937451,15662.3931951560
4031921207,25907,-2,0,-6879.6766221755,46966.8838671673,15107.0108413696,35273.0579969948,57098.3409621836,17255.1933800664,50243.1092429254,63759.4005755413,65873.2215384101,15662.2228474005
4031921207,25907,-2,0,-6877.3890951728,46971.1668964490,15107.3637045775,35275.6862195085,57103.5609041207,17253.3803932398,50261.2026081011,63764.7665298403,65878.2589648948,15672.3585388540
4031943752,25908,-2,0,-6872.8262088642,46972.2741568599,15110.5029703578,35277.1098400368,57104.9236861648,17263.9784571726,50265.7776621065,63762.9413753168,65883.6979253747,15683.1512859359
4031943752,25908,-2,0,-6868.2024840715,46971.6292689283,15115.4187198743,35279.2270192840,57101.8330911718,17267.6165985226,50245.7861362264,63761.4934193949,65886.3869863725,15681.5694853490
4031943752,25908,-2,0,-6868.1903163747,46972.6635231582,15113.4718883826,35282.2567757929,57104.1936243555,17256.4344851423,50256.7492310639,63763.2942385247,65886.8250234582,15672.2855326730
4031943752,25908,-2,0,-6875.3449221066,46967.6139289767,15100.8661544740,35277.2436847019,57101.3828863894,17248.8418423248,50269.6713250899,63758.3176505241,65880.5829949880,15659.0349108329
4031943752,25908,-2,0,-6880.6743733150,46958.8775226578,15095.0986661800,35269.9552343049,57092.5369707991,17251.2753816894,50247.0394089992,63751.8687712079,65875.0953637208,15654.6302045830
4031943752,25908,-2,0,-6877.6932875934,46960.1186277338,15097.2766839113,35273.9949096502,57094.4716345939,17253.1735423938,50244.7640496933,63754.9837015946,65878.1129525329,15662.6000460020
4031943752,25908,-2,0,-6878.6545356424,46962.0654592254,15095.0013246054,35277.3045231860,57101.1638678465,17246.8585077427,50264.2080292164,63760.2644820158,65876.3486364936,15670.8619121448
4031943752,25908,-2,0,-6879.7496283565,46960.3011431861,15094.5876229134,35274.9074869119,57098.1219436408,17251.9202696210,50254.4373686675,63757.1982224164,65872.7469982340,15671.4824646827
4031958148,25909,-2,0,-6875.1380712606,46962.7711856412,15097.6417148160,35277.1828462178,57099.3752164136,17258.1136273039,50245.9929870724,63760.2401466221,65877.3098845426,15668.7325652007
4031958148,25909,-2,0,-6867.3750806875,46967.5044197053,15099.2721861902,35282.2932788834,57107.0286977152,17253.5629086921,50269.1967849138,63763.9512941531,65880.9966966800,15666.6153859536
4031958148,25909,-2,0,-6865.0753859880,46963.4769120569,15096.2059265909,35282.9503345118,57105.7632572456,17250.5818229705,50269.8051697549,63760.8120283728,65878.7578404646,15665.9948334156
4031958148,25909,-2,0,-6868.0808071033,46957.9771130929,15097.9459072365,35281.3076954407,57097.2093663791,17254.1712935333,50247.8181415959,63754.3874844503,65875.9592701953,15665.9948334156
4031958148,25909,-2,0,-6869.5409307220,46958.7923487801,15095.5488709624,35282.7191482722,57098.0854405503,17244.4736391654,50260.0710122966,63756.1761358833,65876.5311519460,15669.5356331911
4031958148,25909,-2,0,-6874.7852080527,46951.9054323783,15084.5006022472,35277.0003307654,57091.6243935374,17233.5713828120,50267.7244935982,63749.4473995402,65868.7316582825,15664.7658960365
4031958148,25909,-2,0,-6879.5306098136,46943.8504170815,15081.5195165256,35272.4861152441,57082.2917700742,17238.0612629397,50244.8857266615,63743.2418741605,65862.0637604235,15661.2372639578
4031958148,25909,-2,0,-6879.3967651486,46947.2330367983,15087.6155326339,35275.0778346674,57086.4774577812,17238.5601385094,50246.2971794930,63748.0481144055,65866.4928020670,15667.1751000074
4031989869,25910,-2,0,-6882.8158879558,46946.4299688079,15083.9408881933,35270.9773208381,57090.7361516693,17231.2351850220,50261.2756142820,63749.6177472957,65864.6798152404,15671.1904399590
4031989869,25910,-2,0,-6886.0524953107,46940.3339526997,15081.2031564082,35266.6699561627,57085.2606880990,17233.4862089343,50246.7352165786,63744.9210163220,65863.2075239248,15666.3233612298
4031989869,25910,-2,0,-6885.5049489537,46942.5241381278,15079.6700266085,35267.3391794880,57082.4864532233,17235.2870280641,50237.2809161472,63745.8944320679,65863.8524118565,15658.8280599869
4031989869,25910,-2,0,-6882.8037202590,46944.7143235559,15075.2531526618,35270.6001222366,57083.9587445389,17232.7074763376,50255.8123184085,63746.4906492122,65865.0570138419,15658.9010661678
4031989869,25910,-2,0,-6883.0957449828,46943.6435662355,15075.7885313220,35272.7538045742,57082.1700931059,17241.7845781675,50251.1399228285,63744.5559854173,65867.9042548985,15662.1498412195
4031989869,25910,-2,0,-6883.4729435843,46943.6679016291,15081.1666533177,35275.6375487213,57080.3084354920,17241.2491995073,50234.2511596383,63746.7583385423,65870.6054835932,15659.8866496105
4031989869,25910,-2,0,-6887.1232526312,46945.1523606415,15077.8448720850,35274.1165866184,57086.0150853020,17230.6024647872,50248.4873649211,63750.2261321368,65866.6388144289,15661.4441148038
4031989869,25910,-2,0,-6888.7415563086,46943.2298645435,15071.7610236736,35271.2571778650,57088.7163139967,17229.9454091588,50256.0556723450,63748.8633500927,65860.5062952301,15664.2670204667
4032035578,25911,-2,0,-6889.1674256974,46943.3880446022,15074.7177740015,35274.9074869119,57087.9132460064,17243.5853972973,50241.8316347590,63752.7935161665,65861.3702017046,15666.7248952250
4032035578,25911,-2,0,-6886.3080169440,46948.9365143535,15081.3613364669,35281.5510493772,57091.8555797770,17245.8729243000,50250.4706995033,63759.3032339668,65867.5513916906,15672.1516880080
4032035578,25911,-2,0,-6883.4121051002,46950.3236317913,15079.7430327894,35281.2346892598,57092.1597721976,17242.7214908229,50264.9137556321,63762.6615182899,65872.5766504785,15675.5586431184
4032035578,25911,-2,0,-6882.3291800829,46944.6413173750,15077.2486549407,35277.3896970638,57084.0195830230,17241.1761933264,50246.0538255565,63755.4825771644,65869.0236830062,15676.6294004388
4032035578,25911,-2,0,-6883.3999374033,46944.1911125925,15072.9899610527,35276.2581012592,57083.1921796391,17231.3446942934,50240.9068898004,63752.2581375063,65864.9840076610,15671.1052660812
4032035578,25911,-2,0,-6883.3877697065,46947.7805831553,15070.4347447199,35279.0566715285,57091.8555797770,17224.1170823806,50262.9425887468,63754.1319628170,65862.1489343012,15670.7158997829
4032035578,25911,-2,0,-6886.8068925138,46944.3249572576,15068.9381180106,35274.8953192151,57090.8091578502,17219.8218854021,50251.0669166476,63748.2671329483,65853.4125279824,15665.4107839681
4032035578,25911,-2,0,-6889.0457487292,46943.5340569641,15072.0895514878,35274.5424560072,57088.3756184856,17226.6844664102,50235.1515692032,63746.4906492122,65854.0695836108,15658.9132338646
4032053740,25912,-2,0,-6886.4175262154,46947.8779247299,15074.7299416984,35277.5843802129,57095.3720441588,17227.7552237307,50256.9560819099,63752.3798144745,65859.2286870637,15664.2913558604
4032053740,25912,-2,0,-6887.2692649930,46947.2695398887,15074.7664447888,35274.2504312834,57092.8533309165,17227.6092113688,50260.4847139885,63750.9926970367,65857.8780727164,15669.5721362815
4032053740,25912,-2,0,-6887.2449295994,46944.3736280449,15077.5893504518,35273.1553385694,57088.0227552778,17232.8778240931,50242.0871563923,63747.1233694470,65857.1480109070,15671.2999492304
4032053740,25912,-2,0,-6885.3467688950,46946.6003165635,15076.4577546472,35274.4816175231,57088.8988294490,17223.4965298426,50251.2250967063,63748.5226545816,65855.9312412247,15667.8808264231
4032053740,25912,-2,0,-6888.8510655800,46944.4344665290,15072.9047871749,35268.6776261385,57087.4995443144,17224.3604363171,50255.8974922863,63744.6533269919,65851.7577212145,15664.0723373176
4032053740,25912,-2,0,-6887.3909419613,46945.4078822748,15080.8016224130,35266.7429623437,57087.7550659477,17236.7714870765,50237.6216116582,63742.3049615051,65853.3273541046,15664.1575111953
4032053740,25912,-2,0,-6881.8668076037,46951.8202585005,15091.1076616220,35268.1909182656,57094.7879947113,17235.2261895799,50240.8338836195,63748.4739837943,65860.4332890492,15666.2625227457
4032053740,25912,-2,0,-6879.7982991438,46955.1177043395,15092.0689096711,35267.8745581482,57102.5023144971,17221.5740337446,50259.5478013332,63749.8854366258,65860.3846182619,15671.8474955874
4032082037,25913,-2,0,-6881.8059691195,46952.4164756448,15090.8764753824,35262.7519577858,57098.7789992692,17218.5686126293,50248.0858309260,63747.0625309629,65855.8704027406,15675.4247984534
4032082037,25913,-2,0,-6884.0204899413,46949.7274146470,15090.9859846538,35262.6546162112,57095.4693857334,17216.8894704678,50234.4701781811,63745.6267427378,65853.9479066426,15670.9105829321
4032082037,25913,-2,0,-6885.5536197410,46952.4773141290,15092.9084807518,35264.5892800060,57101.3220479052,17218.2157494215,50254.8997411468,63749.9341074131,65856.7099738214,15670.8010736606
4032082037,25913,-2,0,-6883.9353160636,46952.8788481241,15094.9526538181,35261.7055358590,57099.4360548977,17219.1769974705,50254.5712133326,63749.2405486942,65858.1335943497,15670.3387011814
4032082037,25913,-2,0,-6882.0858261465,46952.3434694639,15098.2866027476,35259.7587043673,57096.9295093522,17219.9435623703,50237.6459470519,63749.2648840878,65858.0605881687,15666.3111935330
4032082037,25913,-2,0,-6878.4233494028,46955.8355984521,15098.3839443222,35260.9511386560,57100.6163214895,17223.4600267522,50250.6532149556,63754.8863600200,65861.4675432792,15670.4725458464
4032082037,25913,-2,0,-6878.2408339504,46959.2912243498,15101.8882410072,35262.8006285731,57105.3617232505,17233.3280288756,50262.1273530596,63758.5366690669,65864.7893245118,15677.4689715196
4032082037,25913,-2,0,-6876.8415488158,46960.5931679099,15111.2695352577,35264.6501184901,57106.5176544486,17239.2050264410,50244.4720249696,63761.5907609695,65867.1741930891,15680.5352311190
4032115608,25914,-2,0,-6877.4134305665,46963.1118811522,15113.7882485000,35266.0250682311,57109.0850384783,17233.8269044453,50251.3711090682,63762.4181643534,65867.9285902921,15680.0363555493
4032115608,25914,-2,0,-6879.3967651486,46958.3421439976,15109.5782253993,35262.5694423334,57107.4302317104,17225.9544046009,50268.8560894027,63758.5488367637,65861.7839033966,15678.3450456909
4032115608,25914,-2,0,-6889.8488167195,46947.3182106760,15105.8184070810,35254.3075761906,57092.0867660166,17225.4433613343,50248.9010666131,63747.9629405278,65857.3183586625,15672.1395203112
4032115608,25914,-2,0,-6891.7834805143,46943.6557339323,15106.9500028855,35250.8641179897,57083.4111981819,17224.7863057059,50238.4733504358,63745.5537365568,65857.4643710244,15674.2810349520
4032115608,25914,-2,0,-6887.9384883183,46942.5119704310,15104.4921281273,35250.5599255692,57083.5207074533,17217.2179982820,50254.4373686675,63745.9065997647,65855.5175395327,15678.0043501798
4032115608,25914,-2,0,-6888.1453391643,46939.3118661665,15103.3848677164,35247.4084920920,57079.4931998049,17223.5695360236,50244.0826586712,63741.9399306004,65854.5927945742,15676.1670279596
4032115608,25914,-2,0,-6886.9772402693,46941.3560392328,15109.7242377611,35247.4449951825,57080.9168203332,17232.6223024598,50228.0699696522,63744.2882960872,65861.2606924332,15676.9579282531
4032115608,25914,-2,0,-6886.9650725725,46947.5007261284,15112.4984726368,35249.9880438185,57088.2052707301,17234.5569662547,50246.3093471898,63749.0945363323,65866.2737835242,15683.1877890264
4032154080,25915,-2,0,-6886.4175262154,46946.6124842603,15114.9076766077,35249.7933606693,57089.7018974393,17232.8291533058,50251.7969784570,63749.0336978482,65866.7848267908,15689.3811467093
4032154080,25915,-2,0,-6890.2138476242,46941.7819086216,15116.4408064074,35248.4549140188,57083.8857383580,17231.0161664792,50230.0533042344,63743.5582342779,65863.8037410692,15686.6920857114
4032154080,25915,-2,0,-6892.1120083286,46941.3317038391,15113.5813976540,35250.5964286596,57085.8082344560,17229.0693349875,50240.4931881085,63745.3347180140,65863.2075239248,15681.0219389919
4032154080,25915,-2,0,-6891.1750956732,46943.9842617465,15114.1897824952,35252.9326264496,57092.6951508578,17238.2194429984,50261.1539373138,63749.1067040291,65866.2007773433,15678.4910580527
4032154080,25915,-2,0,-6888.5347054626,46943.1203552721,15118.7648365006,35252.7622786941,57090.7361516693,17239.9107528568,50246.9664028183,63748.4131453102,65868.2084473191,15677.6879900624
4032154080,25915,-2,0,-6890.0191644750,46939.1415184110,15117.1952036104,35249.4648328551,57082.9731610962,17225.5893736962,50239.2155799420,63744.2517929968,65862.9033315043,15674.4027119202
4032154080,25915,-2,0,-6893.4991257664,46934.9314953103,15107.3880399711,35243.9041954070,57081.5617082648,17213.9083847462,50251.6022953078,63738.2774538567,65851.1371686765,15670.3508688782
4032154080,25915,-2,0,-6898.7677384907,46929.6142117986,15102.4236196674,35238.7207565604,57073.7500469045,17216.3905948980,50236.4656804601,63729.1516812395,65842.2790853894,15668.1363480564
4032175626,25916,-2,0,-6895.2391064121,46935.3208616086,15106.0130902301,35244.1840524339,57075.5873691247,17221.5983691382,50227.4615848111,63729.9790846235,65845.4670219570,15667.6253047899
4032175626,25916,-2,0,-6888.7293886118,46940.2122757314,15107.9477540250,35250.0245469090,57082.9731610962,17221.3063444145,50249.4121098797,63735.6005605557,65848.0952444707,15671.4337938954
4032175626,25916,-2,0,-6885.4441104696,46942.2807841913,15111.5858953751,35250.4625839946,57084.0439184167,17226.0030753882,50251.4927860364,63735.4302128001,65850.3462683830,15677.1282760086
4032175626,25916,-2,0,-6885.6874644061,46942.0252625580,15116.5016448915,35248.2602308696,57079.6270444699,17225.3460197597,50230.5643475009,63733.6780644576,65851.0884978892,15674.3297057393
4032175626,25916,-2,0,-6885.4927812569,46942.7431566706,15116.5503156788,35247.4206597889,57079.8582307096,17215.4415145458,50241.7829639717,63735.1260203796,65850.9059824368,15671.3486200177
4032175626,25916,-2,0,-6890.9317417367,46937.1460161320,15110.6854858102,35240.8379358076,57076.9379834721,17209.1751506820,50246.7108811850,63728.0809239191,65846.8419716980,15670.3508688782
4032175626,25916,-2,0,-6895.8474912532,46928.7746407179,15110.0527655754,35234.1700379487,57066.6927827471,17211.4626776847,50222.2051397836,63720.5369518889,65843.0213148956,15666.5423797726
4032175626,25916,-2,0,-6894.4725415122,46930.7093045127,15111.3668768322,35236.5184034355,57065.7680377886,17210.9638021150,50224.7725238132,63723.7978946374,65843.7878797954,15667.7226463644
4032206415,25917,-2,0,-6893.4261195854,46932.4857882489,15111.5372245878,35239.8401846682,57069.1506575054,17206.3157419286,50244.7518819965,63727.6915576208,65843.3498427098,15666.4572058949
4032206415,25917,-2,0,-6896.4315407007,46930.6728014222,15114.6521549744,35236.8225958561,57064.1984048984,17215.0764836412,50231.0997261611,63724.3697763881,65844.3110907588,15659.5459540994
4032206415,25917,-2,0,-6897.0155901482,46936.7444821369,15124.8973556994,35238.6112472890,57069.2358313831,17227.3901928260,50224.0424620038,63728.7136441539,65848.9226478547,15664.8267345206
4032206415,25917,-2,0,-6887.9749914088,46947.1356952237,15129.4359066143,35244.5247479450,57082.1822608028,17222.3405986445,50247.5504522658,63736.8294979348,65854.4224468187,15679.5131445859
4032206415,25917,-2,0,-6887.0015756629,46941.9157532866,15125.6152498119,35239.1222905556,57077.0353250466,17210.7934543595,50241.1380760401,63734.2864492988,65847.2678410868,15681.0097712951
4032206415,25917,-2,0,-6885.6874644061,46936.8296560146,15127.3917335481,35237.8081792987,57072.1560786206,17212.8984659098,50221.0492085854,63730.1129292885,65843.0943210765,15676.4225495928
4032206415,25917,-2,0,-6882.8645587431,46938.0585933938,15129.3142296461,35239.8158492745,57074.6869595598,17208.7006105059,50236.6968666997,63732.4126239881,65845.0168171745,15675.3152891820
4032206415,25917,-2,0,-6885.8213090711,46937.1581838289,15128.0244537829,35235.5571553865,57074.4436056234,17211.5113484720,50243.6202861920,63729.9425815330,65842.2060792084,15675.6438169962
4032262610,25918,-2,0,-6894.3630322408,46934.4934582246,15130.3119807856,35231.0672752588,57070.0754024639,17210.9638021150,50220.5138299252,63724.9781612292,65842.1452407243,15673.0155944824
4032262610,25918,-2,0,-6896.3220314293,46936.0752588116,15134.2908176467,35230.4345550240,57069.8807193148,17205.7560278748,50224.8090269037,63728.2756070683,65842.4616008417,15674.1593579838
4032262610,25918,-2,0,-6897.4171241434,46936.3186127481,15134.8870347910,35229.6801578210,57071.4625199017,17204.0160472291,50240.1889956879,63730.8186557042,65842.7171224750,15673.2711161157
4032262610,25918,-2,0,-6896.7235654245,46936.1360972957,15142.4431745180,35228.3173757768,57069.7468746497,17212.6672796702,50224.0424620038,63731.4392082422,65844.2867553652,15670.7524028734
4032262610,25918,-2,0,-6895.4459572581,46939.1415184110,15149.9506434578,35231.1037783493,57071.8153831096,17213.8475462620,50221.4264071869,63732.8263256800,65847.7545489597,15669.6938132498
4032262610,25918,-2,0,-6889.4229473307,46944.0937710179,15152.2625058542,35234.3890564915,57081.0019942109,17210.1972372152,50247.4531106912,63738.8858386979,65849.7257158450,15673.2346130252
4032262610,25918,-2,0,-6892.6352192920,46939.7012324649,15150.6563698735,35230.9090952001,57076.8163065038,17211.6938639244,50238.4368473454,63732.3031147166,65844.7977986317,15673.7456562918
4032262610,25918,-2,0,-6894.4968769059,46938.8129905968,15156.6672121041,35230.1912010876,57074.4679410170,17214.6384465555,50221.9374504535,63732.3031147166,65846.1362452823,15674.1958610742
4032276118,25919,-2,0,-6895.2026033216,46939.9080833109,15156.4968643485,35228.7189097720,57075.9158969389,17206.8511205888,50234.9203829635,63733.4225428244,65846.7933009107,15670.5577197242
4032276118,25919,-2,0,-6897.4901303243,46936.5011282004,15155.6937963582,35224.5088866713,57074.6504564694,17212.9714720908,50234.7378675112,63728.5919671857,65845.6617051061,15670.9349183257
4032276118,25919,-2,0,-6900.9092531316,46933.5200424788,15159.8308132780,35220.4448759324,57070.9758120288,17210.9151313277,50213.1280379537,63724.4427825690,65847.1461641185,15670.3143657877
4032276118,25919,-2,0,-6905.1071085355,46931.4637017157,15157.4824477912,35218.6075537121,57069.8928870116,17198.6014221429,50221.6454257297,63723.3111867645,65841.8167129101,15669.7181486434
4032276118,25919,-2,0,-6909.1954546680,46926.9373184976,15152.4328536097,35213.8499842544,57067.7757077644,17193.5274925677,50232.5111789926,63720.2327594683,65833.9685484593,15672.2246941889
4032276118,25919,-2,0,-6909.0616100029,46922.9584816365,15157.1660876738,35211.3556064057,57063.2493245463,17204.4054135274,50215.5250742278,63717.7018785291,65832.5084248405,15672.9060852110
4032276118,25919,-2,0,-6902.6248983836,46930.4294474858,15166.4865434402,35216.5512129491,57067.8000431580,17208.6154366282,50220.8910285267,63723.4450314295,65838.8599625821,15673.2832838125
4032276118,25919,-2,0,-6899.9236696889,46933.3010239360,15169.6501446141,35216.1010081666,57072.9713143078,17200.9619553265,50241.3814299765,63725.4161983149,65840.7459555897,15672.9790913920
4032302907,25920,-2,0,-6904.3162082420,46927.0224923754,15169.7109830982,35209.4209426108,57065.5611869426,17195.1336285484,50222.5580029914,63715.4021838296,65832.5935987183,15667.6618078803
4032302907,25920,-2,0,-6905.3626301688,46921.5713641987,15172.8502488786,35204.8823916958,57058.6255997535,17197.2873108860,50203.6980729159,63710.8392975210,65827.5805076273,15661.3711086229
4032302907,25920,-2,0,-6902.5518922027,46925.6232072407,15176.6344025905,35206.9265647621,57063.7482001160,17197.8348572430,50222.2051397836,63716.5337796341,65828.9432896714,15669.0367576213
4032302907,25920,-2,0,-6901.3959610045,46926.0004058422,15179.7128298867,35204.1279944928,57063.7603678128,17199.7208502506,50221.6332580329,63716.1079102453,65827.4953337495,15676.3982141992
4032302907,25920,-2,0,-6900.1305205349,46927.9350696371,15185.8940198728,35205.6124535052,57063.3223307272,17202.9209545150,50206.9955187549,63717.7262139228,65830.0383823855,15679.0021013193
4032302907,25920,-2,0,-6897.2346086910,46931.0500000238,15187.7800128803,35209.4209426108,57070.3309240972,17194.3062251644,50225.1010516274,63722.3864418060,65832.3015739946,15678.3937164782
4032302907,25920,-2,0,-6898.4027075860,46927.7768895784,15185.8940198728,35206.7805524002,57070.8176319701,17188.1372028752,50232.1948188752,63719.2350083288,65827.2276444194,15673.2224453284
4032302907,25920,-2,0,-6905.1922824132,46920.7561285115,15188.4005654183,35202.2176660916,57060.5724312452,17192.8826046361,50206.8738417867,63713.3701784602,65822.7986027758,15662.4053628528
4032332957,25921,-2,0,-6906.6159029415,46923.6155372649,15193.9977059568,35204.5538638816,57063.7360324192,17194.1845481962,50213.8580997630,63716.6919596928,65826.8747812115,15663.8654864716
4032332957,25921,-2,0,-6906.2143689464,46925.4771948788,15194.6912646758,35205.3082610847,57067.1551552264,17190.8384315699,50233.8739610368,63715.5116931010,65824.5750865120,15673.0277621792
4032332957,25921,-2,0,-6907.2121200858,46922.0094012843,15198.1225551798,35203.3614295930,57063.0059706098,17193.8316849883,50223.0568785612,63711.8005455700,65822.7134288981,15679.0021013193
4032332957,25921,-2,0,-6908.1612004380,46922.3379290985,15204.1577328040,35202.5461939058,57060.6332697293,17192.4080644600,50215.9874467070,63714.4652711742,65823.3461491329,15681.1922867474
4032332957,25921,-2,0,-6908.2585420126,46922.9219785460,15205.2771609117,35200.3560084777,57063.3466661208,17184.9127632171,50232.5963528704,63714.7086251107,65822.2875595093,15679.0629398034
4032332957,25921,-2,0,-6909.2441254553,46921.0603209321,15204.6444406769,35195.3672527803,57057.7130224918,17188.1250351783,50221.9739535439,63710.5594404940,65818.3208903450,15674.9867613677
4032332957,25921,-2,0,-6900.4833837428,46925.8665611772,15212.7237913674,35198.4335123797,57059.3191584724,17197.6645094875,50208.9788533370,63711.9708933255,65821.5696653967,15669.3409500419
4032332957,25921,-2,0,-6894.2900260599,46933.6538871439,15219.5620369818,35204.4930253975,57069.4791853196,17192.9434431202,50229.0312177012,63715.5846992819,65826.7409365465,15666.2260196552
4032391524,25922,-2,0,-6895.1174294438,46934.1162596231,15225.4755376378,35203.7021251040,57071.6937061414,17193.9411942597,50233.6671101908,63714.7816312916,65828.7729419159,15669.0002545309
4032391524,25922,-2,0,-6897.5631365052,46929.9184042192,15234.7716580105,35199.8206298175,57064.5269327127,17196.5694167735,50211.4367280953,63711.8613840541,65828.4322464049,15671.0079245066
4032391524,25922,-2,0,-6900.0696820508,46931.2203477793,15238.0691038495,35200.5506916269,57064.2592433826,17193.8073495947,50217.6665888686,63714.3557619028,65829.5151714221,15672.5653897000
4032391524,25922,-2,0,-6901.0917685839,46931.8287326204,15237.3877128275,35198.1901584432,57065.5733546394,17191.5441579856,50234.5431843620,63712.8834705872,65825.8040238911,15672.8939175142
4032391524,25922,-2,0,-6900.8484146474,46930.1009196716,15241.7680836837,35196.3650039198,57061.8257040180,17199.9642041871,50220.1731344141,63709.9997264402,65824.5994219056,15670.0101733672
4032391524,25922,-2,0,-6895.2512741089,46934.0919242295,15248.6306646919,35199.4069281255,57064.9893051919,17200.8281106615,50219.9054450840,63716.1444133358,65829.2109790015,15668.1241803596
4032391524,25922,-2,0,-6892.9515794094,46937.1095130416,15252.0619551959,35201.3902627077,57070.8784704542,17199.3314839523,50236.0154756776,63718.2129217957,65830.6711026203,15671.1417691717
4032391524,25922,-2,0,-6894.5820507836,46936.8661591051,15258.2066420915,35201.1834118617,57070.3430917940,17211.8155408926,50225.4904179258,63718.8699774241,65832.0582200581,15676.8119158912
4032400330,25923,-2,0,-6891.0655864018,46944.2276156830,15271.6032762936,35205.5516150211,57076.7798034134,17221.3915182923,50217.9586135924,63725.2336828625,65841.6707005482,15681.0827774760
4032400330,25923,-2,0,-6888.1696745579,46950.4696441532,15275.8741378784,35208.4353591682,57084.3967816245,17211.3288330197,50236.1736557363,63729.1151781490,65842.9361410178,15678.7344119892
4032400330,25923,-2,0,-6891.5887973652,46945.1523606415,15274.7912128612,35202.3636784535,57079.8460630127,17202.7262713659,50232.5841851735,63723.2016774931,65837.6796959903,15673.1737745411
4032400330,25923,-2,0,-6889.9096552036,46939.1901891983,15279.4757761380,35199.4312635192,57072.8131342491,17205.0381337622,50210.8161755573,63719.2958468129,65833.8347037943,15672.1151849175
4032400330,25923,-2,0,-6888.2183453452,46942.4024611596,15282.8218927643,35202.8990571137,57077.1691697117,17198.6135898397,50224.7481884196,63721.6442122998,65833.4210021023,15675.3031214851
4032400330,25923,-2,0,-6890.9925802209,46942.7674920642,15282.4568618596,35202.8138832359,57079.7487214382,17200.9619553265,50239.2642507293,63720.6951319476,65830.7076057108,15680.4378895444
4032400330,25923,-2,0,-6890.6397170130,46942.9500075166,15288.7962319044,35201.9378090647,57078.2399270321,17212.6551119734,50222.6918476565,63720.0624117128,65833.3236605277,15683.5284845374
4032400330,25923,-2,0,-6883.6311236430,46949.5327314978,15298.5668924532,35205.8071366544,57084.0439184167,17217.5343583994,50225.8554488305,63724.7226395960,65840.0767322644,15685.8038438433
4032429254,25924,-2,0,-6881.7572983322,46948.0604401822,15299.4064635340,35201.1347410744,57083.4355335755,17203.5901778403,50238.3516734676,63724.3576086913,65839.4075089392,15685.5483222101
4032429254,25924,-2,0,-6887.2084265089,46937.7057301859,15298.2505323358,35190.8652049558,57071.5355260827,17193.7221757169,50217.6422534750,63713.2971722792,65830.1722270505,15678.5518965369
4032429254,25924,-2,0,-6891.1507602796,46933.5808809629,15298.6520663310,35188.5655102563,57066.6197765662,17194.0507035311,50207.6525743833,63711.1799930320,65826.5949241846,15669.6573101593
4032429254,25924,-2,0,-6892.5743808078,46934.4447874374,15297.0946011376,35187.3974113613,57070.9636443320,17189.2809663765,50226.9505415445,63713.0659860396,65825.2078067468,15667.4549570343
4032429254,25924,-2,0,-6896.0178390087,46930.3199382144,15297.9463399152,35183.0900466860,57066.8874658963,17191.3494748364,50222.7161830501,63708.6856151833,65820.8882743746,15671.1417691717
4032429254,25924,-2,0,-6897.8308258354,46928.3974421164,15306.0500259993,35184.2581455810,57062.2394057100,17199.6113409792,50204.4403024221,63705.5950201903,65825.1348005659,15677.8583378180
4032429254,25924,-2,0,-6895.5189634390,46929.2978516813,15311.0022786063,35187.1053866375,57063.3588338177,17192.8095984552,50218.9807001255,63709.8415463815,65825.3416514118,15683.2242921169
4032429254,25924,-2,0,-6898.2810306178,46925.9517350549,15306.2082060580,35181.6664261577,57059.4773385311,17183.2701241460,50225.5999271972,63703.4291701558,65819.2821383940,15676.3130403214
4032464347,25925,-2,0,-6900.6537314983,46921.8390535288,15309.3109687479,35179.3302283677,57054.0992165354,17194.2210512866,50205.9004260408,63701.1294754563,65818.8562690052,15671.7258186192
4032464347,25925,-2,0,-6897.9159997131,46927.9229019403,15317.6458410716,35185.3897413855,57061.0226360277,17198.7839375952,50213.9554413376,63707.6756963470,65824.6602603897,15675.0962706391
4032464347,25925,-2,0,-6897.2346086910,46930.5511244540,15320.8337776392,35187.8232807501,57069.2479990800,17194.5617467977,50233.1195638338,63710.4864343131,65826.6435949719,15679.2211198621
4032464347,25925,-2,0,-6902.0286812393,46925.3068471233,15323.2551493070,35184.1851394000,57063.8212062969,17198.0782111795,50215.1478756263,63705.7775356426,65824.1005463359,15676.8362512848
4032464347,25925,-2,0,-6901.0796008871,46926.9859892849,15330.5801027944,35185.9129523489,57066.6197765662,17200.4387443632,50212.5196531125,63709.4035092959,65826.8139427274,15678.1868656322
4032464347,25925,-2,0,-6898.0863474686,46931.3298570507,15331.5778539338,35188.7601934054,57072.9591466110,17189.5851587971,50235.7234509539,63712.2142472620,65826.5949241846,15678.5275611432
4032464347,25925,-2,0,-6897.5753042021,46927.1928401309,15333.9748902080,35183.6254253462,57065.4273422776,17188.7212523227,50225.2227285957,63707.4201747137,65822.0320378760,15678.2842072068
4032464347,25925,-2,0,-6896.0178390087,46925.9882381454,15339.4138506878,35182.2626433020,57058.1632272743,17190.1935436382,50209.6845797528,63703.4900086399,65821.0099513429,15673.8673332600
4032502207,25926,-2,0,-6892.7447285634,46929.2491808940,15341.9203962333,35184.4041579428,57062.1542318322,17193.1259585726,50227.0357154223,63706.6171067234,65822.3483979934,15678.0286855735
4032502207,25926,-2,0,-6893.6329704314,46928.5069513878,15345.0474943168,35181.8732770037,57063.8333739938,17196.9222799813,50228.4228328601,63703.4535055495,65822.8472735631,15685.3658067577
4032502207,25926,-2,0,-6897.3441179624,46924.7958038568,15351.8979076282,35177.9552786267,57059.5625124089,17201.1688061725,50206.9590156644,63701.2754878181,65822.5187457489,15685.6943345719
4032502207,25926,-2,0,-6899.8019927207,46927.1563370404,15355.2318565576,35180.2671410230,57061.2538222673,17196.4355721084,50218.0802905606,63704.6581075349,65823.4434907075,15681.1801190506
4032502207,25926,-2,0,-6899.3031171509,46928.6164606592,15356.8744956287,35182.5911711162,57061.8865425021,17191.4103133205,50229.7369441170,63703.5021763367,65822.3362302966,15676.1305248691
4032502207,25926,-2,0,-6899.7898250238,46927.2050078277,15362.5689777419,35180.6443396245,57058.1023887901,17201.0227938107,50207.3240465691,63700.2168981946,65822.9202797441,15672.4558804286
4032502207,25926,-2,0,-6894.6793923582,46936.2456065672,15373.4712340952,35188.0544669897,57066.9969751677,17209.4671754058,50208.7476670974,63707.7487025279,65831.7175245471,15677.9556793925
4032502207,25926,-2,0,-6894.4847092090,46943.3637092086,15375.1503762568,35189.3199074593,57075.7333814866,17208.3964180854,50229.6882733297,63711.3503407875,65834.4552563322,15682.9566027868
4032550433,25927,-2,0,-6895.1782679279,46941.7940763184,15381.7452679348,35187.7381068723,57073.5918668458,17207.0944745253,50222.0347920281,63709.2818323276,65834.4674240290,15684.4897325865
4032550433,25927,-2,0,-6898.5608876447,46937.7300655795,15384.8358629279,35184.3068163683,57066.2669133583,17194.7320945532,50209.5872381782,63706.4467589679,65827.6048430209,15681.3991375934
4032550433,25927,-2,0,-6896.5653853658,46935.2721908213,15381.3802370301,35182.4938295416,57066.7779566249,17183.5986519602,50225.4660825321,63706.3007466060,65821.0221190397,15681.7276654076
4032550433,25927,-2,0,-6891.8564866953,46933.3983655106,15382.6943482870,35181.2648921625,57066.9604720772,17188.8672646845,50223.0690462580,63703.8428718478,65816.6174127898,15682.5550687916
4032550433,25927,-2,0,-6887.1232526312,46935.1261784594,15388.5591781557,35180.3523149008,57066.0113917251,17193.0286169980,50205.1946996251,63703.1493131289,65816.8485990294,15678.4302195686
4032550433,25927,-2,0,-6886.4296939123,46935.8197371783,15390.1166433490,35182.7736865686,57070.8176319701,17191.9943627680,50219.0172032160,63705.9113803077,65820.1095417780,15674.1593579838
4032550433,25927,-2,0,-6888.9484071546,46933.1063407868,15392.9517167088,35180.6200042309,57071.2191659653,17192.7365922742,50229.0433853981,63707.4080070169,65823.0419567123,15670.0345087608
4032550433,25927,-2,0,-6889.7758105386,46930.0157457938,15400.3861794676,35178.6123342551,57065.4760130649,17197.9443665145,50210.5606539240,63702.2245681703,65823.7355154312,15671.9935079493
4032561476,25928,-2,0,-6883.3025958288,46938.8129905968,15410.9720757035,35188.9427088578,57074.5774502884,17202.2882342802,50218.9685324287,63711.5328562399,65829.6733514808,15682.7740873344
4032561476,25928,-2,0,-6883.4242727970,46941.2221945677,15410.1203369259,35187.3000697867,57078.2520947289,17188.4657306894,50237.2444130567,63711.1434899416,65826.5462533973,15681.8980131632
4032561476,25928,-2,0,-6889.1065872133,46934.8098183420,15409.7188029308,35179.7560977565,57071.7910477160,17185.0587755790,50219.5282464825,63706.6901129044,65821.0221190397,15674.0498487124
4032561476,25928,-2,0,-6893.9371628520,46931.4637017157,15413.6002982173,35177.8457693553,57069.7347069529,17191.8240150125,50208.7598347942,63705.3638339507,65822.0685409665,15668.2945281151
4032561476,25928,-2,0,-6892.8420701379,46934.1770981072,15418.3335322814,35180.0724578739,57075.0641581613,17189.6094941907,50230.5035090168,63709.2088261467,65824.8792789326,15675.4126307565
4032561476,25928,-2,0,-6893.0610886808,46930.1252550652,15419.4772957828,35176.4586519175,57069.0289805372,17186.3242160485,50224.2249774562,63703.8672072414,65818.6615858560,15680.0241878524
4032561476,25928,-2,0,-6889.7514751449,46930.3442736080,15426.8874231480,35178.3081418345,57066.2060748742,17194.4644052231,50210.7066662859,63704.0375549970,65818.7102566433,15678.5032257496
4032561476,25928,-2,0,-6882.8037202590,46941.7940763184,15434.9667738384,35187.4460821486,57074.7112949535,17196.7762676195,50233.6914455844,63711.7275393891,65822.5187457489,15680.8759266300
4032581275,25929,-2,0,-6886.7582217265,46939.5308847093,15434.8572645670,35184.4771641238,57072.9104758237,17192.0552012521,50237.9014686852,63710.4986020099,65822.5674165362,15683.8326769580
4032581275,25929,-2,0,-6895.5311311358,46929.9062365224,15435.6481648605,35176.8480182158,57059.9397110104,17192.4810706410,50210.1956230193,63701.9203757498,65819.6593369955,15683.7475030803
4032581275,25929,-2,0,-6894.8010693264,46930.8309814809,15438.9821137900,35176.3491426460,57063.2736599399,17191.0087793254,50214.4786523010,63705.0353061364,65820.3528957144,15683.6988322930
4032581275,25929,-2,0,-6896.5045468816,46932.2911050997,15440.2597219564,35173.0760322007,57068.0799001850,17188.3927245084,50229.5057578773,63703.7090271827,65816.6417481834,15681.8493423759
4032581275,25929,-2,0,-6895.1661002311,46932.1207573442,15447.9618740453,35173.6722493450,57067.7270369771,17200.0128749744,50215.3425587754,63701.1903139404,65819.2578030004,15680.1093617302
4032581275,25929,-2,0,-6888.9484071546,46940.1271018537,15459.9957262032,35181.3378983435,57075.0641581613,17206.3887481096,50219.6985942380,63711.5936947240,65829.4299975443,15682.4212241266
4032581275,25929,-2,0,-6886.4661970027,46941.8914178930,15464.4856063308,35186.1563062853,57079.8703984064,17195.4986594530,50242.2575041478,63714.7816312916,65830.7806118917,15686.3392225035
4032581275,25929,-2,0,-6893.2071010426,46933.4105332074,15463.3053397390,35180.1332963580,57070.0875701607,17185.8983466597,50227.8752865031,63708.7099505770,65822.6282550203,15684.4775648896
4032628911,25930,-2,0,-6898.6460615225,46929.3951932558,15465.5320282576,35175.1202052669,57063.9185478715,17188.4048922053,50209.6359089655,63704.4999274762,65819.1726291226,15681.2044544443
4032628911,25930,-2,0,-6897.2224409942,46931.9017388014,15466.8461395145,35172.8935167483,57066.3155841456,17184.6450738870,50227.9361249872,63706.3250819997,65818.9292751862,15681.2166221411
4032628911,25930,-2,0,-6902.7709107455,46926.5722875929,15464.5342771181,35166.2012834957,57061.7648655339,17183.9150120776,50222.9230338961,63699.3894948106,65812.9427683493,15680.5352311190
4032628911,25930,-2,0,-6902.7465753518,46925.6962134217,15473.4045281021,35166.3959666449,57059.0514691423,17197.3481493701,50203.5763959476,63699.3894948106,65816.4348973374,15683.2364598137
4032628911,25930,-2,0,-6899.1814401827,46933.4348686010,15480.2792768070,35173.8425971005,57068.0190617008,17192.3107228854,50219.0293709128,63706.5319328457,65820.4745726827,15687.4708183081
4032628911,25930,-2,0,-6898.5243845543,46933.8607379899,15479.9507489928,35172.2729642104,57071.0366505129,17181.4814727130,50233.4115885575,63704.3660828112,65815.8995186772,15684.4167264055
4032628911,25930,-2,0,-6895.8718266469,46930.6119629381,15483.6497288270,35169.5230647284,57064.7337835587,17186.0078559311,50216.9243593624,63697.9902096760,65812.1883711462,15677.8583378180
4032628911,25930,-2,0,-6892.0998406317,46932.6439683076,15491.3153778254,35170.8128405916,57064.8067897396,17189.3661402543,50218.6400046144,63700.5819290992,65816.4835681247,15675.8871709326
4032652903,25931,2,0,-6896.5410499721,46931.2325154761,15493.4812278599,35168.9146798872,57061.9717163798,17178.4760515977,50231.4769247627,63699.1704762678,65816.2402141883,15677.1769467959
4032652903,25931,2,0,-6902.9290908042,46924.6862945853,15496.9733568481,35164.6803213929,57051.4709940216,17180.7879139941,50215.3668941691,63692.2592244723,65809.3776331801,15680.0120201556
4032652903,25931,2,0,-6900.7389053760,46925.0148223996,15503.3248945897,35165.6780725323,57050.3637336108,17186.5797376818,50208.2609592245,63692.7702677389,65810.1928688673,15687.0936197066
4032652903,25931,2,0,-6897.0885963292,46929.9549073097,15502.6678389612,35168.1481149874,57056.5814266873,17182.2358699160,50232.2678250561,63694.8631115925,65811.8111725447,15694.3090639226
4032652903,25931,2,0,-6901.2499486426,46925.8665611772,15500.2586349903,35163.7920795248,57053.2474777578,17180.2403676371,50225.6485979845,63688.5602446382,65807.8080002900,15694.0048715020
4032652903,25931,2,0,-6907.4433063255,46923.1409970888,15508.0337932602,35160.5676398667,57049.4389886522,17185.4481418773,50202.7124894732,63686.8932701734,65810.5457320751,15691.4253197755
4032652903,25931,2,0,-6909.4874793917,46929.0788331384,15518.6683602834,35164.3761289723,57057.2628177094,17193.2354678440,50217.8004335337,63695.2281424971,65819.2821383940,15692.5812509737
4032652903,25931,2,0,-6906.2630397336,46934.8098183420,15528.1104930180,35166.8096683369,57067.3011675883,17197.2751431892,50229.6761056329,63699.1339731773,65824.2465586978,15695.5745043922
4032676036,25932,2,0,-6900.1791913222,46938.9711706555,15540.7040592298,35171.6524116724,57071.4625199017,17203.5901778403,50215.5494096214,63703.0519715543,65827.1789736321,15695.5258336049
4032676036,25932,2,0,-6894.8497401137,46940.7598220885,15542.5535491468,35174.5118204258,57073.2025005474,17196.0583735069,50222.5823383851,63704.4877597794,65826.5219180037,15694.9052810669
4032676036,25932,2,0,-6895.5189634390,46935.9292464497,15535.6179619578,35171.0926976185,57068.9924774467,17181.9316774955,50234.4701781811,63700.0222150454,65821.0951252206,15695.4406597271
4032676036,25932,2,0,-6899.6316449651,46926.2315920819,15532.0406590918,35164.9845138134,57056.6666005650,17182.3453791874,50211.8260943936,63691.6143365407,65814.4393950585,15690.9386119026
4032676036,25932,2,0,-6899.6681480556,46927.8985665466,15534.8635647547,35166.5784820972,57055.8148617874,17182.2602053097,50205.2920411997,63693.0014539785,65815.0599475965,15686.8137626796
4032676036,25932,2,0,-6894.2048521821,46933.7025579312,15538.4165322270,35171.4942316137,57064.6486096809,17180.8730878719,50228.5810129188,63699.9735442581,65814.2325442125,15685.9985269925
4032676036,25932,2,0,-6894.8862432042,46930.2225966398,15541.3367794645,35167.8560902636,57061.7040270497,17182.2723730065,50219.8689419936,63694.5589191719,65810.1807011705,15685.7186699656
4032676036,25932,2,0,-6893.7546473997,46931.3420247475,15552.4093835734,35169.3405492760,57060.4020834897,17190.3760590906,50204.4524701189,63694.3764037195,65813.1009484080,15688.1157062397
4032707317,25933,2,0,-6892.4040330523,46935.5398801514,15559.7830078481,35174.6091620004,57068.0068940040,17192.7244245774,50224.5900083609,63703.6360210018,65819.3429768781,15692.4717417023
4032707317,25933,2,0,-6893.6938089156,46934.9193276134,15562.6424166015,35173.2585476530,57070.0632347671,17193.7343434137,50230.2723227772,63703.9158780287,65820.9734482524,15698.7016024757
4032707317,25933,2,0,-6894.4603738154,46933.1793469678,15569.7240161525,35171.8227594279,57068.3354218182,17198.4675774778,50212.2032929951,63703.1858162193,65821.7521808491,15702.9724640605
4032707317,25933,2,0,-6893.8641566711,46937.1095130416,15571.9750400647,35173.3072184403,57072.9104758237,17192.9677785139,50224.2128097594,63707.6270255597,65822.7864350790,15705.3329972442
4032707317,25933,2,0,-6892.9394117125,46934.9801660976,15569.1277990081,35172.9786906261,57072.5819480095,17186.3242160485,50238.8992198246,63706.0087218823,65818.4060642228,15701.8652036496
4032707317,25933,2,0,-6897.2711117815,46928.0810819990,15568.9696189494,35167.4667239653,57063.7847032065,17188.6482461417,50215.5737450151,63699.5111717788,65816.1915434010,15691.5834998342
4032707317,25933,2,0,-6895.2026033216,46932.1937635251,15574.0070454341,35170.7763375011,57064.9406344046,17185.9713528407,50213.1767087409,63703.3318285812,65821.1437960079,15691.0602888708
4032707317,25933,2,0,-6897.7334842608,46932.1815958283,15569.0426251304,35168.9146798872,57069.1141544149,17175.2029411524,50231.0388876770,63702.0785558085,65817.6394993229,15690.3180593646
4032740045,25934,2,0,-6900.8849177379,46928.3244359354,15567.9840355068,35165.5685632609,57063.1276475780,17176.2858661696,50219.6499234508,63696.5179183604,65812.9914391366,15689.1012896824
4032740045,25934,2,0,-6898.8285769748,46929.2613485908,15576.0147154099,35167.5275624494,57064.0888956270,17182.9902671191,50209.1735364862,63697.2723155634,65812.3830542954,15690.5735809979
4032740045,25934,2,0,-6894.8254047201,46937.1703515257,15584.4225939146,35173.0030260197,57073.4580221807,17184.0366890458,50229.7247764202,63704.1957350557,65813.7458363396,15699.2369811359
4032740045,25934,2,0,-6896.7113977276,46935.8562402688,15588.9003063454,35171.9444363961,57072.2412524984,17185.0466078821,50227.4250817206,63701.8108664784,65813.4659793126,15700.1738937912
4032740045,25934,2,0,-6896.5045468816,46936.2821096576,15596.3591044979,35172.6623305087,57070.7081226987,17187.0056070706,50213.3227211028,63701.4093324832,65816.6904189707,15698.4095777519
4032740045,25934,2,0,-6893.6329704314,46940.7476543916,15598.8778177402,35176.4221488270,57077.4368590418,17185.2169556377,50229.9316272661,63707.9068825866,65820.3407280176,15701.2081480212
4032740045,25934,2,0,-6892.1728468127,46941.9400886803,15601.3600278921,35178.1742971695,57080.6247956094,17184.8640924298,50242.5008580842,63709.3305031149,65820.1095417780,15704.7002770094
4032740045,25934,2,0,-6893.8884920647,46939.5795554966,15604.4871259756,35175.7042547144,57075.1980028264,17183.8785089871,50219.6499234508,63704.0618903906,65818.0775364085,15696.8764479522
4032781493,25935,2,0,-6896.9790870577,46936.1604326894,15603.3676978679,35173.6965847386,57070.6472842146,17175.1055995778,50218.8833585509,63701.3728293927,65815.3884754107,15687.3126382494
4032781493,25935,2,0,-6900.7510730729,46933.4470362979,15599.0359977989,35169.5230647284,57071.2921721462,17173.3169481448,50233.0830607433,63699.7788611089,65811.2149554004,15681.9588516473
4032781493,25935,2,0,-6903.9146742468,46930.2104289430,15602.2482697602,35165.0575199944,57067.4715153438,17184.2922106791,50218.1289613479,63697.7833588300,65811.9815203003,15676.9579282531
4032781493,25935,2,0,-6906.2873751273,46932.6439683076,15609.8409125777,35164.8993399357,57068.2867510310,17187.0786132516,50205.9247614345,63701.5918479355,65816.2158787946,15676.7632451039
4032781493,25935,2,0,-6907.1391139049,46934.2987750755,15611.4957193456,35163.3418747423,57072.3994325571,17176.0303445363,50221.5480841551,63705.7897033395,65814.1838734252,15685.8646823275
4032781493,25935,2,0,-6910.7285844677,46930.1252550652,15610.3884589347,35157.4527094800,57066.6562796567,17172.6842279100,50213.6390812202,63699.4503332947,65808.3433789502,15693.8831945338
4032781493,25935,2,0,-6910.2540442916,46928.5434544782,15614.8175005783,35155.4937102915,57061.6188531720,17181.9438451923,50196.5921379713,63694.8996146829,65808.9517637913,15697.6916836393
4032781493,25935,2,0,-6904.6204006626,46934.9193276134,15620.5849888724,35162.5753098425,57069.4183468355,17179.4007965563,50217.5084088099,63697.1384708983,65813.2226253762,15700.5997631800
4032808732,25936,2,0,-6905.3382947751,46931.8043972268,15618.2974618697,35160.3242859302,57069.1141544149,17175.9573383554,50222.3998229327,63692.0158705359,65808.6475713708,15698.8476148375
4032808732,25936,2,0,-6904.4622206039,46926.6817968643,15622.2154602466,35160.0444289033,57061.1808160864,17178.5368900819,50197.2735289934,63688.4020645795,65807.5403109599,15698.3122361773
4032808732,25936,2,0,-6902.6127306868,46928.7624730210,15625.0140305159,35162.8795022631,57064.4417588349,17175.8721644776,50203.8562529746,63692.7946031326,65809.8400056594,15699.0179625931
4032808732,25936,2,0,-6903.8416680659,46930.9526584492,15624.9166889413,35161.7722418522,57067.7027015834,17176.4197108347,50220.7936869521,63694.8874469861,65810.9594337671,15700.6240985737
4032808732,25936,2,0,-6904.4378852102,46929.7358887669,15628.8590227120,35160.3364536271,57065.5611869426,17180.0456844879,50204.8175010236,63690.8356039441,65810.8864275862,15698.4460808424
4032808732,25936,2,0,-6905.3382947751,46928.4217775100,15631.3168974702,35158.0854297148,57061.3876669323,17177.9893437248,50198.0887646805,63688.5115738509,65810.2293719577,15692.4352386118
4032808732,25936,2,0,-6909.1346161839,46927.7403864879,15632.1564685510,35157.6960634165,57062.3245795877,17175.9816737490,50214.9775278707,63687.6963381637,65812.6994144128,15693.8710268369
4032808732,25936,2,0,-6914.3910612114,46921.7660473478,15634.5900079156,35154.0335866728,57058.2605688488,17173.4507928099,50203.8805883682,63683.0604456742,65808.5745651898,15697.9472052726
4032864253,25937,2,0,-6919.4649907865,46920.9021408734,15639.6030990066,35155.5667164725,57058.0780533965,17171.0172534453,50193.1486797704,63682.6345762854,65807.0049322997,15699.2369811359
4032864253,25937,2,0,-6917.9805317741,46923.9075619887,15636.0622992311,35155.9804181644,57064.0402248397,17166.0650008383,50213.7850935821,63684.5205692930,65804.9607592334,15700.0522168230
4032864253,25937,2,0,-6913.2351300132,46924.7714684631,15634.2736477982,35153.3643633475,57065.3543360966,17173.5481343845,50220.1122959300,63684.5692400802,65805.7151564364,15707.6691950342
4032864253,25937,2,0,-6910.2662119884,46921.1454948099,15638.2524846593,35152.9019908682,57058.6134320567,17177.3931265805,50199.2811989691,63683.2186257329,65808.0756896201,15706.7687854693
4032864253,25937,2,0,-6910.9597707073,46918.6632846580,15640.1141422732,35151.5027057336,57055.9973772398,17167.1965966429,50206.7886679089,63681.8071729014,65808.7327452485,15701.7556943782
4032864253,25937,2,0,-6913.1012853481,46915.4996834840,15639.7612790653,35148.2904337723,57053.0406269118,17163.2542628722,50215.6589188928,63679.6413228670,65805.1554423826,15703.5321781144
4032864253,25937,2,0,-6912.4807328102,46915.7552051173,15645.9424690514,35148.9961601881,57049.0739577475,17167.9874969364,50198.0035908027,63676.7819141136,65802.2473628419,15699.9427075516
4032864253,25937,2,0,-6915.1454584144,46914.1977399240,15645.0785625769,35148.7163031611,57045.0951208864,17157.9491470574,50193.7814000052,63673.2654497317,65797.0760916921,15693.1896358149
4032869023,25938,2,0,-6914.2693842431,46913.2973303591,15643.6549420487,35151.6608857923,57048.0397035176,17156.0996571404,50214.0527829122,63672.6570648906,65795.7863158289,15698.7989440502
4032869023,25938,2,0,-6919.4893261802,46906.2644015954,15644.2511591930,35148.3756076501,57038.0621921228,17156.5985327101,50199.0135096390,63667.7656507678,65793.6326334913,15695.4649951208
4032869023,25938,2,0,-6922.0810456035,46904.0620484705,15646.6603631639,35144.7496339969,57034.1198583521,17153.0455652378,50185.1423352609,63666.9017442933,65790.8827340093,15693.2018035117
4032869023,25938,2,0,-6918.5280781312,46910.2797415470,15648.1448221763,35146.0029067696,57040.6052407588,17152.8143789982,50205.2920411997,63671.0509289100,65789.4712811778,15700.9282909943
4032869023,25938,2,0,-6911.3491370056,46912.6889455179,15653.0362362992,35146.4044407648,57040.8120916047,17157.9978178447,50204.9635133855,63670.9049165481,65791.2599326108,15705.0044694299
4032869023,25938,2,0,-6908.7939206728,46912.2752438259,15660.4828667548,35146.5869562171,57038.2082044846,17160.1880032729,50184.5582858134,63670.3330347974,65792.7078885327,15700.1982291849
4032869023,25938,2,0,-6909.8890133869,46911.9710514054,15658.8037245932,35146.2705960997,57036.8454224405,17144.1996496475,50195.9350823428,63669.9193331054,65790.3595230459,15695.0026226415
4032869023,25938,2,0,-6916.5569112459,46903.7456883531,15649.9091382157,35140.0529030232,57032.1121883763,17130.0729536361,50200.8995026466,63661.8643178086,65778.8975526387,15692.7150956388
4032895484,25939,2,0,-6918.2968918915,46899.6451745237,15651.5396095899,35138.2764192871,57027.1477680726,17139.0405461946,50183.5483669771,63657.8611455539,65773.9939708190,15695.8543614191
4032895484,25939,2,0,-6911.1301184628,46909.7686982804,15662.5027044274,35146.1732545252,57036.9670994087,17151.0622306557,50195.4118713795,63663.8719877844,65783.0102341648,15706.5862700169
4032895484,25939,2,0,-6908.7817529760,46915.8647143887,15669.1949376800,35147.9740736550,57043.4768172090,17147.2172384596,50213.0063609854,63667.0842597457,65785.7236305563,15709.7255357972
4032895484,25939,2,0,-6914.5735766637,46909.5740151313,15672.7479051523,35141.9997345149,57036.6385715945,17151.8044601619,50193.5867168560,63660.1243371630,65784.3730162090,15702.9846317573
4032895484,25939,2,0,-6917.0071160283,46908.7709471409,15677.9678470894,35145.1268325984,57035.2514541567,17156.6958742847,50186.0549125226,63660.1243371630,65786.4780277594,15697.5943420648
4032895484,25939,2,0,-6915.0602845366,46912.5429331561,15677.9556793925,35146.6234593076,57040.2523775509,17155.4426015119,50208.1392822562,63664.5168757160,65788.4856977351,15703.8728736254
4032895484,25939,2,0,-6918.7105935835,46908.6371024759,15673.6118116267,35144.1169137621,57036.2005345089,17152.5710250617,50201.4105459132,63658.9927413584,65784.0201530011,15705.3816680314
4032895484,25939,2,0,-6922.8719458970,46904.2323962260,15673.7943270791,35140.8438033167,57028.0360099407,17152.7292051204,50182.3559326884,63654.0769918420,65783.4117681600,15700.5754277864
4032929274,25940,2,0,-6921.0589590703,46906.8849541334,15675.2787860915,35143.2895103781,57031.2726172956,17154.9437259422,50196.7624857268,63657.9949902189,65784.7988855978,15703.0211348478
4032929274,25940,2,0,-6918.4672396471,46907.5906805491,15676.5807296515,35143.3503488622,57033.7061566601,17154.9802290326,50204.0509361237,63659.3699399599,65783.8741406393,15705.6128542711
4032929274,25940,2,0,-6917.5181592949,46906.8971218302,15677.7731639402,35143.3260134686,57031.1022695400,17158.7157119573,50185.4100245910,63657.6299593143,65781.8177998762,15698.7381055661
4032929274,25940,2,0,-6910.0958642329,46915.7795405110,15679.7686662192,35149.9939113276,57039.2181233209,17160.3461833316,50200.4006270769,63663.4461183956,65786.1373322483,15698.1297207250
4032929274,25940,2,0,-6905.1922824132,46921.2306686876,15676.2765372310,35151.1741779194,57046.1537105100,17162.5850395470,50216.3889807022,63666.6705580537,65786.2225061261,15703.7268612635
4032929274,25940,2,0,-6909.2076223648,46915.2563295476,15674.8164136122,35146.5869562171,57038.9382662940,17163.6071260801,50193.2460213450,63660.5867096422,65785.2490903802,15705.0774756109
4032929274,25940,2,0,-6916.8611036664,46908.4545870235,15666.7005598313,35141.9510637276,57032.2947038287,17162.7553873025,50184.4731119356,63657.2162576223,65784.5798670550,15700.5145893023
4032929274,25940,2,0,-6918.4064011629,46905.2544827591,15654.3746829497,35141.9145606371,57033.7304920538,17168.1943477824,50203.0653526811,63660.3798587962,65788.7533870653,15700.7701109356
4032981465,25941,2,0,-6917.2261345711,46902.4194093994,15642.6450232124,35144.0317398843,57033.4141319364,17177.4296296710,50194.7548157510,63660.6840512168,65791.0409140680,15702.4614207939
4032981465,25941,2,0,-6913.2838008005,46903.4171605388,15626.7905142521,35150.3346068386,57033.0856041222,17181.7613297399,50186.7363035447,63664.7115588652,65795.0805894132,15704.1162275619
4032981465,25941,2,0,-6913.1377884386,46902.8209433945,15596.4807814661,35152.0380843938,57032.1973622541,17173.1466003893,50206.0464384027,63665.2712729191,65793.8638197309,15704.4934261634
4032981465,25941,2,0,-6923.3829891635,46893.4031460536,15554.8307552412,35143.2165041972,57019.6646345265,17169.6909744916,50199.2811989691,63657.0094067763,65785.5776181945,15696.8886156490
4032981465,25941,2,0,-6928.2013971054,46886.7717512851,15516.0036346792,35139.8338844804,57007.7767947305,17180.8122493877,50176.4545997293,63653.4321039103,65784.1418299694,15687.5316567922
4032981465,25941,2,0,-6924.0643801856,46892.8434319997,15477.6145512028,35144.9199817524,57012.7898858215,17185.1682848504,50192.5646303229,63659.3577722631,65789.7268028111,15688.9552773205
4032981465,25941,2,0,-6921.0589590703,46894.3157233153,15433.8230103370,35147.0858317869,57015.4181083353,17188.5265691735,50205.8152521631,63660.6840512168,65791.8561497551,15696.0733799619
4032981465,25941,2,0,-6921.1928037354,46892.9042704838,15392.5258473200,35149.8600666625,57011.4757745646,17197.8591926367,50191.3113575501,63662.2901871974,65795.5794649829,15697.4970004902
4032987605,25942,2,0,-6916.7759297887,46898.6109202938,15353.4918759120,35158.6816468591,57016.0508285701,17201.0592969011,50197.6385598981,63671.2091089687,65802.7827415021,15699.2734842263
4032987605,25942,2,0,-6912.2495465705,46905.5100043924,15313.3506440931,35165.7632464101,57024.7628994953,17204.2837365592,50221.5115810647,63678.3028762164,65808.2095342851,15706.3064129900
4032987605,25942,2,0,-6907.6988279588,46908.0652207252,15281.1184152091,35173.4775661958,57027.5371343709,17218.8484696563,50213.7120874012,63681.6733282364,65812.8697621683,15709.9932251273
4032987605,25942,2,0,-6904.8029161149,46908.1747299966,15251.1493779342,35179.2693898836,57024.1423469573,17214.9426389761,50206.3384631265,63681.6124897523,65816.6174127898,15705.9170466917
4032987605,25942,2,0,-6906.4212197923,46905.3031535464,15216.2159203555,35182.3234817861,57022.5240432799,17203.1643084515,50219.8567742967,63680.3348815859,65811.4339739432,15704.7611154935
4032987605,25942,2,0,-6910.5582367121,46899.6695099174,15183.9471883811,35179.7195946660,57014.0309908975,17200.1832227299,50211.4975665794,63671.5741398733,65804.6322314192,15703.7390289604
4032987605,25942,2,0,-6911.6776648199,46899.8276899761,15162.1670110680,35182.7250157813,57011.5487807456,17208.6641074155,50196.0567593111,63672.4988848319,65804.3037036050,15701.3054895958
4032987605,25942,2,0,-6909.9620195678,46905.1084703972,15141.5792680436,35189.7822799386,57019.0440819885,17209.1386475916,50215.0261986580,63676.5628955708,65807.6984910186,15700.7944463292
4033016796,25943,2,0,-6912.6510805657,46901.6528444995,15120.5413202367,35189.6240998799,57018.8493988393,17206.0845556890,50220.5016622284,63672.7057356779,65805.0337654144,15696.6087586221
4033016796,25943,2,0,-6916.7029236077,46895.1066236088,15107.4245430616,35190.3298262956,57010.4901911220,17209.3211630439,50196.5069640935,63667.6318061027,65803.6344802797,15691.2184689295
4033016796,25943,2,0,-6917.2991407521,46898.2337216923,15099.8684033346,35197.5574382084,57014.1526678657,17208.1895672394,50204.9026749014,63673.4357974873,65809.0612730627,15693.4816605386
4033016796,25943,2,0,-6917.0436191188,46902.4072417025,15089.5745318224,35202.0716537297,57020.3216901549,17208.4329211758,50224.0302943070,63677.6944913753,65811.3366323686,15701.0986387498
4033016796,25943,2,0,-6914.4032289082,46904.7556071894,15085.5226887803,35207.2794279700,57022.4510370989,17211.9615532545,50209.4655612100,63676.5020570866,65811.0446076449,15703.7633643540
4033016796,25943,2,0,-6906.5428967606,46909.3793319821,15083.4663480172,35215.4317848413,57028.1333515152,17213.1539875431,50207.3848850532,63680.2740431018,65817.7855116848,15703.2523210874
4033016796,25943,2,0,-6905.2531208973,46909.3184934980,15073.1116380209,35217.3907840298,57028.8999164151,17195.7541810863,50223.9816235197,63677.5849821039,65813.0279422270,15701.2203157180
4033016796,25943,2,0,-6916.8124328791,46894.8754373691,15059.6298299411,35206.6467077352,57014.2743448339,17189.4026433447,50203.1748619525,63664.3586956573,65798.4510414331,15693.2869773894
4033065163,25944,2,0,-6921.7525177893,46891.2616314127,15058.1818740192,35206.1356644686,57009.7722970094,17209.1508152884,50184.8624782340,63661.9494916864,65800.5925560740,15685.2441297895
4033065163,25944,2,0,-6917.5789977790,46902.7114341231,15062.1850462739,35212.4263637261,57021.1490935389,17212.5577703988,50205.7179105885,63669.4082898389,65809.2072854246,15689.1377927728
4033065163,25944,2,0,-6918.7592643708,46901.9327015264,15060.4085625378,35213.0712516577,57023.7651483558,17208.8831259583,50206.8130033026,63668.7268988168,65808.7570806422,15696.9372864363
4033065163,25944,2,0,-6919.5258292707,46897.6496722448,15060.1895439949,35210.7107184740,57018.6060449029,17209.7470324327,50186.3469372464,63664.9062420144,65806.8467522410,15699.3099873168
4033065163,25944,2,0,-6921.4239899750,46898.6474233843,15058.0358616573,35210.6985507772,57021.2707705071,17208.9439644424,50194.4019525432,63668.7755696041,65807.6498202313,15699.7480244024
4033065163,25944,2,0,-6919.4406553929,46901.1418012330,15055.9430178037,35212.0004943373,57026.7705694711,17212.4239257338,50208.9788533370,63673.1316050667,65808.6719067644,15704.1527306523
4033065163,25944,2,0,-6916.3865634903,46904.6460979180,15059.5324883665,35213.6309657115,57027.1842711631,17223.4235236617,50195.4605421667,63674.9932626806,65813.1861222857,15702.1207252829
4033065163,25944,2,0,-6912.1522049960,46909.3306611948,15062.1972139707,35217.6949764504,57030.7737417258,17223.2166728157,50198.8431618835,63679.4101366273,65818.2113810736,15699.5898443437
4033098890,25945,2,0,-6917.2017991775,46906.6416001969,15055.1764529039,35215.2857724795,57033.8156659316,17212.3387518560,50213.8702674599,63677.4998082261,65817.4691515674,15701.9382098306
4033098890,25945,2,0,-6925.0621313251,46898.1850509050,15051.2097837396,35209.0802470998,57023.8138191431,17211.9858886481,50196.6773118490,63671.1117673941,65809.4871424515,15706.5862700169
4033098890,25945,2,0,-6926.2423979169,46899.4991621619,15054.7992543024,35211.5137864644,57022.4875401894,17212.9228013035,50189.5227061172,63673.1924435508,65808.6232359771,15711.9887274063
4033098890,25945,2,0,-6922.2635610558,46904.1958931355,15053.8258385565,35214.6773876383,57028.5348855104,17208.8344551710,50211.8869328777,63677.5119759229,65809.5479809357,15713.6191987806
4033098890,25945,2,0,-6921.1563006449,46904.8772841576,15053.1931183218,35214.1420089781,57028.5957239945,17210.1485664279,50212.4223115379,63674.3727101426,65808.5502297962,15709.1414863497
4033098890,25945,2,0,-6918.0900410455,46903.4901667198,15056.8555950655,35213.6066303179,57027.2694450408,17217.8142154263,50191.3478606406,63674.1536915998,65812.0423587844,15705.2599910632
4033098890,25945,2,0,-6916.2162157348,46906.4469170478,15055.3833037499,35214.0811704940,57029.5204689531,17210.0512248533,50202.4691355368,63676.0396846074,65810.7769183148,15703.5930165985
4033098890,25945,2,0,-6916.6907559109,46905.2179796686,15051.1124421650,35212.5845437848,57029.7029844054,17212.3509195528,50210.6701631954,63671.5498044797,65807.4308016885,15700.6849370578
4033120378,25946,2,0,-6914.0868687908,46907.8462021824,15056.3567194957,35215.3222755699,57028.5470532072,17221.0264873876,50197.6750629885,63675.0541011647,65811.3488000655,15701.7070235909
4033120378,25946,2,0,-6906.9322630589,46915.7187020268,15060.4085625378,35223.9005018301,57036.2613729930,17220.6736241797,50210.2929645939,63682.4033900458,65815.5588231662,15708.6791138705
4033120378,25946,2,0,-6907.1756169954,46917.0206455869,15056.6122411290,35226.2245319233,57040.6904146365,17210.8421251468,50228.2646528014,63684.5327369898,65814.1108672443,15712.6457830347
4033120378,25946,2,0,-6914.2815519400,46907.6393513364,15051.5139761602,35219.1672677660,57030.3357046402,17201.7650233169,50206.8130033026,63676.3682124216,65806.1896966125,15710.1027343987
4033120378,25946,2,0,-6920.5722511974,46902.7114341231,15050.2850387811,35215.2005986017,57023.3879497543,17203.5780101435,50192.6741395943,63670.8562457608,65801.6876487880,15705.3573326378
4033120378,25946,2,0,-6919.4041523024,46908.1017238157,15053.8988447375,35217.5732994822,57031.7106543812,17211.2923299292,50213.8459320662,63677.3659635611,65805.5448086809,15705.9292143885
4033120378,25946,2,0,-6918.6619227962,46910.4622569993,15058.7902588603,35216.3930328904,57033.6818212665,17215.4536822427,50208.5043131609,63676.3682124216,65808.6232359771,15706.3794191709
4033120378,25946,2,0,-6917.9683640773,46910.9733002659,15061.5523260391,35218.7048952867,57035.1176094916,17216.2932533234,50193.9517477607,63676.4047155120,65811.0689430385,15709.1658217434
4033147802,25947,2,0,-6918.9661152168,46913.4190073273,15054.7019127278,35221.9658380353,57038.0256890323,17205.2206492146,50207.9445991071,63677.9621807054,65810.0590242022,15715.4200179104
4033147802,25947,2,0,-6922.9327843811,46908.9169595028,15049.8835047859,35219.5079632770,57034.0346844744,17201.4851662899,50207.8959283198,63675.0784365584,65804.2550328177,15717.6102033385
4033147802,25947,2,0,-6926.4249133693,46904.5487563434,15048.2895365021,35215.5656295064,57024.9940857349,17200.3900735759,50185.8358939798,63668.1915201566,65799.0959293647,15708.8251262323
4033147802,25947,2,0,-6924.7336035109,46906.9944634048,15048.8005797687,35216.8675730664,57029.0459287770,17197.2873108860,50193.6353876433,63670.7224010957,65798.7795692474,15704.7367800998
4033147802,25947,2,0,-6924.9526220537,46907.4933389745,15045.7586555629,35214.8477353938,57032.3920454033,17201.7406879232,50203.7589114000,63670.6858980053,65799.3879540885,15710.1757405797
4033147802,25947,2,0,-6923.7601877650,46908.7101086568,15049.8104986050,35215.9914988952,57033.7061566601,17212.5456027020,50185.4708630751,63672.4015432573,65804.1941943336,15715.2618378517
4033147802,25947,2,0,-6922.4582442050,46907.4933389745,15048.2286980180,35218.5102121375,57034.4483861663,17205.3788292733,50180.3725981063,63673.7886606951,65805.0946038985,15712.7674600030
4033147802,25947,2,0,-6924.8187773886,46905.4613336051,15038.8109006770,35217.9018272964,57034.5578954378,17191.9213565871,50196.9571688760,63671.9635061717,65798.6457245823,15710.7111192399
4033219280,25948,2,0,-6926.8142796676,46900.6915964505,15034.9780761778,35215.1275924208,57026.6123894124,17195.7176779959,50184.6921304784,63665.9769993348,65793.1945964056,15707.7665366087
4033219280,25948,2,0,-6924.4780818776,46902.4680801867,15040.1736827212,35217.2569393648,57023.3392789670,17202.2030604025,50175.1891592597,63667.1816013203,65796.7232284843,15704.1283952587
4033219280,25948,2,0,-6924.8796158728,46906.2887369891,15038.7013914056,35219.0699261914,57024.9697503413,17190.9601085381,50195.1320143525,63670.3452024942,65798.7674015505,15703.5321781144
4033219280,25948,2,0,-6931.8152030618,46897.0656227973,15031.6319595515,35213.2415994132,57018.8372311425,17182.8929255445,50193.6232199465,63663.4339506988,65792.8904039850,15701.8287005592
4033219280,25948,2,0,-6933.8107053408,46892.1742086744,15033.8221449796,35210.0779982392,57016.0264931764,17190.8505992667,50176.2234134897,63660.1365048598,65790.5177031046,15703.1063087256
4033219280,25948,2,0,-6928.8462850370,46900.6672610569,15039.3827824277,35215.1884309049,57027.6223082487,17196.4720751989,50191.7250592421,63666.8044027187,65798.3780352522,15711.2221625065
4033219280,25948,2,0,-6926.0355470709,46903.6483467785,15042.9479175968,35216.8675730664,57036.9914348023,17199.4044901332,50204.0996069110,63671.1604381814,65799.5096310567,15717.0139861942
4033219280,25948,2,0,-6925.1108021124,46901.8840307392,15046.6347297342,35215.6751387778,57030.4817170021,17198.5892544461,50184.1202487278,63668.7390665136,65797.2951102350,15715.0671547025
4033226329,25949,2,0,-6924.9282866600,46900.3143978490,15047.0605991230,35216.6120514332,57024.6777256175,17192.6757537901,50183.6943793390,63668.2523586407,65794.7398939021,15708.9346355037
4033226329,25949,2,0,-6925.0256282346,46900.8132734187,15043.9943395236,35215.2371016922,57021.8426522578,17186.8595947088,50201.1915273703,63668.0820108852,65791.1260879457,15702.9237932732
4033226329,25949,2,0,-6926.0842178582,46894.9362758533,15042.1448496065,35209.6156257600,57014.2500094403,17185.1196140631,50185.8237262830,63661.4141130262,65788.0719960432,15698.4704162360
4033226329,25949,2,0,-6927.3131552373,46890.6167434811,15042.6558928731,35204.4808577007,57007.4239315226,17184.6815769774,50174.3617558758,63658.8467289965,65788.4856977351,15694.8687779764
4033226329,25949,2,0,-6930.6349364700,46889.3756384052,15043.7388178903,35201.0617348934,57010.5875326966,17180.7635786005,50191.5425437898,63659.9053186201,65790.2500137745,15696.1828892333
4033226329,25949,2,0,-6934.5407671502,46885.2264537885,15048.8492505560,35196.1216499833,57005.9029694197,17183.5013103856,50185.8480616766,63656.5957050843,65792.3185222344,15703.8242028381
4033226329,25949,2,0,-6936.1347354340,46884.6667397347,15055.7361669578,35193.9436322520,57004.2481626518,17186.0078559311,50167.4626717772,63656.1820033923,65791.2599326108,15710.5286037876
4033226329,25949,2,0,-6931.4866752476,46892.4418980046,15062.6109156627,35197.8007921449,57012.6073703692,17185.7279989042,50187.7462223810,63662.2901871974,65795.9201604940,15718.4132713288
4033252713,25950,2,0,-6929.5398437559,46897.3576475210,15063.6451698927,35197.0828980323,57016.9755735286,17184.7302477647,50198.4781309788,63660.8787343660,65797.2951102350,15717.4641909766
4033252713,25950,2,0,-6932.9589665632,46892.7704258188,15063.1827974134,35190.9260434399,57008.9448936255,17182.9050932413,50175.3960101057,63654.4541904435,65795.1657632909,15708.1802383007
4033252713,25950,2,0,-6934.5529348470,46892.4175626109,15063.2193005039,35192.7390302666,57009.3099245301,17178.1110206931,50182.9034790455,63656.4740281161,65793.5961304008,15707.6570273373
4033252713,25950,2,0,-6935.5628536833,46891.4563145619,15058.4008925620,35192.4591732396,57009.8818062808,17170.3358624232,50199.2446958787,63655.9629848495,65788.9359025176,15714.4344344677
4033252713,25950,2,0,-6941.1113234346,46883.4134669619,15057.6099922685,35186.0833001044,57002.4838466125,17171.6134705896,50181.9543986933,63649.6844532889,65784.6772086296,15715.1523285803
4033252713,25950,2,0,-6944.4696077577,46884.1921995586,15062.0025308216,35186.2171447695,57002.9948898790,17178.1475237835,50174.9458053233,63650.9620614553,65787.5487850798,15711.2830009906
4033252713,25950,2,0,-6944.1654153371,46887.6599931531,15066.2368893160,35186.8255296106,57010.1251602173,17179.3277903754,50193.9882508512,63656.9120652017,65791.6736343028,15708.3262506626
4033252713,25950,2,0,-6943.8125521292,46885.2386214854,15067.3563174237,35186.8985357915,57008.7867135668,17184.9370986107,50187.7218869874,63656.4253573288,65793.3771118580,15706.3429160805
4033273016,25951,2,0,-6938.0328961384,46888.9619367132,15074.4257492778,35192.3739993619,57010.7457127553,17196.2408889592,50178.9976483653,63662.3145225911,65799.4122894821,15706.6349408042
4033273016,25951,2,0,-6929.6736884210,46897.9173615749,15078.2707414738,35197.7764567512,57018.8007280520,17191.2399655650,50201.0576827053,63669.0554266310,65802.6488968371,15710.5407714844
4033273016,25951,2,0,-6926.4249133693,46897.4549890956,15078.0152198406,35196.6691963404,57017.9976600617,17183.5621488697,50202.3474585685,63664.7480619557,65796.2243529145,15716.5029429276
4033273016,25951,2,0,-6932.1680662697,46891.2372960191,15078.7696170436,35189.8431184227,57007.6794531559,17184.8884278234,50175.2621654407,63656.5957050843,65789.7754735984,15716.3325951721
4033273016,25951,2,0,-6937.9598899574,46890.1300356082,15077.5528473613,35188.0422992929,57007.9593101828,17180.4958892704,50181.3703492458,63657.4961146492,65790.9922432807,15715.2740055485
4033273016,25951,2,0,-6943.3015088627,46889.7650047035,15075.4965065982,35186.9472065788,57009.2125829556,17187.0177747674,50194.8278219320,63658.1775056713,65792.8052301073,15715.5660302723
4033273016,25951,2,0,-6938.6047778890,46895.3499775452,15084.1477390393,35192.1549808191,57013.6416245991,17204.6609351607,50184.8746459308,63665.0644220731,65799.8624942646,15712.5484414602
4033273016,25951,2,0,-6926.7412734867,46909.3184934980,15093.6142071676,35202.5948646931,57023.9476638081,17210.0877279437,50195.5822191350,63677.8405037372,65811.2514584909,15713.5583602965
4033328105,25952,2,0,-6922.8962812906,46913.4311750241,15092.0202388838,35203.2032495343,57028.9120841119,17201.4973339868,50213.2862180124,63680.5052293414,65812.8332590779,15715.9432288738
4033328105,25952,2,0,-6929.4546698782,46905.2909858496,15088.3577621401,35195.3429173867,57020.4920379104,17194.4279021326,50193.8422384893,63670.1018485578,65807.6498202313,15713.4001802378
4033328105,25952,2,0,-6933.5430160107,46898.3067278732,15087.2139986387,35192.1428131222,57014.6272080418,17194.8781069151,50179.4113500573,63666.3176948458,65805.1554423826,15712.4632675824
4033328105,25952,2,0,-6931.2798244016,46904.0985515609,15087.3113402133,35195.7566190786,57022.1833477688,17197.7861864558,50203.5155574635,63671.4889659956,65806.9805969060,15719.7882210698
4033328105,25952,2,0,-6927.1428074818,46909.1603134393,15090.3775998127,35200.6845362919,57027.9751714565,17209.4428400121,50211.4975665794,63676.4777216930,65811.6164893956,15725.7017217258
4033328105,25952,2,0,-6923.3099829826,46911.1801511119,15098.4934535936,35204.0793237055,57028.0116745470,17212.0832302227,50196.4582933062,63679.6656582606,65815.3641400170,15725.8477340876
4033328105,25952,2,0,-6926.0355470709,46908.9777979869,15095.4515293878,35202.9963986883,57026.1986877204,17200.5239182409,50206.6548232439,63677.1469450183,65812.1640357526,15716.7219614704
4033328105,25952,2,0,-6931.4015013698,46902.2612293407,15091.1441647125,35197.4357612402,57021.8183168641,17195.1457962452,50210.2199584130,63671.9756738685,65806.3722120649,15708.1437352103
4033339249,25953,2,0,-6935.4046736246,46897.7105107289,15091.1198293189,35192.0941423349,57017.3284367365,17193.6613372328,50189.0846690315,63668.1428493693,65804.6930699033,15706.1482329313
4033339249,25953,2,0,-6936.4267601577,46898.2093862986,15090.4749413873,35188.7723611023,57017.1094181937,17185.1682848504,50190.7029727090,63668.2645263375,65801.5903072135,15706.0022205694
4033339249,25953,2,0,-6934.8327918739,46900.4847456045,15088.6862899543,35188.9305411610,57023.7651483558,17184.8275893393,50206.1924507646,63669.2987805675,65799.3514509980,15713.4975218124
4033339249,25953,2,0,-6932.5817679617,46900.7524349346,15094.9404861213,35189.1252243101,57021.3437766880,17197.3116462797,50190.8733204645,63666.1108439998,65801.4442948516,15715.6755395437
4033339249,25953,2,0,-6929.6371853305,46903.5145021134,15104.2487741908,35192.3618316650,57022.2685216466,17199.7695210379,50183.7065470358,63670.0653454673,65807.6011494440,15717.1599985561
4033339249,25953,2,0,-6925.2933175647,46909.5618474344,15104.2609418876,35196.2433269516,57026.5150478378,17187.0907809484,50208.5164808578,63673.8616668761,65808.5015590089,15719.9950719158
4033339249,25953,2,0,-6931.4136690667,46901.5676706218,15093.9914057691,35189.6971060608,57017.5352875825,17173.3777866289,50200.7899933752,63663.2879383369,65795.7863158289,15712.9499754553
4033339249,25953,2,0,-6933.9080469154,46897.1264612814,15090.1707489667,35187.1175543344,57012.1449978899,17175.0812641841,50182.2464234170,63658.5912073633,65784.7867179010,15709.0319770783
4033370063,25954,2,0,-6931.5718491254,46901.4338259567,15092.1540835488,35191.7047760366,57019.9323238566,17177.5148035487,50200.2059439277,63663.8963231781,65786.1494999451,15715.5660302723
4033370063,25954,2,0,-6933.7863699471,46900.0832116094,15096.3641066496,35187.4947529359,57020.3095224581,17179.3642934658,50203.4060481921,63663.0080813100,65787.1837541751,15718.2794266638
4033370063,25954,2,0,-6934.7841210866,46897.7470138194,15107.2541953061,35183.6984315271,57015.8439777241,17191.0452824158,50183.8525593977,63663.7016400289,65792.4767022931,15723.7305548404
4033370063,25954,2,0,-6931.1824828270,46905.0111288227,15117.3533836691,35188.7601934054,57022.7187264290,17195.5594979372,50198.1374354678,63670.3573701910,65802.3325367197,15734.4016249542
4033370063,25954,2,0,-6930.9877996779,46904.3175701037,15117.6575760897,35185.4140767791,57025.0670919159,17188.9159354718,50211.0838648874,63669.6151406849,65802.1135181768,15732.4912965530
4033370063,25954,2,0,-6935.9035491943,46893.3179721758,15115.7107445980,35176.3978134333,57014.9314004624,17184.1948691045,50185.6655462243,63659.4916169282,65798.7430661569,15720.3722705173
4033370063,25954,2,0,-6940.9044725886,46887.2706268548,15110.6003119324,35170.7885051980,57005.5987769992,17175.8843321745,50175.5541901644,63653.7362963309,65791.8804851488,15708.9346355037
4033370063,25954,2,0,-6942.5836147501,46886.4797265613,15105.9644194429,35169.2188723078,57004.2116595613,17167.2452674302,50192.7958165625,63651.8381356265,65786.5266985467,15710.2122436702
4033396385,25955,2,0,-6947.1951718460,46882.0141818273,15103.3240292323,35160.5433044730,56997.3612462500,17171.9054953134,50179.4965239350,63644.6470268042,65780.7835456462,15712.1225720714
4033396385,25955,2,0,-6946.8179732445,46883.2431192064,15109.7972439421,35160.7744907127,56997.4342524310,17180.7879139941,50166.6961068773,63646.4843490244,65783.6672897933,15717.7318803067
4033396385,25955,2,0,-6947.3168488143,46888.5360673244,15114.7008257617,35163.2201977741,57005.9759756007,17178.9870948643,50187.4541976573,63652.5925328296,65785.5776181945,15729.4858754377
4033396385,25955,2,0,-6947.1099979683,46887.4774777008,15118.5823210482,35161.1881924047,57004.7713736152,17176.5048847124,50186.5659557892,63649.7087886825,65786.5023631530,15732.6373089148
4033396385,25955,2,0,-6949.8355620566,46883.3161253873,15120.8698480510,35156.8078215484,56997.4829232183,17173.6454759590,50162.0115436005,63642.5298475570,65781.7812967857,15725.0203307037
4033396385,25955,2,0,-6948.0590783205,46885.2264537885,15122.4638163348,35157.5378833578,57002.0336418300,17166.3570255621,50173.3275016458,63643.8561265107,65780.4915209225,15719.3988547715
4033396385,25955,2,0,-6951.0158286484,46882.2453680669,15118.9230165593,35150.9429916797,57003.2625792091,17158.6548734732,50182.0639079647,63638.8673708133,65775.1985728045,15713.5583602965
4033396385,25955,2,0,-6953.0965048052,46876.6238921347,15122.4516486379,35147.5482042661,56996.4730043820,17170.3115270295,50162.8754500749,63634.4139937761,65774.6753618411,15715.6147010595
4033448151,25956,2,0,-6948.9594878854,46884.1313610745,15134.3029853435,35155.3842010201,57000.8533752382,17183.3431303269,50170.8696268876,63644.9755546184,65784.7745502042,15728.6949751442
4033448151,25956,2,0,-6943.1554965008,46891.7240038920,15141.2142371389,35161.4558817348,57008.4460180557,17179.6928212800,50196.5069640935,63654.6975443799,65791.8196466646,15737.3097044948
4033448151,25956,2,0,-6947.5967058412,46885.4089692409,15140.5328461168,35158.6694791623,57002.3986727347,17172.4773770640,50183.2928453438,63648.2730004574,65787.1715864783,15728.9383290807
4033448151,25956,2,0,-6950.8333131961,46884.0461871967,15141.3115787135,35156.2724428882,56999.3567485290,17169.4111174647,50172.4027566873,63646.9953922910,65784.9692333533,15714.6534530105
4033448151,25956,2,0,-6950.6629654406,46885.4819754218,15141.2872433199,35155.2381886582,57004.9903921580,17165.5417898750,50188.9994951538,63646.6546967800,65783.4239358568,15708.5331015086
4033448151,25956,2,0,-6950.1762575676,46883.9853487126,15144.5360183716,35152.5004568731,57002.8732129108,17162.0131577963,50182.2342557202,63641.1062270287,65775.9286346139,15716.7097937736
4033448151,25956,2,0,-6951.0036609516,46881.7099894067,15147.4562656091,35150.2981037481,56999.0282207148,17161.8184746471,50161.6830157863,63638.2224828817,65769.1025566962,15724.6431321022
4033448151,25956,2,0,-6945.0293218115,46886.4918942581,15152.1651642796,35157.2336909372,57009.6506200412,17162.8527288771,50182.0639079647,63646.8007091418,65773.5437660366,15735.0708482794
4033457715,25957,2,0,-6939.4565166666,46891.8213454666,15159.8794840653,35161.5167202189,57016.9147350445,17171.7838183451,50196.0932624015,63652.5925328296,65777.3035843549,15738.6481511454
4033457715,25957,2,0,-6937.8503806860,46892.7582581220,15173.0814351182,35162.3197882092,57014.2500094403,17186.8595947088,50180.7132936173,63654.4055196562,65785.0787426247,15735.2046929445
4033457715,25957,2,0,-6937.5340205686,46897.1021258877,15183.5456543859,35164.2787873977,57016.6470457144,17187.5044826404,50188.5614580681,63660.5137034613,65794.2166829388,15732.8319920640
4033457715,25957,2,0,-6941.2451680996,46896.3477286847,15186.0521999315,35159.9957581160,57017.8516476999,17179.8875044292,50203.5398928572,63661.5601253881,65794.8372354767,15733.8419109003
4033457715,25957,2,0,-6943.5691981928,46893.4396491440,15188.4857392960,35156.0655920422,57012.3761841295,17182.0046836764,50186.3347695495,63657.7273008888,65793.8029812468,15730.3011111248
4033457715,25957,2,0,-6936.2320770086,46899.3774851936,15197.5993442164,35160.9691738618,57016.9755735286,17192.3472259759,50184.7651366594,63663.7989816035,65799.0959293647,15734.3164510764
4033457715,25957,2,0,-6930.3429117463,46905.4004951210,15201.3591625347,35163.7799118280,57024.4952101652,17182.9172609381,50207.2753757818,63669.4569606262,65801.9431704213,15741.2155351750
4033457715,25957,2,0,-6931.1094766461,46901.0079565679,15204.5227637087,35159.9105842383,57019.8714853725,17179.8631690356,50197.1640197220,63664.9184097112,65797.7696504110,15741.6779076543
4033486420,25958,2,0,-6934.1392331550,46898.3797340541,15208.7327868094,35156.9903370007,57014.6637111322,17182.6495716080,50178.4987727956,63662.3266902879,65795.7011419512,15736.3241210522
4033486420,25958,2,0,-6931.2189859175,46902.7844403041,15210.6187798170,35158.9980069765,57019.4212805900,17175.0204257000,50195.9472500397,63665.5146268555,65793.4622857357,15735.5697238492
4033486420,25958,2,0,-6933.1536497124,46899.6208391301,15207.1023154352,35155.1651824773,57016.4523625652,17168.7783972299,50198.1496031646,63659.4794492313,65785.1882518961,15729.4615400441
4033486420,25958,2,0,-6935.5263505928,46895.4108160294,15210.9716430248,35153.2548540761,57011.0499051758,17175.2881150301,50176.2720842770,63656.9850713826,65784.9570656565,15725.0811691878
4033486420,25958,2,0,-6935.2829966564,46897.2968090369,15216.3862681111,35156.1264305263,57016.3671886875,17174.1930223161,50185.6290431338,63659.4064430504,65788.4005238574,15725.9329079654
4033486420,25958,2,0,-6937.7287037178,46896.4329025625,15219.3551861359,35153.3156925602,57016.6105426239,17171.9541661006,50198.7214849153,63657.9584871285,65788.3640207669,15727.9527456380
4033486420,25958,2,0,-6936.5362694291,46895.3256421516,15224.6724696475,35153.9605804918,57014.7732204037,17177.7946605757,50185.0693290800,63655.7317986099,65788.4491946447,15730.9459990565
4033486420,25958,2,0,-6927.9702108658,46905.0476319131,15233.9564223234,35163.8894210994,57022.6943910354,17187.7113334864,50193.4285367973,63664.1761802050,65793.7543104595,15739.7797469499
4033528936,25959,2,0,-6925.7556900440,46912.4699269751,15239.1641965636,35168.3914689238,57030.4817170021,17180.1430260625,50217.1312102084,63670.6128918243,65795.3482787433,15748.0902838800
4033528936,25959,2,0,-6935.0153073263,46902.9304526659,15239.3588797128,35158.5721375877,57019.9931623407,17174.7405686731,50199.9504222944,63661.8156470213,65789.9214859603,15738.1492755756
4033528936,25959,2,0,-6943.0581549262,46895.2769713643,15241.2205373267,35150.2129298704,57010.7943835425,17171.1145950199,50179.7885486588,63654.4785258371,65784.8110532946,15725.7868956035
4033528936,25959,2,0,-6948.1685875919,46890.9087682049,15239.2128673509,35142.5716162656,57003.3599207837,17159.0077366810,50192.9418289244,63647.1414046529,65778.0458138611,15721.3213508695
4033528936,25959,2,0,-6955.1163424778,46882.5495604875,15234.1997762598,35132.1925708756,56997.0448861326,17156.1604956245,50187.7583900778,63634.1949752333,65769.9786308675,15729.9360802201
4033528936,25959,2,0,-6955.8464042871,46878.7532390787,15239.8334198889,35129.2723236381,56991.3139009290,17168.8149003203,50167.4383363835,63631.6519265973,65769.8569538992,15738.4899710867
4033528936,25959,2,0,-6951.8797351229,46888.8645951386,15250.4193161248,35136.4025939763,57001.6199401381,17173.6211405654,50185.0936644736,63640.3396621289,65779.2139127561,15746.8978495913
4033528936,25959,2,0,-6952.7679769909,46888.7429181704,15254.0696251717,35136.0740661621,57004.3090011359,17163.6679645642,50195.1320143525,63641.5199287207,65778.6420310054,15744.3791363490
4033562776,25960,2,0,-6957.7445649915,46884.2895411332,15256.3206490840,35132.4724279025,56998.1034757562,17160.5530341776,50174.7389544773,63637.1760609549,65773.1300643446,15738.2344494534
4033562776,25960,2,0,-6959.6548933927,46882.7929144240,15255.5784195778,35130.6107702886,56996.3391597169,17154.1771610423,50176.6614505753,63636.5798438106,65768.4333333709,15729.5102108313
4033562776,25960,2,0,-6960.1050981752,46879.8239963992,15252.0132844086,35128.3354109827,56995.7307748757,17153.1672422060,50191.7493946357,63633.7082673604,65764.7343535368,15730.6661420295
4033562776,25960,2,0,-6958.3164467422,46876.8915814648,15255.7731027269,35125.7923623467,56992.9322046065,17159.9324816396,50176.1747427024,63632.1994729543,65763.9434532433,15734.0974325336
4033562776,25960,2,0,-6951.3686918563,46879.5928101595,15266.4441728406,35132.4480925089,56998.7361959910,17172.1001784625,50170.6627760416,63638.7700292387,65771.6821084227,15735.7522393015
4033562776,25960,2,0,-6944.8103032687,46890.0813648209,15275.0832375849,35139.5418597567,57009.6627877380,17174.7649040667,50198.9405034581,63648.7353729367,65780.4306824384,15737.2853691012
4033562776,25960,2,0,-6944.9806510243,46891.1764575350,15279.9868194046,35138.6901209790,57009.6384523444,17174.3512023748,50199.4272113310,63647.6402802226,65780.4185147415,15735.3142022159
4033562776,25960,2,0,-6947.0126563937,46890.0083586400,15287.2387667110,35137.8992206856,57004.1386533804,17177.1132695536,50181.8083863314,63646.4600136308,65780.9417257049,15734.7179850716
4033594339,25961,2,0,-6948.3145999537,46891.8943516475,15292.7629010687,35140.8438033167,57008.3851795716,17175.4097919984,50199.9747576881,63651.5947816901,65785.4072704389,15741.1303612973
4033594339,25961,2,0,-6946.8544763350,46889.9718555495,15297.2771165900,35140.8194679231,57007.7889624273,17166.3935286526,50203.3452097080,63649.5992794111,65783.2170850108,15748.7595072052
4033594339,25961,2,0,-6954.0942559446,46879.9578410642,15295.1964404333,35130.1483978093,56996.4365012915,17157.5841161528,50172.5122659587,63638.7335261482,65775.0160573522,15742.2497894050
4033594339,25961,2,0,-6955.8220688935,46880.3472073626,15292.8602426432,35127.5445106892,56997.5194263087,17154.4570180693,50177.7322078957,63637.6749365246,65771.0858912783,15736.2754502649
4033594339,25961,2,0,-6954.1672621256,46885.4454723314,15294.1378508097,35131.3773351885,57003.2747469060,17157.0244020989,50197.5412183235,63639.4514202608,65772.6433564717,15737.4678845535
4033594339,25961,2,0,-6953.0965048052,46884.6180689474,15300.6962393972,35131.1461489488,57002.6176912775,17160.8815619918,50179.0219837590,63638.6483522705,65772.7406980463,15736.0442640253
4033594339,25961,2,0,-6950.7359716215,46887.9155147864,15311.1482909681,35132.9226326850,57002.7272005489,17169.6301360075,50173.3518370395,63642.0674750777,65777.3644228390,15739.1226913215
4033594339,25961,2,0,-6946.3190976748,46892.3932272173,15318.5462506365,35134.6747810275,57009.8331354935,17170.4332039978,50193.8787415798,63647.9688080368,65782.7668802284,15745.4985644567
4033614264,25962,2,0,-6945.5647004718,46892.5392395791,15324.7882791066,35132.5819371739,57005.0999014294,17169.0339188631,50188.0382471047,63644.5253498359,65781.0634026732,15747.1533712246
4033614264,25962,2,0,-6946.2095884034,46890.5437373002,15328.9983022074,35130.5742671981,56999.8312887051,17162.9135673612,50174.6781159932,63639.9259604369,65776.6586964233,15744.6711610727
4033614264,25962,2,0,-6951.7093873673,46888.2318749038,15324.1312234782,35126.5589272466,56999.6001024654,17153.0577329346,50188.0504148016,63635.6794342457,65772.7041949558,15738.4413002994
4033614264,25962,2,0,-6958.7058130405,46879.8726671865,15320.8581130328,35119.0757937005,56995.4022470615,17152.3763419125,50182.7574666836,63630.7636847292,65769.2729044517,15732.3939549784
4033614264,25962,2,0,-6959.4845456372,46878.0840157535,15328.4994266376,35121.0347928890,56993.5405894476,17162.3173502169,50165.8078650092,63630.8488586070,65770.5991834054,15735.9834255411
4033614264,25962,2,0,-6952.2934368148,46888.1101979356,15336.2502495139,35130.4647579267,57004.1873241677,17163.2907659627,50186.3712726400,63641.0575562414,65775.6731129806,15745.0970304615
4033614264,25962,2,0,-6948.7161339489,46891.9065193443,15339.5476953529,35131.5841860344,57008.5676950240,17161.6724622853,50200.6804841038,63644.6591945010,65776.1841562472,15749.4774013178
4033614264,25962,2,0,-6950.5047853819,46888.4995642339,15343.9767369964,35127.7148584447,57002.0093064364,17161.4656114393,50177.7078725021,63640.6681899431,65776.8168764819,15743.8194222951
4033642841,25963,2,0,-6949.2150095186,46889.6068246448,15349.8659022587,35128.9316281270,57001.8632940745,17161.3926052583,50172.8042906824,63643.8926296011,65778.0214784674,15738.0154309106
4033642841,25963,2,0,-6946.9153148191,46892.3810595204,15352.5549632566,35132.6792787485,57006.1341556594,17159.1415813461,50193.3798660100,63644.2333251122,65778.5446894308,15738.9401758691
4033642841,25963,2,0,-6948.1442521982,46890.1422033050,15356.8379925383,35131.1096458583,57003.2990822996,17161.7333007694,50183.1590006788,63638.7700292387,65775.1133989267,15738.7576604168
4033642841,25963,2,0,-6949.2880156996,46887.2341237643,15361.5833942992,35129.6251868460,57002.4230081284,17154.9437259422,50174.7146190836,63637.1030547740,65773.3125797969,15739.4147160452
4033642841,25963,2,0,-6955.4813733825,46881.6491509226,15356.2904461812,35121.1321344635,57000.7438659668,17140.7075206593,50188.0990855889,63632.5888392526,65765.2453968033,15736.7621581378
4033642841,25963,2,0,-6960.2511105370,46873.6063033226,15355.0858441958,35116.8856082723,56993.8569495650,17140.0261296372,50179.5938655096,63623.4995697259,65759.0642068173,15732.1992718292
4033642841,25963,2,0,-6959.4967133340,46869.9438265789,15359.1498549346,35116.6422543359,56987.9434489091,17147.2659092469,50158.1665514044,63622.7695079165,65758.8086851840,15729.3520307726
4033642841,25963,2,0,-6954.0577528542,46877.5729724869,15366.0124359428,35124.5999280581,56994.9520422791,17148.4826789292,50179.3991823605,63631.8344420496,65764.3936580257,15736.4701334141
4033689381,25964,2,0,-6951.0158286484,46882.9510944827,15369.8452604420,35127.8122000193,57001.0358906906,17149.2005730417,50193.1486797704,63633.6839319667,65764.1503040893,15744.9753534933
4033689381,25964,2,0,-6955.8464042871,46879.7631579150,15375.2355501346,35123.2858168012,56995.2440670028,17155.2114152723,50173.6195263696,63631.9804544115,65762.5076650182,15743.0406896985
4033689381,25964,2,0,-6955.1041747809,46883.5959824143,15383.4852485805,35126.4250825815,57000.8655429350,17159.4336060698,50180.5064427714,63636.5433407201,65767.5937622902,15742.4201371605
4033689381,25964,2,0,-6953.2668525607,46886.9907698279,15389.1675629968,35126.5224241561,57004.9417213707,17155.2844214532,50196.9328334823,63639.4149171703,65770.2584878944,15745.6080737281
4033689381,25964,2,0,-6954.5687961207,46884.3868827078,15391.5037607868,35121.2051406445,56999.7096117368,17159.0320720747,50178.6447851574,63632.7348516145,65767.5937622902,15742.0429385590
4033689381,25964,2,0,-6949.8233943598,46891.4563145619,15400.4105148612,35124.2227294566,57003.0800637568,17163.8383123197,50174.9336376264,63635.9227881821,65771.3535806084,15743.1867020603
4033689381,25964,2,0,-6947.4993642666,46894.1453755598,15400.7268749786,35125.9383747086,57006.0854848721,17157.4989422750,50195.7525668905,63635.4969187933,65771.5360960608,15745.7662537868
4033689381,25964,2,0,-6950.8211454993,46885.9808509916,15401.7002907245,35123.0059597743,57000.6221889986,17157.1339113703,50188.5249549777,63631.1530510275,65767.3869114442,15744.9510180997
4033706946,25965,2,0,-6948.9473201885,46885.1291122140,15411.1789265495,35123.8211954614,56998.9430468370,17165.1402558798,50171.6970302715,63632.1994729543,65770.6113511022,15741.9577646812
4033706946,25965,2,0,-6947.5480350539,46889.5703215543,15414.5493785695,35124.8797850850,57005.0999014294,17161.7698038598,50186.5902911828,63637.7114396151,65775.2350758950,15740.4124671847
4033706946,25965,2,0,-6950.0667482962,46887.1246144929,15415.2186018948,35119.7328493289,57001.2427415365,17159.3240967984,50187.4907007477,63633.6839319667,65772.9353811954,15738.9523435659
4033706946,25965,2,0,-6952.2204306339,46884.6180689474,15418.8932463353,35118.0415394705,56994.4288313157,17161.9279839185,50166.1850636107,63630.1187967976,65770.9033758260,15739.0496851405
4033706946,25965,2,0,-6950.0667482962,46886.6500743168,15423.2979525852,35123.8333631582,56999.4784254972,17160.6138726617,50178.6812882479,63635.5577572774,65773.6776107016,15742.5174787351
4033706946,25965,2,0,-6950.3101022327,46885.3359630600,15422.7260708345,35127.0091320290,57002.0823126173,17147.8621263912,50195.6308899223,63638.2346505785,65770.0881401389,15744.0871116252
4033706946,25965,2,0,-6955.0311686000,46877.6094755774,15422.1785244775,35122.3854072363,56993.5892602349,17149.7724547924,50175.8948856755,63628.1597976091,65762.4954973213,15735.4115437905
4033706946,25965,2,0,-6950.8211454993,46882.7685790303,15430.8905954027,35126.0113808895,56997.5802647928,17158.4480226272,50174.5807744186,63633.0390440351,65764.8438628082,15736.2511148713
4033740488,25966,2,0,-6946.8909794255,46889.8015077940,15438.2520519806,35128.8951250366,57008.3851795716,17158.9225628033,50195.9594177365,63638.8795385101,65768.1534763440,15746.6909987453
4033740488,25966,2,0,-6949.6287112106,46885.0926091235,15444.0682110619,35123.7481892805,57000.6465243922,17156.3186756832,50180.7497967078,63630.8488586070,65764.7221858399,15743.2962113317
4033740488,25966,2,0,-6949.8964005407,46883.6689885952,15448.3755757373,35125.7315238626,56997.6167678833,17154.0676517709,50170.2977451369,63630.2648091595,65764.2354779670,15741.5805660797
4033740488,25966,2,0,-6948.0955814109,46889.4121414956,15450.4562518940,35130.9514657997,57007.7889624273,17151.2204107144,50194.3654494527,63639.0012154783,65764.5396703876,15748.2606316355
4033740488,25966,2,0,-6952.9991632306,46887.8546763023,15448.6676004610,35127.1064736036,57005.7569570578,17144.7228606109,50194.5479649050,63634.8155277712,65760.0984610472,15744.6711610727
4033740488,25966,2,0,-6956.5521307029,46884.9100936712,15451.1498106129,35122.4949165077,57001.5347662603,17154.3718441915,50174.6537805995,63631.5545850227,65758.8816913649,15735.5575561523
4033740488,25966,2,0,-6952.9748278369,46889.1566198624,15458.3530871321,35126.8266165767,57007.2900868575,17159.1415813461,50189.1576752125,63639.3905817767,65766.5351726666,15737.6260646122
4033740488,25966,2,0,-6951.1618410103,46890.7870912366,15464.6559540864,35127.4593368115,57010.2590048823,17156.9878990084,50197.8210753504,63640.8142023049,65768.2873210091,15739.9622624023
4033831688,25967,2,0,-6953.6440511622,46887.0637760088,15470.2287592313,35122.1298856030,57005.6231123928,17155.5886138738,50174.9823084137,63637.5289241628,65765.4400799525,15738.4047972089
4033831688,25967,2,0,-6952.8774862623,46888.7915889577,15472.3337707816,35121.7405193047,57005.4284292436,17153.1429068124,50177.7322078957,63637.8817873706,65764.7465212336,15741.8360877130
4033831688,25967,2,0,-6951.1375056167,46888.9862721068,15472.9178202291,35121.2903145222,57007.8376332146,17149.6751132178,50195.8742438587,63637.5167564659,65765.8172785540,15748.3944763005
4033831688,25967,2,0,-6953.7778958272,46883.6811562920,15475.0593348700,35116.1798818566,56999.4784254972,17149.3830884941,50176.1990780960,63629.4495734723,65762.0331248421,15743.8559253856
4033831688,25967,2,0,-6953.7535604336,46881.4666354703,15480.0602582642,35115.8756894360,56996.6798552279,17154.9072228517,50167.4870071708,63629.3522318977,65764.2111425734,15735.0100097953
4033831688,25967,2,0,-6953.2790202575,46885.7253293583,15481.7028973353,35118.7107627958,57002.2769957665,17150.4173427240,50189.2185136966,63633.1363856097,65765.3914091652,15735.6670654238
4033831688,25967,2,0,-6956.1992674950,46881.4057969861,15481.8489096972,35113.5151562524,56998.5658482355,17144.1874819507,50183.5605346739,63627.8677728853,65760.2566411059,15739.1470267151
4033831688,25967,2,0,-6955.6030503507,46879.6171455532,15488.9183415513,35115.3524784726,56995.9497934186,17152.1573233697,50168.5820998849,63627.5027419807,65758.0421202842,15742.2132863145
4033836407,25968,2,0,-6950.9184870738,46883.7906655634,15495.9025995277,35119.1974706687,57003.1774053314,17154.8585520644,50183.5727023707,63634.7060184998,65763.7609377909,15746.0826139042
4033836407,25968,2,0,-6951.9527413038,46882.0628526146,15499.6624178460,35115.0482860521,57001.5347662603,17151.5611062254,50182.6601251090,63632.2603114384,65763.6027577322,15744.1601178062
4033836407,25968,2,0,-6952.7436415973,46880.6757351768,15507.2185575730,35114.7319259347,56996.0227995995,17159.0807428620,50162.1088851751,63629.8997782548,65764.0529625147,15737.5652261281
4033836407,25968,2,0,-6950.0910836899,46886.8569251628,15514.2636540335,35118.1145456514,57002.1066480110,17158.5453642018,50170.8209561003,63635.5090864901,65768.3968302805,15739.5242253166
4033836407,25968,2,0,-6953.8387343114,46888.1467010261,15514.5435110604,35115.5471616218,57004.3576719232,17146.8522075549,50186.2495956718,63634.5235030475,65764.2233102702,15749.8302645257
4033836407,25968,2,0,-6960.1902720529,46880.3715427562,15513.5944307082,35108.6115744327,56996.5095074724,17146.2316550169,50165.9052065838,63626.3589784793,65756.7401767241,15755.2448896119
4033836407,25968,2,0,-6959.2533593976,46880.9190891132,15519.2159066404,35110.2055427165,56996.7893644993,17143.2870723858,50160.5392522849,63627.0647048950,65756.1804626702,15756.8875286830
4033836407,25968,2,0,-6959.8130734514,46881.2597846243,15520.0919808117,35109.0861146088,56998.7848667783,17138.2374782043,50179.8615548397,63624.4243146844,65752.5179859265,15753.4440704821
4033841892,25969,2,0,-6959.5697195150,46878.4003758709,15525.7621275312,35105.9103457380,56997.0327184358,17147.2902446405,50170.3464159242,63620.1899561901,65752.8951845280,15746.5814894739
4033841892,25969,2,0,-6953.8387343114,46883.5473116270,15535.6544650482,35109.5363193913,56999.6244378591,17158.7400473509,50161.3423202752,63623.2197126990,65759.5022439029,15743.6490745396
4033841892,25969,2,0,-6949.3853572742,46889.1079490751,15538.8302339190,35113.6611686142,57009.0178998064,17145.8909595059,50182.3194295980,63628.2449714868,65760.8406905534,15743.0163543048
4033841892,25969,2,0,-6950.3344376263,46884.0461871967,15535.4476142022,35111.9211879686,57003.5059331456,17140.2816512705,50182.6357897154,63623.7429236624,65753.5157370660,15745.0605273711
4033841892,25969,2,0,-6952.0014120911,46878.8992514406,15538.1123398065,35109.7675056309,56994.9155391886,17144.7593637014,50159.6145073264,63619.3260497156,65752.8951845280,15743.4665590873
4033841892,25969,2,0,-6950.3587730200,46884.2287026491,15544.2691943989,35114.7319259347,57000.4518412430,17150.0158087289,50173.2301600712,63627.0647048950,65758.0299525873,15749.4652336210
4033841892,25969,2,0,-6951.5025365213,46885.5184785123,15545.6319764430,35114.4155658173,57005.1850753072,17149.9306348511,50187.9895763175,63628.4274869392,65761.0718767931,15754.6851755580
4033841892,25969,2,0,-6952.9504924433,46884.9952675489,15550.7545768055,35114.4399012109,57001.7902878936,17160.4191895125,50173.2301600712,63627.8069344012,65762.2764787785,15751.1930465698
4033861495,25970,2,0,-6947.1099979683,46891.2129606254,15559.5274862148,35121.8621962729,57007.4847700067,17162.5728718502,50178.5109404924,63634.0611305682,65771.6212699386,15751.6675867459
4033861495,25970,2,0,-6950.3952761105,46888.8767628354,15558.2742134421,35116.9464467564,57006.0976525689,17146.9252137359,50192.7471457752,63633.1120502160,65767.7519423489,15748.1511223641
4033861495,25970,2,0,-6955.0311686000,46881.5518093480,15558.5784058627,35109.3659716358,56996.9475445580,17147.6309401516,50177.2455000228,63623.9741099020,65761.9479509643,15745.2795459139
4033861495,25970,2,0,-6952.7193062036,46883.4012992651,15565.3193099026,35111.2763000370,56997.0935569199,17152.3398388221,50168.2900751611,63625.0205318288,65762.9822051943,15743.4300559968
4033861495,25970,2,0,-6949.7747235725,46888.0371917547,15567.6920107830,35113.3448084969,57002.6055235807,17148.5921882006,50187.7097192905,63627.8069344012,65763.9069501528,15746.9830234691
4033861495,25970,2,0,-6955.0920070841,46882.2210326733,15567.7041784799,35106.9324322712,56997.3004077659,17140.6466821752,50179.6303686001,63621.0295272708,65757.3607292621,15742.5783172192
4033861495,25970,2,0,-6962.6238114175,46873.8253218655,15566.4022349198,35099.4127956346,56987.4324056425,17143.3600785667,50152.6424170468,63613.6193999057,65750.3886389825,15732.2601103133
4033861495,25970,2,0,-6954.2767713970,46881.7343248004,15573.0457973851,35108.6115744327,56997.7749479420,17151.6584478000,50172.5000982619,63622.3071354373,65756.7888475114,15739.4268837420
4033915556,25971,2,0,-6948.3267676506,46888.1832041165,15577.9858822952,35114.7805967220,57006.1828264467,17150.1739887876,50190.6421342249,63628.7803501471,65759.3805669347,15749.6964198606
4033915556,25971,2,0,-6944.0559060657,46887.2219560675,15583.8750475575,35114.7805967220,57002.2404926760,17147.3997539120,50171.4536763351,63623.6942528751,65758.2611388270,15748.7351718116
4033915556,25971,2,0,-6948.8378109171,46885.9808509916,15583.0111410831,35114.0140318221,56998.1399788467,17141.6566010115,50171.2954962764,63623.8159298433,65755.4504008609,15747.9807746086
4033915556,25971,2,0,-6951.6607165800,46886.3093788058,15582.2202407896,35113.2718023159,57000.7073628763,17138.5660060185,50185.1666706545,63621.2850489041,65751.4715639998,15750.9375249365
4033915556,25971,2,0,-6953.6318834654,46881.3206231084,15584.5686062765,35108.4290589804,56993.8812849587,17138.3469874757,50165.0656355030,63615.6270698815,65748.3566336131,15750.4873201541
4033915556,25971,2,0,-6955.7855658030,46880.8582506291,15587.6592012695,35107.2974631759,56992.7740245478,17134.8913615780,50159.9673705342,63615.3715482482,65747.3223793831,15745.0483596742
4033915556,25971,2,0,-6953.4858711035,46883.4012992651,15589.4721880961,35109.2077915771,57000.0989780352,17132.7863500276,50183.1103298915,63620.3968070360,65746.8235038134,15743.6855776301
4033915556,25971,2,0,-6956.1140936172,46876.1128488682,15590.5794485070,35104.0486881241,56993.9056203523,17135.4145725414,50172.0255580858,63612.4878041011,65742.5161391381,15740.7409949989
4033927622,25972,2,0,-6956.0897582236,46875.3706193620,15596.6876323121,35104.2068681828,56988.1016289678,17143.9319603174,50155.5869996780,63613.6193999057,65745.8622557644,15740.3151256101
4033927622,25972,2,0,-6954.0699205510,46879.6171455532,15599.4740348846,35109.3538039389,56992.1656397066,17142.5205074860,50174.7754575677,63618.5959879063,65748.7946706987,15744.7806703441
4033927622,25972,2,0,-6954.4592868493,46881.5031385607,15600.1675936035,35108.2222081344,56994.2949866506,17136.1811374412,50182.3437649916,63616.7951687765,65745.3877155883,15750.3291400954
4033927622,25972,2,0,-6957.7445649915,46876.7334014061,15601.9197419460,35103.6349864321,56989.0628770168,17135.1347155144,50160.3810722262,63610.7478234555,65740.7031523115,15746.2772970534
4033927622,25972,2,0,-6957.6715588106,46876.1128488682,15603.7205610758,35103.6593218258,56991.0340439021,17131.8251019786,50168.3265782516,63612.4999717980,65742.1389405366,15742.3958017668
4033927622,25972,2,0,-6959.9347504196,46874.1173465892,15602.6254683617,35102.6737383831,56991.8249441956,17127.1648740954,50180.2022503508,63610.9546743015,65741.6157295732,15744.4764779236
4033927622,25972,2,0,-6962.5629729334,46870.5157083296,15605.9472495944,35099.2911186664,56985.7897665714,17134.2708090400,50159.5780042359,63606.9880051372,65741.7252388446,15744.3304655617
4033927622,25972,2,0,-6957.9392481407,46875.5166317238,15613.3938800500,35102.3695459626,56991.0705469926,17137.5682548790,50160.3810722262,63610.8329973332,65746.8478392070,15745.4012228821
4033975261,25973,2,0,-6957.5620495392,46879.5319716754,15615.8760902019,35104.0000173368,56995.6212656043,17135.9742865952,50180.9444798570,63612.7311580376,65747.6144041069,15744.4278071363
4033975261,25973,2,0,-6960.2876136275,46876.7455691030,15619.6359085202,35101.9071734833,56989.9267834912,17136.2298082285,50169.4216709656,63608.6063088146,65745.4972248597,15741.7265784416
4033975261,25973,2,0,-6960.4822967767,46873.8374895623,15623.5782422908,35105.1924516255,56984.1592951971,17137.2883978521,50156.2075522159,63607.3165329514,65746.4219698182,15740.4611379720
4033975261,25973,2,0,-6958.0000866248,46875.8694949317,15625.4885706920,35108.1613696503,56988.7708522930,17135.0982124240,50178.2675865559,63611.3440405998,65748.6729937305,15745.4377259726
4033975261,25973,2,0,-6956.2966090696,46874.7378991272,15626.5958311029,35106.1536996745,56988.9898708358,17134.4776598860,50180.5064427714,63610.4314633381,65747.5048948355,15751.4972389904
4033975261,25973,2,0,-6955.0676716905,46876.1371842618,15632.2294747319,35103.3794647989,56987.9556166059,17140.0869681214,50160.8191093118,63611.8185807759,65748.9893538479,15755.2813927023
4033975261,25973,2,0,-6956.6981430647,46877.1106000076,15632.7891887858,35103.1726139529,56991.2165593544,17128.3938114745,50169.5555156307,63611.7942453822,65746.9208453880,15752.3611454648
4033975261,25973,2,0,-6964.4367982441,46870.3818636646,15628.3723148390,35098.4028767983,56985.2908910017,17118.4893062606,50174.4225943599,63603.5810500267,65737.1501848391,15748.0781161832
4033992677,25974,2,0,-6974.5481543040,46860.0149859714,15625.0261982127,35092.0391713599,56972.1984492202,17117.9660952973,50150.5374054964,63592.4841105242,65728.8883186964,15737.8815862455
4033992677,25974,2,0,-6975.5215700498,46863.3611025977,15629.1388797389,35094.3875368467,56975.6419074211,17124.0134406183,50153.8591867291,63594.7473021333,65730.4701192834,15736.9325058933
4033992677,25974,2,0,-6973.4895646804,46869.4327833124,15631.4385744384,35094.3266983626,56980.8010108740,17123.0278571756,50173.8750480028,63597.4485308280,65732.5751308337,15740.7774980894
4033992677,25974,2,0,-6973.7450863137,46865.7581388718,15636.0744669280,35089.5204581175,56977.2723787953,17130.3649783598,50158.8844455170,63593.8955633557,65732.5142923496,15743.1136958794
4033992677,25974,2,0,-6968.2087842592,46868.4471998697,15645.5774381467,35092.3798668709,56977.4062234604,17134.4411567955,50151.5594920296,63595.3678546713,65735.5440488585,15746.4719802025
4033992677,25974,2,0,-6964.4124628505,46872.3651982467,15648.6315300492,35097.3442871747,56982.9546932117,17129.6349165505,50171.4780117287,63599.6143808625,65739.1213517245,15753.1520457583
4033992677,25974,2,0,-6966.1524434962,46868.7878953808,15645.9668044450,35095.3852879862,56980.3994768788,17125.7412535671,50166.5014237281,63595.9032333315,65733.8527390001,15753.5657474503
4033992677,25974,2,0,-6967.9045918387,46866.4760329844,15648.4611822937,35095.4704618640,56977.7590866683,17128.2964698999,50150.7807594329,63594.3457681381,65734.2907760858,15747.9929423054
4034045425,25975,2,0,-6967.9532626260,46870.0290004567,15651.6977896486,35096.8332439081,56982.9790286053,17126.2887999241,50167.5843487454,63598.6896359039,65738.0019236168,15745.6324091217
4034045425,25975,2,0,-6968.7441629195,46867.4372810334,15653.9974843482,35093.8886612770,56980.2291291233,17126.3374707114,50171.5996886970,63598.1177541532,65738.8779977880,15745.6810799090
4034045425,25975,2,0,-6974.5724896976,46858.3358438099,15652.6468700008,35085.6511305278,56968.4873016892,17123.9526021341,50142.0686885077,63590.4277697611,65733.9865836652,15735.5088853651
4034045425,25975,2,0,-6971.1168637999,46859.5404457953,15651.8803051010,35085.4564473787,56968.8766679875,17125.7047504766,50146.9844380241,63590.9509807245,65733.9014097874,15732.1506010419
4034045425,25975,2,0,-6966.7243252468,46864.8455616101,15652.1844975215,35088.4253654035,56973.8532559881,17124.3176330388,50169.0688077578,63596.0614133902,65736.2984460616,15734.3286187732
4034045425,25975,2,0,-6964.5463075155,46865.5026172386,15659.1079170138,35092.3311960836,56973.5368958707,17130.3649783598,50157.3999865046,63591.8148871990,65736.0672598219,15732.2114395260
4034045425,25975,2,0,-6963.8527487966,46869.2989386473,15665.9218272346,35098.0743489841,56973.8045852008,17125.5830735084,50156.7185954825,63593.3845200891,65735.9334151569,15732.1140979515
4034045425,25975,2,0,-6963.7675749189,46870.9294100216,15667.1020938265,35100.0090127789,56978.3309684189,17122.4073046376,50175.3960101057,63596.9009844710,65735.0938440761,15737.4192137663
4034053117,25976,2,0,-6962.0640973637,46870.5278760264,15670.7037320861,35098.0500135904,56977.9537698174,17127.9436066921,50169.2391555133,63596.7671398059,65733.6945589414,15742.4931433414
4034053117,25976,2,0,-6958.8518254024,46871.6108010437,15676.7389097102,35099.1207709108,56976.8708448002,17135.0130385462,50160.6244261627,63598.2272634246,65736.5904707853,15744.0384408379
4034053117,25976,2,0,-6953.3641941353,46880.4932197244,15681.6546592267,35105.9346811317,56987.2377224933,17136.4609944681,50187.4420299604,63603.0456713665,65743.9519273632,15745.8149245741
4034053117,25976,2,0,-6951.1496733135,46878.8749160470,15682.7132488503,35105.7156625889,56986.3616483221,17134.2464736464,50192.6863072911,63602.0235848334,65744.1101074219,15744.6346579823
4034053117,25976,2,0,-6952.0014120911,46874.6648929462,15687.0449489193,35106.7255814252,56985.3638971826,17139.4177447961,50172.3054151127,63600.8311505448,65743.8545857886,15739.9744300991
4034053117,25976,2,0,-6949.0081586726,46881.8073309813,15691.6686737120,35110.9234368291,56992.8226953351,17139.5880925516,50186.1400864004,63608.0465947608,65748.2836274321,15748.6013271465
4034053117,25976,2,0,-6943.5326951023,46889.2661291338,15694.8444425828,35114.4642366046,57000.7560336636,17141.2915701068,50205.0730226569,63613.2543690010,65750.0844465619,15759.8199436173
4034053117,25976,2,0,-6942.6444532342,46888.1953718134,15700.3320738499,35113.0041129858,56995.7186071789,17143.8102833492,50185.8723970703,63610.0542647366,65747.4805594418,15758.7856893873
4034083075,25977,2,0,-6941.9508945153,46888.8159243513,15703.9702152000,35112.3470573574,56995.0372161568,17141.6809364052,50180.4821073777,63608.6428119051,65749.2448754812,15751.3755620222
4034083075,25977,2,0,-6945.9297313764,46883.2187838128,15703.9458798063,35107.3704693568,56994.0394650174,17130.3893137535,50190.6421342249,63604.3476149266,65744.5603122043,15747.2142097087
4034083075,25977,2,0,-6955.2988579301,46872.8032353323,15699.5046704660,35098.0135104999,56981.8230974071,17123.3807203835,50170.8817945844,63593.8590602652,65733.2686895526,15742.2011186177
4034083075,25977,2,0,-6962.4777990556,46867.8144796349,15696.9372864363,35093.0612578930,56975.8244228734,17121.2027026522,50156.0007013699,63589.6368694677,65726.7103009651,15738.0154309106
4034083075,25977,2,0,-6964.5463075155,46873.4237878703,15696.1098830524,35093.9008289738,56983.8307673829,17126.0819490782,50176.0895688246,63594.8933144952,65728.8761509996,15743.9776023538
4034083075,25977,2,0,-6960.1172658720,46880.0673503356,15705.0531402172,35100.0576835662,56992.1656397066,17145.2217361806,50179.1071576367,63599.1155052927,65738.5616376706,15754.1619645946
4034083075,25977,2,0,-6951.1010025262,46885.8713417202,15718.6079544780,35107.9301834106,56995.3414085774,17150.9283859906,50163.2039778891,63605.8077385453,65746.4706406055,15761.1340548742
