steady_timestamp,sequence,battery,flags,EEG-ch1,EEG-ch2,EEG-ch3,EEG-ch4,EEG-ch5,EEG-ch6,EEG-ch7,EEG-ch8,EEG-ch9,EEG-ch10
9291609000,17176,-2,0,23076.1587016777,47608.6081976093,54310.6851169571,60083.2595083036,71720.1162219511,56959.6048830084,59451.3180061073,60586.2112564799,66327.0036237249,11246.4318256898
9291609000,17176,-2,0,22917.0904011114,47548.8648062086,54257.5001141441,60053.7163404175,71666.4201758715,56988.5396660534,59426.8000970091,60522.0753265262,66325.6408416807,11254.3043255342
9291609000,17176,-2,0,22760.0784413082,47516.9124343516,54232.7388511094,60057.3423140708,71652.3299829505,56987.1282132219,59434.7090999440,60523.5962886291,66344.6102810277,11258.1736531239
9291609000,17176,-2,0,22806.1575091766,47542.6714485258,54257.2202571171,60077.1999952858,71683.2602682744,56960.8338203876,59452.1089064008,60567.6068480377,66350.7428002265,11252.3939971330
9291609000,17176,-2,0,22968.9126218803,47591.1353849715,54294.0518754002,60091.7403929892,71717.7191856770,56953.9590716826,59460.1639216976,60592.0639186518,66339.2686621224,11251.1772274507
9291609000,17176,-2,0,23052.6872145063,47608.3891790665,54302.7031078413,60089.5988783484,71715.9061988504,56959.8239015512,59452.6686204547,60577.4383470706,66330.0577156275,11254.1096423850
9291609000,17176,-2,0,22954.6520812038,47571.3142068470,54270.2518604145,60071.3473331140,71680.4860333988,56973.4638896898,59436.7897761007,60538.5747234181,66326.3587357933,11257.8329576129
9291609000,17176,-2,0,22774.9351991290,47522.7164257361,54229.5509145418,60056.0038674202,71646.8180162897,56990.8028576625,59428.4670714738,60511.1000639919,66332.9171243809,11260.0718138283
9291640513,17177,-2,0,22758.7764977481,47537.4636742855,54243.0205549248,60071.5176808695,71670.9100559992,56980.7645077835,59445.6965301751,60544.0015162012,66349.5747013315,11254.1461454755
9291640513,17177,-2,0,22956.7084219669,47604.7997085037,54305.9640505898,60103.6769035725,71726.6016043578,56962.5738010332,59466.9656642216,60606.2392854505,66353.8577306131,11249.5224206828
9291640513,17177,-2,0,23082.1817116051,47626.8354074500,54323.0596646261,60099.3330358067,71731.1036521823,56968.3169539337,59456.9394820395,60596.2982771462,66337.2123213594,11250.5080041255
9291640513,17177,-2,0,22964.6174249018,47576.8018381141,54276.1045225863,60069.6438555588,71681.6784676875,56991.3504040195,59433.2611440221,60534.4620418920,66329.0964675785,11255.1560643118
9291640513,17177,-2,0,22794.9267250091,47531.3919935709,54239.1998981224,60063.8520318710,71655.6517641832,56996.5095074724,59434.8672800027,60520.5665321202,66342.7121203233,11261.2155773296
9291640513,17177,-2,0,22788.3926718152,47541.1504864229,54255.3464318064,60082.7971358244,71677.6752954327,56985.8141019651,59454.2747564353,60555.9988652686,66353.6265443735,11263.4787689387
9291640513,17177,-2,0,22936.8507407519,47590.1132984384,54298.6756001929,60102.8860032790,71718.8629491784,56980.5941600280,59468.2311046912,60594.8259858306,66356.8144809411,11262.7973779166
9291640513,17177,-2,0,23067.9333386254,47620.2405157720,54321.3805224645,60104.0054313868,71735.6908738845,56973.7194113230,59463.4126967493,60600.3866232787,66347.2141681478,11255.8739584244
9291724049,17178,-2,0,23012.3391318414,47590.7338509764,54295.9500361046,60081.3126768120,71701.3049626629,56976.9560186779,59441.8637056759,60561.2553102961,66332.4182488111,11254.3164932310
9291724049,17178,-2,0,22813.7379842973,47526.9021134432,54241.8037852425,60052.6699184908,71651.0645424809,56995.9984642059,59422.4805646369,60512.8765477281,66333.6593538871,11257.7842868256
9291724049,17178,-2,0,22748.1784338153,47527.8146907049,54244.1156476388,60064.6307644677,71661.9911342280,56993.5405894476,59437.8118626339,60538.2096925134,66351.2051727057,11259.4512612903
9291724049,17178,-2,0,22921.8358028724,47590.4296585558,54301.0726364670,60094.6606402267,71713.8620257842,56959.3006905879,59457.9980716631,60599.4253752297,66354.9528233272,11252.9658788837
9291724049,17178,-2,0,23077.6066575997,47621.4451177575,54323.4125278339,60092.8233180065,71725.8228717611,56958.9478273800,59447.2904984589,60600.1554370390,66334.3772479996,11248.9383712353
9291724049,17178,-2,0,23008.1412764375,47584.2241331761,54287.1041205143,60068.2689058178,71686.8984096245,56984.3661460431,59426.0091967156,60547.2502912529,66325.8111894363,11254.1096423850
9291724049,17178,-2,0,22838.3410672733,47535.7723644271,54250.9295578597,60061.2238093573,71656.9050369560,56997.5802647928,59426.7027554345,60529.9721617643,66340.6557795603,11260.3151677647
9291724049,17178,-2,0,22775.3489008210,47526.5370825385,54249.4816019377,60071.3108300235,71659.3264086237,56988.5031629629,59437.7023533624,60549.4283089842,66351.7527190628,11259.0132242047
9291731790,17179,-2,0,22885.6369048241,47569.2456983871,54286.8607665778,60090.6209648815,71699.0661064475,56976.6274908637,59454.8466381860,60587.4645292527,66356.6928039729,11254.3043255342
9291731790,17179,-2,0,23051.3244324621,47616.2008404268,54322.4634474817,60104.1636114455,71728.9378021478,56957.9987470278,59460.9183189006,60610.3032961894,66350.3290985345,11250.6905195778
9291731790,17179,-2,0,23044.9485593269,47595.9172898230,54303.3479957729,60085.4375260349,71702.3392168928,56965.7860729945,59441.6081840426,60573.5446840873,66332.7954474126,11250.4836687318
9291731790,17179,-2,0,22848.8539573284,47534.3974146862,54245.5514358639,60061.9660388635,71651.6850950189,56999.4540901036,59424.7802593365,60514.7138699483,66332.6007642635,11256.3241632068
9291731790,17179,-2,0,22739.8435614916,47520.3802279461,54233.5054160092,60073.8173755690,71654.1064666867,56997.0448861326,59437.7266887561,60524.8495614018,66350.4872785932,11257.3827528304
9291731790,17179,-2,0,22872.4836245585,47570.6936543090,54277.5889815987,60100.9635071810,71700.7817516995,56964.1799370139,59458.0102393599,60583.9724002645,66353.4318612244,11249.6319299542
9291731790,17179,-2,0,23047.4186017819,47610.6523706755,54304.3335792156,60103.9445929026,71723.8030340885,56961.7098945588,59457.9980716631,60600.4352940660,66335.4601730169,11245.6895961836
9291731790,17179,-2,0,23034.5695139369,47592.1209684142,54283.6484946166,60084.2085886558,71695.4523004910,56978.0632790888,59443.2508231137,60560.0263729170,66323.4506562526,11249.0113774162
9291737462,17180,-2,0,22880.0640996792,47544.0098951763,54245.7826221036,60068.2324027273,71658.2921543938,56983.9524443511,59436.4369128929,60529.0352491089,66330.0212125370,11254.7180272262
9291737462,17180,-2,0,22764.6048245263,47516.4622295691,54228.4558218277,60068.5365951479,71647.1708794976,56982.3098052800,59436.9114530690,60527.4899516124,66335.8617070120,11253.1118912456
9291737462,17180,-2,0,22831.7096725048,47548.4876076071,54256.6727107601,60088.6863010867,71679.9141516481,56972.2106169170,59449.3103361315,60562.2652291324,66341.8238784553,11249.3520729273
9291737462,17180,-2,0,23018.9340235194,47601.3075795155,54299.6855190292,60109.0915286587,71722.8174506458,56946.9261429189,59457.4991960934,60600.0945985549,66335.3506637455,11243.8644416601
9291737462,17180,-2,0,23064.8305759356,47594.9317063803,54289.0996227932,60094.8066525886,71703.1909556704,56945.4295162097,59439.1259738907,60572.3522497986,66314.5317344814,11240.6765050925
9291737462,17180,-2,0,22882.5828129215,47528.2770631842,54229.3318959989,60060.7857722717,71643.4962350571,56975.6054043306,59415.3259589051,60506.3059914437,66305.1747756246,11243.9009447506
9291737462,17180,-2,0,22736.8989788605,47498.6608891172,54206.6756445146,60062.7812745506,71633.6160652368,56984.9501954906,59423.9163528621,60508.3014937226,66325.1784692015,11244.9838697678
9291737462,17180,-2,0,22831.1986292383,47541.6250265990,54253.6429542512,60089.9517415563,71678.7095496627,56965.5305513612,59450.4297642392,60569.9552135245,66338.7332834622,11243.7062616014
9291766818,17181,-2,0,23010.1124433228,47592.9118687077,54297.8116937185,60099.5398866527,71714.6407583808,56957.9135731500,59456.0025693842,60598.4762948775,66331.2623176129,11245.2272237043
9291766818,17181,-2,0,23049.0490731562,47591.7072667222,54287.6638345681,60082.1035771055,71698.2143676698,56962.1966024317,59440.7686129618,60570.4054183069,66318.8756022472,11249.0600482035
9291766818,17181,-2,0,22921.3004242121,47544.4479322619,54246.7803732430,60064.5577582868,71658.3529928779,56971.6752382568,59427.8708543295,60530.0330002484,66315.6146594986,11255.6671075784
9291766818,17181,-2,0,22770.5304928791,47502.2990304672,54212.2727850532,60056.2228859631,71633.8350837797,56978.3066330253,59426.9826124614,60507.4984257323,66319.8125149026,11255.8374553339
9291766818,17181,-2,0,22789.6337768911,47523.0327858535,54232.4103232952,60072.7831213391,71662.4170036167,56971.0303503252,59445.1976546054,60537.6864815501,66329.9117032656,11251.4327490840
9291766818,17181,-2,0,22984.1465783026,47587.8744422230,54290.6327525929,60098.0189245499,71713.9228642683,56954.4336118587,59463.8994046222,60591.1635090869,66330.0455479307,11246.6508442326
9291766818,17181,-2,0,23082.5224071161,47603.4734295500,54303.1411449269,60093.2613550921,71714.8476092268,56957.8283992723,59457.5478668807,60582.5487797362,66315.7971749510,11246.7725212008
9291766818,17181,-2,0,22931.6794696021,47548.0860736120,54250.9538932533,60060.4450767606,71658.8640361445,56987.1038778283,59431.1804678653,60520.0433211568,66309.4091341189,11250.4836687318
9291821624,17182,-2,0,22758.2289513911,47505.0245945556,54217.0181868141,60054.7992654348,71636.7796664108,56989.6712618579,59428.2845560215,60506.4155007151,66328.0257102580,11251.1163889666
9291821624,17182,-2,0,22788.0033055168,47526.2328901180,54241.1588973108,60075.0949837354,71661.5409294455,56969.2538665890,59443.0561399645,60547.8951791845,66337.6016876577,11246.0059563010
9291821624,17182,-2,0,22955.1022859863,47577.5684030140,54283.3199668023,60091.0833373608,71699.0174356602,56965.9564207500,59453.7515454719,60578.8254645084,66335.1924836868,11244.4849941981
9291821624,17182,-2,0,23048.2216697723,47593.5080858520,54294.2708939430,60086.7273018982,71702.3513845897,56969.8257483397,59447.3635046399,60571.0381385417,66327.5268346883,11246.8820304722
9291821624,17182,-2,0,22956.8422666320,47552.5029475587,54259.7633057531,60064.0223796266,71666.2376604192,56974.9726840958,59426.3255568330,60535.2286067918,66320.3843966532,11250.9703766047
9291821624,17182,-2,0,22775.1542176718,47497.4684548285,54215.2417030780,60047.6446597029,71630.9391719358,56987.9921196964,59416.1168591985,60504.7850293408,66322.3433958417,11253.0023819742
9291821624,17182,-2,0,22741.2671820199,47504.9029175873,54222.7126689273,60060.2503936115,71649.6530896495,56980.3143030011,59429.7811827307,60531.6148008354,66334.0122170949,11249.1573897781
9291821624,17182,-2,0,22924.6343731416,47572.7743304657,54284.5245687878,60093.4925413317,71707.9120220377,56957.8892377564,59455.5401969049,60592.5384588279,66336.4944272468,11244.2781433521
9291832119,17183,-2,0,23066.0960164052,47601.4657595742,54309.9793905414,60092.8233180065,71718.6195952419,56961.9532484953,59449.4806838871,60592.3072725882,66322.5137435972,11247.6972661594
9291832119,17183,-2,0,22960.8089357962,47555.0338284979,54265.4091170790,60065.0566338565,71671.8713040482,56987.0187039505,59426.0822028965,60531.3957822926,66313.7773372784,11254.4868409866
9291832119,17183,-2,0,22779.6562654963,47505.2922838857,54224.3188049079,60054.9574454935,71637.2055357996,56990.6568453006,59422.6022416052,60510.4551760603,66324.0712087906,11258.6846963905
9291832119,17183,-2,0,22757.4015480071,47511.9601817446,54229.9281131433,60069.7411971333,71655.6395964864,56974.4981439197,59437.3738255482,60544.2448701376,66331.5178392462,11253.4282513630
9291832119,17183,-2,0,22901.3819045130,47563.0280053105,54267.3559485706,60087.9562392773,71695.1237726768,56970.0447668825,59451.8290493739,60583.8872263868,66330.7999451337,11249.6440976510
9291832119,17183,-2,0,23040.5195176833,47599.6527727476,54292.4822425100,60094.9283295568,71714.8111061363,56968.1831092686,59455.9295632032,60596.4807925985,66322.5745820814,11249.3277375336
9291832119,17183,-2,0,23000.6581428914,47576.4489749062,54269.7894879352,60075.9953933003,71686.8132357468,56976.7856709224,59441.5230101648,60563.8105266289,66316.1622058557,11255.1803997055
9291832119,17183,-2,0,22806.0114968148,47515.3306337646,54214.1344426671,60052.0858690433,71638.7143302057,56991.5329194718,59424.1353714049,60514.4583483151,66316.4177274890,11256.1173123608
9291859766,17184,-2,0,22720.0345510639,47503.9173341447,54203.5242110375,60057.5856680072,71642.2672976780,56983.9889474416,59428.6495869262,60522.8905622134,66329.6805170260,11249.3277375336
9291859766,17184,-2,0,22874.7468161676,47557.8567341608,54253.5699480702,60087.3356867393,71692.0696807743,56950.2114210611,59446.8524613733,60578.1075703959,66330.5079204099,11235.2740477031
9291859766,17184,-2,0,23037.5505996585,47590.2714784971,54282.3343833597,60087.6277114631,71706.9507739887,56945.3686777256,59440.7807806586,60582.9868168219,66312.6944122611,11223.9459219610
9291859766,17184,-2,0,22975.5805197393,47551.9554012017,54245.7461190131,60060.8466107558,71662.7211960373,56967.8545814544,59415.5693128415,60527.4777839156,66296.9007417849,11219.9914204935
9291859766,17184,-2,0,22801.4486105062,47499.9506649804,54205.3858686514,60048.6545785392,71626.5101302923,56978.8176762919,59410.6048925378,60499.1027149245,66308.3505444953,11226.0752689050
9291859766,17184,-2,0,22734.1369116817,47493.5626241484,54206.4079551845,60061.9052003794,71633.0198480925,56971.0911888093,59425.6319981141,60520.7003767852,66319.5083224820,11229.2875408662
9291859766,17184,-2,0,22843.5610092104,47538.2545745790,54241.0980588267,60081.9940678340,71671.4941054467,56963.1700181776,59441.7541964045,60559.8925282519,66322.7449298369,11229.2267023821
9291859766,17184,-2,0,23011.5847346384,47585.5990829171,54276.8589197894,60090.9494926957,71703.7993405116,56954.1537548318,59449.3468392220,60585.9313994530,66314.0936973958,11231.6724094435
9291908898,17185,-2,0,23025.9912876767,47574.6603234733,54265.4334524726,60074.0363941118,71686.3265278738,56962.2574409158,59434.4900814012,60561.5229996262,66303.2401118297,11238.7661766913
9291908898,17185,-2,0,22840.0810479190,47514.5153980775,54212.6134805642,60048.9709386566,71639.4443920150,56993.4554155699,59417.0294364603,60508.0824751798,66304.8340801135,11248.5125018465
9291908898,17185,-2,0,22716.5667574693,47496.4828713859,54201.3096902157,60059.7758534354,71639.5052304992,56994.5018374966,59426.8731031900,60517.4029309462,66325.5313324093,11252.5886802822
9291908898,17185,-2,0,22837.6961793417,47546.5651115091,54251.2459179771,60089.2338474437,71687.9204961576,56963.3525336299,59449.8457147917,60579.0444830512,66334.1947325473,11243.8766093570
9291908898,17185,-2,0,23017.3278875388,47592.3399869570,54287.6394991745,60093.4560382413,71711.6840080528,56956.3926110472,59447.7042001509,60596.8944942905,66321.1874646435,11237.7319224614
9291908898,17185,-2,0,23015.6000745900,47578.7851726962,54268.8525752799,60070.0210541603,71686.0953416342,56975.1673672450,59431.8496911906,60556.3882315669,66309.4943079967,11241.8446039875
9291908898,17185,-2,0,22859.8292198626,47531.1608073313,54230.0984608988,60051.2341302656,71647.6089165832,56985.3030586985,59425.2304641189,60524.4115243162,66316.6124106381,11247.8432785212
9291908898,17185,-2,0,22743.6155475067,47507.1052707123,54215.6189016795,60052.9376078209,71642.4863162208,56988.8316907771,59434.5752552789,60528.4025288741,66328.8774490356,11250.6783518810
9291945619,17186,-2,0,22807.0579187415,47544.3262552937,54246.9263856049,60078.4411003617,71681.7271384748,56987.9921196964,59455.7713831445,60568.0327174265,66342.9311388661,11249.6684330447
9291945619,17186,-2,0,22994.9879961719,47606.8560492668,54298.2375631073,60105.0153502231,71727.6115231941,56971.9429275869,59472.9035002712,60611.1672026638,66343.9288900056,11246.7846888976
9291945619,17186,-2,0,23064.8062405419,47613.2562577956,54302.3867477239,60097.5200489801,71719.9702095893,56974.8875102180,59462.5366225781,60595.0085012829,66329.6805170260,11248.5733403306
9291945619,17186,-2,0,22897.1597137154,47547.6602042232,54243.1178964993,60063.2071439394,71660.9933830885,56990.1336343372,59434.3805721298,60529.0230814121,66319.4231486042,11249.4007437146
9291945619,17186,-2,0,22734.0517378039,47502.8952476116,54204.4246206024,60053.4486510874,71638.2032869391,56980.8618493581,59432.2633928826,60514.2028266818,66326.5899220329,11246.3588195088
9291945619,17186,-2,0,22806.1210060862,47531.5258382359,54232.8848634712,60075.9345548162,71673.4531046352,56957.8162315755,59448.7384543809,60564.2242283209,66331.3474914907,11241.4065669019
9291945619,17186,-2,0,22988.8554769731,47583.8956053619,54275.1432745373,60089.7205553166,71708.7637608153,56960.9189942653,59458.2779286900,60595.9332462415,66325.3244815634,11242.1001256208
9291945619,17186,-2,0,23038.4875123139,47589.8577768051,54274.6687343612,60082.1522478927,71697.7519951906,56978.4769807808,59449.2981684347,60573.1066470016,66319.9098564771,11246.5413349612
9291954350,17187,-2,0,22916.3116685147,47552.8923138570,54244.8822125387,60069.7290294365,71662.4048359199,56989.2210570755,59440.6347682968,60537.7473200342,66324.7647675095,11253.5377606344
9291954350,17187,-2,0,22762.9865208489,47515.8538447280,54214.8645044765,60064.4969198027,71636.7066602299,56995.9376257217,59440.6226006000,60520.4083520615,66330.2280633830,11255.1560643118
9291954350,17187,-2,0,22769.6909217983,47537.2689911364,54230.7676842241,60081.9697324404,71662.2709912549,56992.7496891541,59459.7623877024,60551.1804573267,66342.5174371742,11253.6594376026
9291954350,17187,-2,0,22957.0126143875,47601.5996042393,54286.6782511255,60108.2519575780,71715.0422923760,56970.3367916063,59480.7273293284,60605.5213913379,66343.7950453406,11248.7801911766
9291954350,17187,-2,0,23069.1136052172,47616.0548280649,54298.8337802516,60098.6759801783,71715.2734786156,56963.6688937473,59471.9544199190,60598.9021642663,66324.9837860523,11247.5147507070
9291954350,17187,-2,0,22930.6330476753,47553.6588787569,54242.6555240201,60059.7515180417,71658.2678190001,56987.3715671584,59440.9389607174,60532.3570303416,66313.1689524372,11250.5080041255
9291954350,17187,-2,0,22746.7061424998,47498.4905413617,54198.4867845528,60048.0826967885,71628.5056325712,56987.9677843027,59431.6550080414,60509.7981204319,66324.6187551476,11250.5566749127
9291954350,17187,-2,0,22766.2596312942,47512.7875851286,54218.4783104329,60068.2810735146,71659.2777378364,56969.9230899143,59447.4486785176,60554.6482509212,66336.4944272468,11245.0690436456
9291988436,17188,-2,0,22930.0368305310,47563.9527502691,54258.9967408533,60085.9485693015,71700.4410561884,56958.7409765340,59458.3752702646,60591.9909124708,66329.5831754514,11239.8369340117
9291988436,17188,-2,0,23023.6794252804,47581.5350721782,54265.4334524726,60078.3194233935,71699.8570067409,56957.7188900009,59447.9232186937,60581.2103330857,66314.4465606036,11236.7220036251
9291988436,17188,-2,0,22944.9787622296,47546.9544778074,54234.6978502979,60059.1674685942,71664.8748783750,56963.9487507742,59429.5986672784,60542.9915973649,66307.1946132972,11239.2407168674
9291988436,17188,-2,0,22766.9288546195,47489.8271412237,54184.8346287174,60040.6847371202,71622.5921319153,56970.3246239094,59414.3890462497,60505.0283832773,66304.1770244851,11237.3303884662
9291988436,17188,-2,0,22723.1008106632,47491.7739727154,54186.2825846394,60055.3103087013,71635.4168843666,56972.0281014647,59425.2304641189,60523.2312577244,66318.3888943743,11235.6755816983
9291988436,17188,-2,0,22905.1538905281,47557.5647094370,54246.5126839129,60092.7259764319,71695.5496420656,56956.0762509298,59453.7637131687,60587.1846722258,66329.2911507276,11238.8878536595
9291988436,17188,-2,0,23062.5917197202,47594.6640170502,54278.5380619509,60097.8485767943,71715.1761370410,56958.9721627736,59454.2869241321,60596.0427555129,66317.4276463253,11242.4773242223
9291988436,17188,-2,0,22970.3240747118,47554.7296360773,54241.5239282155,60068.7434459939,71674.8767251634,56983.5874134465,59431.5576664669,60538.3678725721,66307.8881720161,11248.4516633624
9292021824,17189,-2,0,22782.7955312766,47503.4184585749,54198.9491570321,60054.8601039189,71642.4376454335,56984.8650216129,59425.7901781728,60509.7616173414,66316.6489137286,11248.5003341497
9292021824,17189,-2,0,22748.3487815709,47503.4062908781,54200.8838208269,60062.9272869125,71651.7946042903,56957.8770700596,59433.6261749268,60534.0726755936,66319.8490179930,11238.6566674199
9292021824,17189,-2,0,22885.6734079146,47548.4754399103,54236.7176879705,60076.2874180241,71685.2922736439,56948.7147943519,59444.3824189182,60564.4675822573,66315.9918581002,11234.6656628620
9292021824,17189,-2,0,23021.0877058571,47580.3426378896,54259.7024672690,60078.4897711490,71697.6668213128,56943.0081445419,59444.2729096468,60566.5969292014,66305.4911357419,11236.1744572680
9292021824,17189,-2,0,22988.9406508509,47553.2938478522,54238.6158486749,60059.7271826481,71663.7919533578,56950.0289056088,59429.3674810387,60532.1988502829,66296.2071830660,11238.0726179724
9292021824,17189,-2,0,22803.1642557582,47494.0128289308,54189.9572290799,60038.7744087190,71618.2969349368,56977.2358757049,59414.2430338878,60489.7335883708,66297.4969589293,11242.0757902272
9292021824,17189,-2,0,22710.4707413610,47487.2597571941,54181.1964873674,60051.3436395371,71626.8751611969,56985.3517294858,59430.1097105449,60507.1333948276,66316.2960505207,11244.9595343742
9292021824,17189,-2,0,22867.5313719516,47554.3037666885,54239.9542953254,60092.9693303683,71693.5419720898,56964.5814710090,59465.9922484758,60580.7844636969,66332.2357333588,11246.5048318707
9292068370,17190,-2,0,23051.6651279731,47600.3341637697,54277.5889815987,60104.3461268978,71723.7786986948,56958.5949641721,59469.5938867354,60602.9783427020,66321.6498371228,11242.5138273128
9292068370,17190,-2,0,23008.6888227945,47570.9978467296,54246.7317024558,60077.6623677651,71687.8839930672,56979.8762659155,59444.4675927960,60551.5819913219,66310.4190529552,11241.1875483591
9292068370,17190,-2,0,22828.8867668419,47518.5307380290,54206.0307565830,60060.0557104623,71648.7648477814,56991.9952919511,59433.1272993570,60518.7170422031,66323.2559731034,11243.8279385697
9292068370,17190,-2,0,22743.7372244750,47504.1241849907,54203.1591801328,60065.5311740326,71647.7184258546,56985.0232016716,59440.8294514459,60534.6810604348,66336.3362471881,11243.4507399681
9292068370,17190,-2,0,22837.1121298942,47540.7246170341,54235.4157444104,60079.9255593741,71679.6221269244,56975.4107211814,59454.1165763766,60570.1377289768,66338.6359418877,11241.5525792638
9292068370,17190,-2,0,23001.0353414929,47587.4242374405,54273.5006354662,60090.3289401578,71710.6375861261,56960.3714479083,59462.4271133067,60596.7971527159,66333.2578198919,11237.8292640359
9292068370,17190,-2,0,23025.8817784053,47576.9843535664,54264.8494030251,60075.3140022783,71693.2499473661,56963.1335150871,59449.6631993394,60574.5546029236,66320.0923719295,11237.1965438012
9292068370,17190,-2,0,22845.6660207607,47511.6803247177,54208.1236004366,60043.6049843577,71638.1667838486,56983.7820965956,59427.1042894297,60517.9139742128,66314.6899145401,11239.7152570435
9292079377,17191,-2,0,22704.1192036195,47484.4368515312,54183.8003744875,60044.3958846512,71626.7048134414,56985.2300525176,59428.7225931071,60514.4461806182,66327.3321515391,11240.5548281243
9292079377,17191,-2,0,22811.4017865073,47532.4140801040,54226.3751456710,60076.7984612907,71672.7838813099,56954.7743073697,59450.5514412075,60570.3445798228,66333.8053662489,11232.4268066466
9292079377,17191,-2,0,23003.3715392829,47581.5107367846,54266.8205699104,60086.3622709935,71702.5582354356,56945.2348330605,59454.2504210416,60593.7308931165,66319.1797946678,11225.0653500687
9292079377,17191,-2,0,23014.8943481742,47569.9514248028,54253.1927494687,60065.7015217881,71677.2007552566,56967.8424137576,59434.7942738218,60552.5432393709,66307.4744703241,11229.4335532281
9292079377,17191,-2,0,22861.9098960194,47523.4586552423,54216.0569387651,60046.4522254142,71639.7607521324,56981.7014204389,59421.0447764118,60517.6341171858,66318.0968696505,11236.6368297473
9292079377,17191,-2,0,22738.8458103521,47495.2904370972,54200.2267651985,60046.3670515365,71630.9026688453,56981.9082712849,59424.1840421922,60519.0212346237,66332.6737704444,11239.9342755863
9292079377,17191,-2,0,22783.8784562938,47518.6889180877,54221.6662470005,60058.8511084768,71659.0343839000,56973.8532559881,59434.8307769122,60548.8685949303,66338.9644697019,11235.5660724269
9292079377,17191,-2,0,22965.2258097430,47572.2754548960,54264.9345769029,60077.9543924888,71701.9498505945,56956.5507911059,59448.2152434175,60587.3063491940,66334.7301112075,11228.7764975997
9292126719,17192,-2,0,23048.7813838261,47581.1092027894,54271.4321270063,60073.2698292120,71698.4333862127,56961.0163358399,59441.9610472505,60577.4748501611,66321.6133340324,11229.4700563186
9292126719,17192,-2,0,22894.3368080525,47523.1666305186,54220.3521357436,60043.1669472720,71644.4453154093,56983.9767797448,59419.2074541916,60515.3465901831,66313.0959462563,11235.7850909697
9292126719,17192,-2,0,22723.5996862330,47480.8230455747,54187.8035467422,60036.8519126209,71620.6696358172,56987.3350640679,59419.7793359423,60498.0441253009,66329.2181445467,11237.6954193709
9292126719,17192,-2,0,22785.1073936730,47515.3306337646,54222.9438551669,60062.8421130347,71659.8496195871,56966.5769732880,59440.8902899301,60553.6018289945,66342.2010770568,11235.0671968571
9292126719,17192,-2,0,22976.2375753677,47573.7964169988,54268.2928612260,60079.8282177996,71701.7916705358,56954.4944503428,59452.0480679167,60590.6037950330,66334.6449373297,11234.6413274683
9292126719,17192,-2,0,23037.9399659569,47578.7486696058,54262.9147392303,60064.7037706486,71689.7213152874,56961.9532484953,59440.2332343016,60562.1922229515,66319.2284654551,11238.0482825788
9292126719,17192,-2,0,22915.0705634388,47531.1243042408,54223.4792338271,60042.8627548515,71647.3047241627,56970.1299407603,59424.3787253413,60517.8774711223,66314.3492190291,11241.6985916256
9292126719,17192,-2,0,22758.4601376307,47483.3660942107,54189.1906641801,60034.4183732563,71618.0170779098,56972.8920079391,59418.8667586805,60496.7421817408,66315.1766224130,11242.1122933176
9292150462,17193,-2,0,22754.1162698649,47494.2075120800,54200.0320820493,60052.7550923685,71639.1158642008,56971.4440520172,59435.0132923646,60522.5742020960,66324.5335812699,11244.0104540220
9292150462,17193,-2,0,22934.4780398714,47553.2938478522,54250.2725022312,60081.2518383279,71689.4414582605,56947.2546707331,59456.5744511348,60572.3279144050,66325.4461585316,11240.7130081830
9292150462,17193,-2,0,23057.1527592403,47572.3971318642,54262.7687268684,60075.4843500338,71688.1030116100,56935.6466879641,59445.0516422435,60567.8015311868,66304.9800924754,11235.6269109110
9292150462,17193,-2,0,22933.6506364874,47520.7939296381,54210.9221707058,60039.6018121029,71632.7643264592,56962.5372979428,59414.6567355798,60502.5096700349,66292.6785509874,11238.3646426962
9292150462,17193,-2,0,22746.6453040156,47475.0920603711,54169.7466846570,60030.6585549381,71604.5717729205,56977.2115403112,59412.8194133595,60481.4473868344,66309.3239602412,11245.7139315772
9292150462,17193,-2,0,22755.1018533076,47496.4463682954,54191.6242035446,60055.3468117918,71636.7309956235,56954.2754318000,59432.8961131174,60531.0794221752,66325.2636430792,11244.8500251028
9292150462,17193,-2,0,22918.0273137668,47546.8449685360,54236.8393649387,60071.0188052998,71677.1034136820,56941.4263439550,59440.4035820571,60569.9187104340,66317.7075033522,11238.8635182659
9292150462,17193,-2,0,23022.7911834123,47572.1537779277,54255.1760840509,60071.0918114807,71688.2733593655,56957.3538590962,59436.4247451960,60566.9011216219,66311.3924687011,11242.0392871367
9292189433,17194,-2,0,22954.4573980547,47544.4844353524,54232.0209569968,60060.1165489464,71659.2655701396,56967.4652151561,59424.3665576445,60538.6355619022,66311.6479903344,11246.0302916946
9292189433,17194,-2,0,22782.7468604893,47487.0772417417,54189.6165335689,60046.5008962015,71619.4650338318,56975.2890442132,59412.2596993057,60506.7926993166,66309.1779478793,11247.2105582864
9292189433,17194,-2,0,22724.3419157392,47480.8838840589,54185.8080444633,60055.8700227552,71625.6097207274,56972.7703309709,59422.2615460941,60521.7589664088,66318.7539252790,11245.7260992740
9292189433,17194,-2,0,22885.4665570686,47539.8485428628,54238.8957057018,60083.3811852719,71679.3544375943,56947.6075339410,59445.0638099403,60578.4847689974,66325.8355248299,11241.3335607210
9292189433,17194,-2,0,23050.9228984669,47577.6414091949,54270.6655621065,60085.1820044017,71699.1026095379,56938.3479166588,59442.1192273092,60586.5154489005,66312.4388906278,11238.6079966326
9292189433,17194,-2,0,22970.9202918561,47536.7457801730,54231.3395659747,60051.3071364466,71652.7680200362,56960.6513049352,59415.3016235114,60524.2046734702,66299.1517656972,11242.1731318017
9292189433,17194,-2,0,22779.4250792566,47484.1448268074,54188.3389254025,60036.6937325622,71617.6520470051,56979.6572473726,59408.3417009287,60493.3595620241,66312.0616920263,11248.1961417291
9292189433,17194,-2,0,22740.9629895993,47488.9632347493,54201.4435348808,60054.8844393125,71636.2199523570,56970.1056053666,59427.5179911216,60528.1956780282,66328.3907411627,11247.8067754308
9292206876,17195,-2,0,22878.0685974002,47538.3884192441,54249.7371235710,60077.2851691636,71681.5324553256,56960.7121434193,59443.4576739597,60572.1453989526,66331.1041375542,11246.0424593914
9292206876,17195,-2,0,23018.6906695830,47574.8063358351,54278.6840743128,60080.1567456138,71698.8349202078,56955.2366798490,59442.5572643948,60578.7524583275,66323.7426809764,11242.8545228238
9292206876,17195,-2,0,22993.0533323770,47553.3060155490,54256.3806860363,60061.0777969954,71668.6590320869,56957.5120391549,59423.4053095955,60545.8753415119,66310.0418543537,11241.2605545400
9292206876,17195,-2,0,22811.1584325709,47491.2142586615,54202.4534537171,60038.2633654524,71619.0634998366,56973.8289205945,59404.4967087326,60497.8129390613,66307.2432840845,11243.8644416601
9292206876,17195,-2,0,22701.9655212818,47470.6751864244,54188.3997638866,60045.6126543335,71619.3311891667,56979.1097010156,59416.1898653795,60504.7363585535,66321.5524955482,11245.6530930931
9292206876,17195,-2,0,22835.2869753708,47525.3324805531,54237.7519422004,60078.2220818189,71672.6013658576,56956.0275801425,59445.2828284831,60571.4518402337,66332.9049566840,11240.2506357037
9292206876,17195,-2,0,23024.5068286643,47573.4435537910,54279.3289622444,60084.9021473747,71699.7718328632,56944.7724605813,59451.0016459899,60598.4884625743,66321.0779553721,11237.5250716154
9292206876,17195,-2,0,22996.5454613652,47546.0419005457,54251.6474519722,60055.4198179727,71662.8550407024,56964.2651108916,59425.4494826617,60547.3963036148,66303.0454286805,11239.8369340117
9292233031,17196,-2,0,22818.5198891488,47491.9078173804,54205.0086700499,60040.2101969441,71623.0301690009,56981.4458988056,59414.0361830418,60509.3114125589,66307.9976812875,11245.6287576995
9292233031,17196,-2,0,22731.3748445028,47478.4381769974,54197.9635735894,60049.4211434390,71626.7048134414,56974.5711501007,59422.2128753068,60525.2510953970,66319.0459500027,11243.5359138459
9292233031,17196,-2,0,22827.2806308613,47520.7695942445,54235.7077691342,60070.8971283315,71666.5418528397,56970.2272823349,59438.2742351131,60562.8371108831,66326.0302079791,11239.2163814738
9292233031,17196,-2,0,22994.3796113307,47572.3241256833,54276.9440936671,60085.1089982207,71702.3027138024,56959.4345352529,59447.0958153098,60586.5519519910,66323.8643579446,11233.0716945782
9292233031,17196,-2,0,23030.7975279218,47568.4426303967,54271.0792637985,60072.0530595297,71687.0809250769,56955.3461891204,59435.6216772057,60566.1588921157,66307.7908304415,11229.2753731694
9292233031,17196,-2,0,22865.7305528218,47505.9980103014,54216.9695160268,60046.6104054729,71636.0131015110,56978.2822976316,59414.8514187290,60513.6431126279,66301.6826466364,11232.7553344608
9292233031,17196,-2,0,22718.7691105943,47469.9572923119,54187.3290065661,60046.7442501380,71623.0180013041,56987.3715671584,59422.1155337323,60509.2870771653,66319.0094469122,11239.5692446816
9292233031,17196,-2,0,22815.7943250604,47512.2765418620,54233.3472359505,60080.4122672471,71673.8424709335,56966.2362777769,59451.1111552613,60573.6055225714,66333.9148755203,11236.9896929552
9292294371,17197,-2,0,23016.5613226390,47565.5588862497,54282.3587187533,60096.5709686279,71716.8187761121,56960.0672554877,59465.1405096982,60613.0896987618,66327.3199838423,11235.1036999476
9292294371,17197,-2,0,23040.1544867786,47558.3312743369,54268.7674014021,60075.9102194226,71697.8858398556,56979.8154274313,59450.2594164837,60577.9615580340,66314.6777468433,11238.3159719089
9292294371,17197,-2,0,22885.2718739194,47512.1913679843,54223.1020352256,60054.3125575619,71657.8906203986,56990.5230006355,59436.6680991325,60535.8856624203,66319.2284654551,11241.4552376892
9292294371,17197,-2,0,22759.2023671369,47486.1403290864,54198.5354553401,60055.4928241537,71644.5426569838,56986.5076606840,59440.2819050889,60534.4012034079,66326.3222327028,11241.5890823542
9292294371,17197,-2,0,22800.5968717286,47510.2688718863,54216.8113359681,60073.8173755690,71670.0826526152,56973.1231941787,59454.6884581273,60563.8713651130,66331.4691684589,11234.4709797128
9292294371,17197,-2,0,22971.7841983305,47559.3533608700,54257.7191326869,60090.1707600991,71703.9210174798,56952.9248174526,59460.4437787245,60597.9044131268,66323.9738672160,11227.2798708905
9292294371,17197,-2,0,23055.7899771961,47563.9162471786,54265.1170923552,60076.0197286940,71693.6393136644,56948.4471050218,59444.3945866151,60584.2644249883,66307.2189486908,11230.6381552136
9292294371,17197,-2,0,22906.5166725723,47500.2670250978,54217.6265716553,60039.3827935601,71635.0640211588,56975.0456902767,59412.8194133595,60519.9216441886,66298.5312131592,11240.7008404862
9292349506,17198,-2,0,22722.2490718856,47451.9856041044,54185.6255290109,60031.1574305078,71609.4145162560,56989.3914048310,59409.1447689190,60500.8670309638,66314.8237592051,11248.0988001545
9292349506,17198,-2,0,22763.5340672059,47482.3805107681,54218.1376149218,60056.1985505694,71645.8446005439,56963.6567260505,59430.2313875132,60552.3728916153,66326.2370588251,11245.1785529170
9292349506,17198,-2,0,22949.7241639905,47538.5344316060,54263.4501178905,60072.4910966153,71687.8353222799,56948.5687819900,59439.9533772747,60590.0197455855,66316.2230443398,11242.1974671954
9292349506,17198,-2,0,23018.1309555291,47545.9202235775,54260.1040012642,60060.4937475479,71678.7338850563,56960.6148018447,59429.3553133419,60565.6600165460,66302.6073915949,11246.0789624819
9292349506,17198,-2,0,22899.4107376277,47499.2571062615,54217.0668576014,60034.9537519166,71633.1658604544,56964.6909802804,59409.5949737015,60521.2357554454,66295.7204751931,11248.0988001545
9292349506,17198,-2,0,22742.8611503037,47450.0509403095,54182.3280831719,60022.8347258809,71601.6880287735,56968.9983449557,59404.3750317644,60500.4898323623,66298.1296791641,11245.0082051615
9292349506,17198,-2,0,22732.3482602487,47458.5561603888,54188.5701116421,60035.6594783323,71618.4794503891,56964.5328002217,59415.8248344748,60520.2866750932,66304.9192539913,11239.9099401927
9292349506,17198,-2,0,22904.2169778727,47519.2364644448,54237.7519422004,60061.9052003794,71667.1989084682,56940.2339096663,59432.1538836112,60568.3247421502,66306.4037130037,11238.0117794883
9292358437,17199,-2,0,23038.5118477075,47544.6426154111,54259.3009332739,60059.3134809561,71676.9939044106,56927.5186664863,59426.4350661044,60568.3490775439,66288.2981801311,11236.5273204759
9292358437,17199,-2,0,22927.1895894745,47492.1146682264,54213.5503932196,60027.8721523656,71625.8652423606,56951.4525261371,59397.8044754800,60503.7264397172,66273.2102360707,11240.3966480656
9292358437,17199,-2,0,22727.9678893924,47434.0990897746,54162.2635511109,60013.7697917478,71587.4153204001,56965.2020235470,59391.4164346480,60467.6248832436,66282.4090148688,11242.1974671954
9292358437,17199,-2,0,22724.2932449519,47447.1550284657,54176.3415763350,60034.4062055595,71611.6290370778,56949.7612162787,59414.1091892228,60511.6841134394,66299.5776350860,11240.3601449751
9292358437,17199,-2,0,22896.0646210014,47504.3432035335,54223.6860846731,60056.8434385010,71656.3453229021,56941.9130518279,59431.1196293812,60558.9921186870,66299.5167966019,11238.4741519676
9292358437,17199,-2,0,23014.5658203600,47534.3122408084,54244.5536847244,60055.9065258457,71668.9145537202,56953.7400531398,59430.5720830242,60558.7609324474,66294.1143392125,11240.8590205449
9292358437,17199,-2,0,22952.1820387488,47511.0841075734,54224.8055127808,60040.2588677314,71644.1167875950,56966.8203272244,59417.5161443332,60532.9045766986,66293.6884698237,11245.7504346677
9292358437,17199,-2,0,22781.7004385625,47461.5129107167,54186.0879014902,60025.7671408152,71612.3225957967,56979.4625642235,59406.5895525862,60508.2893260258,66299.6019704796,11247.0767136214
9292365631,17200,-2,0,22711.3833186228,47459.4444022568,54183.8977160621,60036.2800308703,71624.7823173434,56986.3738160189,59418.7207463187,60523.2677608149,66316.6975845159,11246.7968565945
9292365631,17200,-2,0,22858.0770715201,47518.2387133053,54237.2165635402,60065.1053046438,71679.5369530466,56964.4962971313,59441.8272025854,60580.7722960001,66325.7746863458,11243.8887770538
9292365631,17200,-2,0,23030.2013107775,47560.7039752174,54273.9995110360,60074.3284188356,71703.1909556704,56955.7477231156,59443.1291461455,60598.3911209997,66315.2861316844,11246.7116827167
9292365631,17200,-2,0,22966.3209024570,47523.0936243376,54240.1246430809,60043.1912826657,71655.6395964864,56973.0380203010,59417.9176783283,60537.6621461564,66299.2734426654,11250.9217058174
9292365631,17200,-2,0,22766.0284450546,47461.5980845945,54187.6453666835,60022.6278750349,71607.8935541532,56984.7555123415,59403.6814730455,60495.9026106601,66305.3329556833,11251.7856122919
9292365631,17200,-2,0,22709.8501888231,47456.3294718702,54187.3898450503,60037.4359620684,71619.1365060175,56969.9960960952,59415.8491698684,60523.0000714848,66318.2793851029,11245.1542175234
9292365631,17200,-2,0,22839.6430108334,47502.2990304672,54225.3287237442,60056.3080598408,71657.7446080367,56958.2421009643,59427.4814880312,60567.5460095535,66314.6169083592,11241.6864239288
9292365631,17200,-2,0,22986.1664159753,47539.9458844374,54251.6352842754,60061.4063248096,71679.3909406848,56962.1600993413,59428.8199346817,60579.3121723813,66310.1513636251,11243.0127028825
9292385047,17201,-2,0,22982.2970883856,47528.2040570033,54239.4554197556,60052.0615336496,71661.5774325360,56973.7072436262,59420.8135901722,60556.9601133176,66307.5353088082,11246.8455273817
9292385047,17201,-2,0,22817.2301132855,47475.3110789139,54192.4029361413,60035.6108075450,71619.8665678269,56989.9876219753,59409.6193090951,60516.4173475035,66308.7034077032,11251.8464507760
9292385047,17201,-2,0,22699.3129633744,47452.3262996154,54172.4965841390,60038.8960856872,71612.5902851268,56992.5671737018,59418.4165538981,60515.3709255768,66318.7660929758,11252.0776370156
9292385047,17201,-2,0,22811.0610909963,47500.9849192104,54217.3953854156,60063.8276964774,71658.5720114207,56963.6688937473,59438.7974460765,60566.9376247124,66323.3898177685,11243.4872430586
9292385047,17201,-2,0,23000.5973044073,47548.3659306389,54261.3937771274,60071.9557179551,71685.6451368517,56948.9338128947,59440.4035820571,60590.8228135758,66304.0675152137,11234.3249673509
9292385047,17201,-2,0,22988.8068061858,47526.4884117512,54240.6235186506,60050.8082608768,71655.2380624912,56979.3530549521,59419.0736095265,60541.0812689637,66288.2008385566,11238.1699595470
9292385047,17201,-2,0,22813.5433011482,47474.2889923808,54198.5354553401,60034.7955718579,71616.2770972642,56998.6510221133,59410.2763647235,60500.8670309638,66298.6772255211,11248.5733403306
9292385047,17201,-2,0,22720.2048988194,47460.7585135137,54191.5755327574,60045.5639835462,71621.7282254408,56990.4621621514,59423.3566388082,60519.7026256457,66315.7485041637,11251.1650597539
9292430521,17202,-2,0,22809.2481041697,47497.7361441586,54223.9781093968,60065.8597018468,71658.4990052398,56974.6076531911,59439.9047064874,60561.2309749024,66321.2118000372,11248.8653650544
9292430521,17202,-2,0,22967.7323552885,47540.8827970928,54257.4757787504,60074.0363941118,71687.5189621625,56958.6923057467,59439.8317003065,60582.6217859172,66312.6579091707,11242.9396967016
9292430521,17202,-2,0,23010.3923003497,47536.2225692096,54252.5478615371,60061.8321941984,71670.8370498182,56957.2565175216,59429.3674810387,60563.3968249369,66301.7434851205,11239.6300831657
9292430521,17202,-2,0,22854.7431225907,47477.6472767040,54203.6337203089,60036.1096831147,71618.6497981446,56981.0687002041,59412.1136869438,60509.8102881287,66296.5357108803,11243.8157708728
9292430521,17202,-2,0,22700.5540684503,47443.4195455410,54172.8737827405,60036.1583539020,71602.3329167051,56998.8457052624,59420.7162485976,60499.5042489197,66312.5483998993,11249.4129114114
9292430521,17202,-2,0,22782.5035065529,47488.3791853018,54214.4264673908,60070.4712589427,71652.5855045838,56977.7469189714,59448.4829327476,60559.7708512837,66327.6850147470,11250.5810103064
9292430521,17202,-2,0,22980.0582321701,47543.7178704525,54261.6979695480,60084.2329240495,71692.3008670139,56956.7454742550,59451.3910122883,60595.7142276987,66315.0671131416,11243.3777337872
9292430521,17202,-2,0,23010.2706233815,47535.4195012193,54248.4351800110,60061.2603124478,71672.0173164101,56967.9397553321,59426.1917121679,60558.9677832934,66295.1364257456,11241.6255854447
9292450585,17203,-2,0,22854.2807501114,47481.7112874428,54199.4236972082,60035.7446522100,71627.3010305857,56979.0001917442,59407.4412913638,60511.5867718648,66294.5280409045,11242.4894919191
9292450585,17203,-2,0,22721.0566375970,47449.4060523779,54174.1878939974,60036.0488446306,71613.7948871123,56981.8109297103,59410.5075509632,60511.2217409602,66305.6006450134,11244.1808017775
9292450585,17203,-2,0,22759.7499134939,47475.4570912758,54194.1550844838,60056.1133766917,71640.9288510274,56977.9902729079,59429.0511209213,60544.8532549788,66313.9841881244,11243.3899014840
9292450585,17203,-2,0,22931.2657679101,47532.4749185881,54240.0759722936,60078.4532680586,71683.0290820348,56962.9631673316,59445.9155487179,60584.9823191008,66314.0206912148,11239.5084061975
9292450585,17203,-2,0,23030.3108200489,47547.5141918613,54251.8664705150,60073.6470278135,71685.6208014581,56955.3340214236,59436.7411053134,60583.1814999710,66300.6848954969,11238.2673011216
9292450585,17203,-2,0,22903.0853820682,47494.8767354052,54204.9478315658,60047.8393428521,71635.3560458825,56979.2313779838,59411.0429296234,60529.5341246787,66289.5392852071,11245.5557515185
9292450585,17203,-2,0,22718.7569428975,47446.8751714387,54161.8011786316,60038.4823839952,71602.2964136146,56990.2066405181,59405.4336213880,60502.9355394237,66304.4447138152,11248.8653650544
9292450585,17203,-2,0,22749.0058371993,47470.8577018768,54184.0558961208,60060.5667537288,71635.4898905476,56959.1546782260,59423.5756573510,60550.2313769745,66315.8458457383,11241.6620885352
9292485655,17204,-2,0,22940.9634222780,47523.2274690027,54228.4801572213,60076.2387472368,71676.0326563616,56939.7837048839,59434.5752552789,60588.6934666318,66303.9458382454,11234.5561535906
9292485655,17204,-2,0,23025.4194059261,47533.8620360259,54232.4103232952,60062.7204360665,71670.3868450358,56956.5264557122,59422.6752477861,60564.3215698955,66289.0282419405,11236.5394881727
9292485655,17204,-2,0,22913.3427504899,47492.1025005296,54200.2632682889,60040.6969048170,71634.2122823812,56974.8266717339,59404.4237025517,60522.2456742817,66288.4441924930,11242.3921503446
9292485655,17204,-2,0,22752.8995001826,47446.4371343531,54171.5596714836,60033.0920943026,71609.4631870433,56983.9159412607,59400.1406732700,60505.9531282358,66298.7380640052,11246.4804964771
9292485655,17204,-2,0,22729.9147208841,47451.5232316251,54178.9454634551,60043.9821829592,71624.3564479546,56981.0565325073,59409.9113338188,60525.3971077589,66308.2410352239,11243.5724169364
9292485655,17204,-2,0,22888.3989720029,47509.7821640133,54226.1074563409,60067.5631794020,71669.6446155296,56958.9234919863,59427.2624694884,60571.4518402337,66310.6015684076,11238.9000213564
9292485655,17204,-2,0,23034.2044830322,47539.5443504423,54249.2139126076,60068.7434459939,71680.1331701910,56943.2514984784,59425.3034702999,60579.6041971051,66293.0314141953,11236.5759912632
9292485655,17204,-2,0,22942.7399060142,47492.1633390137,54206.8946630574,60036.7789064400,71632.8008295497,56965.8225760850,59403.3286098376,60520.8220537535,66278.1503209808,11239.7760955276
9292548616,17205,-2,0,22741.2915174135,47436.3987844742,54160.1950426510,60021.0947452352,71596.7114407729,56984.1836305908,59401.4061137396,60488.7480049282,66289.9043161118,11245.3975714598
9292548616,17205,-2,0,22721.9692148587,47450.6958282411,54175.5141729511,60044.7974186463,71625.0013358862,56968.0005938163,59424.4030607350,60530.3980311531,66305.4059618642,11244.5823357727
9292548616,17205,-2,0,22887.0605253524,47508.1395249422,54223.4305630398,60070.4347558523,71671.7252916863,56951.8540601322,59439.9533772747,60576.0512296328,66299.3586165432,11241.8811070780
9292548616,17205,-2,0,23007.4233823249,47533.5456759086,54241.0007172522,60069.5951847715,71679.4152760784,56959.4223675561,59435.6946833867,60570.9773000576,66289.2837635738,11241.2727222368
9292548616,17205,-2,0,22950.1135302889,47505.5599732158,54217.1520314792,60054.4342345301,71648.1199598498,56971.7604121346,59424.4517315223,60536.5548857455,66287.6046214122,11243.1222121539
9292548616,17205,-2,0,22784.4381703477,47454.0541125643,54176.3902471223,60039.7113213743,71613.1621668775,56985.5464126349,59413.8171644990,60508.4353383877,66293.3964450999,11247.4052414356
9292548616,17205,-2,0,22704.4964022210,47444.7579921915,54167.8850270431,60043.0087672133,71618.3821088145,56987.1038778283,59415.4476358733,60518.3641789952,66307.7786627447,11250.6296810937
9292548616,17205,-2,0,22834.7880998010,47499.3787832297,54215.1443615034,60066.2612358420,71668.2331626981,56961.5760498938,59431.9470327652,60571.9993865907,66316.0770319779,11247.0888813182
9292553579,17206,-2,0,23012.4243057192,47543.2189948828,54253.8498050972,60074.8272944053,71693.9191706914,56946.3664288651,59432.7379330587,60595.5195445495,66303.6173104312,11240.9806975131
9292553579,17206,-2,0,22967.2456474156,47510.2810395831,54218.1984534060,60045.5274804557,71650.5048284271,56967.2948674005,59405.9811677450,60541.3367905969,66283.4067660083,11241.7107593225
9292553579,17206,-2,0,22766.3691405656,47449.1140276542,54162.9449421330,60023.8689801109,71605.3261701235,56983.5752457496,59392.1221610637,60495.0143687920,66289.4419436325,11245.7991054550
9292553579,17206,-2,0,22693.2777857502,47438.5524668118,54160.8399305826,60036.7545710464,71612.1522480412,56970.6531517237,59405.2024351484,60517.1474093129,66302.7655716536,11244.8135220123
9292553579,17206,-2,0,22824.8105884062,47489.3282656540,54209.2795316347,60064.7281060423,71660.5188429124,56964.6179740995,59429.0876240118,60570.4297537006,66310.2487051997,11246.8455273817
9292553579,17206,-2,0,22979.1943256957,47533.0954711261,54243.5924366754,60075.4235115497,71686.8132357468,56968.1466061781,59438.2255643258,60585.7853870911,66307.8760043192,11251.3354075094
9292553579,17206,-2,0,22980.1920768352,47521.4996560538,54232.7145157157,60061.6983495334,71664.8383752845,56965.9199176595,59429.8420212148,60561.0971302374,66301.2932803380,11254.2678224437
9292553579,17206,-2,0,22813.9570028402,47462.7053450054,54183.3745050987,60036.9735895892,71617.5547054306,56975.5202304528,59411.3106189535,60516.2104966576,66296.8277356040,11253.1970651233
9292582139,17207,2,0,22683.8599884093,47435.0846732173,54158.4063912180,60037.0587634669,71604.5231021332,56984.8163508256,59412.5030532421,60507.6809411847,66306.7200731211,11251.6274322332
9292582139,17207,2,0,22782.4670034624,47480.5553562446,54199.3506910272,60063.6816841155,71650.1032944319,56963.5593844759,59430.1218782418,60557.8483551857,66316.0648642811,11244.8378574060
9292582139,17207,2,0,22980.4110953780,47531.3068196931,54245.2959142306,60074.6326112562,71685.0002489201,56942.5701074563,59429.8541889116,60585.2500084309,66299.5776350860,11237.4642331313
9292582139,17207,2,0,22986.4097699117,47514.5762365616,54226.0344501599,60048.5815723582,71655.7612734546,56960.9311619621,59404.5940503072,60537.6621461564,66280.1944940471,11240.8103497576
9292582139,17207,2,0,22810.9272463312,47460.6490042423,54177.1568120222,60026.6553826833,71611.7142109556,56978.1119498761,59389.7981309705,60488.8331788059,66285.8159699793,11248.2326448196
9292582139,17207,2,0,22703.4256449005,47442.0932665873,54162.5677435315,60032.8609080630,71609.2806715910,56969.5215559191,59398.7413881354,60498.5186654770,66297.5091266261,11249.4494145019
9292582139,17207,2,0,22781.9681278926,47474.7635325569,54188.2415838279,60050.9542732387,71641.6832482305,56962.3791178841,59411.2011096821,60535.1069298236,66300.7335662842,11243.9982863252
9292582139,17207,2,0,22943.3847939458,47522.5339102838,54221.8609301497,60065.0566338565,71674.2683403223,56953.8008916239,59418.9154294678,60559.4423234695,66296.4262016089,11243.0978767603
9292614549,17208,2,0,22999.1128453949,47523.9696985089,54222.5909919590,60054.9331100998,71666.3836727810,56942.7647906055,59412.9045872373,60546.9826019228,66286.4851933045,11245.3002298852
9292614549,17208,2,0,22850.3870871280,47461.4277368390,54170.9756220361,60023.6012907808,71612.3225957967,56956.2222632917,59389.4452677627,60493.1040403908,66272.3098265058,11243.7305969951
9292614549,17208,2,0,22681.9618277049,47421.5785297438,54138.9015732108,60016.8238836504,71591.0169586597,56979.7910920377,59391.3069253766,60477.5050530638,66286.4000194268,11245.2637267948
9292614549,17208,2,0,22745.1000065191,47466.3556540523,54178.7751156996,60053.0592847891,71640.1014476435,56967.5868921243,59422.9064340257,60540.6797349685,66308.1436936494,11243.0978767603
9292614549,17208,2,0,22956.4894034241,47536.5267616302,54236.5960110022,60084.2329240495,71694.5032201389,56952.0000724941,59445.7208655688,60593.5605453610,66305.7466573752,11239.9586109800
9292614549,17208,2,0,23011.9010947558,47538.5587669996,54231.5099137303,60071.2986623267,71680.7293873353,56964.6179740995,59431.0831262908,60566.1102213284,66290.3666885910,11240.1167910387
9292614549,17208,2,0,22861.6178712956,47484.8383855263,54184.2992500572,60044.1038599274,71635.7940829682,56983.1858794513,59409.4611290364,60515.3587578799,66293.0922526794,11243.3777337872
9292614549,17208,2,0,22720.2048988194,47448.4326366321,54161.4118123333,60039.5166382252,71617.8223947607,56988.6978461121,59407.7819868748,60512.7061999725,66306.6348992433,11244.6796773473
9292658443,17209,2,0,22747.2901919473,47473.8266199015,54186.3190877298,60055.2129671268,71643.6665828126,56988.4544921756,59422.7117508766,60543.5878145092,66315.7606718605,11248.0501293672
9292658443,17209,2,0,22911.2985774237,47531.9760430184,54232.8970311681,60073.8417109627,71682.2260140445,56968.0127615131,59435.0132923646,60578.8741352957,66312.5118968088,11245.8599439391
9292658443,17209,2,0,23014.3102987267,47549.4123525657,54246.4275100352,60067.8673718226,71683.5157899077,56955.8937354774,59430.7424307797,60576.2824158724,66296.4140339120,11241.6499208384
9292658443,17209,2,0,22893.8501001796,47494.9862446766,54200.4944545286,60035.9880061465,71632.4966371291,56971.7117413473,59407.3074466987,60523.2312577244,66283.9664800622,11243.2560568190
9292658443,17209,2,0,22696.9402624939,47438.5768022055,54154.3788835696,60023.6377938712,71595.9205404794,56993.1268877556,59401.1262567127,60492.3739785814,66294.2968546648,11247.3809060420
9292658443,17209,2,0,22709.6676733707,47458.3493095428,54175.7575268875,60048.8005909011,71625.2081867322,56967.9154199385,59420.8379255659,60536.0195070853,66308.3870475858,11242.1852994986
9292658443,17209,2,0,22904.3994933251,47517.2896329531,54224.3796433920,60070.8727929379,71669.4621000772,56945.2226653637,59435.6095095089,60583.4248539075,66298.3730331005,11237.7805932487
9292658443,17209,2,0,23000.5121305295,47530.4915840060,54228.9668650943,60057.9750343056,71662.8793760960,56949.8707255501,59421.5193165879,60558.3715661490,66277.6636131079,11238.2916365152
9292667297,17210,2,0,22896.1984656664,47487.3084279814,54191.6607066351,60035.4769628799,71620.6209650299,56968.7914941098,59406.3096955593,60510.0414743683,66274.1228133324,11243.0492059730
9292667297,17210,2,0,22737.0571589192,47441.8864157413,54159.8421794431,60031.3034428697,71593.4991688116,56975.3985534846,59405.6891430213,60494.6980086746,66282.5063564434,11248.2813156069
9292667297,17210,2,0,22703.8028435021,47442.0567634968,54165.4514876785,60041.9745129834,71608.5992805689,56964.1190985297,59416.6765732524,60514.3245036500,66290.0868315641,11245.3854037630
9292667297,17210,2,0,22851.6038568103,47491.2142586615,54208.4156251603,60063.2071439394,71653.3885725741,56946.0500687477,59430.4382383592,60558.6149200855,66288.3833540089,11239.1677106865
9292667297,17210,2,0,23005.4643831364,47528.2040570033,54239.8447860540,60067.6361855830,71671.9808133196,56939.2604939205,59426.2768860457,60573.5325163904,66276.6780296652,11239.7152570435
9292667297,17210,2,0,22931.4361156657,47491.4697802948,54205.5197133164,60035.5012982736,71628.3474525125,56965.3602036057,59396.1496687121,60523.8396425655,66265.4715808913,11246.2736456311
9292667297,17210,2,0,22725.2544930009,47433.6610526890,54154.0990265427,60014.8283813714,71586.2472215051,56985.2300525176,59380.1004766026,60482.9926843309,66276.0939802177,11252.3453263457
9292667297,17210,2,0,22687.6319744244,47439.1121808657,54162.2270480204,60033.4814606010,71607.6623679135,56966.4552963197,59396.0158240470,60517.7192910636,66293.4086127968,11249.3155698368
9292702147,17211,2,0,22851.9567200182,47490.7762215759,54207.6733956541,60058.8754438705,71654.1308020803,56941.9252195247,59411.5174697995,60566.5969292014,66291.3157689432,11242.9031936111
9292702147,17211,2,0,22978.3912577054,47515.3062983710,54222.7126689273,60055.6631719092,71661.3827493868,56944.3100881020,59403.0122497202,60559.1746341394,66272.7965343787,11236.8923513806
9292702147,17211,2,0,22932.1296743846,47492.1146682264,54200.4457837413,60044.2377045925,71634.9301764937,56961.7463976493,59395.7481347169,60526.1880080524,66269.2070638159,11240.5061573370
9292702147,17211,2,0,22767.7197549130,47441.6673971985,54159.8908502304,60029.3201082875,71600.0818927928,56965.7008991167,59391.6354531908,60496.7300140440,66270.4725042855,11239.8856047990
9292702147,17211,2,0,22677.1799228535,47424.5231123750,54146.7497376616,60028.3345248449,71597.2224840394,56965.8469114786,59399.2767667956,60501.3050680495,66278.2719979490,11237.6102454931
9292702147,17211,2,0,22797.2385874054,47474.0943092317,54190.3830984687,60049.9565220992,71644.4331477125,56946.9869814030,59418.0150199029,60549.8298429793,66285.7307961015,11233.8260917812
9292702147,17211,2,0,22978.0992329816,47521.1102897555,54232.5806710507,60060.0557104623,71674.0249863858,56931.2298140173,59418.3192123235,60571.9142127130,66274.9258813227,11231.7210802308
9292702147,17211,2,0,22951.1356168220,47496.8357345937,54206.8946630574,60034.7103979801,71638.3127962105,56957.0740020693,59391.2704222861,60521.1749169613,66260.5436636780,11239.2285491706
9292737230,17212,2,0,22756.0509336598,47443.2005269982,54159.2094592083,60015.6192816649,71598.0255520298,56985.5585803318,59378.7376945585,60476.0084263546,66272.5288450486,11249.0113774162
9292737230,17212,2,0,22676.0361593521,47436.8733246503,54160.7912597953,60030.5125425762,71610.7529629065,56973.3543804184,59395.9428178661,60505.9531282358,66292.3013523859,11248.3664894846
9292737230,17212,2,0,22799.2705927749,47480.5431885478,54201.5408764554,60052.2805521924,71651.8919458649,56951.6958800735,59413.7441583181,60555.8163498162,66291.9606568748,11238.7905120850
9292737230,17212,2,0,22951.2207906998,47518.1535394275,54228.8816912165,60057.9141958214,71672.3458442243,56954.5552888269,59415.9586791398,60568.0813882138,66280.6081957390,11233.3637193019
9292737230,17212,2,0,22963.0842951021,47508.4923881501,54218.5269812202,60049.2629633803,71655.5909256991,56969.7527421588,59408.8770795889,60548.4062224511,66277.8826316507,11237.4033946471
9292737230,17212,2,0,22812.7280654610,47459.2740545013,54177.3028243840,60033.7491499311,71615.1941722469,56980.1682906392,59398.6075434703,60511.0392255078,66280.4865187708,11240.9198590290
9292737230,17212,2,0,22681.4386167415,47435.7173934521,54155.1576161663,60035.1484350657,71604.0728973508,56992.9200369097,59401.6251322824,60504.6633523726,66292.8245633493,11242.7206781588
9292737230,17212,2,0,22773.7914356276,47485.7022920007,54198.9734924257,60066.9547945609,71651.3930702952,56976.8100063161,59428.4184006865,60559.0407894743,66308.0706874684,11241.0415359972
9292777133,17213,2,0,22984.1709136963,47550.2154205560,54254.0688236400,60089.1608412628,71695.6591513370,56960.4931248765,59445.0881453340,60600.9585050293,66303.2887826170,11235.4687308523
9292777133,17213,2,0,23013.2152060127,47542.3672561052,54242.8502071692,60070.3739173681,71673.2827568796,56979.4138934362,59427.8708543295,60558.0187029412,66285.7307961015,11237.7684255518
9292777133,17213,2,0,22842.9161212788,47486.2133352673,54192.0987437207,60045.4909773652,71625.2933606100,56996.5216751692,59410.5805571441,60500.0882983672,66284.7573803557,11239.4110646229
9292777133,17213,2,0,22728.1504048448,47463.9829531718,54172.2045594152,60047.3526349791,71618.8444812938,56979.3652226489,59420.4728946612,60505.0527186709,66293.7371406110,11227.1581939222
9292777133,17213,2,0,22802.5558709171,47494.1223382022,54196.5156176675,60064.4482490154,71648.2659722117,56960.5052925733,59432.4215729413,60538.0028416674,66288.1886708597,11208.1765868784
9292777133,17213,2,0,22969.3871620564,47545.1536586776,54237.4964205671,60081.0328197850,71681.4594491447,56960.7243111161,59443.7375309866,60563.4698311179,66282.3846794752,11198.4180940264
9292777133,17213,2,0,23040.2031575659,47557.0293307768,54250.9417255565,60080.1932487043,71681.7514738684,56968.1709415718,59442.0218857346,60557.4589888873,66274.3296641784,11198.1990754836
9292777133,17213,2,0,22913.7564521819,47510.6947412751,54215.8622556159,60060.0313750686,71640.9166833306,56990.9975408116,59424.5734084905,60513.8377957771,66272.4923419581,11204.1004084428
9292803198,17214,2,0,22744.6863048271,47474.6418555887,54184.5426039937,60053.6920050239,71619.2825183794,57008.5555273271,59422.9307694194,60492.6051648210,66287.1057458425,11213.4086965123
9292803198,17214,2,0,22787.3705852820,47509.5266423801,54216.6044851222,60078.4045972713,71656.6860184132,56993.8812849587,59441.7420287077,60541.2394490223,66304.8705832040,11214.7228077692
9292803198,17214,2,0,22993.6495495214,47575.2200375271,54272.9044183219,60101.9369229268,71704.6997500765,56976.9681863748,59455.3576814525,60591.6502169598,66302.6682300790,11214.0292490503
9292803198,17214,2,0,23065.0374267816,47582.7031710732,54274.6200635739,60087.2261774679,71695.3062881292,56993.8326141714,59439.3084893431,60564.0660482622,66289.2229250897,11222.5466368263
9292803198,17214,2,0,22925.3035964669,47536.0278860604,54232.0817954809,60065.1661431279,71652.5855045838,57014.1039970784,59425.0114455761,60514.7503730388,66292.5203709287,11234.8846814048
9292803198,17214,2,0,22780.0091287041,47501.0457576945,54205.7143964656,60066.4315835975,71635.5872321222,57010.5266942124,59430.1827167259,60510.5768530285,66307.4623026273,11238.3159719089
9292803198,17214,2,0,22796.6058671706,47518.8592658433,54224.7446742967,60086.6907988077,71660.3241597632,57003.6032747202,59446.3779211972,60544.5125594677,66315.7850072542,11235.3835569745
9292803198,17214,2,0,22953.7395039421,47570.0731017710,54268.3171966197,60107.0108525020,71703.3491357291,56994.7086883426,59462.2811009448,60582.1594134379,66316.7219199095,11231.3317139325
9292839481,17215,2,0,23067.3736245716,47593.0822164632,54286.8242634873,60106.7188277783,71712.7060945860,56984.7433446446,59460.1030832135,60586.3085980545,66305.0896017468,11231.8427571991
9292839481,17215,2,0,22966.3330701539,47546.1514098171,54246.5126839129,60076.5916104447,71664.6558598322,56999.1498976830,59435.7190187803,60534.9365820681,66290.9872411290,11237.0505314393
9292839481,17215,2,0,22762.6944961251,47486.0308198150,54189.5800304784,60053.3148064224,71622.1540948296,57013.8241400515,59422.5292354242,60495.5375797554,66294.6010470854,11237.1357053170
9292839481,17215,2,0,22750.3929546371,47498.0768396697,54200.0807528366,60067.8552041258,71645.9054390280,56990.6811806942,59439.5883463700,60532.7828997304,66307.8151658351,11230.8693414532
9292839481,17215,2,0,22939.2356093292,47557.1631754419,54251.5987811849,60092.4217840113,71692.9944257328,56968.8279972002,59457.1706682792,60584.8484744358,66303.7389873995,11226.0265981177
9292839481,17215,2,0,23052.0666619683,47577.6900799822,54266.9787499691,60091.4483682655,71698.4577216063,56989.6590941611,59450.6122796916,60573.8367088110,66293.0679172857,11233.7774209939
9292839481,17215,2,0,22956.2095463972,47538.5709346964,54234.3449870900,60071.6271901409,71662.1493142867,57005.9638079038,59436.3274036215,60528.1470072409,66294.1995130903,11244.3389818362
9292839481,17215,2,0,22789.4512614387,47485.1182425532,54195.8950651295,60060.1773874305,71629.3087005615,57001.8997971650,59428.1507113564,60507.5105934291,66300.1008460494,11244.3754849267
9292886682,17216,2,0,22744.2604354383,47478.2191584546,54191.1618310654,60065.0201307660,71635.8670891491,56992.8470307287,59434.3805721298,60523.6327917196,66303.6294781280,11239.5935800753
9292886682,17216,2,0,22877.9104173415,47525.3689836435,54227.4215675977,60079.0251498092,71673.3314276669,56972.4418031566,59445.0151391530,60564.2728991082,66300.7213985874,11233.3515516051
9292886682,17216,2,0,23032.9877133499,47562.4682912567,54256.1494997967,60081.3126768120,71693.8704999041,56956.5142880154,59441.4865070744,60578.3874274228,66286.7407149378,11229.5795655900
9292886682,17216,2,0,22975.0086379886,47526.1233808466,54218.4053042519,60052.6942538844,71650.2493067938,56971.3102073521,59416.3723808318,60524.2898473480,66270.4603365887,11230.2974597025
9292886682,17216,2,0,22765.9797742673,47466.8545296220,54157.1287830516,60029.8068161605,71602.2234074337,56991.7276026210,59400.3231887224,60475.5582215721,66273.1615652834,11233.0960299718
9292886682,17216,2,0,22709.1322947105,47469.2028951088,54159.0512791496,60046.7807532285,71616.0945818118,56981.6284142580,59417.1876165190,60509.4574249208,66290.7682225862,11231.3073785389
9292886682,17216,2,0,22868.3101045482,47525.9652007879,54209.6202271458,60073.9755556277,71664.2908289275,56966.7351533467,59436.2057266532,60569.1399778374,66294.7713948409,11228.1316096681
9292886682,17216,2,0,23010.9398467068,47560.5944659459,54236.1093031293,60075.1679899164,71680.2670148560,56978.0754467857,59437.1669747022,60577.5600240388,66287.5559506249,11232.2199558006
9292892196,17217,2,0,22968.8639510930,47533.7768621482,54214.9618460511,60056.1620474789,71654.5931745596,56989.3305663469,59426.9096062805,60544.9262611597,66284.1124924240,11239.8977724958
9292892196,17217,2,0,22808.1408437588,47478.3530031197,54177.3879982618,60040.4657185773,71618.5037857828,56990.5108329387,59417.9663491156,60514.1176528040,66285.0737404731,11243.6210877237
9292892196,17217,2,0,22709.7285118548,47451.5110639283,54159.3433038734,60037.0952665574,71608.8913052926,56985.4369033635,59417.7716659665,60507.2064010086,66288.5415340676,11237.0140283488
9292892196,17217,2,0,22816.3418714175,47496.6897222319,54195.6273757994,60059.7271826481,71650.6265053953,56966.5283025007,59434.6239260662,60551.4603143536,66295.3432765916,11230.4556397612
9292892196,17217,2,0,23003.6513963098,47553.8778972997,54241.5725990028,60075.1801576132,71688.6505579670,56952.3529357020,59442.8371214217,60586.5762873846,66286.2053362776,11228.7764975997
9292892196,17217,2,0,22994.5864621767,47535.8453706081,54219.9871048389,60052.9376078209,71659.9591288585,56972.4174677630,59423.8676820748,60541.9816785286,66268.6230143684,11234.2641288668
9292892196,17217,2,0,22797.2750904959,47476.5156808994,54161.4483154238,60028.1641770894,71609.6091994052,56996.2783212328,59408.7067318334,60488.1031169966,66272.4436711708,11242.8058520365
9292892196,17217,2,0,22698.8384231983,47460.6855073328,54152.0305180828,60036.8154095305,71609.9742303099,56980.2777999106,59418.7937524996,60504.2253152870,66286.6190379696,11240.5791635179
9292968677,17218,2,0,22809.6739735585,47499.8168203154,54190.2735891973,60053.0106140018,71647.8522705197,56955.1758413649,59432.2512251858,60550.8154264220,66285.7186284047,11231.6967448372
9292968677,17218,2,0,22960.6872588280,47536.8552894444,54217.1155283887,60051.7816766227,71667.0407284095,56951.0144890514,59431.5698341637,60561.5229996262,66272.9060436501,11227.0851877413
9292968677,17218,2,0,22975.9090475535,47527.6078398590,54205.5683841037,60037.2534466161,71648.3754814831,56958.7774796245,59419.5238143090,60534.5107126793,66268.2458157669,11230.4921428517
9292968677,17218,2,0,22830.4320643384,47475.4205881854,54161.1562907000,60021.1434160225,71606.6889521677,56972.0524368583,59407.4291236670,60494.1017915303,66268.5986789748,11236.0162772093
9292968677,17218,2,0,22687.1817696419,47436.2406044155,54129.5202789603,60016.6292005012,71586.1863830210,56974.8631748244,59404.2655224930,60476.9940097972,66276.3738372447,11236.6611651409
9292968677,17218,2,0,22752.0234260114,47470.9793788450,54164.1738795121,60040.2345323377,71626.0964286003,56960.4809571797,59420.9839379277,60522.7810529419,66287.5437829281,11234.4466443192
9292968677,17218,2,0,22951.7926724504,47526.8656103528,54216.5193112444,60055.9916997234,71670.2408326739,56938.5425998079,59427.7491773613,60567.7893634900,66277.8704639539,11229.1415285044
9292968677,17218,2,0,22987.4561918385,47516.9246020484,54205.1060116245,60035.8663291783,71645.7715943630,56951.5498677116,59406.8572419163,60529.8748201897,66257.7694288024,11230.1636150375
9292978359,17219,2,0,22809.2602718665,47455.4533976989,54150.7407422196,60009.1825700456,71597.0034654966,56971.9307598901,59388.3258396549,60472.3946203981,66257.7694288024,11238.0604502756
9292978359,17219,2,0,22673.3227629606,47424.1945845608,54128.9483972097,60011.7377863784,71585.5901658767,56959.4953737370,59392.6818751176,60472.8204897869,66270.3994981046,11235.7242524856
9292978359,17219,2,0,22735.1711659116,47451.4015546569,54158.4915650958,60030.6342195444,71617.1410037386,56942.5457720627,59407.5021298479,60513.1442370582,66272.5166773518,11228.8130006901
9292978359,17219,2,0,22896.1497948791,47501.0944284818,54197.4403626260,60042.3760469785,71648.1929660307,56934.6854399150,59416.0681884113,60535.4841284251,66265.8731148865,11225.5885610321
9292978359,17219,2,0,22970.4335839832,47515.6348261852,54206.0429242798,60039.6018121029,71646.8545193802,56942.5944428500,59414.0970215259,60528.0740010599,66260.4219867098,11230.8693414532
9292978359,17219,2,0,22851.5916891135,47467.2682313140,54167.6051700162,60017.7972993962,71602.5275998542,56958.0109147246,59398.3398541402,60485.0611927908,66256.6500006947,11236.9896929552
9292978359,17219,2,0,22674.9167312444,47419.1693257729,54122.9375549791,60006.4570059572,71571.9380100414,56972.9528464232,59392.5115273620,60455.8708881126,66267.7226048035,11240.9806975131
9292978359,17219,2,0,22696.8064178289,47444.7823275852,54144.8637446541,60029.5634622240,71606.6281136836,56954.4336118587,59412.4057116675,60495.8174367823,66283.1269089814,11237.9631087010
9293013499,17220,2,0,22900.2381410116,47510.0741887371,54202.0762551156,60057.9750343056,71659.2534024428,56930.9621246872,59428.1750467501,60549.6351598302,66283.7352938225,11233.1812038496
9293013499,17220,2,0,22982.6134485030,47519.1877936575,54202.1005905092,60039.3462904696,71648.2903076053,56938.0558919350,59407.5142975447,60524.2533442575,66263.9627864853,11233.6922471161
9293013499,17220,2,0,22838.8886136304,47465.5404183651,54153.3446293397,60005.6174348764,71598.0377197266,56957.6093807295,59382.6556929355,60467.1990138547,66258.1344597071,11235.3957246714
9293013499,17220,2,0,22686.7680679499,47429.4631972851,54126.4175162705,60004.8630376734,71581.2828012014,56962.1844347349,59386.3181696792,60465.4955362995,66273.4170869167,11235.0428614635
9293013499,17220,2,0,22701.4179749248,47445.6097309691,54146.7132345712,60028.4318664195,71606.0318965392,56957.3538590962,59404.6792241850,60503.3370734189,66284.3923494510,11231.2222046611
9293013499,17220,2,0,22860.0604061023,47498.6852245108,54190.2614215005,60053.7771789016,71650.4926607303,56948.7756328360,59422.6387446956,60539.3169529243,66285.1467466540,11229.7864164360
9293013499,17220,2,0,22982.3700945665,47522.0228670172,54211.7374063930,60054.9817808871,71662.5751836754,56936.1455635338,59421.0569441087,60543.9406777170,66276.9700543890,11231.0153538151
9293013499,17220,2,0,22894.4219819303,47472.3056577987,54171.2676467599,60025.2804329423,71617.9805748194,56945.4173485129,59396.4173580422,60493.2378850558,66262.2228058396,11232.9135145195
9293043529,17221,2,0,22692.8032455741,47410.9074596301,54116.6833588122,60002.0766351010,71574.9312634598,56965.9199176595,59383.8359595273,60452.5856099704,66263.7316002456,11234.0329426272
9293043529,17221,2,0,22669.4412676741,47423.3428457832,54132.3188492296,60024.1731725314,71600.4104206070,56955.1271705776,59398.8752328004,60490.4149793929,66281.8614685118,11232.3294650720
9293043529,17221,2,0,22856.8846372315,47485.9456459372,54190.7359616766,60051.3193041434,71652.3908214346,56928.3095667798,59416.4088839223,60546.5567325340,66280.8758850691,11227.6570694920
9293043529,17221,2,0,22977.1866557199,47505.4382962476,54203.8284034581,60043.7144936291,71653.4250756646,56935.9387126878,59404.6913918818,60532.7342289431,66262.2228058396,11224.7246545576
9293043529,17221,2,0,22885.5152278559,47466.9640388934,54163.2856376440,60017.5296100661,71613.2351730584,56954.7256365824,59387.8026286916,60479.7682446728,66255.4332310124,11225.0166792814
9293043529,17221,2,0,22723.1251460569,47421.8705544676,54123.7892937567,60010.6791967548,71583.1809619058,56959.9334108227,59387.9486410534,60461.4923640448,66265.6054255564,11228.0951065776
9293043529,17221,2,0,22677.1920905503,47421.3838465947,54125.8699699135,60023.5161169030,71594.0102120782,56956.0640832330,59402.2700202140,60482.2991256120,66272.0299694789,11230.3217950962
9293043529,17221,2,0,22806.0479999052,47470.5900125466,54166.4614065148,60043.0939410911,71634.6989902541,56935.7075264482,59416.5548962842,60522.2821773722,66271.9082925106,11225.1626916433
9293049114,17222,2,0,22963.9238661829,47509.4293008055,54198.5232876433,60047.6081566124,71657.6837695526,56920.7169239623,59414.3038723719,60538.0758478484,66258.6211675800,11216.0734221165
9293049114,17222,2,0,22926.3013476064,47479.0952326259,54174.7962788385,60025.8158116025,71621.4727038076,56940.4285928155,59392.8643905699,60494.9048595206,66245.5165581017,11219.7724019507
9293049114,17222,2,0,22728.5397711431,47422.5154423992,54125.4806036151,60009.7057810089,71578.7275848686,56972.6486540026,59381.8282895515,60451.7582065864,66255.9686096726,11233.9112656590
9293049114,17222,2,0,22659.9139610617,47424.2675907417,54132.4770292883,60031.2669397792,71595.0201309145,56967.2096935228,59402.2700202140,60484.6961618861,66279.3305875726,11239.3867292293
9293049114,17222,2,0,22816.1958590556,47481.5409396873,54187.8765529232,60059.8488596163,71647.6819227642,56947.1816645522,59425.5346565395,60545.0236027343,66284.8303865366,11235.6634140015
9293049114,17222,2,0,22966.9049519045,47518.7254211782,54213.0636853467,60056.9772831661,71666.5905236270,56950.2114210611,59420.8622609595,60551.3873081727,66273.3319130389,11234.8481783143
9293049114,17222,2,0,22931.9958297195,47495.3269401877,54188.3632607961,60034.8077395547,71637.9112622153,56963.8392415028,59401.5399584047,60513.5944418406,66268.5743435811,11238.8391828723
9293049114,17222,2,0,22770.0437850062,47441.7525710763,54147.8935011630,60018.4421873278,71599.4613402549,56970.8721702665,59389.3479261881,60483.7105784435,66272.8330374692,11241.0415359972
9293079249,17223,2,0,22669.5872800359,47418.6096117190,54132.4770292883,60020.3038449417,71592.5744238531,56974.2426222864,59393.3510984428,60485.8764284780,66282.8713873481,11241.2605545400
9293079249,17223,2,0,22761.8549250443,47458.5318249951,54166.8021020258,60039.9668430076,71629.5398868012,56953.2290098732,59411.6269790709,60523.9613195338,66287.1422489330,11234.1546195954
9293079249,17223,2,0,22949.5416485382,47511.7776662923,54210.3624566520,60054.7140915570,71665.1304000083,56937.2528239447,59420.1321991501,60555.9988652686,66281.7032884531,11230.8571737564
9293079249,17223,2,0,22959.3244767838,47495.6676356987,54196.1505867628,60033.6639760533,71640.1987892181,56958.0960886024,59399.5931269130,60519.3984332252,66266.8830337228,11235.3835569745
9293079249,17223,2,0,22770.0681203998,47436.7516476820,54146.7619053585,60011.4944324419,71593.9737089877,56997.1543954040,59385.6489463539,60469.8150686717,66275.5099307702,11245.7991054550
9293079249,17223,2,0,22665.7179524463,47427.2121733729,54142.8804100719,60030.1475116715,71602.2355751305,56994.1733096824,59404.1316778280,60493.6637544446,66299.2612749686,11251.5422583554
9293079249,17223,2,0,22777.4417446745,47475.2745758235,54186.8788017837,60055.7605134838,71644.9563586758,56966.9663395863,59423.3688065050,60549.6716629206,66305.3207879864,11247.1618874991
9293079249,17223,2,0,22942.0585149921,47520.7452588508,54219.3300492105,60062.6839329760,71671.8834717450,56964.0825954393,59426.3863953171,60566.2684013871,66294.6740532664,11243.8401062665
9293163205,17224,2,0,22964.2645616940,47514.4423918965,54210.4476305297,60052.5117384321,71657.0023785305,56974.6076531911,59417.1389457317,60543.2836220886,66290.2450116228,11245.5435838217
9293163205,17224,2,0,22823.9345142350,47461.7075938659,54170.9877897329,60032.0943431632,71616.1067495086,56983.8429350797,59400.5543749620,60506.1843144755,66286.4243548204,11246.3588195088
9293163205,17224,2,0,22678.9077358023,47423.1724980276,54140.9214108834,60025.3656068201,71595.8110312080,56991.8614472860,59400.3475241160,60488.9305203805,66293.5302897650,11247.5269184038
9293163205,17224,2,0,22731.7277077107,47455.2222114593,54166.7290958449,60045.8073374826,71631.6205629579,56972.7824986677,59422.0790306418,60526.1515049619,66303.4347949789,11242.7206781588
9293163205,17224,2,0,22932.7137238321,47514.4788949870,54216.5436466380,60064.6064290741,71675.7527993347,56947.3033415204,59436.3882421056,60573.4351748159,66296.1585122788,11237.3060530726
9293163205,17224,2,0,22990.4372775601,47511.2909584194,54209.5837240553,60047.2187903141,71657.5620925844,56957.9744116342,59417.9176783283,60543.0281004553,66274.8893782323,11238.6201643294
9293163205,17224,2,0,22822.7664153400,47453.8594294151,54152.5537290462,60018.2231687850,71605.6425302409,56986.4346545030,59396.8310597342,60487.1175335539,66273.3440807357,11243.5115784523
9293163205,17224,2,0,22681.9131569176,47426.4456084730,54132.2336753519,60027.0325812848,71596.3342421714,56983.7942642924,59402.3308586982,60492.2766370068,66289.9894899895,11245.9451178169
9293170528,17225,2,0,22740.0017415503,47458.7021727506,54165.5731646467,60052.6212477035,71633.7377422051,56968.8401648970,59420.0105221819,60537.8203262151,66300.8187401620,11244.3146464426
9293170528,17225,2,0,22899.2525575690,47506.3508735093,54204.1447635755,60064.0102119297,71669.9609756470,56960.4201186956,59425.8510166569,60559.6978451028,66294.3698608458,11238.8148474786
9293170528,17225,2,0,22976.4565939105,47517.4964837991,54208.5981406127,60057.4274879485,71666.4566789620,56958.7044734435,59417.1632811253,60544.8410872819,66280.9975620374,11238.3768103930
9293170528,17225,2,0,22867.0568317755,47469.0690504438,54166.5222449989,60032.5202125520,71622.6408027026,56964.0825954393,59396.6120411914,60497.9102806358,66272.7843666819,11239.6665862562
9293170528,17225,2,0,22685.7946522041,47414.9593026722,54117.3404144406,60014.1591580461,71583.7163405660,56977.3818880668,59380.3803336296,60461.6748794971,66275.9966386431,11238.0726179724
9293170528,17225,2,0,22691.5864758918,47436.7394799852,54136.2733506971,60037.1561050415,71613.9774025646,56971.3223750489,59401.6981384634,60503.0450486951,66291.4252782146,11238.5471581485
9293170528,17225,2,0,22893.3512246099,47506.3508735093,54197.4403626260,60070.2522403999,71672.1389933783,56950.7346320245,59425.9118551410,60566.3900783554,66292.6785509874,11243.2317214253
9293170528,17225,2,0,22996.3021074288,47523.8601892375,54206.6878122115,60064.3874105312,71670.5206897008,56958.4246164166,59418.8302555901,60551.0344449648,66273.5874346722,11246.8211919881
9293184391,17226,2,0,22866.7648070517,47474.9338803124,54162.2027126268,60039.6139797997,71626.2424409621,56983.6725873242,59401.8076477348,60494.4303193445,66272.3584972931,11251.2867367221
9293184391,17226,2,0,22705.9200227493,47429.2198433486,54131.3089303933,60033.7734853247,71602.6979476097,56981.2147125660,59402.8662373584,60483.1751997833,66284.8547219302,11247.7337692498
9293184391,17226,2,0,22706.2485505635,47431.7020535005,54142.3693668054,60046.5252315952,71620.1829279443,56959.5075414338,59414.6202324893,60516.2835028385,66289.4662790261,11239.3867292293
9293184391,17226,2,0,22848.0143862476,47472.4029993733,54176.8526196016,60061.4306602033,71653.3399017868,56946.2690872905,59424.4152284318,60548.5644025098,66283.7352938225,11235.6634140015
9293184391,17226,2,0,22970.3849131959,47501.8974964721,54201.0298331888,60066.2490681452,71668.0384795490,56947.7292109092,59424.2205452826,60561.9123659245,66279.7199538710,11240.3236418847
9293184391,17226,2,0,22900.2503087085,47470.0911369769,54172.8616150437,60042.7045747928,71630.7809918771,56963.0240058157,59400.7490581112,60522.8053883356,66272.6140189264,11249.8144454065
9293184391,17226,2,0,22703.2066263577,47415.2269920023,54120.5283510082,60019.1722491372,71588.1697176032,56983.3440595100,59384.6025244271,60477.6267300320,66276.5441850002,11256.5066786592
9293184391,17226,2,0,22660.5466812965,47422.7344609420,54125.8578022166,60031.7779830458,71605.4600147886,56970.6896548141,59402.2821879109,60506.7683639230,66292.3135200827,11252.5521771917
9293211028,17227,2,0,22838.7669366621,47485.2764226119,54182.7174494703,60057.3301463739,71657.0388816210,56942.2050765516,59424.9384393952,60567.9840466392,66292.1066692367,11243.0370382762
9293211028,17227,2,0,22970.3727454991,47505.4747993380,54197.6472134720,60048.2043737567,71659.0465515968,56939.3335001014,59412.4057116675,60559.3206465012,66267.9294556495,11238.2064626375
9293211028,17227,2,0,22882.8626699485,47461.1357121152,54159.2824653893,60022.3480180080,71616.7759728339,56962.5981364269,59388.7760444374,60502.7408562746,66257.9276088611,11242.3069764668
9293211028,17227,2,0,22714.2183919825,47409.8853730970,54120.1268170130,60015.2907538507,71586.3323953829,56970.5436424523,59384.1766550383,60481.2283682916,66266.3963258498,11245.8842793327
9293211028,17227,2,0,22661.5931032233,47405.9917101136,54119.2629105386,60026.7892273484,71596.1760621127,56967.7085690925,59393.8621417094,60501.8161113160,66275.6437754353,11244.5823357727
9293211028,17227,2,0,22788.4048395120,47457.9477755476,54159.6596639908,60048.3747215123,71638.7021625088,56957.9379085437,59411.5296374963,60544.9992673406,66280.2918356216,11241.7959332002
9293211028,17227,2,0,22958.6065826713,47507.3486246488,54199.6427157510,60060.9439523304,71667.5882747665,56944.5534420385,59418.1488645680,60571.2449893877,66274.0619748483,11240.1532941291
9293211028,17227,2,0,22937.3374486248,47483.6824543281,54177.8747061347,60040.3805446996,71633.7620775987,56954.1659225286,59398.5588726830,60531.7608131973,66258.9131923037,11242.8058520365
9293242974,17228,2,0,22737.6412083667,47417.6726990637,54122.0249777174,60013.6602824764,71581.1489565363,56975.2282057291,59380.8548738057,60475.3635384229,66257.9884473452,11246.0181239978
9293242974,17228,2,0,22651.0072069873,47408.5955972338,54118.7275318784,60028.6508849623,71589.8610274615,56966.1632715960,59395.1154144821,60490.2202962438,66274.4391734498,11244.9595343742
9293242974,17228,2,0,22800.3656854889,47463.3015621497,54172.3870748676,60062.1363866190,71644.0194460205,56943.2880015689,59416.8955917952,60548.4427255415,66278.3206687363,11236.9045190774
9293242974,17228,2,0,22963.7778538210,47506.5333889616,54200.3241067731,60066.2612358420,71667.7099517347,56945.9648948699,59415.1434434527,60556.2908899923,66264.6806805978,11236.2839665394
9293242974,17228,2,0,22937.7754857104,47489.2795948667,54177.3514951713,60045.6126543335,71642.7175024604,56962.4156209745,59400.6030457493,60520.6517059979,66258.2074658880,11245.0568759488
9293242974,17228,2,0,22777.0645460730,47438.8201561419,54136.5775431177,60026.5945441992,71602.9413015462,56966.9785072831,59388.3136719581,60490.8165133881,66263.8654449107,11250.7270226683
9293242974,17228,2,0,22668.7112058647,47416.7114510147,54121.5139344509,60029.3322759844,71595.0931370954,56971.5292258949,59390.6742051418,60494.1869654080,66271.1538953076,11251.2989044189
9293242974,17228,2,0,22750.4902962117,47454.3704726817,54154.6587405966,60052.0737013464,71632.7521587624,56956.9766604947,59407.1979374273,60534.4133711047,66280.6690342231,11246.3831549025
9293262131,17229,2,0,22944.3947127821,47511.2787907226,54203.5972172184,60071.4081715981,71675.3025945523,56932.5560929710,59419.2439572820,60571.1354801163,66275.3152476211,11241.2483868432
9293262131,17229,2,0,22971.9423783892,47497.3954486476,54187.3168388693,60047.9001813362,71648.9473632338,56936.8512899495,59398.7048850449,60531.8824901655,66250.4566430118,11238.4741519676
9293262131,17229,2,0,22786.3606664457,47434.0869220778,54125.4441005247,60015.5706108776,71592.8421131832,56966.9906749800,59377.5330925730,60468.0629203292,66246.9645140236,11241.7837655034
9293262131,17229,2,0,22661.6417740106,47415.8718799339,54110.4169949483,60025.1222528836,71592.4649145817,56973.4882250834,59392.0004840955,60480.5591449663,66269.3409084810,11241.0050329067
9293262131,17229,2,0,22763.3028809662,47462.9365312450,54158.3212173403,60053.6311665398,71638.4466408756,56948.7999682297,59414.4863878243,60538.1853571198,66279.1359044235,11236.0527802998
9293262131,17229,2,0,22926.1675029413,47504.5013835922,54193.6683766109,60058.3765683007,71663.5729348149,56940.7206175392,59409.3151166745,60557.4954919778,66267.0777168719,11231.2465400547
9293262131,17229,2,0,22955.6011615560,47495.6554680019,54187.0004787519,60044.5175616194,71644.8468494044,56952.6814635162,59392.5845335430,60533.0992598478,66258.4021490372,11234.4831474096
9293262131,17229,2,0,22824.2022035651,47445.2933708518,54150.0715188943,60028.3831956322,71605.3140024267,56966.1632715960,59381.9743019134,60497.8859452422,66258.1952981912,11241.3700638114
9293297245,17230,2,0,22675.5129483887,47404.4220772235,54119.2264074481,60021.4597761399,71583.0349495439,56981.7135881357,59381.9377988229,60482.4816410644,66266.7126859672,11243.0127028825
9293297245,17230,2,0,22717.2724838851,47435.4253687283,54148.3558736423,60045.5639835462,71619.2460152890,56975.3620503941,59404.9469135151,60523.9978226242,66283.8934738812,11245.3002298852
9293297245,17230,2,0,22915.3747558594,47497.4562871317,54202.6603045631,60070.0818926444,71666.2619958128,56948.4957758091,59421.7018320403,60575.2116585520,66284.8425542334,11242.4408211318
9293297245,17230,2,0,22987.9794028019,47499.7681495281,54202.2952736584,60056.3567306281,71654.0212928089,56956.4534495313,59404.3020255835,60552.0321961043,66266.8221952386,11241.9784486526
9293297245,17230,2,0,22823.5329802398,47440.6818137559,54147.5041348647,60025.4507806978,71600.1427312769,56983.2345502386,59380.1978181772,60485.7547515097,66263.6220909742,11245.2758944916
9293297245,17230,2,0,22671.5219438308,47406.2715671406,54120.5891894923,60026.5580411087,71584.9209425514,56979.1705394997,59385.3325862365,60477.4807176701,66277.7001161983,11248.0501293672
9293297245,17230,2,0,22720.5212589368,47432.2495998576,54146.4212098474,60047.6933304902,71613.7948871123,56954.5552888269,59401.7589769475,60519.3375947411,66280.8150465850,11242.2096348922
9293297245,17230,2,0,22883.9942657530,47479.6549466797,54182.8756295290,60062.2580635872,71648.0956244562,56945.1861622732,59406.0785093196,60546.0456892674,66271.7744478456,11237.7562578550
9293366317,17231,2,0,22964.2037232098,47491.1777555711,54185.9175537347,60055.3468117918,71644.7738432235,56944.0667341655,59394.7747189711,60536.0925132662,66257.8302672865,11233.0595268814
9293366317,17231,2,0,22860.3645985229,47446.8995068324,54145.6424772508,60034.0290069580,71603.0994816049,56960.1524293655,59374.7345223037,60497.4479081566,66251.4787295449,11233.7530856003
9293366317,17231,2,0,22685.1740996661,47398.2287195406,54107.6427600727,60021.9099809224,71572.2665378556,56988.5153306597,59371.1328840441,60471.6888939824,66263.9019480011,11239.6422508626
9293366317,17231,2,0,22682.6188833333,47422.4181008246,54130.8952287013,60047.2066226173,71604.2310774094,56984.9745308843,59397.8044754800,60509.7372819478,66285.6577899206,11246.3223164184
9293366317,17231,2,0,22880.3196213125,47492.4553637375,54193.1695010412,60077.5041877064,71663.1592331229,56948.5079435059,59424.0867006176,60568.3977483312,66287.4099382631,11244.8743604964
9293366317,17231,2,0,22991.1916747631,47506.9105875631,54199.9955789588,60060.2990643987,71659.4845886824,56945.0644853050,59407.9888377208,60551.3143019917,66261.3102285778,11239.6057477721
9293366317,17231,2,0,22866.0590806360,47453.4943985104,54149.3657924786,60025.2682652455,71608.2099142705,56968.9253387748,59383.1667362020,60489.7457560677,66251.1380340339,11241.7472624129
9293366317,17231,2,0,22698.5707338682,47407.1963120991,54111.1348890609,60021.6179561986,71581.6113290156,56975.3742180910,59384.6998660017,60475.3635384229,66265.2403946517,11245.0082051615
9293380563,17232,2,0,22695.9546790513,47421.3838465947,54127.1232426862,60044.8095863431,71603.5861894778,56965.6278929358,59401.8684862189,60512.8157092440,66277.8582962571,11244.6675096504
9293380563,17232,2,0,22838.9981229018,47469.8112799500,54168.9557843635,60063.4748332695,71641.5494035654,56950.1384148802,59410.4102093886,60544.9140934629,66275.3030799242,11242.1244610144
9293380563,17232,2,0,22961.8188546325,47496.2516851462,54189.5191919943,60057.5369972199,71648.1077921530,56932.9211238757,59399.8121454558,60544.8532549788,66258.8645215164,11239.0825368087
9293380563,17232,2,0,22901.5400845717,47460.2474702471,54160.2193780446,60028.0181647275,71608.5992805689,56944.2370819211,59369.5024126699,60503.4587503871,66244.5309746590,11239.8491017086
9293380563,17232,2,0,22710.6289214197,47401.7695193161,54111.0497151831,60004.3033236196,71568.0321793612,56968.7671587161,59358.6609948006,60459.3873524944,66250.1037798039,11245.3002298852
9293380563,17232,2,0,22655.0712177262,47405.1521390329,54115.1137259220,60019.9144786434,71584.3855638912,56962.0992608571,59377.8737880840,60483.5280629911,66268.6838528526,11243.1830506380
9293380563,17232,2,0,22831.0039460891,47472.3421608892,54172.7521057723,60057.2693078898,71643.1068687587,56933.5173410200,59405.8716584736,60549.2214581382,66275.5464338607,11240.7738466671
9293380563,17232,2,0,22983.7693797011,47506.5942274457,54198.5232876433,60063.6938518123,71659.1317254746,56938.7859537444,59405.2876090261,60555.7433436353,66260.7626822208,11240.5061573370
9293397122,17233,2,0,22913.0628934630,47476.3088300534,54168.5420826715,60045.4544742748,71625.4150375782,56970.5801455427,59393.2294214746,60508.9220462606,66258.7306768514,11247.2592290737
9293397122,17233,2,0,22739.2230089536,47426.0562421747,54130.3598500411,60031.3277782633,71594.5334230416,56976.6761616510,59387.3280885155,60483.1508643896,66271.6284354837,11246.3709872057
9293397122,17233,2,0,22674.4908618556,47414.9714703690,54124.3125047201,60036.3043662639,71598.4757568122,56966.0537623246,59397.4151091817,60496.5474985917,66277.7731223793,11242.6841750683
9293397122,17233,2,0,22787.4922622503,47454.0054417770,54155.0846099854,60052.4265645543,71632.6426494910,56948.4592727186,59409.2542781904,60529.6071308596,66272.7600312882,11236.6368297473
9293397122,17233,2,0,22953.1432867978,47493.0637485786,54187.8765529232,60060.8952815431,71654.8365284961,56931.4610002570,59411.1767742884,60545.5589813945,66260.7748499176,11230.5286459422
9293397122,17233,2,0,22948.2032018877,47474.3254954713,54172.7156026818,60042.5950655214,71628.2622786347,56946.9626460094,59393.7039616507,60509.6886111605,66247.9744328599,11234.0694457177
9293397122,17233,2,0,22756.9148401342,47416.4437616846,54123.8988030282,60023.0537444237,71584.0448683802,56981.7257558325,59380.6966937470,60459.1439985580,66253.5107349144,11245.5192484280
9293397122,17233,2,0,22655.3145716626,47408.8024480797,54120.8082080351,60037.8131606699,71594.6064292225,56984.4513199209,59398.1938417784,60480.6929896314,66280.6203634359,11250.4106625509
9293420598,17234,2,0,22790.3030002164,47462.6445065213,54168.1527163732,60064.5577582868,71644.2141291696,56948.3375957504,59418.2948769299,60543.2836220886,66283.9908154558,11243.0005351857
9293420598,17234,2,0,22955.2482983482,47498.0646719728,54193.8265566696,60062.8542807316,71659.6427687411,56935.5371786927,59410.2520293299,60550.4260601237,66258.5846644895,11235.7850909697
9293420598,17234,2,0,22935.5853002823,47474.9825510997,54168.8097720016,60040.3197062155,71627.0820120429,56950.3939365135,59386.9265545203,60505.2960726074,66241.2821996073,11235.6634140015
9293420598,17234,2,0,22780.8000289976,47421.2743373233,54128.0601553416,60024.7207188885,71587.3544819160,56960.6634726320,59377.0707200937,60471.6037201046,66243.7035712751,11237.1478730139
9293420598,17234,2,0,22671.1204098356,47394.2620503763,54110.8915351244,60025.6819669375,71577.6324921545,56961.4908760160,59379.9666319376,60471.0561737476,66253.1213686160,11236.3934758108
9293420598,17234,2,0,22739.4420274965,47427.0174902237,54137.4536172889,60042.1691961326,71612.1035772539,56950.3939365135,59393.4362723206,60505.1135571550,66260.3976513161,11232.2199558006
9293420598,17234,2,0,22929.2459302375,47483.5121065726,54185.6985351919,60062.0025419540,71653.2182248186,56928.7476038654,59402.5377095441,60542.9915973649,66258.2683043721,11228.7764975997
9293420598,17234,2,0,22977.7220343801,47479.1682388068,54178.8481218806,60044.7365801622,71635.5020582444,56936.6201037099,59382.4853451799,60518.3885143889,66242.3894600182,11230.9666830278
9293474773,17235,2,0,22803.6752990248,47422.6979578515,54124.1908277519,60021.0947452352,71586.3932338670,56975.5202304528,59365.2193833882,60462.2467612478,66245.0420179256,11242.6233365842
9293474773,17235,2,0,22667.8716347839,47401.6113392574,54105.8784440334,60030.5490456667,71581.8303475584,56980.7158369962,59378.2631543824,60469.0971745591,66267.0047106910,11249.0235451131
9293474773,17235,2,0,22758.8616716259,47447.8120840941,54148.9520907866,60060.6397599098,71627.1428505270,56958.5219579912,59404.4480379453,60527.6116285807,66277.7852900761,11244.3754849267
9293474773,17235,2,0,22932.3121898369,47496.3246913272,54187.5845281994,60069.5708493778,71659.0465515968,56949.5300300390,59409.5097998237,60551.0831157521,66263.0258738299,11237.5980777963
9293474773,17235,2,0,22967.7445229853,47493.5261210579,54182.5471017147,60053.7650112048,71643.5327381476,56956.8549835264,59395.4682776900,60522.1726681008,66251.4543941513,11234.7386690429
9293474773,17235,2,0,22838.3410672733,47446.1572773262,54147.2851163219,60035.2092735498,71600.2400728515,56964.9586696105,59382.9477176592,60482.8588396659,66250.8460093101,11236.7585067155
9293474773,17235,2,0,22687.7658190894,47405.3103190916,54114.4931733840,60029.5147914367,71575.3936359391,56976.3354661400,59382.9963884465,60467.3936970039,66259.3390616925,11238.9486921437
9293474773,17235,2,0,22713.6830133223,47426.5429500476,54133.7181343643,60050.8082608768,71602.3085813114,56968.4386309019,59402.2213494267,60502.7773593650,66271.2999076695,11237.7562578550
9293488071,17236,2,0,22915.7519544609,47491.5306187789,54189.2393349674,60079.2198329584,71656.7468568973,56948.2402541758,59421.6166581625,60560.9876209660,66272.8452051660,11236.5029850822
9293488071,17236,2,0,23012.8745105016,47503.7104832987,54196.5886238484,60067.9768810940,71654.3619883200,56950.5399488753,59407.4047882733,60547.1651173751,66253.0118593446,11236.5273204759
9293488071,17236,2,0,22865.9495713646,47447.4348854926,54143.9268319987,60037.6306452176,71602.8196245780,56977.1020310398,59380.8183707152,60482.1652809470,66248.0109359504,11241.4552376892
9293488071,17236,2,0,22699.8605097314,47407.6951876689,54110.6725165816,60032.9947527281,71583.1809619058,56975.7514166925,59378.3118251697,60467.9655787546,66263.3909047346,11242.2583056795
9293488071,17236,2,0,22733.8448869579,47431.7993950751,54134.2413453277,60054.1787128968,71614.0260733519,56955.2245121522,59396.0279917439,60511.4285918061,66273.6361054595,11237.3303884662
9293488071,17236,2,0,22898.5589988501,47484.5341931057,54174.3217386624,60068.0620549718,71650.5656669112,56948.5687819900,59407.1370989432,60543.3201251791,66267.6617663194,11234.6778305588
9293488071,17236,2,0,22983.1853302536,47498.0525042760,54183.1798219495,60059.1918039879,71647.5602457959,56948.7878005328,59401.1749275000,60532.4665396130,66257.3070563231,11232.5363159180
9293488071,17236,2,0,22889.2872138710,47453.6647462659,54147.4189609869,60032.8244049725,71606.1170704170,56951.1361660197,59381.5119294341,60491.8994384053,66243.5210558227,11235.9432710284
9293517050,17237,2,0,22706.0051966270,47397.1336268265,54098.9428568443,60011.5917740165,71563.2259391161,56962.5616333364,59366.3266437991,60455.1773293937,66240.7224855534,11236.7706744124
9293517050,17237,2,0,22676.7783888583,47401.9398670716,54101.7414271136,60025.0127436122,71580.8690995094,56954.6161273110,59380.0639735122,60480.8268342964,66252.6468284399,11234.4344766223
9293517050,17237,2,0,22863.2361749731,47467.5359206441,54158.8200929100,60057.9141958214,71635.1978658238,56930.4145783302,59401.5764614951,60542.8577526998,66257.3313917168,11230.8450060596
9293517050,17237,2,0,23001.8627448768,47497.1155916207,54181.4641766975,60060.2382259146,71644.5669923775,56935.1356446975,59397.5124507563,60547.1894527688,66243.8130805465,11232.1591173165
9293517050,17237,2,0,22899.0578744198,47456.5849935034,54138.5973807903,60034.6495594960,71596.9912977998,56963.0483412093,59374.8805346656,60490.0134453978,66239.0433433919,11239.1312075960
9293517050,17237,2,0,22725.5586854215,47412.7204464567,54102.7148428594,60029.1497605320,71570.1250232147,56969.2660342859,59375.6714349591,60474.3779549803,66252.5738222590,11241.1267098750
9293517050,17237,2,0,22709.1809654978,47421.0066479932,54113.7387761810,60045.7830020890,71591.7470204691,56956.7698096487,59390.0658203006,60505.5272588470,66264.0722957567,11236.6246620505
9293517050,17237,2,0,22848.5862679982,47468.9230380819,54154.4153866601,60062.9881253966,71633.6890714178,56948.4592727186,59403.2191005662,60540.0956855210,66261.5657502111,11232.5363159180
9293564824,17238,2,0,22980.8004616763,47501.7393164134,54181.3424997293,60067.2589869815,71656.9780431369,56947.5466954569,59403.6814730455,60552.2268792535,66257.1610439612,11233.6192409352
9293564824,17238,2,0,22935.9503311870,47473.0843903954,54154.3423804792,60044.0673568369,71627.2158567080,56958.0839209056,59386.3911758601,60514.6408637674,66246.5386446348,11238.0482825788
9293564824,17238,2,0,22743.1531750275,47410.6641056937,54098.9915276316,60018.3205103596,71577.5229828831,56974.6563239784,59370.6096730807,60466.9434922215,66247.2443710505,11240.3236418847
9293564824,17238,2,0,22663.2600776880,47404.4950834044,54092.6156544964,60026.0835009326,71584.9696133387,56967.2218612196,59381.3172462849,60481.6664053772,66260.9573653700,11236.4786496886
9293564824,17238,2,0,22823.1436139415,47463.5449160862,54146.9687562044,60056.5879168677,71638.9333487485,56934.2352351326,59403.3407775345,60544.1231931694,66263.4882463092,11229.4092178345
9293564824,17238,2,0,22984.2804229677,47498.4053674839,54177.7043583792,60055.6631719092,71653.1208832440,56930.8161123254,59397.7923077832,60548.2237069987,66244.0442667861,11229.7499133455
9293564824,17238,2,0,22926.1553352445,47466.2218093872,54148.2098612804,60028.2371832703,71615.9485694499,56960.0672554877,59377.1193908810,60495.7931013887,66233.3366935819,11238.0361148819
9293564824,17238,2,0,22756.7444923787,47421.6150328343,54110.4291626452,60016.5318589266,71581.2341304141,56970.2637854253,59372.4469953010,60469.1580130432,66244.7013224145,11245.5070807312
9293619593,17239,2,0,22686.9627510991,47413.1584835424,54105.8419409429,60024.3800233774,71586.5879170162,56963.0848442998,59383.7264502559,60491.2910535642,66257.7815964992,11243.4020691809
9293619593,17239,2,0,22789.9136339180,47454.3826403785,54139.1084240568,60044.2742076829,71625.8774100575,56955.6747169346,59400.6638842334,60533.2452722097,66262.4661597760,11236.5638235664
9293619593,17239,2,0,22952.7174174090,47498.3080259093,54172.5209195326,60057.3544817676,71658.5963468143,56938.2019042969,59408.6215579556,60561.5229996262,66257.4652363818,11231.9766018641
9293619593,17239,2,0,22957.9130239524,47478.5476862689,54156.2405411835,60042.9844318197,71634.6624871636,56941.7427040724,59390.6133666577,60528.9622429280,66241.0266779740,11232.8405083385
9293619593,17239,2,0,22769.9099403411,47414.3265824374,54100.9018560328,60014.6093628286,71584.3003900135,56972.7581632740,59371.4735795552,60469.8880748526,66239.4570450839,11238.8270151754
9293619593,17239,2,0,22649.4497417940,47396.8537697996,54086.0572659088,60022.1289994652,71581.7695090743,56974.2304545896,59382.5461836641,60472.9178313615,66257.2097147485,11237.4764008281
9293619593,17239,2,0,22774.6431744052,47449.6615740112,54134.4846992641,60055.0182839776,71632.2776185863,56944.8211313686,59407.4291236670,60535.3259483664,66266.6153443927,11231.9400987736
9293619593,17239,2,0,22954.1897087246,47493.8911519626,54168.8462750921,60062.7082683697,71659.1438931714,56938.7737860476,59408.6945641366,60554.3805615911,66249.7995873833,11228.4601374823
9293630844,17240,2,0,22949.6389901128,47478.6815309339,54150.0228481070,60044.7244124654,71633.7012391146,56959.1060074387,59390.7350436259,60517.0257323447,66239.7734052012,11235.5904078205
9293630844,17240,2,0,22795.5229421534,47430.6799669674,54110.9888766990,60028.7117234464,71595.5920126652,56967.5747244275,59378.4213344411,60484.0634416513,66245.4313842239,11243.4994107554
9293630844,17240,2,0,22678.4940341103,47406.8677842849,54094.1487842961,60027.0082458912,71584.0083652897,56969.8135806429,59381.1347308326,60483.3698829324,66256.8811869343,11245.6044223058
9293630844,17240,2,0,22736.8746434668,47441.0711800542,54123.7892937567,60043.8361705973,71615.4983646675,56963.7053968378,59398.7170527417,60516.8067138019,66266.3963258498,11239.6909216499
9293630844,17240,2,0,22924.8168885940,47499.4882925011,54171.3649883344,60063.8763672647,71655.7126026673,56941.3776731677,59412.5030532421,60558.3107276649,66262.2349735364,11234.1424518986
9293630844,17240,2,0,22988.8311415795,47496.6775545350,54167.7876854685,60046.2088714778,71642.4498131303,56945.5268577843,59398.9847420718,60536.6522273201,66243.0100125561,11231.2222046611
9293630844,17240,2,0,22823.7885018731,47434.4397852857,54112.6923542542,60012.6260282465,71588.4130715396,56972.8555048486,59378.5065083188,60473.2585268726,66239.6760636267,11235.8094263633
9293630844,17240,2,0,22673.0672413273,47400.0052032768,54084.4876330186,60011.4092585642,71577.8758460909,56973.4395542961,59385.2595800556,60470.5086273906,66257.9154411643,11239.2893876547
9293654267,17241,2,0,22748.8111540501,47433.7462265668,54115.6369368854,60039.3827935601,71620.7183066045,56945.2591684542,59406.1393478037,60528.7918951725,66264.8145252629,11231.5994032626
9293654267,17241,2,0,22926.4108568778,47482.8063801569,54153.5879832761,60054.0327005349,71653.1695540313,56938.5425998079,59410.8239110806,60554.8672694640,66251.9532697210,11225.4425486702
9293654267,17241,2,0,22971.0176334307,47484.4246838343,54145.0949308937,60042.0596868612,71639.4808951055,56951.1239983228,59398.3641895339,60527.4534485220,66239.9802560472,11224.2987851688
9293654267,17241,2,0,22850.2167393725,47446.2302835071,54111.9014539607,60028.0790032116,71604.5352698300,56970.6896548141,59388.1554918994,60494.4059839508,66245.7112412508,11234.5683212874
9293654267,17241,2,0,22696.8672563130,47409.7028576446,54085.2785333121,60022.8590612746,71584.7505947959,56979.2070425902,59387.9243056598,60480.0481016998,66257.8667703770,11241.4552376892
9293654267,17241,2,0,22704.1192036195,47428.2585952996,54104.9536990748,60039.5044705283,71611.3491800509,56970.1421084571,59402.8784050552,60510.5768530285,66271.5067585155,11238.3524749993
9293654267,17241,2,0,22890.8325113675,47490.5206999426,54159.6961670813,60066.8696206831,71661.3705816900,56939.6863633093,59421.6409935562,60564.2242283209,66268.0998034051,11229.7377456487
9293654267,17241,2,0,22999.6725594487,47504.6352282572,54169.4059891460,60062.7691068538,71663.3417485753,56939.9662203362,59415.7153252034,60556.7532624716,66249.0451901803,11227.7665787634
9293681684,17242,2,0,22861.5813682051,47450.6714928475,54120.7960403383,60033.1285973931,71612.3956019776,56973.9871006532,59394.9694021203,60492.7390094861,66242.1704414754,11234.7386690429
9293681684,17242,2,0,22686.8167387372,47409.7880315224,54089.9995996794,60027.9451585465,71587.9020282730,56986.2764744443,59398.7657235290,60476.7384881639,66260.9330299763,11240.7373435766
9293681684,17242,2,0,22714.5834228872,47434.1964313492,54117.9122961913,60049.9200190088,71618.3212703304,56966.4066255325,59419.5116466121,60523.8274748687,66272.6505220168,11237.5859100995
9293681684,17242,2,0,22883.3737132150,47487.1015771354,54160.5722412525,60065.3973293676,71656.7225215036,56955.7842262060,59427.9195251168,60557.4954919778,66267.5887601385,11233.6314086320
9293681684,17242,2,0,22984.0249013344,47508.2977050009,54170.4159079823,60062.8907838220,71659.5210917729,56953.0951652082,59420.1565345438,60546.1673662356,66255.3845602251,11232.3172973752
9293681684,17242,2,0,22902.3553202588,47469.9937954023,54136.3585245748,60040.6238986360,71620.8886543601,56955.6747169346,59398.2668479593,60503.5439242649,66245.3340426493,11233.5462347543
9293681684,17242,2,0,22721.1661468684,47414.3022470437,54086.3249552389,60021.6787946827,71581.2949688982,56972.3201261884,59382.9112145687,60466.3472750771,66246.3074583952,11237.0018606520
9293681684,17242,2,0,22675.1722528777,47417.3441712495,54088.2596190338,60034.5887210119,71597.7578626996,56974.0114360468,59394.8355574552,60486.9593534952,66262.3201474142,11237.8535994296
9293717199,17243,2,0,22851.6281922040,47483.2565849393,54148.5262213978,60066.7479437149,71655.7126026673,56951.6472092862,59420.3633853898,60551.3264696886,66270.7523613125,11234.9333521921
9293717199,17243,2,0,22998.9546653362,47514.5884042584,54173.9323723641,60065.7015217881,71666.0673126636,56946.4029319555,59415.2042819368,60554.1615430483,66251.9532697210,11231.5142293848
9293717199,17243,2,0,22902.1484694128,47469.8964538277,54132.8663955867,60035.3187828212,71615.2185076406,56973.7559144135,59392.2560057288,60493.0675373003,66239.8829144726,11234.8846814048
9293717199,17243,2,0,22721.6893578318,47419.9115552791,54096.1929573623,60026.7527242579,71584.1908807421,56983.3562272068,59394.5070296410,60467.3450262166,66251.6247419068,11238.5349904517
9293717199,17243,2,0,22698.2422060540,47424.6204539496,54108.9933744201,60042.6924070959,71603.0021400303,56968.5846432638,59414.7662448512,60501.4510804113,66266.2989842753,11237.4033946471
9293717199,17243,2,0,22839.8741970730,47469.8234476468,54145.6911480380,60059.6055056798,71638.5318147533,56952.3894387924,59427.3476433661,60535.9221655107,66264.5468359327,11231.9644341673
9293717199,17243,2,0,22978.5007669768,47504.0755142034,54167.1914683242,60061.8321941984,71655.8586150292,56944.6994544003,59425.2669672094,60541.8965046508,66253.4498964302,11229.0198515361
9293717199,17243,2,0,22947.5583139561,47480.3971761859,54141.3959510595,60046.0020206318,71623.9549139594,56950.9414828705,59408.5485517747,60508.2893260258,66241.0145102772,11231.3073785389
9293748874,17244,2,0,22761.4047202619,47417.4293451272,54088.1744451560,60023.2362598761,71577.4256413085,56972.9650141200,59389.6764540023,60464.1449219522,66242.0609322040,11234.4588120160
9293748874,17244,2,0,22670.0009817279,47404.7019342504,54078.9026601769,60032.0578400727,71586.3323953829,56976.0799445067,59398.5953757735,60478.2351148732,66258.4508198245,11236.4664819918
9293748874,17244,2,0,22820.1868636135,47462.6566742181,54131.4306073616,60064.9106214946,71644.3966446220,56950.0289056088,59423.1376202654,60543.8676715361,66267.8442817718,11232.4024712529
9293748874,17244,2,0,22995.4990394384,47502.7857383401,54167.3009775956,60069.1084768986,71665.5806047907,56946.2569195937,59421.5801550720,60556.0962068432,66253.4620641271,11230.8085029691
9293748874,17244,2,0,22949.3713007827,47475.1528988552,54139.7289765948,60043.0087672133,71628.1162662729,56968.5238047797,59400.8098965953,60502.3879930667,66244.3484592067,11237.2573822853
9293748874,17244,2,0,22771.7472625614,47424.7542986146,54098.1276211572,60026.6188795928,71589.8610274615,56978.6351608395,59393.2780922619,60466.2742688962,66252.5859899558,11240.5791635179
9293748874,17244,2,0,22690.3210354222,47413.9372161390,54092.4574744377,60034.6130564055,71590.2138906694,56965.8834145691,59401.1019213190,60481.1066913234,66261.0790423382,11236.8436805933
9293748874,17244,2,0,22785.5697661522,47452.5696535519,54120.5526864018,60052.5847446130,71625.8165715733,56959.0573366514,59414.7784125480,60520.7977183598,66261.0060361573,11230.1149442502
9293766523,17245,2,0,22954.2870502991,47505.6329793967,54158.9661052719,60070.3495819745,71662.7333637342,56954.5187857364,59422.7360862702,60552.0321961043,66259.5215771449,11229.1171931107
9293766523,17245,2,0,22981.9198897840,47499.5247955916,54150.1445250752,60059.3986548338,71650.3466483684,56966.4431286229,59411.4809667090,60531.9433286496,66248.5463146106,11232.4268066466
9293766523,17245,2,0,22807.5081235240,47440.9616707828,54100.7193405805,60033.8708268993,71600.9579669641,56989.5130817992,59392.5115273620,60480.5226418759,66249.3615502977,11240.5426604275
9293766523,17245,2,0,22667.4701007888,47413.4140051756,54078.4767907881,60033.3476159359,71591.5888404104,56987.2498901902,59397.2812645166,60479.3423752840,66265.2647300453,11241.4795730828
9293766523,17245,2,0,22773.2803923611,47460.8558550883,54126.2715039086,60064.4117459249,71640.3813046704,56957.6702192136,59419.3899696439,60541.7626599857,66275.7167816162,11237.4885685249
9293766523,17245,2,0,22956.6110803923,47506.7159044140,54165.4149845880,60070.5564328205,71668.6225289964,56948.8121359265,59417.6986597855,60564.6987684970,66259.0592046656,11229.9932672820
9293766523,17245,2,0,22965.8950330682,47493.3679409992,54146.3603713633,60047.8393428521,71642.6688316731,56968.7306556256,59397.8774816610,60521.2479231423,66244.1537760575,11232.9743530036
9293766523,17245,2,0,22815.8186604541,47443.3952101474,54100.3908127662,60029.9893316128,71599.6073526167,56978.7203347173,59384.4808474589,60482.4573056707,66248.0961098281,11237.3303884662
9293796821,17246,2,0,22694.9690956086,47413.4626759629,54078.6836416341,60031.5467968061,71585.9795321750,56975.9826029321,59385.9896418649,60479.4640522523,66258.9253600006,11240.6156666084
9293796821,17246,2,0,22743.3965289639,47441.4605463525,54106.1948041508,60047.1822872236,71614.3911042566,56974.1574484087,59399.6174623066,60511.1609024760,66266.4449966371,11240.7860143639
9293796821,17246,2,0,22923.8191374545,47502.0800119244,54159.4041423575,60067.7213594607,71658.0122973668,56957.2930206121,59414.1578600101,60555.5486604861,66266.8465306323,11238.4254811803
9293796821,17246,2,0,23001.9479187546,47512.2035356811,54165.5366615563,60059.8488596163,71652.3786537378,56956.9766604947,59404.6062180040,60544.8775903724,66252.3304683225,11240.0681202514
9293796821,17246,2,0,22848.2334047904,47453.8715971119,54113.2764037017,60030.0988408842,71599.0233031692,56985.9357789333,59380.7818676247,60483.1751997833,66245.1150241065,11245.8112731518
9293796821,17246,2,0,22677.7639723010,47413.0246388773,54077.0775056535,60022.1289994652,71578.1070323306,56991.9222857702,59379.8084518789,60469.6568886130,66260.1299619860,11245.4827453376
9293796821,17246,2,0,22738.5172825379,47448.1406119083,54110.9158705181,60048.7762555074,71618.9904936557,56965.4088743930,59403.3529452313,60524.3020150448,66270.0588025935,11239.2042137769
9293796821,17246,2,0,22920.6190331901,47500.4130374597,54154.8047529584,60062.4527467364,71654.5810068628,56949.4205207676,59411.1767742884,60556.6437532002,66258.6455029736,11235.4565631555
9293832932,17247,2,0,22981.0924864001,47504.1850234748,54154.1233619363,60052.4508999479,71644.7251724362,56962.6103041237,59401.3209398618,60532.3691980384,66246.9645140236,11237.4642331313
9293832932,17247,2,0,22868.0545829150,47464.0924624432,54122.2926670475,60037.6063098240,71609.0251499577,56979.9979428837,59391.6719562813,60496.2311384743,66247.9622651631,11242.5868334937
9293832932,17247,2,0,22713.6100071414,47421.1891634455,54091.5083940855,60029.9406608255,71584.0448683802,56987.1160455251,59387.6931194202,60479.2572014063,66255.9321065821,11243.9009447506
9293832932,17247,2,0,22708.9132761677,47433.1743448161,54104.0167864195,60042.0110160739,71604.2797481967,56980.3264706979,59396.8310597342,60503.2640672379,66266.3963258498,11240.3966480656
9293832932,17247,2,0,22892.0492810498,47496.4950390827,54156.4960628168,60068.0255518813,71656.1749751466,56961.3448636541,59413.9266737704,60555.7920144226,66270.7036905252,11237.6467485836
9293832932,17247,2,0,23022.2314693585,47522.0715378045,54174.5650925989,60067.5023409179,71666.6878652016,56961.7342299524,59410.5927248409,60558.3228953618,66258.0127827388,11238.8756859627
9293832932,17247,2,0,22902.8906989190,47475.2745758235,54131.6009551171,60039.0786011395,71618.6376304478,56995.0250484600,59391.4164346480,60500.3924907877,66249.0816932708,11246.1398009660
9293832932,17247,2,0,22716.8222791026,47434.0869220778,54096.8621806876,60033.0190881217,71590.6032569677,57000.7195305732,59393.3267630492,60480.3401264235,66263.5247493996,11250.4836687318
9293854317,17248,2,0,22725.1936545168,47451.8152563488,54117.4620914088,60054.6532530729,71618.0414133035,56972.8190017582,59411.3227866503,60523.1217484530,66271.9934663884,11244.0956278998
9293854317,17248,2,0,22889.3480523551,47496.5558775668,54156.3500504549,60068.5487628447,71652.9870385790,56958.4611195071,59412.1015192470,60556.3152253860,66261.5414148175,11241.0780390877
9293854317,17248,2,0,22996.8861568763,47515.5253169138,54165.7678477959,60066.1760619642,71656.4304967799,56962.0262546762,59402.7567280870,60548.6374086907,66250.2497921658,11243.6575908141
9293854317,17248,2,0,22926.7028816015,47480.0321452812,54135.7501397337,60048.1678706663,71621.7160577440,56967.6842336989,59384.7850398795,60511.2825794443,66246.0276013682,11247.0645459246
9293854317,17248,2,0,22748.3122784804,47422.2477530691,54089.1600285987,60029.8798223414,71579.5063174652,56975.1551995481,59373.5785911055,60475.4608799975,66247.6580727425,11246.9307012595
9293854317,17248,2,0,22684.0181684680,47416.2734139290,54082.4312922556,60034.1871870167,71587.0502894955,56970.5193070586,59384.0063072828,60486.6916641651,66257.1975470517,11242.7328458556
9293854317,17248,2,0,22839.1319675668,47473.7779491143,54133.0854141295,60058.8511084768,71637.0838588314,56941.1586546249,59403.4381191090,60543.5513114187,66258.0979566166,11230.8085029691
9293854317,17248,2,0,22993.9537419419,47503.6009740273,54155.5348147678,60055.7726811806,71647.2438856785,56930.9134538999,59393.9229801935,60547.7978376099,66236.6463071177,11219.2126878968
9293889471,17249,2,0,22912.5275148028,47460.7828489074,54112.6193480733,60023.7108000522,71597.1981486458,56955.7233877219,59367.0323702148,60483.3090444483,66220.4389349496,11218.8719923858
9293889471,17249,2,0,22722.2369041888,47405.2738160011,54063.2184989721,60008.0266388474,71556.2781842302,56964.3502847694,59360.6443293828,60447.8523759063,66228.4452794591,11219.3100294714
9293889471,17249,2,0,22681.1709274114,47407.0016289500,54068.6574594520,60024.5625388298,71573.3859659633,56951.2213398974,59378.2753220792,60480.4374679981,66240.7103178566,11216.0490867229
9293889471,17249,2,0,22815.3197848843,47455.6967516354,54110.2223117992,60047.8636782457,71618.9418228684,56946.7801305571,59397.2934322135,60528.2321811186,66242.2556153531,11218.1175951828
9293889471,17249,2,0,22960.5290787693,47497.8578211269,54143.7443165464,60054.2152159873,71648.5701646322,56952.6692958194,59400.7125550207,60544.9262611597,66241.3065350009,11225.1018531592
9293889471,17249,2,0,22945.8913394913,47482.7333739759,54133.3287680659,60037.2169435256,71628.2501109379,56961.7585653461,59389.5669447309,60519.3254270442,66239.0676787855,11236.6611651409
9293889471,17249,2,0,22770.6643375441,47426.6646270158,54088.0649358846,60011.9324695275,71579.4333112843,56979.1705394997,59373.4690818341,60470.8128198112,66241.1118518518,11244.9230312837
9293889471,17249,2,0,22660.0599734236,47407.0502997372,54071.8210606260,60011.1537369309,71572.3882148238,56976.6396585606,59379.0905577663,60468.0507526323,66252.0871143861,11244.7283481346
9293924390,17250,2,0,22790.7653726956,47458.2519679682,54120.3945063431,60041.5729789882,71620.8034804823,56948.9824836820,59399.9216547272,60528.0253302726,66262.4053212919,11240.4331511561
9293924390,17250,2,0,22975.3493334997,47504.3797066240,54161.2901353651,60052.5969123098,71648.5945000259,56940.7084498424,59401.4791199206,60553.8086798404,66249.9699351389,11238.5228227549
9293924390,17250,2,0,22948.0085187385,47478.5598539657,54132.6230416502,60031.8631569235,71615.4861969707,56965.0438434883,59379.8936257566,60505.2595695169,66237.7779029223,11240.9685298163
9293924390,17250,2,0,22774.8621929480,47428.3924399647,54085.3880425835,60019.2695907118,71578.8979326241,56976.9316832843,59373.7611065579,60469.2310192242,66245.5408934953,11243.2317214253
9293924390,17250,2,0,22687.7293159990,47415.0566442467,54075.6660528220,60031.9483308013,71584.0083652897,56968.7063202320,59384.2861643097,60483.3820506293,66253.5959087921,11241.1267098750
9293924390,17250,2,0,22776.6873474715,47452.9468521534,54107.7035985568,60049.7618389501,71620.5844619395,56964.5084648281,59396.8675628247,60520.8220537535,66257.9519442547,11237.6224131900
9293924390,17250,2,0,22943.2631169776,47504.3675389271,54150.4852205863,60065.7136894850,71655.8221119387,56957.9014054532,59405.9203292609,60550.3530539427,66254.5449891443,11238.2186303343
9293924390,17250,2,0,22985.6188696182,47502.7857383401,54152.4563874716,60057.2693078898,71643.7274212967,56961.0771743240,59397.6706308150,60535.7396500584,66247.6702404393,11244.0226217188
9293957134,17251,2,0,22817.2301132855,47439.5623856481,54100.8166821550,60025.7184700279,71589.2769780141,56976.3841369273,59376.0486335606,60476.6168111957,66241.2213611232,11245.9086147264
9293957134,17251,2,0,22664.6106920354,47398.8371043818,54068.8886456916,60017.0550698900,71568.6405642023,56977.4792296413,59376.1581428320,60462.9524876635,66249.7022458088,11241.2605545400
9293957134,17251,2,0,22758.6669884767,47440.3897890321,54109.2245606597,60046.6955793507,71616.2040910832,56952.4381095797,59402.2213494267,60522.1726681008,66258.7915153355,11236.4178112045
9293957134,17251,2,0,22956.1000371258,47496.5193744763,54153.8191695158,60064.3509074408,71656.9172046528,56942.0590641898,59413.1114380833,60557.6293366429,66248.2421221900,11233.9477687494
9293957134,17251,2,0,22975.7143644043,47489.7541350428,54138.3175237633,60046.3305484460,71635.7697475745,56954.7256365824,59396.6850473723,60520.2501720028,66231.4141974839,11236.3204696299
9293957134,17251,2,0,22822.5352291003,47443.0058438490,54096.0104419100,60028.8090650210,71597.0886393744,56966.1997746865,59383.3370839575,60477.0183451909,66234.2249354500,11244.3024787458
9293957134,17251,2,0,22689.8951660334,47410.2625716985,54068.0125715204,60025.9739916612,71580.8812672062,56960.9920004462,59382.0229727007,60472.5284650632,66242.0365968103,11241.7350947161
9293957134,17251,2,0,22728.4545972653,47433.8922389287,54086.5561414785,60041.7189913501,71607.1756600406,56949.9802348215,59395.3100976313,60502.1081360398,66248.3881345519,11235.0793645540
9293983287,17252,2,0,22900.9438674274,47486.2255029641,54132.2701784423,60060.1165489464,71648.0469536689,56931.7651926775,59408.2930301414,60545.9361799960,66247.2808741410,11224.5421391053
9293983287,17252,2,0,22995.0853377465,47498.4175351807,54142.1868513530,60055.3833148823,71648.0226182752,56935.2208185753,59402.4525356664,60543.6608206901,66235.4173697386,11225.9657596336
9293983287,17252,2,0,22858.1500777011,47446.5344759277,54094.8910138023,60025.9253208739,71597.1738132521,56966.8081595276,59382.4366743926,60489.6605821899,66230.1609247111,11235.4808985491
9293983287,17252,2,0,22682.1930139445,47407.1841444023,54059.1301528396,60018.1866656945,71572.5585625793,56979.1948748934,59387.4741008773,60470.9709998699,66246.5264769380,11240.0072817673
9293983287,17252,2,0,22729.5253545858,47441.0346769637,54093.3700516994,60048.9344355661,71614.6466258899,56955.5773753600,59413.9023383768,60526.3948588984,66261.4319055461,11237.1235376202
9293983287,17252,2,0,22913.7077813946,47495.9839958161,54141.6514726928,60066.6506021403,71653.6440942074,56940.3555866345,59422.2250430037,60558.7365970537,66250.1281151976,11230.8693414532
9293983287,17252,2,0,22984.6211184787,47508.4802204533,54148.3193705518,60051.8790181973,71646.1974637518,56953.8982331985,59410.3128678140,60534.5958865570,66237.4737105017,11232.4511420402
9293983287,17252,2,0,22876.4989645101,47474.0699738380,54119.4940967782,60034.2115224104,71611.6655401683,56975.6540751179,59395.9549855629,60498.4821623865,66240.6129762820,11239.2163814738
9294021641,17253,2,0,22725.2909960914,47438.0657589389,54092.2019528044,60029.7581453732,71590.4450769090,56983.1372086640,59394.4461911569,60485.6330745415,66252.6346607431,11244.0956278998
9294021641,17253,2,0,22709.7406795517,47449.8075863731,54096.8135099003,60041.6338174723,71609.0251499577,56978.7690055046,59403.8274854074,60506.5128422897,66261.4805763334,11243.8036031760
9294021641,17253,2,0,22878.9081684810,47510.1350272212,54143.2332732798,60064.0467150202,71657.6472664622,56959.2763551942,59419.8523421232,60558.5905846919,66267.2967354147,11241.1267098750
9294021641,17253,2,0,23015.1011990202,47535.7723644271,54166.6074188767,60063.0854669712,71667.2232438618,56948.3984342345,59412.7464071786,60563.6280111766,66251.2110402148,11238.1456241533
9294021641,17253,2,0,22903.6815992125,47481.2124118731,54118.9587181180,60026.6188795928,71613.5880362663,56966.4187932293,59385.7827910190,60498.3239823278,66234.1154261786,11239.6179154689
9294021641,17253,2,0,22702.4278937611,47421.8340513771,54067.8665591585,60008.4281728425,71570.5630603004,56972.9893495137,59374.9900439370,60460.1782527879,66239.5665543553,11239.6909216499
9294021641,17253,2,0,22691.0997680189,47432.3469414321,54081.7864043240,60028.2128478766,71591.7226850755,56950.5886196626,59389.2992554008,60498.5795039611,66248.4854761265,11232.2442911942
