steady_timestamp,sequence,battery,flags,EEG-ch1,EEG-ch2,EEG-ch3,EEG-ch4,EEG-ch5,EEG-ch6,EEG-ch7,EEG-ch8,EEG-ch9,EEG-ch10
6035290078,7579,-2,0,2405.5901649861,46032.1005587448,-3285.9838686101,18146.5136754374,56626.4898470867,53943.5735361122,40065.1107075613,55796.3730667352,38063.4637417033,22386.4571426629
6035290078,7579,-2,0,2392.0353507253,46035.7143647012,-3289.7680223220,18136.2806424093,56628.2419954293,53946.6397957115,40067.3252283831,55801.5321701881,38068.9027021831,22391.6649169031
6035290078,7579,-2,0,2403.1809610152,46039.9730585892,-3285.1929683166,18156.9900624019,56637.0879110195,53938.9741467131,40070.0994632587,55805.8151994698,38070.8495336748,22394.8041826834
6035290078,7579,-2,0,2407.6951765365,46038.6224442419,-3290.1452209235,18152.0256420982,56633.5471112441,53937.7330416371,40068.5298303686,55801.5930086722,38066.1771380948,22395.2787228595
6035290078,7579,-2,0,2402.6820854454,46039.6932015623,-3296.3142432127,18135.2098850889,56630.1523238305,53940.3977672414,40070.2576433174,55799.8165249361,38063.6340894588,22393.8794377249
6035290078,7579,-2,0,2410.3842375343,46038.9631397529,-3294.9271257749,18149.6042704304,56633.3402603981,53927.7068594550,40070.0386247746,55801.3253193421,38059.0590354534,22388.5986573037
6035290078,7579,-2,0,2409.0822939743,46032.3560803781,-3299.4778443867,18151.7457850712,56625.9179653361,53922.8641161195,40067.5807500164,55794.6452537863,38050.9188462788,22386.0312732741
6035290078,7579,-2,0,2399.4698134842,46034.3515826570,-3303.8460475461,18136.2928101061,56624.6038540792,53933.8028755633,40069.7466000509,55796.5799175812,38052.1721190516,22390.2412963748
6035328843,7580,-2,0,2408.0480397443,46037.7585377675,-3296.4967586651,18148.3875007481,56634.0824899043,53932.0385595240,40073.9687908484,55801.1914746771,38054.3744721765,22392.2611340475
6035328843,7580,-2,0,2421.3229969782,46036.6999481439,-3290.8874504297,18164.6313760067,56634.9098932882,53926.5144251664,40072.7885242566,55800.0720465694,38053.1455347974,22393.0398666441
6035328843,7580,-2,0,2407.1841332699,46033.5241792731,-3298.0298884648,18148.2658237799,56626.2464931503,53937.5261907911,40070.1359663492,55793.7691796151,38052.4641437753,22394.5973318375
6035328843,7580,-2,0,2395.4301381389,46035.3128307061,-3294.2457347528,18148.5700162004,56624.4578417173,53937.7087062435,40074.0783001198,55797.6871779921,38057.4650671695,22394.3661455978
6035328843,7580,-2,0,2406.5392453383,46032.6724404955,-3289.5125006887,18166.8823999190,56624.6160217760,53926.1858973522,40071.5717545743,55795.1684647497,38056.7228376634,22392.8695188886
6035328843,7580,-2,0,2410.8587777104,46027.9392064314,-3293.6860206990,18155.7124542355,56619.0918874184,53930.7609513576,40068.0187871020,55789.2671317906,38054.7029999907,22392.4679848934
6035328843,7580,-2,0,2406.6122515192,46030.9811306371,-3298.4314224599,18140.8313610210,56619.3474090517,53934.6302789473,40068.5419980654,55789.2306287001,38058.8156815169,22392.9790281600
6035328843,7580,-2,0,2416.2003966157,46031.3218261481,-3295.0609704400,18157.7809626954,56626.4290086026,53923.7280225939,40069.0652090288,55792.8200992629,38060.5434944658,22394.8285180771
6035360301,7581,-2,0,2408.5347476173,46021.3443147533,-3304.9776433507,18150.2978291493,56614.8818643177,53914.1520451943,40060.7546720987,55783.7551651298,38052.3668022007,22390.2899671621
6035360301,7581,-2,0,2391.0741026763,46019.3488124744,-3314.9186516550,18127.6294099682,56606.5834950844,53923.2169793274,40058.9538529689,55781.1634457065,38051.7097465723,22388.8298435434
6035360301,7581,-2,0,2402.0858683011,46025.1649715557,-3307.4355181089,18145.2482349678,56615.0522120732,53927.7798656360,40064.3441426615,55786.8092570323,38055.4939002842,22390.8253458223
6035360301,7581,-2,0,2419.3396623960,46025.5421701572,-3300.0740615310,18160.8107192043,56617.4857514378,53922.7789422417,40063.5775777616,55785.9940213452,38054.1797890274,22391.4824014508
6035360301,7581,-2,0,2402.5847438708,46023.4249909100,-3306.1214068520,18140.4298270259,56610.0147855885,53929.3251631325,40060.7181690083,55781.0539364351,38052.6101561372,22390.6428303700
6035360301,7581,-2,0,2388.6405633117,46025.4326608858,-3305.0749849253,18138.7020140770,56613.9814547528,53929.7145294308,40064.3198072678,55784.6799100883,38057.4407317759,22389.7424208051
6035360301,7581,-2,0,2397.7298328385,46022.7801029784,-3298.4557578536,18152.0256420982,56617.6439314965,53921.9880419483,40061.6429139668,55786.2008721912,38056.8931854189,22389.9127685606
6035360301,7581,-2,0,2396.5373985498,46018.6917568459,-3301.0839803673,18134.4311524922,56611.6574246596,53926.3805805013,40056.5568166948,55781.0661041319,38052.5979884404,22390.1074517098
6035389296,7582,-2,0,2394.6635732391,46019.2758062934,-3300.5120986167,18124.8795104862,56613.5677530608,53927.6703563646,40057.9561018294,55782.7087432030,38052.8291746800,22391.8474323555
6035389296,7582,-2,0,2405.6023326829,46016.8179315352,-3297.8960437997,18139.7241006102,56616.8651988998,53915.9041935368,40055.8389225822,55782.7817493840,38049.1301948458,22388.7081665752
6035389296,7582,-2,0,2399.8470120857,46010.8557600919,-3303.1646565241,18128.9191858314,56608.1044571873,53914.2493867689,40051.6045640879,55776.2233607964,38044.2874515103,22386.8951797485
6035389296,7582,-2,0,2382.4715410225,46011.2816294807,-3309.0294863927,18113.3080308076,56603.7970925120,53919.4084902218,40054.5004759317,55776.1868577059,38046.5384754225,22387.9537693721
6035389296,7582,-2,0,2392.8627541093,46015.0292801022,-3302.8604641035,18135.0395373333,56609.2847237791,53912.5094061232,40057.8465925580,55781.1269426160,38047.7187420144,22385.3012114647
6035389296,7582,-2,0,2406.8677731525,46013.6178272707,-3303.2863334923,18143.7516082586,56607.1310414414,53907.2042903084,40055.4617239807,55777.6469813247,38042.8151601947,22381.6509024178
6035389296,7582,-2,0,2398.1922053178,46012.7295854027,-3311.7915535715,18121.7037416154,56601.9841056853,53913.1542940548,40055.9119287632,55771.3319466736,38040.2721115587,22382.8555044033
6035389296,7582,-2,0,2397.3404665401,46015.9540250608,-3308.4941077325,18125.7312492638,56606.5226566003,53910.9032701426,40059.6960824751,55779.9953468115,38041.5010489378,22386.0434409709
6035443687,7583,-2,0,2407.3788164191,46013.9585227818,-3305.1236557126,18139.7727713975,56607.6177493144,53900.5607278431,40055.7415810077,55777.9755091389,38037.9480814655,22386.5301488438
6035443687,7583,-2,0,2400.6622477728,46012.3888898916,-3309.5648650529,18126.2544602272,56603.0548630058,53908.6765816240,40054.3787989635,55776.5397209138,38037.0598395975,22386.9560182326
6035443687,7583,-2,0,2398.5815716161,46017.0612854716,-3306.2187484266,18125.8164231415,56606.9850290796,53911.0006117171,40057.9561018294,55782.6722401125,38043.0706818280,22389.6207438369
6035443687,7583,-2,0,2409.3134802139,46013.7516719358,-3303.1038180400,18145.2725703614,56609.1873822045,53894.7567364585,40054.6829913841,55779.6424836036,38039.6758944144,22387.7469185261
6035443687,7583,-2,0,2399.0561117922,46003.8228313283,-3316.1840921246,18132.9710288734,56598.6379890590,53891.7999861305,40049.8402480485,55768.2291839837,38032.7524749222,22385.3620499488
6035443687,7583,-2,0,2378.6995550074,46000.4280439147,-3328.4856336126,18113.9894218296,56590.7776569114,53894.8175749426,40048.0515966156,55762.9119004721,38031.4748667557,22381.8090824765
6035443687,7583,-2,0,2391.2566181287,46004.1148560520,-3320.7104753427,18137.1567165805,56598.0417719147,53893.7954884095,40052.8091660733,55769.0930904581,38037.7168952259,22382.1132748971
6035443687,7583,-2,0,2401.1367879489,46001.4622981446,-3320.6739722523,18141.9629568256,56595.4135494010,53894.1240162237,40049.6577325962,55766.6230480031,38037.4735412895,22383.7072431809
6035448515,7584,-2,0,2391.0375995859,46003.5064712109,-3324.4581259642,18123.1760329310,56592.9678423395,53909.2362956778,40052.4563028655,55765.3819429271,38041.4645458474,22389.2192098417
6035448515,7584,-2,0,2390.9524257081,46009.5903196224,-3316.2327629119,18132.9101903893,56599.9521003159,53908.0073582987,40059.1850392086,55773.8263245223,38048.9720147871,22391.3485567857
6035448515,7584,-2,0,2394.3958839090,46006.6822400817,-3310.4774423147,18140.5636716909,56600.7430006094,53899.1979457989,40056.2526242742,55771.4536236418,38045.1148548943,22389.9127685606
6035448515,7584,-2,0,2382.5688825971,46001.6083105065,-3317.4982033815,18117.7249047543,56592.4689667698,53900.7310755986,40050.5094713738,55763.1552544085,38037.6925598323,22384.7901681982
6035448515,7584,-2,0,2386.3287009154,46003.8958375092,-3315.4296949216,18120.5721458109,56598.6866598463,53901.6436528603,40053.3080416431,55768.0466685314,38038.9336649082,22382.7459951319
6035448515,7584,-2,0,2402.1953775725,46001.1216026336,-3312.9474847697,18139.9917899403,56601.7772548394,53892.8707434510,40051.5802286942,55768.6185502820,38036.6583056023,22383.5247277286
6035448515,7584,-2,0,2394.0065176107,45998.1648523056,-3321.2093509125,18130.0872847264,56595.8394187898,53900.7189079018,40050.0714342882,55764.4085271813,38036.0012499739,22388.3553033673
6035448515,7584,-2,0,2383.4814598588,46003.0197633380,-3320.7348107364,18123.0421882659,56596.2896235722,53911.5238226805,40058.8078406070,55769.5554629374,38042.7664894074,22393.6360837884
6035513944,7585,-2,0,2395.5518151072,46004.9300917392,-3310.4896100115,18146.4163338628,56603.3347200327,53901.2786219556,40061.7645909350,55774.0210076714,38045.2852026498,22391.5675753285
6035513944,7585,-2,0,2401.7451727901,46001.4988012351,-3311.6577089065,18146.5136754374,56601.8502610203,53896.7157356470,40060.8641813701,55769.0930904581,38040.4546270111,22388.8420112402
6035513944,7585,-2,0,2389.9181714782,46001.2919503891,-3317.2426817482,18126.0354416844,56595.3770463105,53901.3029573493,40061.5212369986,55768.6063825852,38038.6781432749,22385.8000870345
6035513944,7585,-2,0,2393.7874990678,45999.5154666530,-3311.7428827842,18137.4609090011,56597.9687657338,53896.5088848010,40064.3198072678,55770.8209034070,38038.7998202432,22381.7969147797
6035513944,7585,-2,0,2403.1079548342,45995.2446050681,-3310.7207962511,18146.5501785278,56593.4545502125,53893.4547928985,40065.9746140358,55770.8330711038,38037.4735412895,22381.4927223592
6035513944,7585,-2,0,2396.1845353420,45996.5465486282,-3315.4175272248,18129.0773658901,56590.4856321877,53906.4742284990,40069.4910784176,55771.8673253338,38041.4158750601,22384.1209448729
6035513944,7585,-2,0,2402.5117376899,46003.1779433967,-3308.1047414342,18136.2684747124,56600.0251064969,53907.3989734575,40075.5262560418,55778.9124217943,38048.8746732126,22387.9537693721
6035513944,7585,-2,0,2416.4437505522,46004.0540175679,-3303.5175197319,18150.6385246603,56603.1765399740,53900.9744295350,40072.6060088043,55777.6591490215,38046.9886802050,22386.1164471519
6035515341,7586,-2,0,2404.6532523307,45999.2842804133,-3310.1975852877,18127.9214346919,56595.2066985550,53904.8072540343,40065.5122415565,55772.4270393876,38045.4433827085,22380.2881203737
6035515341,7586,-2,0,2389.9790099623,46002.3140369222,-3310.3557653464,18116.3377873165,56598.4311382130,53911.0979532917,40066.0962910040,55776.7465717598,38050.8093370074,22379.0591829946
6035515341,7586,-2,0,2400.3337199586,46003.3604588490,-3301.7167006021,18138.8480264389,56605.6830855195,53899.8793368210,40068.4568241876,55781.8935075159,38052.4398083817,22380.6774866720
6035515341,7586,-2,0,2403.2417994993,45999.0652618705,-3308.0804060405,18135.8912761109,56601.1932053918,53897.3119527913,40063.9791117568,55776.3085346741,38045.6502335545,22379.6919032294
6035515341,7586,-2,0,2394.3958839090,45999.0287587800,-3314.5657884472,18121.7767477963,56597.9322626433,53903.5661489583,40064.9403598058,55773.9723368841,38044.7376562928,22380.8234990339
6035515341,7586,-2,0,2403.4729857389,46000.9269194844,-3309.0416540895,18138.8845295294,56601.7894225362,53896.3872078328,40066.4004834246,55775.5176343807,38044.2874515103,22379.5337231707
6035515341,7586,-2,0,2405.5901649861,45997.6051382518,-3308.6401200944,18141.9386214319,56599.0030199637,53896.1925246836,40063.0300314046,55774.4225416666,38039.8705775636,22379.8379155912
6035515341,7586,-2,0,2393.8605052488,45999.2842804133,-3310.9398147939,18121.3143753171,56594.3184566869,53902.9942672076,40062.7136712872,55772.5243809622,38040.7101486444,22382.6486535573
6035562560,7587,-2,0,2399.0561117922,46001.5839751129,-3305.3426742554,18129.4667321884,56599.5505663208,53896.3263693487,40063.8330993949,55774.3252000920,38041.4645458474,22379.6067293516
6035562560,7587,-2,0,2413.3896586496,45997.8363244914,-3303.6513643970,18143.0337141460,56600.6578267316,53893.6008052603,40060.2071257417,55772.0985115734,38038.6538078813,22379.7284063198
6035562560,7587,-2,0,2404.7140908149,45996.4613747504,-3309.0294863927,18123.3220452928,56593.4788856061,53901.2786219556,40058.1386172818,55769.4337859692,38039.5420497494,22378.5846428185
6035562560,7587,-2,0,2390.5873948034,45999.5763051371,-3308.6157847007,18119.3432084317,56591.3982094494,53904.9897694866,40060.2557965290,55773.0354242288,38044.4091284785,22378.5238043344
6035562560,7587,-2,0,2398.8735963398,46002.2410307413,-3299.2223227534,18143.1432234174,56596.6911575674,53902.9455964204,40061.5699077859,55777.8416644738,38045.9909290655,22382.3079580463
6035562560,7587,-2,0,2401.0759494648,46000.8417456067,-3301.5098497561,18136.1833008347,56595.2310339486,53907.3746380639,40060.2436288322,55775.1161003855,38043.9467559993,22386.3598010883
6035562560,7587,-2,0,2402.6942531422,46004.7475762868,-3303.2254950082,18124.2102871609,56598.3337966385,53910.5504069347,40063.2977207347,55777.4401304787,38049.3978841759,22390.2777994653
6035562560,7587,-2,0,2413.1463047131,46003.0075956411,-3300.6824463722,18134.9908665460,56601.0106899395,53898.9302564688,40060.1341195607,55777.6104782342,38048.1811144936,22385.8730932154
6035571175,7588,-2,0,2406.8069346684,45994.0521707795,-3308.1290768278,18126.1692863494,56591.9214204128,53894.8784134267,40052.1156073544,55767.5234575680,38040.1626022873,22380.8234990339
6035571175,7588,-2,0,2381.5832991544,45992.2026808624,-3319.5302087509,18107.2850208802,56587.0178385931,53904.9289310025,40052.1521104449,55765.7834769223,38038.8484910304,22384.1331125697
6035571175,7588,-2,0,2389.9668422654,46000.9025840908,-3306.1335745489,18127.5564037872,56597.8957595528,53900.4025477844,40057.6519094089,55772.2445239353,38042.8394955884,22388.6351603942
6035571175,7588,-2,0,2404.7505939053,46000.1238514941,-3297.7256960442,18141.5005843463,56599.8547587413,53889.1595959200,40055.8024194918,55768.3386932551,38037.4857089863,22384.2547895380
6035571175,7588,-2,0,2393.4224681632,45996.2423562076,-3302.9699733749,18117.2625322750,56591.8605819287,53894.9514196077,40053.2107000685,55760.4175226234,38032.8498164967,22381.3588776941
6035571175,7588,-2,0,2385.1849374140,45997.2644427407,-3302.5441039861,18113.0038383870,56590.7411538209,53893.1627681747,40054.5004759317,55761.6464600025,38033.3851951569,22381.5535608433
6035571175,7588,-2,0,2394.5662316645,45993.4559536351,-3301.8383775704,18123.6384054102,56587.6992296152,53883.7814739242,40050.3756267088,55760.0524917187,38032.5091209857,22385.2768760711
6035571175,7588,-2,0,2390.2345315955,45990.6695510627,-3313.7748881537,18105.7153879900,56579.0723325677,53890.5102102673,40045.6302249478,55754.7473759039,38031.1463389415,22389.1340359640
6035611555,7589,-2,0,2387.3994582358,45995.7921514251,-3315.1498378947,18096.6139507665,56583.1850140939,53897.3484558818,40049.6577325962,55758.5315296158,38036.5366286341,22392.9303573727
6035611555,7589,-2,0,2402.2197129661,45998.8584110245,-3304.2840846318,18115.6320609007,56592.5663083444,53889.2812728882,40052.7361598924,55763.1430867117,38039.4568758716,22391.1295382429
6035611555,7589,-2,0,2402.2197129661,45997.9458337628,-3305.2818357713,18114.1110987979,56591.0210108479,53894.5498856125,40051.9817626894,55763.5689561005,38040.9778379745,22391.0200289715
6035611555,7589,-2,0,2389.0055942164,46001.7908259589,-3305.5495251014,18102.8803146303,56589.9745889211,53906.8879301910,40057.3598846851,55767.0245819982,38045.6137304640,22392.1029539888
6035611555,7589,-2,0,2401.7695081837,46007.5704819497,-3292.7612757404,18126.4248079827,56600.6091559444,53905.6954959023,40063.6262485489,55774.8484110554,38050.1522813790,22393.2345497933
6035611555,7589,-2,0,2418.9746314913,46004.7597439836,-3289.4881652951,18137.9111137835,56600.0129388000,53901.4124666207,40062.5798266222,55773.6073059795,38048.0716052222,22392.1272893824
6035611555,7589,-2,0,2412.8421122926,46006.0251844532,-3296.8374541761,18118.5644758351,56597.8592564624,53910.0271959713,40066.4491542119,55773.4247905271,38053.4497272180,22395.6194183706
6035611555,7589,-2,0,2409.7515172995,46004.4068807758,-3300.5851047976,18120.6451519918,56595.2066985550,53892.2745263066,40066.5099926960,55770.7235618324,38051.1378648216,22391.6284138127
6035641384,7590,-2,0,2409.5203310599,45991.4726190530,-3309.4188526911,18128.3108009902,56582.2359337417,53870.1658211793,40054.3787989635,55755.6599531656,38036.0134176707,22381.4805546623
6035641384,7590,-2,0,2394.0308530043,45982.5050264945,-3326.1616035194,18105.7397233837,56564.8969657690,53871.6502801917,40044.9123308353,55742.2876543572,38023.6145346081,22377.1366868965
6035641384,7590,-2,0,2391.6338167302,45983.6731253895,-3329.5563909330,18101.4080233147,56564.6049410453,53877.0649052780,40045.4598771923,55743.2245670126,38022.7262927401,22378.8644998454
6035641384,7590,-2,0,2412.7934415053,45988.7227195710,-3323.3873686438,18128.5419872299,56575.1665018876,53876.2618372876,40050.2296143469,55749.4300923923,38022.0935725053,22381.3953807846
6035641384,7590,-2,0,2411.3941563706,45988.1630055172,-3328.4978013094,18125.0133551512,56574.0714091735,53875.3005892386,40049.9254219263,55746.6558575166,38018.3459218838,22384.5224788681
6035641384,7590,-2,0,2392.5463939919,45988.7713903583,-3333.5960662782,18110.7406467779,56570.0317338283,53875.1180737863,40051.5923963910,55748.3106642846,38018.0782325537,22382.6364858605
6035641384,7590,-2,0,2395.6856597722,45985.4374414288,-3330.3472912265,18124.9038458798,56574.0470737799,53861.3929117700,40049.9375896231,55746.8748760594,38014.9146313797,22377.6112270726
6035641384,7590,-2,0,2403.2783025897,45981.7506292915,-3332.9268429530,18126.6924973128,56573.1223288213,53857.9981243564,40045.5450510700,55740.2191458973,38008.5752613350,22375.4940478254
6035680834,7591,-2,0,2392.2908723586,45980.9353936043,-3342.5879942304,18103.6833826206,56571.0781557551,53866.5520152229,40044.5838030210,55737.9194511978,38008.1250565525,22374.3989551114
6035680834,7591,-2,0,2392.6072324760,45983.0039020642,-3342.5758265336,18111.4585408905,56577.2593457411,53862.2081474571,40047.9299196473,55744.6481875408,38009.7920310173,22375.9929233952
6035680834,7591,-2,0,2394.6149024518,45978.3680095747,-3342.5636588368,18120.0854379379,56571.9298945327,53853.7637658620,40044.2917782973,55739.9757919608,38004.4017413247,22374.5693028669
6035680834,7591,-2,0,2381.7414792131,45973.9876387184,-3349.0247058497,18100.4832783562,56563.0109727615,53860.1761420877,40042.6978100135,55736.5323337599,38002.6739283758,22375.5548863096
6035680834,7591,-2,0,2383.5788014334,45975.9709733006,-3348.1729670721,18101.9555696718,56566.4057601751,53859.9814589385,40044.8879954416,55739.0997177896,38006.7014360242,22374.3016135368
6035680834,7591,-2,0,2402.8889362914,45974.1701541708,-3345.0093658982,18124.5023118847,56569.9952307378,53850.3811461452,40045.5450510700,55742.0929712080,38005.4846663419,22373.9122472385
6035680834,7591,-2,0,2393.6536544028,45970.0696403414,-3351.4460775175,18112.7483167537,56563.3881713630,53855.4429080236,40043.0750086150,55738.0167927723,38003.1241331583,22376.1754388475
6035680834,7591,-2,0,2372.5913712023,45973.7564524788,-3352.7358533807,18097.9523974170,56565.6148598816,53862.4393336968,40047.4310440776,55740.9370400099,38008.7821121810,22380.4949712197
6035696235,7592,-2,0,2379.3687783327,45974.3039988358,-3343.9021054873,18112.5658013014,56570.4819386107,53852.6200023607,40047.1146839602,55741.8861203620,38006.8109452956,22377.1610222902
6035696235,7592,-2,0,2391.6094813365,45970.8362052413,-3343.0868698001,18108.5991321371,56566.4057601751,53855.0778771189,40042.1502636564,55736.5079983663,38001.6396741459,22374.1312657813
6035696235,7592,-2,0,2392.5342262951,45974.2066572612,-3343.4397330080,18091.3818411326,56564.4345932897,53868.1824865972,40044.3404490846,55738.3939913739,38006.3972436037,22376.7716559918
6035696235,7592,-2,0,2398.1070314400,45977.8569663081,-3337.6114062298,18105.9587419265,56571.1754973297,53862.9017061760,40046.8713300237,55744.9523799614,38009.5851801713,22378.7184874835
6035696235,7592,-2,0,2399.3359688191,45974.7542036183,-3338.5239834915,18111.6045532523,56569.7032060141,53855.6984296569,40043.1480147959,55741.1438908558,38005.6428464006,22377.1366868965
6035696235,7592,-2,0,2384.7103972379,45974.2796634422,-3343.8412670032,18090.7247855042,56568.3160885763,53864.9093761518,40041.6513880867,55740.1096366259,38008.4170812763,22378.5846428185
6035696235,7592,-2,0,2389.8938360845,45981.5316107487,-3335.3117115303,18100.3737690848,56579.0845002646,53868.2433250813,40046.8348269333,55747.3980870228,38013.8195386657,22380.7991636402
6035696235,7592,-2,0,2409.0701262775,45982.6388711595,-3326.4292928495,18122.6406542708,56585.7645658204,53859.4460802783,40046.5306345127,55749.4665954827,38013.1259799467,22379.3025369310
6035756806,7593,-2,0,2400.8204278315,45977.3215876479,-3333.7299109433,18104.4864506109,56575.1178311003,53863.7047741664,40041.7974004486,55742.7256914428,38010.1448942251,22375.3115323731
6035756806,7593,-2,0,2388.1416877420,45978.2828356969,-3335.8470901905,18093.4381818957,56571.0416526646,53869.5817717318,40043.4887103070,55744.6116844504,38014.3670850227,22378.1709411265
6035756806,7593,-2,0,2398.7154162811,45976.4576811735,-3330.6271482534,18109.7672310321,56574.8866448606,53858.2658136865,40044.3039459941,55746.0839757660,38014.8172898051,22379.2173630533
6035756806,7593,-2,0,2398.3503853765,45972.3328319505,-3337.2098722347,18103.0506623858,56569.7640444982,53857.5722549676,40041.6878911772,55738.5035006453,38012.0673903232,22375.9564203047
6035756806,7593,-2,0,2392.1570276936,45978.5261896334,-3340.6046596483,18091.3575057390,56573.4021858483,53870.0441442111,40046.3237836667,55742.4945052032,38017.5550215903,22376.0780972729
6035756806,7593,-2,0,2407.4518226000,45985.9241493017,-3329.7145709917,18115.3035330865,56586.1417644219,53868.6813621669,40050.7041545230,55750.9632221920,38021.8015477815,22378.3291211852
6035756806,7593,-2,0,2412.6595968402,45986.0093231795,-3329.0331799696,18122.3729649406,56582.4914553750,53863.0720539316,40047.6013918331,55749.1502353653,38018.2607480060,22377.3800408330
6035756806,7593,-2,0,2393.3129588918,45980.2905056727,-3337.0273567823,18098.6824592264,56572.0150684104,53868.6691944701,40044.1092628449,55745.4877586216,38017.5306861967,22376.5526374490
6035766230,7594,-2,0,2393.1547788331,45980.1566610077,-3333.3527123418,18102.9533208112,56574.1930861417,53864.1306435552,40045.8492434906,55748.4566766464,38020.3779272532,22376.8081590823
6035766230,7594,-2,0,2401.5139865504,45974.1944895644,-3334.4964758431,18113.2471923234,56574.3269308068,53854.0557905858,40041.6392203899,55744.6603552377,38014.1724018735,22374.5327997764
6035766230,7594,-2,0,2388.2633647102,45969.8384541018,-3339.7285854770,18091.8320459151,56565.8582138180,53864.3618297948,40040.2155998616,55737.9559542882,38013.2598246118,22376.6378113268
6035766230,7594,-2,0,2378.9307412470,45971.7001117157,-3333.9002586988,18087.4030042715,56569.3138397157,53867.3185801228,40047.5527210458,55742.5310082937,38017.4333446221,22380.2151141927
6035766230,7594,-2,0,2391.6459844270,45974.3526696231,-3324.4216228737,18109.9619141812,56576.2250915112,53860.9548746844,40051.4828871196,55745.5851001962,38018.1877418251,22382.4661381050
6035766230,7594,-2,0,2390.1736931114,45972.3084965569,-3328.7168198522,18107.0903377310,56573.4143535451,53861.4659179509,40048.8789999995,55742.9082068952,38015.8515440351,22380.2394495864
6035766230,7594,-2,0,2381.5467960640,45976.3725072957,-3331.8682533294,18096.0420690158,56572.2462546501,53865.1040593010,40049.0615154519,55745.3660816534,38016.0218917906,22375.2628615858
6035766230,7594,-2,0,2393.6414867060,45979.6456177411,-3324.0200888786,18114.4274589153,56579.4373634724,53862.4028306063,40049.5117202343,55750.3183342603,38017.5793569839,22372.3912851356
6035804322,7595,-2,0,2394.3715485153,45975.8006255450,-3328.6194782777,18110.5824667192,56573.9497322053,53860.4925022051,40043.3183625514,55745.2809077756,38014.4765942941,22372.6711421625
6035804322,7595,-2,0,2378.0303316821,45977.5406061907,-3334.9588483224,18088.2669107459,56570.4941063076,53871.9423049155,40044.0970951481,55745.2930754725,38016.2165749398,22377.4652147108
6035804322,7595,-2,0,2390.0885192337,45986.6177080206,-3323.0831762232,18104.9001523029,56583.2701879717,53870.2996658444,40051.5072225133,55754.1146556691,38020.6699519770,22382.9285105843
6035804322,7595,-2,0,2407.0989593921,45984.0138209005,-3316.9384893276,18118.8686682556,56584.7789823777,53857.0368763074,40050.3391236183,55752.6910351408,38015.0484760448,22382.6243181637
6035804322,7595,-2,0,2396.4400569752,45981.8236354724,-3323.7158964580,18098.5121114709,56577.6000412522,53861.8187811588,40047.0781808697,55747.1669007832,38011.5320116629,22382.0524364130
6035804322,7595,-2,0,2391.1349411604,45984.4275225925,-3323.7402318517,18099.9600673928,56580.6663008516,53866.5641829198,40049.9254219263,55753.2750845883,38016.7154505095,22382.5391442859
6035804322,7595,-2,0,2401.7695081837,45983.0160697610,-3322.5843006535,18117.1651907004,56583.0876725193,53860.2856513591,40048.3436213393,55754.1633264564,38014.2940788417,22380.3367911610
6035804322,7595,-2,0,2399.2386272445,45981.6411200201,-3326.0034234607,18103.7807241952,56577.0159918047,53866.1383135310,40046.7374853587,55750.3913404413,38014.6834451401,22379.3633754151
6035823078,7596,-2,0,2395.9046783150,45984.8533919813,-3324.8596599594,18094.6792869716,56579.1575064455,53869.0342253748,40049.0615154519,55750.0141418398,38018.4554311552,22379.5093877770
6035823078,7596,-2,0,2404.7749292990,45982.2981756485,-3320.1142581984,18112.3589504554,56584.5599638349,53852.2671391528,40046.2872805762,55748.5175151305,38017.0318106269,22377.4165439235
6035823078,7596,-2,0,2393.4954743441,45972.7952044298,-3328.1084350111,18103.2453455350,56572.3679316183,53846.2441292254,40036.6748000861,55735.7536011633,38008.3562427922,22375.1168492239
6035823078,7596,-2,0,2372.2750110849,45970.0939757351,-3334.8858421415,18082.7184409947,56563.3029974852,53852.3523130306,40036.5652908147,55733.0767078622,38006.7987775988,22375.3115323731
6035823078,7596,-2,0,2384.7834034189,45976.4820165671,-3324.9204984435,18104.2187612808,56571.8933914422,53856.2094729234,40043.9632504831,55741.2168970368,38013.6613586070,22379.6432324421
6035823078,7596,-2,0,2409.3134802139,45980.6312011838,-3319.7735626874,18120.1706118157,56576.6752962936,53857.4019072121,40044.8514923511,55743.7112748855,38014.3305819322,22388.0876140372
6035823078,7596,-2,0,2407.5734995682,45981.8844739565,-3326.5996406051,18100.1304151483,56575.5071973986,53862.7435261174,40046.1169328207,55744.0763057902,38015.3283330717,22391.3972275730
6035823078,7596,-2,0,2404.5559107562,45981.6411200201,-3328.6559813681,18099.8870612119,56577.7338859172,53850.8435186245,40046.8956654174,55744.5508459663,38012.8582906166,22387.2237075628
6035860780,7597,-2,0,2405.2251340814,45972.5640181901,-3331.0530176422,18110.5216282351,56573.7063782688,53837.1183566082,40040.7388108250,55739.3674071197,38002.0655435347,22381.0303498799
6035860780,7597,-2,0,2392.0596861190,45968.8893737496,-3338.2806295551,18094.9226409081,56567.5251882828,53850.1256245120,40040.3372768298,55736.0334581902,38000.7392645810,22377.0150099283
6035860780,7597,-2,0,2391.1957796446,45975.8857994228,-3332.0264333881,18093.2800018370,56573.1953350023,53861.6119303128,40044.9488339257,55742.8595361079,38008.8064475746,22377.8667487059
6035860780,7597,-2,0,2410.0678774169,45979.5726115602,-3317.2548494450,18112.8821614188,56583.3796972431,53856.0756282584,40047.0660131729,55748.0916457417,38012.9191291008,22380.1542757086
6035860780,7597,-2,0,2407.5978349619,45975.4355946404,-3316.2936013960,18098.7554654073,56574.8988125575,53856.2581437107,40041.7000588740,55742.7743622301,38010.5220928266,22382.7216597383
6035860780,7597,-2,0,2391.6094813365,45978.0273140636,-3316.0259120659,18081.6476836743,56573.2196703959,53862.6340168459,40044.0362566640,55744.4048336044,38014.5739358687,22382.9771813715
6035860780,7597,-2,0,2399.2751303350,45980.6068657901,-3307.6302012581,18102.7829730557,56580.8123132134,53855.2482248744,40050.6068129484,55749.2354092431,38015.5838547050,22381.5535608433
6035860780,7597,-2,0,2410.1043805074,45980.8015489393,-3305.7442082505,18109.8889080003,56581.6518842942,53855.6862619600,40049.5603910216,55749.6369432383,38014.0020541180,22384.8023358950
6035917934,7598,-2,0,2405.2616371719,45984.5978703480,-3310.0637406227,18091.2966672549,56581.0921702404,53867.2577416387,40050.9840115499,55748.9433845193,38016.8857982650,22390.1804578907
6035917934,7598,-2,0,2406.9651147271,45987.8223100061,-3304.6491155365,18104.8758169093,56588.6361422706,53862.7678615110,40055.6929102204,55757.4242692049,38021.3391753022,22390.6428303700
6035917934,7598,-2,0,2408.8146046442,45983.2229206070,-3303.9190537271,18117.9925940844,56585.8984104854,53849.3590596121,40053.2715385526,55754.1998295469,38015.1944884066,22386.3719687851
6035917934,7598,-2,0,2397.6811620512,45981.7384615946,-3310.3435976496,18100.5197814466,56581.3841949641,53862.3906629095,40053.4053832177,55752.7397059281,38014.7686190178,22387.3575522278
6035917934,7598,-2,0,2407.5004933873,45992.2026808624,-3300.5364340103,18108.1002565673,56593.8074134203,53873.6701178643,40064.7578443535,55765.1020859002,38024.5757826571,22392.5896618617
6035917934,7598,-2,0,2435.7660531070,45997.6538090390,-3288.1253832509,18137.3635674265,56607.1310414414,53868.6205236828,40067.9457809211,55772.0985115734,38030.0147431370,22392.0664508983
6035917934,7598,-2,0,2430.2297510526,45992.9449103686,-3295.4868398288,18123.9547655276,56598.8570076019,53865.5785994771,40061.2292122748,55765.8443154064,38026.7051296011,22388.6473280910
6035917934,7598,-2,0,2406.6730900033,45989.9029861628,-3305.9023883092,18100.7266322926,56591.8970850191,53863.4127494426,40056.1674503965,55759.2859268188,38023.4685222463,22385.5932361885
6035929310,7599,-2,0,2406.4297360669,45986.6420434143,-3305.0384818348,18111.7749010079,56589.6338934101,53848.8115132551,40051.7505764497,55756.5360273369,38018.2972510965,22382.5999827700
6035929310,7599,-2,0,2408.9241139156,45981.9331447438,-3309.4188526911,18109.3656970369,56584.3044422016,53848.0814514457,40048.4652983076,55751.1822407348,38011.4346700884,22384.9118451664
6035929310,7599,-2,0,2401.6599989123,45982.5780326754,-3313.8722297283,18088.9117986776,56580.0092452231,53855.6254234759,40049.4508817502,55747.6171055657,38010.8506206409,22386.5666519343
6035929310,7599,-2,0,2409.2526417298,45985.1332490082,-3307.2530026566,18102.7708053589,56586.6893107789,53852.2914745464,40054.4031343571,55753.3480907693,38012.6027689834,22386.1894533328
6035929310,7599,-2,0,2414.5942606351,45981.2760891154,-3307.1191579915,18111.3246962254,56585.1683486760,53847.7285882378,40054.4883082349,55750.5008497127,38009.5730124745,22385.2525406774
6035929310,7599,-2,0,2395.0651072343,45977.8204632176,-3320.1385935921,18088.4980969856,56576.2615946016,53851.6344189180,40053.6365694573,55745.0132184455,38009.4148324158,22383.6585723936
6035929310,7599,-2,0,2398.3868884669,45983.8434731450,-3318.5567930051,18098.4026021995,56584.5842992285,53857.9129504786,40061.8619325096,55752.8735505932,38017.4333446221,22383.3543799731
6035929310,7599,-2,0,2418.8651222199,45981.6167846264,-3313.6045403981,18121.9957663391,56589.1958563244,53851.6709220085,40061.5942431795,55754.8690528721,38018.0417294632,22383.6707400905
6035953151,7600,-2,0,2413.1463047131,45976.0439794815,-3316.0015766723,18105.7153879900,56579.8754005581,53856.7935223709,40055.9484318537,55748.0673103481,38016.3869226953,22387.0046890199
6035953151,7600,-2,0,2400.4432292300,45978.7573758730,-3308.6887908817,18092.6229462086,56580.8731516975,53866.9048784308,40057.2017046264,55750.3183342603,38022.7627958305,22392.7478419204
6035953151,7600,-2,0,2409.5933372408,45981.9453124406,-3295.5355106161,18109.4508709147,56588.7091484515,53861.5510918287,40058.0412757072,55756.3900149750,38025.3058444665,22394.4878225661
6035953151,7600,-2,0,2410.7492684390,45981.6289523232,-3294.5134240830,18103.0141592953,56589.4270425641,53865.9436303818,40054.9141776237,55753.5549416152,38023.7362115764,22396.5198279355
6035953151,7600,-2,0,2403.3878118611,45988.1995086076,-3290.7779411583,18091.1141518025,56594.4036305647,53878.9752336792,40059.6109085974,55758.5558650095,38028.1044147358,22400.1944723760
6035953151,7600,-2,0,2414.5455898478,45995.6583067601,-3279.4011446289,18115.7415701721,56606.2914703607,53869.6182748223,40064.5388258107,55767.2314328442,38033.9814123013,22400.6325094616
6035953151,7600,-2,0,2416.3585766744,45992.1175069846,-3284.0248694216,18122.0809402169,56601.8380933235,53858.8620308308,40060.4139765877,55761.6099569120,38026.4252725742,22395.9722815785
6035953151,7600,-2,0,2405.3711464433,45993.7601460557,-3290.7414380678,18105.7883941710,56595.8394187898,53871.5286032235,40062.1782926270,55762.0844970881,38028.7371349706,22397.9921192511
6035999889,7601,-2,0,2408.2548905903,45997.5442997676,-3284.2073848739,18116.9461721576,56601.4365593283,53867.1969031545,40066.2666387595,55765.4671168049,38031.0611650638,22396.5806664196
6035999889,7601,-2,0,2424.7299520886,45996.2301885108,-3279.0726168146,18134.9056926683,56600.8281744872,53856.2703114075,40064.1007887250,55764.2016763353,38025.7682169458,22397.3593990163
6035999889,7601,-2,0,2415.7623595301,45991.2170974197,-3288.0888801604,18111.3246962254,56590.4126260067,53865.2500716629,40059.8055917465,55755.7572947402,38021.7772123879,22398.3936532462
6035999889,7601,-2,0,2405.9308604971,45992.1540100751,-3293.5278406403,18099.2300055834,56591.7997434445,53864.4470036726,40061.1927091843,55756.5116919432,38022.1665786862,22398.8073549382
6035999889,7601,-2,0,2410.3599021407,45988.1995086076,-3292.8342819214,18112.2251057903,56590.4247937035,53849.4685688835,40057.5180647438,55753.6522831898,38021.4486845736,22395.5464121896
6035999889,7601,-2,0,2406.7825992748,45982.2495048612,-3296.0952246699,18101.1768370751,56583.2458525780,53849.1157056757,40052.8821722543,55747.8969625926,38016.7884566905,22393.5022391234
6035999889,7601,-2,0,2402.9984455628,45986.6785465048,-3294.9149580781,18089.6905312742,56586.7501492630,53859.5555895497,40056.7149967535,55753.1777430137,38021.6798708133,22396.7631818719
6035999889,7601,-2,0,2421.1891523131,45992.4582024957,-3285.6796761895,18110.3756158732,56595.9732634548,53854.8710262729,40060.4139765877,55759.7969700854,38025.8047200363,22396.8605234465
6036041423,7602,-2,0,2425.1679891742,45987.5302852824,-3289.8045254125,18108.2097658387,56588.6848130579,53849.5294073676,40058.6374928515,55753.9199725199,38022.2760879576,22394.8771888644
6036041423,7602,-2,0,2405.1886309909,45984.7803858004,-3298.2975777949,18085.6021851417,56581.6275489006,53858.3631552611,40057.4328908661,55748.8947137321,38021.4730199673,22393.2345497933
6036041423,7602,-2,0,2406.0647051622,45988.8565642361,-3293.2601513102,18099.7775519404,56588.1372667008,53861.7822780683,40061.3995600303,55753.9199725199,38025.3423475570,22396.2764739990
6036041423,7602,-2,0,2421.6880278829,45991.0710850578,-3287.4196568352,18115.3278684802,56590.8871661828,53856.7813546741,40060.2314611353,55754.1876618500,38023.8578885446,22397.6757591337
6036041423,7602,-2,0,2412.5622552656,45992.9205749749,-3288.9892897253,18098.3174283217,56586.7623169598,53866.6615244943,40057.4085554724,55751.2552469157,38026.3157633028,22401.2165589091
6036041423,7602,-2,0,2402.2683837534,45996.6560578996,-3282.5769134996,18096.5287768887,56590.4247937035,53863.4735879267,40060.3896411940,55757.2417537526,38030.9029850051,22401.4112420583
6036041423,7602,-2,0,2399.7740059047,45992.9814134590,-3277.9045179196,18111.0570068953,56589.8164088624,53848.9575256170,40057.9439341326,55754.2363326373,38028.5911226087,22395.6437537642
6036041423,7602,-2,0,2387.1926073898,45987.8101423093,-3284.4994095977,18095.7135412016,56581.1408410276,53855.4672434172,40052.4197997750,55746.3273297024,38024.2959256302,22396.0696231530
6036048170,7603,-2,0,2384.7347326316,45990.5113710040,-3285.0469559547,18088.1452337777,56579.7780589835,53861.9526258239,40055.6442394331,55748.0308072576,38026.9363158408,22397.9069453733
6036048170,7603,-2,0,2405.1156248100,45992.8110657035,-3278.2087103402,18110.3999512669,56587.3828694978,53851.7682635831,40058.7591698198,55752.3746750234,38028.4086071564,22397.0065358084
6036048170,7603,-2,0,2408.6929276760,45988.4671979377,-3282.2483856854,18110.4607897510,56582.4306168909,53853.5082442287,40057.8465925580,55749.0650614876,38026.3035956060,22395.4247352214
6036048170,7603,-2,0,2394.8947594787,45992.2148485592,-3286.2880610306,18094.4237653383,56581.7857289593,53861.8917873397,40063.8330993949,55752.5571904758,38028.2869301881,22397.5662498623
6036048170,7603,-2,0,2401.0029432839,45996.0598407552,-3281.6156654506,18107.6378840881,56591.7510726573,53852.5469961797,40067.9336132243,55759.0669082760,38029.8565630783,22397.1282127766
6036048170,7603,-2,0,2412.6352614466,45988.7592226615,-3288.2713956128,18108.6843060148,56588.9159992975,53841.3892181931,40060.3774734972,55751.2674146125,38020.1224056199,22393.4900714266
6036048170,7603,-2,0,2408.6685922823,45986.6420434143,-3296.8374541761,18086.0888930146,56582.5766292528,53852.5834992702,40059.3675546609,55745.9257957073,38018.4432634584,22395.3638967373
6036048170,7603,-2,0,2413.0246277449,45991.4239482657,-3291.7878599946,18093.0001448101,56587.4923787692,53853.5812504097,40064.8430182312,55752.4355135075,38024.3445964175,22394.4269840819
6036075396,7604,-2,0,2419.1084761564,45989.2459305344,-3284.3655649326,18110.2174358145,56587.3463664073,53842.1922861834,40063.0908698887,55751.2187438252,38022.9939820702,22395.5707475833
6036075396,7604,-2,0,2403.9840290055,45984.8412242845,-3292.0555493247,18095.6892058079,56580.0579160104,53845.5140674161,40060.9980260352,55748.0064718640,38020.0859025295,22395.1448781945
6036075396,7604,-2,0,2403.2174641056,45987.3112667395,-3293.7711945768,18091.3940088294,56580.3134376437,53848.4586500472,40063.2612176442,55750.6711974682,38021.7407092974,22396.5928341164
6036075396,7604,-2,0,2424.9733060250,45987.2139251650,-3288.6607619111,18109.6820571543,56585.1926840697,53840.3549639631,40062.6771681967,55750.0141418398,38022.6411188623,22394.1836301455
6036075396,7604,-2,0,2427.0296467881,45984.7560504067,-3290.2912332854,18101.6878803416,56580.0944191009,53846.6213278269,40061.3022184557,55747.1182299959,38021.0349828817,22397.1890512607
6036075396,7604,-2,0,2410.3355667470,45989.8299799819,-3292.3232386548,18084.0447199484,56578.9749909932,53856.2094729234,40064.4658196297,55749.0772291844,38025.1476644078,22399.2210566302
6036075396,7604,-2,0,2416.0057134665,45993.7479783589,-3285.7405146736,18102.6369606938,56588.1129313072,53849.7849290009,40069.0287059383,55755.3557607450,38028.7736380611,22399.1115473588
6036075396,7604,-2,0,2425.1679891742,45989.3311044122,-3287.7360169526,18107.8325672372,56586.8718262313,53846.6334955238,40064.2711364806,55750.8293775269,38024.5879503540,22394.7798472898
6036106875,7605,-2,0,2420.6902767434,45989.2459305344,-3291.0577981852,18090.1772391471,56583.4405357272,53856.5501684345,40063.6870870330,55748.8582106416,38027.1066635963,22396.3129770895
6036106875,7605,-2,0,2424.1459026411,45992.9935811559,-3282.0293671426,18097.4413541504,56592.4811344666,53856.8056900678,40068.8461904860,55756.1709964322,38032.7403072253,22396.2278032117
6036106875,7605,-2,0,2429.4266830622,45991.3266066911,-3274.7530844425,18110.1322619368,56592.7853268872,53851.1355433483,40070.3914879825,55756.3413441877,38031.7668914795,22397.9312807669
6036106875,7605,-2,0,2411.2238086151,45988.5645395123,-3280.4719019493,18089.7392020615,56582.1020890767,53856.3798206790,40070.7686865840,55752.0339795124,38030.2215939830,22399.3549012952
6036106875,7605,-2,0,2405.7726804384,45989.6961353168,-3284.6454219595,18090.2867484185,56582.0899213798,53854.1896352508,40074.2364801785,55753.1047368328,38031.0368296701,22397.6149206495
6036106875,7605,-2,0,2426.3969265533,45989.6231291359,-3283.0514536757,18111.3977024064,56583.1241756098,53841.7177460073,40071.0120405205,55751.9123025442,38027.4108560169,22396.1669647276
6036106875,7605,-2,0,2427.3946776928,45986.4716956588,-3288.8432773635,18096.5531122824,56573.5238628165,53844.5893224575,40066.4126511214,55744.0154673061,38022.2152494735,22396.9091942338
6036106875,7605,-2,0,2406.4784068542,45985.5469507002,-3291.6540153296,18077.7540206909,56569.8127152855,53850.9165248054,40065.1837137423,55741.7279403033,38023.8578885446,22397.0187035052
6036163837,7606,-2,0,2403.3148056802,45984.2328394433,-3286.3123964243,18095.8838889571,56575.2030049781,53843.9809376164,40063.8574347886,55745.9744664946,38024.3445964175,22395.8384369134
6036163837,7606,-2,0,2406.7704315779,45984.7925534972,-3284.2803910549,18101.2620109528,56576.9916564110,53845.4410612351,40063.3463915220,55745.9501311009,38024.4419379921,22395.7532630356
6036163837,7606,-2,0,2404.3855630006,45991.1319235420,-3282.8080997393,18090.7491208978,56579.4008603820,53858.0589628405,40066.2788064563,55749.9168002652,38028.1409178263,22398.9655349969
6036163837,7606,-2,0,2417.1738123615,45995.9624991807,-3272.1248619287,18106.9686607628,56588.1129313072,53850.9286925023,40069.3937368430,55756.6698720019,38030.3797740417,22397.9434484638
6036163837,7606,-2,0,2422.6127728414,45993.4437859383,-3270.6769060068,18113.3567015948,56585.5333795807,53844.4798131861,40064.8916890185,55752.7153705345,38025.3910183443,22395.2665551627
6036163837,7606,-2,0,2402.7307562327,45991.2657682070,-3278.3425550053,18085.2979927211,56579.9362390422,53854.6885108206,40063.7844286076,55748.3228319814,38025.8533908235,22395.0475366199
6036163837,7606,-2,0,2396.9876033323,45997.2279396502,-3273.7553333030,18086.6242716748,56588.1129313072,53857.1463855788,40070.2941464079,55757.7649647160,38033.1053381300,22399.9511184396
6036163837,7606,-2,0,2414.1805589431,45999.7101498021,-3267.9756773121,18106.7618099168,56596.3504620563,53851.9872821259,40072.4721641392,55758.9939020951,38034.9669957439,22404.2463154181
6036193368,7607,-2,0,2414.7767760874,45999.5763051371,-3274.3758858410,18094.2534175828,56592.0552650778,53857.7791058136,40070.0264570778,55755.9884809798,38034.1030892695,22406.0227991542
6036193368,7607,-2,0,2406.7095930938,46004.2730361107,-3275.8603448534,18085.9550483496,56594.6469845011,53863.0355508411,40072.9953751026,55760.9772366772,38038.0575907370,22406.4486685430
6036193368,7607,-2,0,2418.9259607040,46007.0229355927,-3268.9734284516,18110.5337959319,56602.2152919250,53858.5335030166,40076.4753363940,55766.1850109175,38040.9535025808,22405.3535758289
6036193368,7607,-2,0,2422.1260649685,46003.2509495776,-3271.0054338210,18107.8934057213,56597.7132441005,53860.0788005131,40072.3139840805,55761.7681369707,38038.3861185512,22400.7420187330
6036193368,7607,-2,0,2416.9547938187,46005.6236504581,-3270.6282352195,18091.4305119199,56595.0850215867,53867.7687849052,40076.4144979098,55762.4008572055,38042.8029924979,22401.1435527282
6036193368,7607,-2,0,2425.6546970471,46006.5240600230,-3264.8242438350,18106.0682511979,56599.2828769906,53856.9760378233,40079.0670558172,55765.7348061350,38043.5330543073,22398.2354731875
6036193368,7607,-2,0,2424.7786228759,45998.1283492151,-3269.3992978404,18105.9344065329,56591.3373709653,53850.3568107516,40070.0872955619,55757.4972753859,38035.6970575533,22392.2854694411
6036193368,7607,-2,0,2404.7384262085,45995.6704744569,-3279.7783432304,18083.4241674104,56584.4626222603,53861.1738932272,40068.1891348575,55751.7419547886,38036.9259949324,22396.1061262435
6036202154,7608,-2,0,2403.8501843404,45999.6249759244,-3276.9067667802,18096.1637459840,56591.6415633858,53854.7006785174,40072.0827978409,55756.1344933417,38036.5852994214,22400.2188077697
6036202154,7608,-2,0,2422.0287233939,45999.2112742324,-3273.8283394840,18120.4383011458,56596.4964744182,53845.9399368049,40073.9566231516,55755.6964562561,38033.2391827951,22403.4067443373
6036202154,7608,-2,0,2422.1382326653,45998.3717031516,-3280.6057466143,18107.8203995404,56591.6658987795,53854.3599830063,40073.7984430929,55751.8514640600,38028.8223088483,22403.5405890023
6036202154,7608,-2,0,2419.5586809388,46001.9733414112,-3278.6954182131,18105.2895186012,56596.0706050294,53858.2293105960,40078.0936400714,55757.4851076891,38033.6528844870,22402.9322041612
6036202154,7608,-2,0,2428.1125718054,46001.5231366287,-3273.3416316110,18123.0300205691,56597.0318530784,53850.5514939008,40076.6578518463,55758.5923680999,38034.3099401155,22400.4499940093
6036202154,7608,-2,0,2423.2211576825,45996.4248716599,-3277.3569715626,18113.6365586218,56591.7754080509,53857.4870810898,40072.8615304375,55754.0051463977,38033.3365243697,22400.9610372759
6036202154,7608,-2,0,2418.7799483422,46001.4379627510,-3275.9820218216,18101.9920727622,56595.7177418215,53865.8706242008,40078.1666462523,55760.8068889217,38039.6637267176,22404.0272968752
6036202154,7608,-2,0,2435.5470345642,46003.8349990251,-3266.6859014489,18120.8154997473,56602.8236767661,53853.7029273779,40079.4807575092,55765.0047443256,38041.7565705711,22403.0295457358
6036235422,7609,-2,0,2437.9319031415,45996.0355053616,-3273.1712838555,18118.2481157177,56594.7808291662,53844.1147822814,40073.2873998263,55755.5382761974,38033.4582013379,22398.7343487573
6036235422,7609,-2,0,2413.4018263464,45990.3896940358,-3288.5269172461,18090.2867484185,56582.2967722258,53846.5604893428,40069.7100969604,55749.1502353653,38028.6032903055,22393.9767792995
6036235422,7609,-2,0,2408.8024369474,45989.2459305344,-3289.1109666936,18094.9469763017,56585.3143610379,53840.0264361489,40070.1724694397,55748.1889873163,38028.2625947945,22387.5887384674
6036235422,7609,-2,0,2415.9205395888,45983.6974607831,-3287.7360169526,18103.2088424445,56583.0876725193,53831.8375761871,40065.5365769501,55742.1781450858,38021.1079890626,22379.3025369310
6036235422,7609,-2,0,2408.8511077347,45983.0769082452,-3292.2867355644,18086.9893025795,56577.9772398537,53844.5041485798,40066.5951665737,55740.2556489878,38022.5072741972,22378.5724751216
6036235422,7609,-2,0,2407.6951765365,45990.0489985247,-3284.8036020182,18093.6572004385,56585.7767335172,53853.2770579891,40073.8471138802,55747.3372485387,38031.5357052399,22383.9992679047
6036235422,7609,-2,0,2422.1260649685,45995.8529899093,-3276.2253757581,18120.6938227791,56595.9245926675,53852.2306360623,40077.6556029858,55754.8325497817,38037.6925598323,22390.3386379494
6036235422,7609,-2,0,2418.2810727724,45998.9192495086,-3279.2672999638,18111.0448391985,56593.4058794252,53858.5578384103,40076.5970133622,55756.5725304273,38040.3816208301,22394.9988658326
6036272375,7610,1,0,2415.6650179555,46005.5263088835,-3276.9311021738,18099.0231547374,56597.5915671323,53863.2180662934,40080.0769746536,55762.5590372642,38046.1612768210,22398.7100133636
6036272375,7610,1,0,2429.9620617225,46009.4929780478,-3269.0951054198,18114.7316513358,56606.7416751431,53858.0224597500,40080.9043780375,55769.1174258518,38049.2640395109,22399.2940628111
6036272375,7610,1,0,2430.6191173509,46006.2807060865,-3271.5651478749,18112.2616088808,56603.2860492454,53858.8741985277,40079.8457884139,55767.3166067220,38049.3492133886,22400.6203417648
6036272375,7610,1,0,2417.2103154520,46009.2982948986,-3275.9576864280,18096.0177336222,56596.7641637483,53867.5619340592,40084.2748300575,55768.5455441011,38052.5979884404,22405.3657435258
6036272375,7610,1,0,2426.3969265533,46012.4375606789,-3266.6372306616,18112.2129380935,56604.9530237101,53858.4361614420,40089.0080641216,55772.6217225368,38053.5227333989,22407.7506121031
6036272375,7610,1,0,2438.6132941636,46008.0085190354,-3262.0135058689,18121.7524124027,56603.7119186342,53849.8579351819,40084.4816809035,55765.1994274748,38046.3559599702,22404.4409985672
6036272375,7610,1,0,2431.4708561285,46006.5970662039,-3265.7124857030,18104.3039351586,56597.5915671323,53860.7236884447,40081.4032536072,55760.1985040806,38045.9057551878,22405.6334328559
6036272375,7610,1,0,2429.6943723924,46010.7584185174,-3261.5389656928,18112.2251057903,56602.9696891280,53858.9350370118,40086.8787171776,55766.8542342427,38052.0626097802,22405.2440665575
6036301163,7611,1,0,2434.6587926961,46009.3347979891,-3260.1153451645,18130.7078372644,56603.1157014899,53848.7506747710,40086.0269784000,55767.3531098125,38050.1401136821,22403.5527566991
6036301163,7611,1,0,2423.6591947682,46004.7719116805,-3267.5741433170,18112.7239813601,56595.1945308581,53855.0048709380,40081.8169552992,55764.1043347607,38047.7674128017,22401.0462111536
6036301163,7611,1,0,2424.1215672474,46009.8945120429,-3262.5123814386,18106.5427913740,56600.6334913380,53860.0544651195,40086.4041770015,55769.1417612454,38050.7363308265,22401.4234097551
6036301163,7611,1,0,2445.9990861351,46011.4641449331,-3253.3866088214,18128.1404532347,56609.3577299601,53851.3058911038,40085.9904753095,55771.1250958276,38049.4343872664,22401.5207513297
6036301163,7611,1,0,2446.3519493430,46007.0594386832,-3257.1707625333,18121.8740893709,56603.9309371770,53851.2693880133,40083.4839297640,55766.7690603650,38043.4113773390,22402.6645148311
6036301163,7611,1,0,2426.8106282453,46008.9575993876,-3261.1861024849,18105.4598663568,56600.8403421840,53858.1076336278,40087.1829095982,55765.8078123160,38045.9179228846,22402.0561299899
6036301163,7611,1,0,2427.1999945436,46012.5592376472,-3253.5934596674,18122.7623312390,56610.0269532853,53854.9440324538,40092.8408886208,55771.2467727958,38050.6511569487,22402.4576639851
6036301163,7611,1,0,2433.0404890187,46008.2397052750,-3254.6642169878,18123.3950514738,56606.7051720526,53851.5735804339,40089.1540764835,55767.4261159934,38048.8625055157,22400.9367018822
6036338918,7612,1,0,2425.7885417122,46005.8913397882,-3262.9625862211,18099.5341980040,56602.0692795631,53860.2126451782,40086.1486553682,55765.1264212939,38049.6169027187,22400.5838386743
6036338918,7612,1,0,2434.1720848232,46009.5416488351,-3258.3388614283,18105.9709096233,56607.2527184097,53856.6110069186,40089.2027472708,55770.0786739008,38054.3866398733,22399.8051060777
6036338918,7612,1,0,2443.0545035039,46007.1811156514,-3255.4429495845,18118.0047617812,56607.2405507129,53850.6123323849,40086.3798416078,55768.2778547710,38055.3600556192,22398.7465164541
6036338918,7612,1,0,2427.5893608420,46003.6281481791,-3263.9116665733,18099.3760179453,56596.9223438070,53857.5235841803,40086.3068354269,55763.6176268878,38053.7174165481,22399.6104229285
6036338918,7612,1,0,2425.8372124995,46007.8868420671,-3262.1716859276,18100.6414584149,56601.3757208442,53863.1815632030,40091.9648144496,55770.0786739008,38058.6696691550,22400.9488695790
6036338918,7612,1,0,2448.0432592013,46009.2131210208,-3253.2770995500,18125.4270568432,56609.1265437204,53854.2869768254,40092.8652240145,55773.4004551335,38057.8179303774,22401.7519375693
6036338918,7612,1,0,2446.8751603063,46006.6700723848,-3259.4096187488,18116.0700979864,56605.8777686687,53859.3122356133,40089.7381259310,55768.9957488836,38055.9806081572,22402.5063347724
6036338918,7612,1,0,2434.9994882072,46012.6322438281,-3257.8643212523,18106.1169219852,56606.8025136272,53868.5231821082,40095.5664527092,55773.0597596224,38061.0423700355,22407.4585873793
6036394813,7613,1,0,2437.5182014495,46011.1112817252,-3252.7660562834,18122.6528219676,56608.0192833095,53851.5370773434,40095.5421173155,55772.7799025955,38058.1951289789,22407.5680966507
6036394813,7613,1,0,2435.5957053515,46001.8273290493,-3260.2735252232,18117.1165199131,56597.7497471910,53845.9642721985,40087.0125618426,55763.2647636800,38049.7629150806,22405.2805696480
6036394813,7613,1,0,2426.1535726169,45999.1869388387,-3267.1847770186,18094.9713116954,56592.4446313762,53856.3068144980,40086.7692079062,55762.7172173229,38050.1522813790,22405.6699359463
6036394813,7613,1,0,2436.3501025545,46001.1094349368,-3261.2469409690,18110.3756158732,56598.6623244527,53852.9485301749,40090.0909891388,55770.0665062040,38054.6421615066,22404.6843525037
6036394813,7613,1,0,2444.9526642083,45999.0409264769,-3258.0955074919,18121.9835986423,56600.0737772841,53849.1035379788,40090.0423183515,55769.8353199643,38051.8800943278,22403.6379305769
6036394813,7613,1,0,2427.4190130865,45999.6371436212,-3264.3740390525,18101.8582280972,56594.5009721392,53859.9327881513,40091.6606220290,55769.1295935486,38051.8557589342,22404.2463154181
6036394813,7613,1,0,2424.0850641570,46006.4875569325,-3263.1451016734,18108.1975981419,56604.0526141452,53859.3730740974,40098.7665569736,55777.5253043564,38057.3798932918,22406.8745379318
6036394813,7613,1,0,2442.6164664183,46002.2897015286,-3263.2181078543,18125.3053798750,56605.9751102433,53843.5915713180,40095.0432417458,55771.5387975196,38051.5028957263,22403.9664583911
6036424557,7614,1,0,2440.9373242567,45993.0787550336,-3274.3272150537,18104.2309289776,56593.7222395426,53842.8736772055,40084.3356685416,55757.2174183590,38045.7110720386,22401.6667636916
6036424557,7614,1,0,2428.8304659179,45992.8475687940,-3275.5439847360,18086.3079115574,56589.0255085689,53846.5604893428,40082.9607188006,55757.0592383003,38047.3537111097,22401.4720805424
6036424557,7614,1,0,2430.4366018985,45992.0810038941,-3267.3794601678,18101.2620109528,56593.3207055474,53838.3716293810,40082.4618432308,55758.2881756794,38047.8769220731,22402.8105271929
6036424557,7614,1,0,2426.1779080105,45988.1873409108,-3272.8427560413,18096.1394105904,56585.6793919426,53836.4734686766,40077.2419012938,55752.0096441187,38042.1094337790,22400.6690125521
6036424557,7614,1,0,2420.5199289879,45993.1882643050,-3278.5494058513,18086.3444146479,56583.9759143874,53848.7506747710,40081.9873030548,55754.5161896643,38043.3870419454,22399.3549012952
6036424557,7614,1,0,2439.4650329412,46003.5551419982,-3269.7886641387,18113.6243909250,56600.7916713967,53848.7020039837,40091.4659388798,55765.9903277683,38049.2640395109,22398.7708518477
6036424557,7614,1,0,2449.8805814216,46004.9665948296,-3267.8783357375,18125.2932121782,56606.7173397495,53844.8570117876,40091.6971251195,55766.0876693429,38048.8868409094,22398.5153302144
6036424557,7614,1,0,2431.4708561285,46003.2752849712,-3277.4056423499,18099.9965704833,56598.9543491764,53851.7925989767,40089.3000888453,55764.5058687559,38048.4244684301,22398.0529577352
6036433940,7615,1,0,2426.8227959421,46007.9476805513,-3270.9810984274,18105.3260216917,56604.4298127468,53850.3933138421,40093.7778012762,55769.3607797882,38051.1865356089,22399.0142057842
6036433940,7615,1,0,2441.7038891566,46007.8016681894,-3261.5024626023,18123.6749085007,56608.4816557888,53836.4247978893,40090.6628708895,55769.8109845707,38046.9278417209,22398.5518333049
6036433940,7615,1,0,2434.9386497230,46004.0540175679,-3265.9558396395,18105.6302141123,56600.3779697047,53838.4324678651,40085.5159351334,55761.8776462421,38043.1071849185,22400.5595032807
6036433940,7615,1,0,2427.8205470816,46002.3992108000,-3268.5232236691,18096.3462614364,56597.4698901640,53840.4766409314,40084.0314761210,55761.7924723644,38044.9445071387,22398.9168642096
6036433940,7615,1,0,2436.5204503100,46000.7809071225,-3264.2766974779,18116.3742904069,56599.7087463795,53835.5608914149,40083.0945634656,55763.5081176164,38046.0639352464,22399.6955968063
6036433940,7615,1,0,2430.3392603240,45996.2666916012,-3271.4678063003,18107.3215239707,56593.3207055474,53838.4446355619,40079.1522296950,55758.6288711904,38044.2631161167,22401.4112420583
6036433940,7615,1,0,2419.3031593056,45999.8318267704,-3275.2276246186,18096.1637459840,56594.8660030439,53849.4320657931,40083.6056067322,55762.6320434452,38046.4898046353,22403.3945766404
6036433940,7615,1,0,2431.4586884317,46003.3604588490,-3266.7224045394,18115.8632471404,56604.9408560133,53838.8218341634,40086.5136862729,55766.5013710349,38047.4875557747,22401.1922235155
6036451549,7616,1,0,2434.2329233073,45997.9336660660,-3269.5818132927,18114.8168252136,56599.7209140763,53833.7114014978,40081.0138873089,55761.0259074645,38041.2820303950,22395.4855737055
6036451549,7616,1,0,2417.0156323028,45999.0409264769,-3273.6458240316,18092.4647661499,56597.7984179783,53847.8380975092,40084.7737056272,55762.1696709659,38043.6303958819,22398.4909948208
6036451549,7616,1,0,2422.2720773304,46007.1811156514,-3262.9625862211,18106.7253068263,56607.8246001604,53849.7727613041,40093.2545903128,55774.0088399746,38049.7629150806,22402.0682976867
6036451549,7616,1,0,2436.9706550925,46006.2076999056,-3259.7503142598,18122.5554803930,56609.7227608647,53839.2477035522,40092.5123608066,55770.2003508690,38045.8935874909,22400.0362923173
6036451549,7616,1,0,2432.4929426616,46006.5848985071,-3264.3497036589,18106.3237728312,56603.8822663897,53847.3392219395,40091.2834234275,55766.2458494016,38047.7795804985,22398.8195226350
6036451549,7616,1,0,2427.6258639325,46009.2617918081,-3265.2987840111,18103.4886994714,56605.0138621943,53845.5384028097,40092.5975346844,55769.3364443946,38052.8900131641,22397.1160450798
6036451549,7616,1,0,2435.4253575960,46003.9688436902,-3264.6782314731,18118.2116126272,56601.9719379885,53834.0399293120,40088.4848531582,55766.2215140079,38050.2739583472,22391.7379230841
6036451549,7616,1,0,2424.0363933697,45996.3396977822,-3272.2100358065,18101.9677373686,56591.6050602954,53839.8195853029,40085.0900657446,55760.2471748679,38048.5339777015,22393.3318913679
6036479857,7617,1,0,2409.2526417298,45995.8773253029,-3277.5759901054,18087.5246812397,56588.1859374881,53844.7231671226,40086.2825000333,55760.0403240219,38051.7097465723,22396.4103186641
6036479857,7617,1,0,2418.4270851343,45994.3563632000,-3271.4191355130,18103.7198857111,56595.0850215867,53834.2224447644,40088.4970208550,55761.3787706724,38050.4443061027,22396.6658402974
6036479857,7617,1,0,2420.3374135355,45988.6010426028,-3273.1347807650,18100.6292907181,56587.3585341042,53830.9371666222,40082.0603092357,55755.2462514736,38045.1391902879,22398.3936532462
6036479857,7617,1,0,2408.0480397443,45987.9074838839,-3276.3227173327,18082.2560685154,56580.4229469151,53837.5807290875,40084.2018238765,55754.0538171850,38044.7863270800,22397.7609330114
6036479857,7617,1,0,2410.8709454073,45991.1197558451,-3271.0906076988,18099.3030117644,56585.6672242458,53837.0940212146,40089.8963059897,55759.1034113665,38048.7773316380,22397.8704422828
6036479857,7617,1,0,2422.9656360493,45991.0345819674,-3269.7643287451,18111.9817518539,56587.1151801677,53835.4027113562,40088.5213562487,55758.7505481586,38045.0296810165,22400.0119569237
6036479857,7617,1,0,2418.9137930072,45993.2369350923,-3272.9157622222,18093.3895111084,56583.0511694288,53841.8515906724,40089.2270826644,55755.9276424957,38045.5042211926,22400.8028572172
6036479857,7617,1,0,2418.9867991882,45996.2180208139,-3266.7832430235,18093.3165049275,56586.3729506615,53838.8826726476,40088.0468160726,55759.8578085695,38045.8084136132,22396.6780079942
6036508744,7618,1,0,2426.8836344263,45989.0634150820,-3265.2866163142,18098.4269375931,56581.5545427196,53826.4837895850,40080.3446639837,55753.6036124025,38041.9634214171,22392.8330157981
6036508744,7618,1,0,2414.3265713050,45985.7416338494,-3273.6579917284,18077.4133251799,56574.1322476576,53833.6505630137,40075.8669515528,55746.4368389738,38039.4325404779,22394.8528534707
6036508744,7618,1,0,2408.6929276760,45990.1706754929,-3274.8504260171,18073.2763082601,56577.4296934966,53839.1138588872,40079.8092853234,55750.0506449302,38045.4798857990,22398.5640010017
6036508744,7618,1,0,2428.3315903482,45992.5798794639,-3266.9657584758,18098.0984097789,56586.3607829647,53832.2512778791,40082.0481415389,55754.4431834833,38046.1977799115,22399.3549012952
6036508744,7618,1,0,2431.8115516395,45989.0755827789,-3271.8328372050,18095.3120072064,56581.7370581720,53834.6848172436,40079.1400619982,55748.0064718640,38042.0242599012,22398.2111377939
6036508744,7618,1,0,2418.2932404693,45991.5091221435,-3272.8914268286,18080.0415476936,56579.0479971741,53841.9489322469,40081.5979367564,55750.1236511112,38046.2099476083,22400.0849631046
6036508744,7618,1,0,2420.7389475307,45993.8696553271,-3260.2005190423,18097.4778572409,56584.6451377127,53832.1174332140,40085.1630719255,55755.6234500751,38049.7994181711,22400.6690125521
6036508744,7618,1,0,2425.4721815948,45991.0832527547,-3258.3388614283,18102.7221345716,56583.3553618494,53826.0822555898,40082.1089800230,55753.9321402168,38045.1148548943,22397.4567405908
6036560286,7619,1,0,2419.4735070611,45990.2071785834,-3264.2280266907,18086.0402222273,56580.4351146119,53836.0962700751,40082.6200232895,55750.7685390428,38044.1536068452,22399.1967212365
6036560286,7619,1,0,2430.1324094780,45995.4271205204,-3259.4582895361,18099.1326640088,56592.0552650778,53839.7222437283,40089.2879211485,55759.4319391807,38049.0328532713,22404.5870109291
6036560286,7619,1,0,2442.8598203548,45994.7213941047,-3259.8111527439,18114.2327757661,56593.2842024569,53832.3851225441,40089.3974304199,55758.9330636110,38045.1026871974,22406.6798547826
6036560286,7619,1,0,2431.1788314047,45995.9503314838,-3265.8219949745,18094.2412498860,56588.8186577229,53842.8980125991,40091.6119512417,55757.5702815668,38049.2640395109,22411.4617596341
6036560286,7619,1,0,2416.8209491537,45997.2522750439,-3266.5763921775,18086.8432902177,56590.3396198258,53842.9345156896,40094.0454906063,55759.2859268188,38051.8922620246,22406.7771963572
6036560286,7619,1,0,2427.9057209594,45994.6118848333,-3257.1220917461,18105.3625247822,56592.8705007650,53832.8839981139,40091.5024419703,55759.6144546331,38052.0869451738,22404.5140047482
6036560286,7619,1,0,2421.0188045576,45986.0336585731,-3259.9206620153,18091.2844995580,56582.1385921671,53830.0367570573,40082.9607188006,55749.4787631796,38047.1103571732,22404.5018370513
6036560286,7619,1,0,2406.6122515192,45984.1111624751,-3262.0256735657,18074.4565748519,56575.9574021811,53832.3486194536,40081.8291229961,55745.4877586216,38046.7088231781,22405.5117558876
6036578778,7620,1,0,2413.1463047131,45983.3567652721,-3257.7548119808,18092.5256046340,56576.8699794428,53824.9749951789,40083.2770789180,55744.7576968123,38043.3992096422,22404.3801600831
6036578778,7620,1,0,2417.2224831488,45981.0205674821,-3261.7336488419,18097.5386957250,56574.9718187384,53825.8145662597,40082.6930294705,55743.1880639221,38038.4104539448,22406.0958053351
6036578778,7620,1,0,2413.2193108941,45985.9849877858,-3266.3330382410,18084.3124092785,56577.6487120395,53836.8384995813,40086.4163446983,55747.4710932038,38040.2964469524,22411.3035795754
6036578778,7620,1,0,2425.5573554726,45992.3121901338,-3261.1982701817,18099.4733595199,56587.7235650089,53830.8398250476,40091.6484543322,55753.9199725199,38044.3482899944,22411.7537843578
6036578778,7620,1,0,2437.1044997575,45991.7403083831,-3260.8332392770,18113.5635524408,56589.8285765592,53826.8974912770,40089.5069396913,55752.7518736249,38043.1436880089,22411.2792441817
6036578778,7620,1,0,2418.0255511391,45988.4550302409,-3272.7940852540,18090.9681394406,56580.4716177024,53832.2877809695,40086.5988601506,55747.9091302894,38041.5253843315,22408.5536800934
6036578778,7620,1,0,2405.1521279005,45989.5744583486,-3273.3781347015,18087.9262152349,56581.9074059275,53831.7158992188,40088.1806607376,55750.4521789254,38044.9931779260,22408.4806739124
6036578778,7620,1,0,2414.4604159700,45986.9584035317,-3268.2311989454,18105.3868601758,56582.2846045290,53820.8744813496,40083.0702280720,55748.0794780449,38042.7664894074,22405.7916129146
6036628591,7621,1,0,2412.5500875688,45982.7727158246,-3273.0982776746,18093.7910451036,56575.0813280098,53826.3012741326,40080.3446639837,55742.0077973303,38039.5420497494,22405.6577682495
6036628591,7621,1,0,2407.5613318714,45986.5081987492,-3271.2852908480,18084.1298938261,56578.2084260933,53831.6915638252,40085.8687983413,55746.5828513357,38043.9589236961,22406.8380348413
6036628591,7621,1,0,2416.2734027966,45989.4649490772,-3263.2424432480,18102.9898239017,56584.9128270428,53822.7483066603,40088.7038717010,55751.9001348473,38044.4943023563,22405.9132898828
6036628591,7621,1,0,2418.4879236184,45988.6253779964,-3266.5277213902,18100.3859367816,56583.8299020255,53822.8334805381,40088.8255486692,55749.9654710525,38040.6614778571,22406.0836376383
6036628591,7621,1,0,2412.7447707180,45993.3707797574,-3267.7931618598,18086.5877685844,56583.7325604509,53831.2778621332,40091.5146096671,55753.5184385248,38041.1968565173,22407.6289351348
6036628591,7621,1,0,2428.8791367052,45998.7367340563,-3256.8300670223,18106.9808284596,56592.1039358651,53822.9064867190,40095.6637942837,55757.9839832588,38042.5231354710,22405.8037806114
6036628591,7621,1,0,2437.7372199923,45993.8453199335,-3258.1198428855,18110.4729574478,56590.3031167353,53816.2142534664,40090.3343430753,55753.0317306519,38037.0720072943,22402.1534715645
6036628591,7621,1,0,2420.3982520196,45989.6596322264,-3269.7886641387,18082.0492176694,56580.8366486071,53830.1949371160,40086.7205371189,55749.5030985732,38038.6416401845,22404.6113463227
6036635732,7622,1,0,2414.3144036082,45992.2148485592,-3264.6782314731,18083.3389935326,56583.9272436001,53833.5288860455,40089.9936475642,55752.9708921677,38044.7498239896,22408.0426368268
6036635732,7622,1,0,2429.0251490671,45992.2635193465,-3253.8124782102,18102.6612960875,56588.7091484515,53832.8109919329,40090.8818894323,55756.6820396987,38049.5438965378,22410.9993871548
6036635732,7622,1,0,2428.0639010181,45992.8232334003,-3251.2815972710,18092.4404307562,56587.7722357961,53840.9390134106,40093.1572487382,55755.7816301338,38053.0725286165,22414.1264852383
6036635732,7622,1,0,2425.7398709249,45997.5929705549,-3250.3690200093,18089.3985065505,56590.3882906131,53841.8150875819,40098.4745322498,55762.6442111420,38056.4429806364,22414.4063422652
6036635732,7622,1,0,2436.7516365497,45998.0310076406,-3246.0008168499,18109.4873740052,56596.0706050294,53828.9903351305,40099.5696249639,55762.5590372642,38052.6831623181,22413.1287340988
6036635732,7622,1,0,2429.8768878447,45992.1296746814,-3253.5569565769,18098.5486145613,56587.9790866421,53825.2670199027,40096.1505021567,55754.1511587596,38043.2897003708,22410.5856854628
6036635732,7622,1,0,2419.4613393643,45993.9791645985,-3255.9904959415,18082.2195654249,56585.2413548570,53832.8474950234,40098.0608305579,55753.2872522851,38042.9246694661,22409.7339466852
6036635732,7622,1,0,2436.0215747403,45997.6781444327,-3247.3149281068,18101.3350171338,56594.7808291662,53827.4937084213,40101.9788289348,55757.9231447747,38046.8305001463,22408.9187109981
6036670334,7623,1,0,2441.4483675233,45992.6772210385,-3251.2572618774,18103.4156932905,56587.3341987105,53818.1489172613,40096.2721791249,55750.9388867983,38041.5010489378,22406.4851716335
6036670334,7623,1,0,2420.2887427482,45989.1729243535,-3263.6196418495,18082.5602609360,56577.4175257998,53825.6928892915,40092.7313793494,55746.9113791499,38040.2599438619,22405.0858864988
6036670334,7623,1,0,2415.2513162635,45990.5722094881,-3261.1495993944,18094.9956470890,56582.6983062210,53822.6387973889,40095.0189063521,55751.3525884903,38044.3726253881,22403.5892597896
6036670334,7623,1,0,2422.9291329588,45985.6929630621,-3260.1518482550,18111.7505656142,56582.6253000400,53813.6590371336,40094.7998878093,55748.3958381623,38040.6249747666,22397.3959021067
6036670334,7623,1,0,2419.0476376723,45983.9043116291,-3268.1581927645,18095.2511687223,56577.7460536140,53820.1200841466,40092.8165532272,55743.7477779760,38036.6704732991,22400.2553108601
6036670334,7623,1,0,2418.7069421612,45988.2481793949,-3268.3772113073,18093.4260141989,56583.3553618494,53822.4076111493,40095.8341420393,55748.1768196195,38042.3406200186,22404.1733092371
6036670334,7623,1,0,2427.5163546610,45986.3743540842,-3265.5299702507,18108.0759211737,56584.8519885586,53814.0240680383,40092.2568391733,55746.0474726755,38041.9999245076,22404.8060294719
6036670334,7623,1,0,2417.5753463567,45981.6776231105,-3272.3195450779,18089.3011649759,56574.3634338973,53817.5405324201,40087.7304559552,55741.3264063082,38040.9535025808,22405.9619606701
6036702607,7624,1,0,2406.5149099446,45983.7582992672,-3272.4412220461,18073.6778422552,56570.4941063076,53820.5946243227,40089.3487596326,55742.0321327239,38042.3527877155,22406.9232087191
6036702607,7624,1,0,2421.6028540051,45987.0435774094,-3263.0842631893,18093.9248897686,56577.6122089490,53807.6481949031,40089.2757534517,55743.0785546507,38039.5420497494,22406.2783207875
6036702607,7624,1,0,2424.7907905727,45982.2738402548,-3266.9170876885,18093.0244802037,56573.3048442737,53802.8054515675,40083.4109235830,55736.3011475203,38030.4284448290,22404.1854769339
6036702607,7624,1,0,2404.9817801450,45979.9498101617,-3278.0261948879,18071.5484953112,56567.9145545811,53811.7608764292,40082.4618432308,55732.2493044783,38028.2504270977,22402.2264777454
6036702607,7624,1,0,2401.4288126727,45980.3270087632,-3276.6755805405,18082.3777454836,56570.5427770949,53807.4900148444,40085.8566306444,55737.5300848994,38031.3775251812,22398.5883363954
6036702607,7624,1,0,2407.3301456318,45976.3603395989,-3276.5052327850,18086.1497314988,56566.9898096226,53800.9802970441,40083.6542775195,55732.4926584147,38026.8998127503,22394.8285180771
6036702607,7624,1,0,2402.0615329074,45976.7132028068,-3277.1501207166,18064.9171005427,56561.4656752649,53811.6391994610,40084.7493702336,55727.1753749031,38027.7880546184,22396.8726911433
6036702607,7624,1,0,2408.4860768300,45982.9308958833,-3264.3132005684,18070.4168995067,56569.8735537696,53813.7807141018,40088.9472256375,55733.6120865224,38031.9129038414,22400.7906895203
6036746145,7625,1,0,2423.5861885872,45983.2107529102,-3255.1874279512,18093.3408403211,56574.7528001956,53807.5873564190,40088.8498840629,55735.2303901999,38031.6208791176,22401.0218757600
6036746145,7625,1,0,2416.8087814569,45983.2350883039,-3260.3586991010,18085.1033095720,56572.7451302198,53814.3890989430,40089.1054056962,55734.0014528208,38033.1905120078,22402.5063347724
6036746145,7625,1,0,2408.8997785219,45989.4892844709,-3261.7214811451,18079.2749827938,56578.0502460346,53821.6897170367,40094.8850616871,55742.8108653206,38039.6272236271,22404.6113463227
6036746145,7625,1,0,2422.7952882937,45990.7912280309,-3253.6056273642,18095.9690628349,56584.1949329302,53814.5837820921,40092.8287209240,55744.9888830519,38040.6979809475,22402.7010179215
6036746145,7625,1,0,2423.9025487046,45987.2990990427,-3254.3356891736,18088.1939045650,56579.3400218978,53817.0416568504,40089.5921135691,55739.6959349339,38037.5952182577,22403.6014274864
6036746145,7625,1,0,2406.5392453383,45987.9561546712,-3254.4330307482,18067.7035031152,56575.8478929097,53825.4008645677,40089.9084736865,55740.1826428068,38041.7078997838,22406.0714699415
6036746145,7625,1,0,2409.6663434218,45991.5212898403,-3247.2054188354,18082.0005468821,56581.8465674434,53819.0858299166,40093.5709504302,55745.6581063772,38044.5308054468,22404.7208555941
6036746145,7625,1,0,2417.9768803519,45988.1630055172,-3246.8282202338,18088.8266247998,56580.9583255753,53815.1313284492,40092.8530563176,55744.4291689980,38042.9611725566,22407.2274011397
6036761866,7626,1,0,2414.8011114811,45986.8245588666,-3253.2284287627,18074.7120964852,56576.5536193254,53820.6067920195,40096.0288251884,55742.6770206555,38041.0751795490,22410.7195301279
6036761866,7626,1,0,2426.4699327343,45989.7569738010,-3251.2085910901,18086.4904270098,56583.5622126954,53819.1345007039,40101.8449842698,55749.5152662700,38045.0175133197,22411.8389582356
6036761866,7626,1,0,2442.1662616359,45987.1652543777,-3249.0549087524,18103.0871654763,56587.2855279232,53812.7221244782,40104.3028590280,55751.1092345538,38043.4113773390,22412.3621691990
6036761866,7626,1,0,2422.9656360493,45980.2053317949,-3260.6628915215,18080.7107710189,56576.0790791493,53813.5008570749,40099.9103204749,55743.6991071887,38039.4812112652,22409.7826174725
6036761866,7626,1,0,2405.3954818369,45979.6942885284,-3265.0432623778,18073.4466560156,56573.9740675989,53813.4765216813,40100.1901775019,55744.2223181520,38041.3793719696,22403.8934522102
6036761866,7626,1,0,2413.9128696130,45978.1003202446,-3261.9161642943,18094.5819453970,56578.7803078440,53810.0452311772,40097.5741226849,55743.6504364014,38042.5596385614,22398.2963116716
6036761866,7626,1,0,2414.2170620336,45979.4509345919,-3259.0689232377,18092.6351139054,56579.0358294773,53823.4175299856,40097.0022409343,55743.1393931348,38046.1126060337,22402.6280117406
6036761866,7626,1,0,2406.4540714605,45988.3211855758,-3255.2239310417,18084.2515707944,56583.7812312382,53831.8375761871,40097.8539797119,55749.6734463287,38053.0238578292,22411.8876290229
6036796568,7627,1,0,2415.0201300239,45989.1242535662,-3250.3568523125,18098.5364468645,56587.7600680993,53815.6788748062,40097.2090917803,55752.1556564806,38051.4663926358,22410.0138037121
6036796568,7627,1,0,2417.6361848408,45980.7285427583,-3257.6087996190,18092.9758094164,56580.3621084310,53810.8604668643,40090.2126661071,55745.3782493502,38043.9832590897,22406.6676870858
6036796568,7627,1,0,2408.5712507077,45982.4806911008,-3263.4736294876,18071.0496197415,56576.1764207239,53821.0934998924,40090.7602124641,55743.9546288219,38042.4988000773,22405.9011221860
6036796568,7627,1,0,2419.0719730659,45990.0611662215,-3251.5492866011,18087.0623087605,56585.7158950331,53824.3057718537,40097.0265763279,55752.5328550821,38046.6966554812,22407.8236182840
6036796568,7627,1,0,2432.1522471506,45991.5456252339,-3243.4334328202,18102.4787806351,56590.4004583099,53824.4882873060,40097.1482532961,55754.1876618500,38047.7065743175,22410.7925363088
6036796568,7627,1,0,2418.3662466502,45990.3775263389,-3248.2883438526,18080.2970693269,56585.9227458791,53831.8010730966,40095.7368004647,55751.8027932727,38048.3271268555,22407.8114505872
6036796568,7627,1,0,2414.4847513637,45998.5785539976,-3237.9458015531,18082.0492176694,56593.2355316696,53833.7114014978,40104.6435545391,55759.6996285108,38055.7250865239,22414.1873237224
6036796568,7627,1,0,2434.5127803342,46000.3550377337,-3226.5203342364,18102.5882899065,56598.5041443940,53821.3368538289,40104.7165607200,55762.0114909072,38053.1942055847,22415.6231119475
6036827620,7628,1,0,2436.0702455276,45995.3176112490,-3234.5266787458,18088.3277492301,56589.4513779577,53817.6257062979,40098.0973336483,55752.2651657520,38043.9589236961,22412.9705540401
6036827620,7628,1,0,2429.5240246368,45998.1405169120,-3238.9922234799,18078.5570886812,56589.3297009895,53823.7703931935,40100.0563328368,55754.2363326373,38044.4577992658,22416.6086953902
6036827620,7628,1,0,2433.7827185249,45996.4005362663,-3235.5122621885,18098.5364468645,56594.5739783202,53816.9321475790,40100.3605252574,55756.4873565496,38045.1391902879,22416.3896768473
6036827620,7628,1,0,2424.3162503966,45992.3243578306,-3240.2211608590,18098.4512729867,56589.7920734688,53819.3413515499,40096.6250423328,55752.8370475027,38042.4257938964,22415.5866088570
6036827620,7628,1,0,2408.5225799204,45995.6948098506,-3242.2775016221,18086.0645576210,56588.3806206373,53829.3675337320,40100.9567424017,55755.3557607450,38047.7187420144,22414.6983669890
6036827620,7628,1,0,2420.5929351688,45999.0652618705,-3233.2734059731,18103.9024011634,56598.3946351226,53820.0592456625,40103.7066418837,55762.3643541151,38052.0626097802,22411.4374242404
6036827620,7628,1,0,2438.5037848922,45998.8097402372,-3233.6019337873,18112.9064968124,56599.1125292351,53818.8911467675,40102.4412014141,55761.7194661834,38049.1910333299,22412.3986722894
6036827620,7628,1,0,2432.6389550235,45999.4789635625,-3245.1612457691,18093.0609832942,56592.9800100364,53828.1750994434,40104.7895669009,55760.5757026821,38051.0770263375,22416.5113538156
6036870448,7629,1,0,2431.9697316982,46002.2288630445,-3241.8516322333,18098.6946269232,56596.1314435135,53825.4982061423,40108.5615529161,55764.8708996606,38055.3843910128,22418.1904959771
6036870448,7629,1,0,2443.6142175578,46001.5596397192,-3234.1616478412,18116.5203027688,56598.8935106923,53816.8956444885,40108.8292422462,55764.5910426337,38053.8147581227,22415.0512301968
6036870448,7629,1,0,2441.3875290392,45999.8561621640,-3235.5487652790,18103.5860410460,56594.8660030439,53823.2715176237,40107.2596093560,55759.7361316013,38052.9630193451,22415.6109442507
6036870448,7629,1,0,2436.1310840117,46004.1270237488,-3233.5289276064,18098.8771423755,56596.1679466040,53829.0390059178,40111.4818001536,55762.9484035626,38057.6110795314,22416.7790431457
6036870448,7629,1,0,2444.5267948195,46000.3550377337,-3232.1296424717,18116.3499550133,56599.8182556509,53817.3215138773,40109.8026579920,55761.6707953961,38055.8102604016,22416.1706583045
6036870448,7629,1,0,2435.9364008625,45994.3198601096,-3241.7421229619,18107.1755116088,56592.9800100364,53817.9298987185,40106.4565413657,55756.8523874543,38053.1820378879,22419.2247502071
6036870448,7629,1,0,2423.1968222889,45995.4392882173,-3244.9300595295,18092.6472816022,56591.9822588969,53824.7559766361,40108.3790374637,55758.9573990046,38054.7151676876,22421.2202524861
6036870448,7629,1,0,2439.8300638459,46000.0995161005,-3235.6339391567,18116.1431041673,56601.0715284236,53817.3580169678,40110.8612476156,55764.6153780273,38056.3213036682,22418.8475516056
6036890261,7630,1,0,2452.3141207862,46000.2941992496,-3230.8520343053,18126.5464849509,56601.0350253332,53817.2850107868,40112.7472406231,55761.1232490391,38055.3357202255,22418.6407007596
6036890261,7630,1,0,2435.4375252928,46002.8250801888,-3234.5753495331,18104.3161028554,56598.7109952400,53829.9759185732,40114.7792459926,55761.9628201199,38058.6453337614,22418.7015392437
6036890261,7630,1,0,2432.0062347887,46006.7552462626,-3228.8808674200,18107.4675363325,56606.0359487274,53831.0101728031,40118.1983687998,55768.6185502820,38063.9991203635,22419.5654457181
6036890261,7630,1,0,2439.1486728238,46002.9710925507,-3228.1143025202,18111.7018948269,56605.4032284926,53821.8600647923,40113.4773024325,55767.6207991426,38060.0324511992,22415.8299627935
6036890261,7630,1,0,2432.9553151409,45999.5763051371,-3236.0598085455,18088.1330660809,56597.0926915625,53822.6631327826,40107.5272986861,55759.6022869362,38057.0391977807,22415.6109442507
6036890261,7630,1,0,2432.2860918156,46001.8759998366,-3237.6051060421,18085.6995267163,56598.2242873671,53821.5802077653,40106.8094045736,55762.9605712594,38059.3023893898,22412.9462186465
6036890261,7630,1,0,2446.9359987905,46000.9755902717,-3235.8164546091,18106.3967790121,56599.5262309271,53810.3250882041,40104.7773992041,55761.3179321883,38058.3776444313,22413.4694296098
6036890261,7630,1,0,2435.0724943881,45993.0057488527,-3249.7971382586,18090.7612885946,56588.6239745738,53810.0087280867,40098.9734078196,55751.4742654585,38052.3059637166,22416.0003105490
6036921556,7631,1,0,2421.9313818193,45996.8507410487,-3253.9219874816,18078.5449209844,56589.1958563244,53819.4995316086,40101.5042887587,55754.1754941532,38054.8976831399,22422.4613575620
6036921556,7631,1,0,2434.1112463391,45998.1040138215,-3247.1810834417,18096.7842985220,56596.2044496945,53810.0573988740,40100.6160468907,55757.7284616255,38054.0337766655,22423.9336488776
6036921556,7631,1,0,2441.0346658313,45992.3730286179,-3248.6655424541,18093.8640512845,56590.6803153368,53809.6923679693,40095.7124650710,55751.5107685490,38049.5317288410,22421.6582895717
6036921556,7631,1,0,2431.2153344952,45993.7358106621,-3250.9165663664,18077.3768220894,56584.9371624364,53819.9254009974,40098.4501968562,55750.4400112286,38053.7539196385,22423.8119719093
6036921556,7631,1,0,2434.1112463391,45998.8705787213,-3241.9003030206,18092.6594492990,56589.7190672878,53815.6058686253,40102.9279092870,55754.5891958452,38058.8643523042,22424.0674935426
6036921556,7631,1,0,2437.9440708383,45995.5366297919,-3239.0652296608,18105.0339969680,56588.7456515420,53805.6161895336,40098.4501968562,55751.0483960697,38054.3014659956,22418.1174897962
6036921556,7631,1,0,2425.7885417122,45993.7236429652,-3243.0562342187,18085.0789741783,56581.3355241768,53814.3890989430,40094.8120555061,55744.5873490567,38051.5759019072,22416.5113538156
6036921556,7631,1,0,2429.4266830622,45996.3396977822,-3239.2964159004,18086.6972778558,56586.0200874536,53817.5770355106,40096.6980485137,55746.8627083626,38053.1942055847,22416.8155462362
6036977573,7632,1,0,2441.8864046089,45992.9084072781,-3235.1228958902,18103.2331778382,56587.9304158548,53805.3485002035,40094.4105215110,55744.0519703965,38051.2595417898,22413.8466282114
6036977573,7632,1,0,2426.9566406072,45988.3941917568,-3244.2486685074,18086.0280545305,56578.6829662694,53810.0330634804,40092.0621560241,55738.2479790120,38049.2032010268,22415.1120686809
6036977573,7632,1,0,2412.8056092021,45992.5677117671,-3241.8759676269,18080.0658830873,56579.1940095360,53817.3336815741,40095.2622602886,55744.0641380934,38053.7539196385,22419.0057316643
6036977573,7632,1,0,2427.8205470816,45992.6528856448,-3232.0809716844,18101.4810294957,56587.8209065834,53806.7721207318,40095.5177819219,55747.5684347784,38053.2185409783,22420.0643212879
6036977573,7632,1,0,2437.0436612734,45992.1053392878,-3231.1318913322,18095.0808209668,56584.9128270428,53807.9645550205,40094.9093970807,55743.1393931348,38050.0792751980,22422.9237300413
6036977573,7632,1,0,2430.0715709939,45994.2225185350,-3234.5753495331,18076.5250833118,56582.8686539765,53822.3589403620,40098.4623645530,55744.9767153551,38052.8413423768,22425.0165738948
6036977573,7632,1,0,2438.0779155034,46001.5718074160,-3222.7970190085,18094.1560760082,56591.4103771462,53822.0060771541,40106.4565413657,55753.9443079136,38059.8134326564,22427.7178025895
6036977573,7632,1,0,2439.7813930586,45998.0431753374,-3224.6586766224,18096.4314353141,56587.0178385931,53814.7297944540,40100.4700345288,55751.1822407348,38056.6376637856,22426.0264927311
6036990390,7633,1,0,2426.7376220644,45995.7556483347,-3230.0246309214,18074.2375563091,56581.8465674434,53820.8258105623,40097.9026504992,55747.3372485387,38055.5669064652,22424.1891705109
6036990390,7633,1,0,2432.5902842362,46001.1459380272,-3224.5735027447,18084.2394030975,56589.7190672878,53816.3846012219,40102.7575615315,55751.8392963632,38060.5921652530,22423.0819101000
6036990390,7633,1,0,2447.5808867221,45996.0598407552,-3223.2472237910,18102.5517868161,56593.0165131268,53805.2146555385,40100.7377238589,55749.0163907003,38056.6254960888,22421.5609479971
6036990390,7633,1,0,2437.4573629654,45990.3775263389,-3231.9227916257,18083.1808134740,56581.8343997466,53806.1028974066,40097.5254518977,55740.7180214670,38050.5294799805,22421.3540971511
6036990390,7633,1,0,2422.3815866018,45988.8565642361,-3237.3009136215,18075.2596428422,56578.4761154234,53803.4260041055,40096.6128746359,55740.5720091052,38049.0815240585,22416.5965276933
6036990390,7633,1,0,2433.7583831312,45987.1530866808,-3234.6848588045,18095.7987150793,56581.2138472086,53793.5823373757,40093.6317889143,55738.7346868849,38043.8980852120,22411.9849705974
6036990390,7633,1,0,2437.1410028480,45983.9529824164,-3242.3991785903,18091.0289779247,56576.0304083620,53796.9771247894,40090.2370015007,55732.7968508353,38040.1260991969,22415.3554226174
6036990390,7633,1,0,2431.2396698889,45986.9097327444,-3247.2662573195,18079.2871504906,56574.7041294083,53804.8374569370,40095.2379248949,55735.3155640777,38044.0075944834,22422.8872269508
6037022573,7634,1,0,2435.7538854102,45988.1386701235,-3242.3870108935,18093.3773434116,56580.7758101230,53799.2403163984,40097.1360855993,55739.4039102102,38046.8670032368,22421.0499047305
6037022573,7634,1,0,2432.9431474441,45985.1940874924,-3243.4090974266,18092.4404307562,56578.1962583965,53798.1573913812,40094.7633847188,55736.9217000583,38043.3505388549,22419.5167749308
6037022573,7634,1,0,2418.5487621025,45987.5059498887,-3246.9742325957,18071.9013585191,56576.4684454476,53807.7577041745,40096.4060237899,55738.4304944643,38042.9976756471,22420.7092092195
6037022573,7634,1,0,2427.9787271403,45994.5145432587,-3236.4370071471,18087.8045382667,56585.6185534585,53804.1073951276,40101.7841457857,55745.5607648026,38047.8282512858,22422.6073699239
6037022573,7634,1,0,2441.3023551614,45991.1684266324,-3234.3563309903,18102.2719297891,56586.8231554440,53794.4219084565,40098.5353707340,55742.6405175651,38046.3924630607,22420.7943830973
6037022573,7634,1,0,2426.0927341328,45988.5158687250,-3242.2166631379,18080.3335724174,56577.9772398537,53803.2434886532,40097.2090917803,55736.8121907869,38047.8404189826,22421.0985755178
6037022573,7634,1,0,2414.6307637255,45988.5402041187,-3240.3306701304,18075.1623012676,56578.4396123329,53804.8009538465,40098.7543892768,55740.3773259560,38050.7850016138,22420.5753645544
6037022573,7634,1,0,2425.8372124995,45985.1210813114,-3235.5974360663,18089.6175250933,56580.4959530960,53795.0059579040,40094.7998878093,55739.3430717260,38047.1468602637,22416.4748507251
6037045892,7635,1,0,2432.9553151409,45984.4518579862,-3238.0553108245,18079.4940013366,56575.0691603130,53800.9194585600,40091.1617464592,55735.8752781315,38044.7741593832,22418.9205577865
6037045892,7635,1,0,2434.5979542120,45990.2436816739,-3236.7898703549,18072.2542217269,56578.3909415457,53808.8041261012,40095.6151234964,55740.8031953448,38050.1036105917,22424.8705615329
6037045892,7635,1,0,2441.6795537629,45991.0345819674,-3229.5865938357,18093.4016788052,56584.2679391111,53799.9338751173,40095.8219743424,55743.3705793744,38052.1599513547,22424.0796612394
6037045892,7635,1,0,2431.9453963046,45983.2229206070,-3235.4757590980,18088.0600599000,56575.3125142495,53797.5246711464,40090.9305602196,55737.1772216916,38046.8791709336,22420.3198429212
6037045892,7635,1,0,2417.3441601171,45987.4086083141,-3238.3716709419,18068.4822357118,56570.8591372123,53806.5896052795,40092.6827085621,55737.4205756280,38051.1743679121,22421.8894758113
6037045892,7635,1,0,2429.5726954241,45994.1130092636,-3226.5690050236,18086.5390977971,56579.9727421326,53800.9194585600,40097.8661474087,55743.2854054967,38054.8003415653,22422.0841589605
6037045892,7635,1,0,2444.1374285212,45991.2292651165,-3223.5879193020,18095.9325597444,56578.8411463281,53792.4142384807,40093.6196212175,55739.4160779070,38050.0549398044,22419.6384518991
6037045892,7635,1,0,2432.1765825442,45985.0237397368,-3237.9336338563,18070.2587194480,56568.3647593636,53795.5413365642,40089.4339335104,55732.0546213291,38044.1779422389,22417.4726018646
6037106647,7636,1,0,2428.7452920402,45985.8633108176,-3239.2234097195,18073.1424635950,56572.0029007136,53799.6661857872,40092.5731992907,55736.2038059457,38047.6335681366,22420.8065507941
6037106647,7636,1,0,2440.5236225648,45985.6077891843,-3238.3473355483,18089.5688543060,56578.0015752473,53796.2470629800,40096.1505021567,55738.2601467088,38048.7894993348,22424.3230151759
6037106647,7636,1,0,2437.0436612734,45982.8335543087,-3246.4266862387,18073.8481900108,56571.3215096915,53800.6761046235,40095.0554094426,55732.9793662876,38047.3537111097,22425.2964309217
6037106647,7636,1,0,2432.6876258108,45986.0336585731,-3245.8548044880,18067.3993106946,56573.7793844498,53801.2479863742,40096.4181914868,55737.6882649581,38049.8602566552,22423.4956117919
6037106647,7636,1,0,2438.9661573714,45983.2350883039,-3239.7466206829,18084.7382786673,56576.3832715699,53784.6755833014,40095.2257571981,55736.6661784250,38046.6723200876,22420.1859982561
6037106647,7636,1,0,2427.9908948371,45975.5329362149,-3246.3415123609,18073.6535068616,56566.1259031481,53783.0207765334,40088.7160393978,55727.3092195682,38038.6294724876,22417.1927448377
6037106647,7636,1,0,2412.0755473927,45977.1755752860,-3249.1765857207,18057.7503271140,56561.4048367808,53795.2249764468,40092.0013175400,55728.8910201551,38041.9147506298,22421.8894758113
6037106647,7636,1,0,2424.3649211839,45980.3270087632,-3241.7542906587,18078.4962501971,56568.6567840873,53788.2893892578,40096.5398684550,55733.6972604002,38044.2996192071,22424.2500089950
6037115309,7637,1,0,2438.6376295572,45978.1733264255,-3240.5375209764,18084.1420615230,56566.3449216910,53785.2352973552,40095.2987633791,55729.4994049963,38040.4302916174,22424.6150398997
6037115309,7637,1,0,2428.9643105830,45978.0029786700,-3244.9178918326,18064.9657713300,56562.0497247125,53793.8621944027,40096.0044897948,55725.1798726241,38038.6659755781,22422.5100283493
6037115309,7637,1,0,2428.6236150719,45981.6654554137,-3236.5586841153,18073.6900099521,56569.1313242634,53791.8910275174,40100.1171713209,55731.3002241261,38043.5330543073,22420.1981659529
6037115309,7637,1,0,2434.7196311802,45978.3923449683,-3234.0886416602,18086.2835761638,56567.9145545811,53783.5074844063,40097.6836319563,55729.8035974169,38042.0729306885,22418.5190237914
6037115309,7637,1,0,2428.9521428862,45975.5694393054,-3241.7542906587,18068.9081051006,56560.5044272159,53790.9176117715,40095.2014218045,55726.0316114017,38042.1459368695,22420.5388614640
6037115309,7637,1,0,2430.8138005001,45980.6433688806,-3240.1238192844,18069.4313160640,56566.4057601751,53797.6706835083,40098.3771906753,55730.5458269231,38047.6335681366,22421.3175940606
6037115309,7637,1,0,2447.0090049714,45983.2472560007,-3229.9881278309,18092.7567908736,56576.2372592080,53794.9572871167,40100.7985623430,55736.1064643711,38052.0382743865,22422.0476558700
6037115309,7637,1,0,2439.3676913666,45981.5681138391,-3235.2324051616,18081.5746774933,56573.8767260243,53800.3597445061,40100.6890530716,55735.9847874029,38052.3789698976,22422.0476558700
6037143892,7638,1,0,2421.6636924892,45984.8047211940,-3238.4325094260,18067.2898014232,56573.9497322053,53806.6869468541,40105.8603242214,55738.6008422199,38055.0923662891,22421.3054263638
6037143892,7638,1,0,2428.9278074925,45985.1089136146,-3231.4482514496,18086.3079115574,56582.0777536830,53795.6386781388,40107.3934540211,55743.9667965188,38054.6299938098,22420.4780229799
6037143892,7638,1,0,2436.4961149164,45981.5072753550,-3235.6947776409,18088.1939045650,56576.1399176334,53789.1411280354,40103.3902817663,55736.3741537013,38049.5560642346,22420.8187184909
6037143892,7638,1,0,2423.5010147095,45978.1003202446,-3247.0837418671,18067.6061615406,56566.5396048401,53794.4462438502,40100.4943699224,55730.4241499548,38046.8061647526,22418.5676945787
6037143892,7638,1,0,2423.1238161080,45978.3558418779,-3243.8227991186,18078.3137347448,56569.3503428062,53786.2208807979,40100.0685005336,55732.9793662876,38047.8160835890,22417.1927448377
6037143892,7638,1,0,2427.9543917467,45973.5982724201,-3246.4510216323,18084.3489123690,56564.2034070501,53773.3231221656,40091.4537711830,55726.0681144922,38039.2743604193,22413.1287340988
6037143892,7638,1,0,2415.5676763809,45974.3891727136,-3254.2870183863,18065.3308022347,56557.8762047022,53783.1181181080,40087.8764683171,55722.1744515089,38036.7069763896,22414.1143175415
6037143892,7638,1,0,2422.3572512081,45982.4563557072,-3245.6966244293,18073.9455315853,56566.9776419257,53789.4818235464,40094.4348569046,55731.1177086737,38044.7011532023,22417.5212726519
6037173240,7639,1,0,2445.2081858416,45986.4838633556,-3234.2589894157,18101.0794955005,56576.9186502301,53787.9486937467,40098.6205446117,55735.7292657696,38049.5560642346,22421.5122772098
6037173240,7639,1,0,2441.8012307312,45986.9705712285,-3237.9823046436,18092.4525984530,56573.9253968116,53799.8243658459,40101.3217733064,55735.3642348649,38051.7827527532,22427.5596225308
6037173240,7639,1,0,2433.1743336837,45990.5600417913,-3239.3085835973,18084.0447199484,56575.8235575160,53806.8207915191,40106.9675846322,55739.0510470023,38058.2681351599,22431.3559439396
6037173240,7639,1,0,2446.3276139493,45994.2833570191,-3232.5190087701,18102.7464699652,56583.4283680304,53797.0379632735,40107.4542925052,55742.7743622301,38058.9981969692,22430.7840621889
6037173240,7639,1,0,2450.4037923850,45988.5158687250,-3238.8827142085,18095.4458518715,56577.1133333793,53791.6963443682,40100.1415067146,55736.4836629727,38051.6124049977,22429.2144292987
6037173240,7639,1,0,2439.1608405206,45988.6253779964,-3244.2486685074,18077.0361265784,56573.7063782688,53798.5102545890,40101.6746365143,55734.3178129382,38049.9697659266,22428.6303798512
6037173240,7639,1,0,2443.0545035039,45990.8155634246,-3238.3716709419,18090.8707978660,56578.6829662694,53792.8157724759,40103.2199340108,55738.2479790120,38051.6732434818,22426.7200514500
6037173240,7639,1,0,2444.2591054894,45987.7249684315,-3238.2134908832,18096.2367521650,56576.5171162349,53792.0613752729,40100.8107300398,55735.8752781315,38048.8016670316,22427.0364115674
6037217684,7640,1,0,2430.5582788668,45984.9629012527,-3245.3194258278,18073.6048360743,56570.4697709139,53801.5521787948,40098.1825075261,55730.6553361945,38050.5051445868,22427.0729146579
6037217684,7640,1,0,2434.7804696643,45991.2049297229,-3239.0043911767,18081.8910376107,56579.6077112280,53804.2047367022,40102.9765800743,55738.3818236770,38056.3456390618,22429.7619756558
6037217684,7640,1,0,2454.4799708207,45991.3266066911,-3234.4415048681,18099.6923780627,56585.9957520600,53798.1208882907,40102.0640028126,55740.1339720195,38054.4961491447,22431.6844717538
6037217684,7640,1,0,2447.5808867221,45988.8443965392,-3238.5785217879,18082.0735530631,56578.2327614870,53803.1461470786,40099.6547988417,55735.5832534078,38054.0946151496,22435.9918364291
6037217684,7640,1,0,2436.9706550925,45995.0134188285,-3233.6992753619,18079.5548398207,56581.6275489006,53808.5729398616,40106.5660506371,55741.8982880589,38060.9328607641,22441.6254800581
6037217684,7640,1,0,2440.9251565599,45992.8354010972,-3229.3310722025,18099.0839932215,56588.2589436691,53794.0203744614,40105.0694239279,55743.1515608316,38060.6530037372,22438.8025743952
6037217684,7640,1,0,2439.6962191808,45988.6253779964,-3234.0278031761,18093.5841942576,56584.0002497810,53797.1596402417,40104.1081758789,55739.8176119021,38056.8566823284,22433.5704647613
6037217684,7640,1,0,2435.0359912976,45992.0079977132,-3239.2477451132,18083.5823474691,56585.7158950331,53809.6071940916,40110.4597136204,55743.4922563427,38062.1983012337,22434.1666819057
6037242970,7641,1,0,2445.8530737732,45995.5001267014,-3236.1571501201,18103.6833826206,56591.9944265937,53802.9879670199,40114.4750535720,55748.4810120401,38065.4957470727,22434.2640234802
6037242970,7641,1,0,2450.3794569914,45994.4780401683,-3234.6361880173,18105.8127295646,56589.8042411656,53802.8176192644,40112.6377313517,55746.7775344849,38063.2812262509,22436.9287490845
6037242970,7641,1,0,2437.8467292637,45997.6416413422,-3236.1693178169,18082.7549440851,56585.2291871602,53810.3737589914,40111.7251540900,55744.6360198440,38064.3154804809,22436.3203642433
6037242970,7641,1,0,2442.7259756897,46002.3383723159,-3226.0822971507,18093.8153804972,56593.6005625743,53805.3363325067,40112.7472406231,55749.7099494192,38066.2258088821,22433.7043094264
6037242970,7641,1,0,2454.6381508794,45997.5808028581,-3222.8456897958,18104.9001523029,56593.5762271807,53794.9937902072,40107.2352739624,55745.8649572231,38060.2271343484,22429.7133048685
6037242970,7641,1,0,2441.0711689218,45990.9250726960,-3232.2269840463,18081.2704850727,56584.3531129889,53801.5521787948,40102.7088907442,55740.1704751100,38057.2095455363,22428.1193365847
6037242970,7641,1,0,2431.0328190429,45991.1562589356,-3232.6893565256,18077.8756976591,56585.4360380061,53802.1483959391,40104.9599146565,55745.5729324994,38060.9085253704,22426.1481696993
6037242970,7641,1,0,2438.3334371366,45992.1783454687,-3228.0777994297,18099.7775519404,56590.5221352781,53797.1353048480,40105.4466225294,55748.2619934973,38061.0302023387,22422.7655499826
6037265430,7642,1,0,2435.6322084419,45991.5334575371,-3232.5798472542,18092.8297970545,56587.1760186518,53802.7324453866,40104.3515298153,55743.1758962253,38059.5579110231,22419.1274086325
6037265430,7642,1,0,2433.2716752583,46002.2410307413,-3228.9538736009,18088.7414509220,56598.0539396115,53812.7099567814,40112.3213712343,55752.2773334488,38069.1582238164,22422.9358977381
6037265430,7642,1,0,2452.4966362385,46008.4222207273,-3215.7519225480,18112.5536336045,56611.1950521803,53810.4224297787,40118.7945859442,55763.9583223989,38074.6945258708,22427.2797655039
6037265430,7642,1,0,2454.4678031239,46005.7696628199,-3217.4067293160,18111.5802178587,56605.4153961894,53811.7243733388,40119.0257721838,55763.2890990736,38073.4777561885,22433.1202599789
6037265430,7642,1,0,2444.0765900371,46010.2352075540,-3218.2584680936,18096.2854229523,56606.1576256956,53825.5468769296,40124.0510309717,55767.0610850887,38077.8459593480,22443.0612682832
6037265430,7642,1,0,2455.9887652267,46016.9031054129,-3205.2146970994,18114.8168252136,56616.7191865379,53820.2539288116,40131.6315060924,55774.5077155444,38083.8081307912,22446.7724158142
6037265430,7642,1,0,2470.4196536587,46015.1387893736,-3200.3962891575,18125.1958706036,56618.2279809440,53814.1700804002,40130.9136119798,55772.3662009035,38080.1699894412,22448.9747689392
6037265430,7642,1,0,2455.8062497744,46011.0261078475,-3209.6315710461,18099.7653842436,56608.3478111237,53818.6477928310,40125.9735270697,55766.0511662524,38077.5661023210,22447.7579992569
6037294467,7643,1,0,2449.5033828201,46012.1577036520,-3211.1038623617,18095.5431934461,56609.1995499014,53815.5937009284,40124.3917264827,55767.9006561695,38078.8437104875,22443.3167899165
6037294467,7643,1,0,2457.2177026058,46009.8336735588,-3211.3958870854,18108.7816475894,56609.9904501948,53806.6626114604,40119.1961199393,55766.0389985556,38075.1568983501,22441.3821261217
6037294467,7643,1,0,2453.5552258621,46007.4853080720,-3220.5094920058,18097.0641555489,56604.7705082578,53810.8726345612,40114.8522521735,55760.2593425647,38070.2898196209,22441.0901013979
6037294467,7643,1,0,2448.7489856171,46009.6389904096,-3220.5946658836,18092.9758094164,56603.8700986929,53810.5927775342,40115.6674878607,55760.9772366772,38067.8076094690,22439.4839654173
6037294467,7643,1,0,2458.2641245326,46007.8990097640,-3212.8560107042,18116.0214271991,56605.7682593973,53799.1673102175,40114.9739291417,55760.2350071710,38065.5687532536,22439.4231269332
6037294467,7643,1,0,2447.1793527269,46000.2455284623,-3221.0083675756,18106.1899281661,56592.5419729507,53791.4894935222,40111.7616571805,55750.0141418398,38057.1487070522,22438.1820218572
6037294467,7643,1,0,2424.3162503966,45993.3586120605,-3230.5600095816,18083.0591365057,56581.5180396292,53793.6066727694,40109.0117576985,55742.5310082937,38053.8269258195,22433.4487877931
6037294467,7643,1,0,2436.7029657624,45993.0179165495,-3220.0592872234,18098.5851176518,56587.7722357961,53794.2880637915,40112.6742344422,55747.6171055657,38058.0734520107,22434.1545142088
6037336322,7644,1,0,2458.0451059898,45990.9980788769,-3212.9411845819,18109.7307279416,56587.7113973120,53793.5701696789,40112.8689175914,55745.0132184455,38058.0369489202,22437.0625937495
6037336322,7644,1,0,2450.7079848056,45993.3099412733,-3217.6865863429,18094.3385914606,56587.5045464660,53801.6860234598,40115.5579785892,55743.3097408903,38060.3974821039,22440.8224120678
6037336322,7644,1,0,2444.5267948195,45996.1085115425,-3212.4788121027,18103.3061840191,56590.6924830337,53797.4881680559,40116.5192266383,55747.8239564116,38062.7945183780,22440.9805921265
6037336322,7644,1,0,2448.4934639838,45990.0368308279,-3210.0817758286,18115.8145763531,56588.1737697913,53789.3844819718,40113.5381409166,55747.6171055657,38060.9571961577,22437.6466431970
6037336322,7644,1,0,2439.1121697333,45985.1089136146,-3216.6644998098,18092.5256046340,56581.2868533895,53795.0302932977,40109.5106332682,55740.3164874719,38056.3699744555,22435.1035945610
6037336322,7644,1,0,2438.2482632589,45991.2049297229,-3211.1281977553,18090.3354192058,56586.3729506615,53796.3322368577,40115.2659538655,55747.1425653896,38062.4051520797,22436.7340659353
6037336322,7644,1,0,2449.5277182137,45990.4018617326,-3205.5432249136,18108.1732627483,56591.8727496255,53789.6156682115,40113.0149299533,55746.8870437563,38061.1640470037,22437.7196493780
6037336322,7644,1,0,2443.4438698023,45989.6474645296,-3211.4810609632,18094.4359330352,56586.8596585344,53798.5102545890,40111.3722908822,55744.9280445678,38060.9936992482,22438.0968479795
6037358956,7645,1,0,2432.7362965981,45995.0499219189,-3214.9610222546,18081.6476836743,56587.9060804612,53808.8041261012,40115.5823139829,55748.0186395608,38065.7269333123,22439.8489963220
6037358956,7645,1,0,2445.3541982035,45999.1869388387,-3206.1759451484,18104.3769413395,56599.8669264382,53802.3187436946,40120.4858958025,55757.6797908382,38069.5232547211,22439.1919406935
6037358956,7645,1,0,2455.4290511729,46000.6105593670,-3203.9735920234,18111.1056776826,56600.3171312206,53799.1916456111,40120.2912126534,55757.8744739874,38067.2965662025,22438.4010404001
6037358956,7645,1,0,2446.9481664873,46002.9589248539,-3208.4391367575,18098.8649746787,56599.0030199637,53807.3683378761,40124.5012357541,55760.2106717774,38069.4259131465,22439.7394870506
6037358956,7645,1,0,2447.9459176268,46006.4023830547,-3203.3773748791,18112.3346150617,56603.8457632993,53801.2114832837,40129.1371282437,55762.7658881102,38071.1902291858,22439.1189345126
6037358956,7645,1,0,2452.3871269671,46000.1481868878,-3204.7036538328,18114.8046575168,56595.7299095184,53790.5525808668,40120.4007219248,55752.8978859868,38064.5710021141,22434.7994021405
6037358956,7645,1,0,2438.4672818017,45998.7002309658,-3212.9898553692,18089.5566866092,56588.0520928231,53798.8022793128,40117.9671825602,55745.1713985042,38063.0622077081,22434.8115698373
6037358956,7645,1,0,2442.4217832691,46002.5452231619,-3209.5829002588,18092.1484060325,56592.6514822222,53798.2912360462,40121.2402930056,55748.5783536147,38064.9603684125,22435.3104454070
6037416646,7646,1,0,2461.9874397604,46001.1459380272,-3206.3827959944,18109.5725478829,56596.8858407165,53788.6909232529,40119.2934615139,55750.1723218985,38060.7016745244,22431.2464346682
6037416646,7646,1,0,2457.7409135692,45999.7344851958,-3215.8979349099,18094.6792869716,56589.7434026815,53794.8234424517,40119.3664676948,55745.2444046852,38057.7570918933,22429.0927523305
6037416646,7646,1,0,2445.6218875336,46003.5916450886,-3214.7298360149,18086.1618991956,56594.8781707407,53801.8077004281,40125.7058377396,55751.0118929793,38064.1573004222,22429.1657585114
6037416646,7646,1,0,2455.6845728062,46006.0251844532,-3204.5576414709,18110.6189698097,56603.3833908200,53796.7216031561,40129.5386622388,55757.1079090875,38068.2578142515,22431.4897886046
6037416646,7646,1,0,2465.9176058342,46006.4388861452,-3204.8983369820,18112.3711181522,56604.9773591038,53796.7946093370,40127.7865138963,55756.1953318258,38066.8098583296,22434.7628990500
6037416646,7646,1,0,2458.8603416769,46010.1256982826,-3210.3738005523,18093.6572004385,56602.0936149567,53802.5134268438,40128.1758801946,55757.5094430827,38069.0973853323,22435.4686254657
6037416646,7646,1,0,2465.2605502058,46012.0238589869,-3205.9204235151,18105.2773509044,56608.7980159062,53796.9041186084,40129.0762897595,55761.0015720709,38071.1902291858,22434.5073774167
6037416646,7646,1,0,2466.4529844945,46006.9620971086,-3209.6072356525,18108.5382936530,56602.5924905265,53792.1708845443,40123.4913169178,55754.5040219674,38065.3740701045,22433.3392785217
6037424019,7647,1,0,2448.9193333726,46003.3847942427,-3221.3855661771,18090.5787731423,56594.3914628678,53799.1916456111,40123.4548138273,55748.2863288909,38065.7025979187,22432.6092167123
6037424019,7647,1,0,2453.3848781066,46007.8503389767,-3213.0263584597,18101.2498432560,56601.6069070838,53800.1042228728,40129.8063515689,55756.8037166670,38070.4479996796,22435.6146378276
6037424019,7647,1,0,2472.4394913313,46006.3658799643,-3203.7180703902,18116.9218367640,56606.5713273876,53791.6598412777,40129.6360038134,55757.2174183590,38070.3993288923,22435.2982777102
6037424019,7647,1,0,2464.9441900884,46001.9611737144,-3209.9357634667,18093.4138465020,56598.9178460860,53796.9771247894,40127.4579860821,55751.8757994537,38069.9612918067,22430.8814037635
6037424019,7647,1,0,2454.8936725127,46007.4366372847,-3210.7753345475,18083.7891983151,56602.7506705852,53803.3164948341,40132.3737355986,55757.1079090875,38077.3349160814,22432.4145335632
6037424019,7647,1,0,2462.8026754476,46009.0306055685,-3207.7577457354,18101.4445264052,56609.1143760236,53794.3975730629,40131.3151459750,55758.9087282173,38076.7508666339,22431.1855961840
6037424019,7647,1,0,2464.0072774330,46005.6601535485,-3211.5297317505,18094.5576100034,56602.7871736757,53797.9748759288,40126.7400919695,55753.0195629550,38072.8572036506,22431.0395838222
6037424019,7647,1,0,2459.9432666942,46005.1247748883,-3213.6590786945,18080.8567833808,56598.4433059099,53801.2479863742,40126.3142225807,55751.3525884903,38074.9743828978,22433.1689307662
6037453688,7648,1,0,2469.3732317320,46001.6204782033,-3207.4778887084,18096.9668139743,56599.0638584478,53789.9441960257,40124.5864096319,55750.2939988667,38072.5651789268,22431.1125900031
6037453688,7648,1,0,2468.7283438003,45993.9791645985,-3208.8406707526,18097.0519878521,56590.5829737622,53784.6512479077,40120.6440758612,55744.9523799614,38066.8098583296,22431.2464346682
6037453688,7648,1,0,2449.4060412455,45990.0855016152,-3218.1976296095,18071.6580045826,56584.0245851747,53790.0293699035,40119.0987783647,55741.8861203620,38066.4569951217,22432.4145335632
6037453688,7648,1,0,2447.7147313871,45989.8299799819,-3217.0660338049,18079.5305044271,56587.0786770772,53780.3803863229,40119.5611508440,55741.9712942398,38063.0500400113,22428.8737337877
6037453688,7648,1,0,2459.3713849435,45984.2936779275,-3214.7785068022,18092.2092445166,56584.0854236588,53769.2834468203,40113.5746440071,55733.7946019748,38055.2870494382,22425.5641202518
6037453688,7648,1,0,2450.3186185072,45981.2760891154,-3219.7307594092,18074.7851026661,56573.5238628165,53775.4159660191,40109.9851734443,55726.6764993334,38052.1477836579,22430.2851866191
6037453688,7648,1,0,2438.4551141049,45982.9065604896,-3218.3436419713,18071.6823399763,56571.3093419947,53776.1216924348,40114.1465257578,55729.1708771821,38054.2162921178,22430.9787453381
6037453688,7648,1,0,2442.7503110834,45981.1665798440,-3214.5959913499,18094.3264237638,56572.2705900437,53768.5533850110,40113.8179979436,55729.8522682042,38053.1577024942,22428.5573736703
6037485391,7649,1,0,2439.5745422126,45977.0538983178,-3220.1201257075,18086.8189548240,56564.5562702580,53773.7976623416,40110.2528627744,55723.9752706387,38048.5339777015,22427.5474548340
6037485391,7649,1,0,2439.1730082174,45980.7163750615,-3222.3224788324,18080.4309139920,56566.8681326543,53778.5065610121,40113.9031718213,55728.2217968299,38052.3668022007,22426.8782315087
6037485391,7649,1,0,2456.5241438869,45982.6145357659,-3213.9511034183,18100.8848123513,56573.3413473641,53771.8873339404,40114.8887552640,55730.3024729866,38053.0725286165,22426.4523621199
6037485391,7649,1,0,2461.4033903129,45980.8745551202,-3213.4400601517,18100.1669182388,56571.5040251439,53775.1482766890,40115.4241339242,55729.4385665122,38050.9918524597,22429.6281309907
6037485391,7649,1,0,2445.0135026924,45983.8556408418,-3219.7550948028,18077.6201760259,56567.5616913732,53783.1789565921,40117.5656485650,55730.4728207421,38051.5393988168,22430.1513419541
6037485391,7649,1,0,2448.4812962870,45987.5302852824,-3212.2841289535,18088.4007554110,56575.8722283033,53774.6372334224,40119.0501075774,55736.3619860044,38054.3988075702,22428.0341627069
6037485391,7649,1,0,2456.3781315251,45982.8092189151,-3213.8537618437,18093.5598588639,56572.1124099850,53769.5633038473,40112.4308805058,55731.9207766641,38049.9210951393,22423.7024626379
6037485391,7649,1,0,2445.5853844431,45981.3247599027,-3217.0782015017,18073.0937928077,56564.6292764389,53780.9766034672,40110.5083844077,55730.1077898374,38052.5979884404,22422.9967362222
6037514335,7650,1,0,2441.7890630344,45983.2715913943,-3210.2034527968,18075.0771273899,56567.5373559796,53781.8040068511,40115.6553201638,55733.5512480383,38058.3533090376,22424.7488845647
6037514335,7650,1,0,2454.2731199747,45982.0183186216,-3204.1317720821,18091.2358287707,56571.7108759899,53773.2379482878,40118.6120704918,55735.7536011633,38055.2992171351,22425.5762879487
6037514335,7650,1,0,2449.5763890010,45981.7993000788,-3210.5684837015,18079.5183367302,56568.9731442047,53781.1226158291,40119.3786353917,55732.1032921164,38054.3258013892,22422.9480654349
6037514335,7650,1,0,2445.4758751717,45990.8520665150,-3209.8870926794,18079.1654735224,56577.4661965871,53788.3623954387,40127.8838554709,55740.6936860734,38060.7746807054,22423.5929533665
6037514335,7650,1,0,2459.5782357895,45993.7723137525,-3201.3697049033,18102.7586376621,56587.7113973120,53778.9445980977,40130.4755748942,55746.6801929103,38061.7359287544,22420.0399858942
6037514335,7650,1,0,2456.5728146742,45987.2260928618,-3209.6072356525,18089.5688543060,56579.6198789248,53774.5520595447,40123.0289444385,55737.4205756280,38057.8422657711,22417.9106389502
6037514335,7650,1,0,2442.1784293327,45986.8975650476,-3216.0074441813,18067.8251800834,56573.4386889387,53781.0009388608,40123.5156523115,55734.1961359699,38061.3343947592,22420.4050167989
6037514335,7650,1,0,2448.2501100473,45987.6154591601,-3208.7919999653,18082.9617949311,56578.3787738488,53778.4700579217,40125.0974528984,55738.4548298580,38065.7877717964,22420.6605384322
6037541445,7651,1,0,2460.9045147432,45984.8290565877,-3205.8839204246,18093.0366479005,56580.0822514040,53777.8738407773,40122.0433609959,55735.6440918919,38063.0865431017,22421.1107432146
6037541445,7651,1,0,2452.7399901750,45987.8831484902,-3211.3958870854,18077.5471698449,56579.4251957756,53790.1875499621,40124.2092110304,55738.4183267675,38066.7368521486,22424.1770028140
6037541445,7651,1,0,2451.7787421260,45991.9836623196,-3206.5409760531,18082.5602609360,56584.9736655269,53787.0239487882,40127.4093152948,55745.9622987977,38070.0221302908,22424.5542014155
6037541445,7651,1,0,2456.5119761901,45990.1220047056,-3200.8099908495,18091.7955428246,56585.8132366077,53777.5331452663,40126.5454088204,55745.9988018882,38066.7246844518,22423.2644255523
6037541445,7651,1,0,2443.9305776752,45987.2017574681,-3206.5044729626,18073.9820346758,56579.8632328612,53785.6611667440,40126.1195394316,55743.3462439808,38063.3298970382,22421.5366126035
6037541445,7651,1,0,2444.7214779687,45992.1661777719,-3204.8861692852,18075.0284566026,56586.6163045980,53788.7639294339,40130.3052271387,55748.0673103481,38067.2357277184,22421.8043019336
6037541445,7651,1,0,2469.7382626367,45996.7655671710,-3194.5679623793,18100.4832783562,56597.6280702227,53787.6445013262,40133.1403004984,55755.6477854688,38070.1803103495,22424.5298660219
6037541445,7651,1,0,2466.5138229786,45992.3608609211,-3200.7248169717,18091.6251950691,56591.2278616939,53789.7495128765,40129.9280285371,55748.6878628861,38069.9491241099,22425.4059401931
6037572757,7652,1,0,2449.6007243947,45991.8619853513,-3206.6991561118,18074.1888855218,56587.5653849502,53795.4196595960,40131.1204628258,55749.2962477272,38074.2564887852,22427.0729146579
6037572757,7652,1,0,2459.0063540388,45995.1229280999,-3199.5323826831,18095.9690628349,56596.0462696357,53793.2538095615,40135.5495044693,55756.5360273369,38078.7585366097,22430.8327329762
6037572757,7652,1,0,2469.1055424019,45995.1715988872,-3195.2250180077,18103.0993331731,56595.3283755232,53792.6089216299,40133.8216915205,55756.5116919432,38078.1014809813,22434.8967437150
6037572757,7652,1,0,2458.9941863420,45997.8484921882,-3197.3421972549,18082.7792794788,56593.3450409411,53800.2380675379,40132.2642263271,55755.9884809798,38079.7441200524,22436.5028796957
6037572757,7652,1,0,2459.1523664007,45998.6880632690,-3193.3025219097,18090.0920652694,56598.2607904575,53790.6255870478,40131.8140215447,55759.2129206379,38079.5372692064,22433.5826324582
6037572757,7652,1,0,2464.7251715456,45994.7578971952,-3195.0911733427,18098.2322544439,56595.4135494010,53782.1447023622,40128.0177001359,55755.4896054101,38074.4755073280,22428.9832430591
6037572757,7652,1,0,2455.8549205617,45996.5100455377,-3203.1340209427,18081.6598513711,56592.5419729507,53791.2583072826,40129.0884574564,55755.5626115910,38072.9910483156,22428.9954107559
6037572757,7652,1,0,2454.3096230652,46004.9057563455,-3199.4228734117,18089.8243759393,56601.1201992109,53795.8820320753,40136.8879511199,55762.2305094500,38079.0018905462,22431.4654532110
6037611609,7653,1,0,2472.6828452678,46008.3005437591,-3189.6035420755,18114.7924898200,56611.3532322390,53789.1532957322,40139.0416334575,55765.1142535970,38080.0483124729,22435.4199546784
6037611609,7653,1,0,2469.7139272430,46004.2852038076,-3195.5900489124,18101.7608865226,56602.6289936170,53794.6044239089,40135.9875415550,55759.3954360903,38077.0307236608,22438.2550280382
6037611609,7653,1,0,2457.6070689042,46002.9954279443,-3198.2426068198,18088.0722275968,56598.8813429955,53795.6386781388,40136.8027772421,55758.0083186524,38079.6467784778,22438.7417359111
6037611609,7653,1,0,2468.8743561622,45999.1261003546,-3192.4142800416,18102.5152837256,56600.4509758857,53782.9721057461,40136.2552308851,55757.4364369018,38078.3813380082,22436.0040041259
6037611609,7653,1,0,2474.8121922118,45992.8840718845,-3195.9915829076,18098.7676331041,56595.7542449120,53780.8062557117,40131.8626923320,55750.1601542016,38070.4479996796,22434.9454145023
6037611609,7653,1,0,2466.3678106167,45994.8552387698,-3197.2448556804,18083.8257014056,56593.5883948775,53791.1974687984,40134.8681134473,55751.1700730379,38071.3240738509,22436.9044136908
6037611609,7653,1,0,2474.2038073707,46001.0120933622,-3186.4034378111,18102.2597620923,56603.0183599153,53787.9730291404,40138.5792609783,55759.7604669949,38074.8770413232,22440.1653564394
6037611609,7653,1,0,2473.4007393804,45998.1040138215,-3186.7684687158,18107.2850208802,56597.2265362276,53780.1978708705,40133.2619774666,55756.5360273369,38070.9590429462,22439.6056423855
6037642861,7654,1,0,2454.2852876715,45996.0233376648,-3197.4273711327,18084.4949247308,56590.0719304957,53787.7905136880,40128.7477619453,55752.3746750234,38070.9468752494,22440.8467474615
6037642861,7654,1,0,2456.9500132757,46002.1923599540,-3193.4363665748,18095.0078147859,56598.0052688242,53791.9153629110,40132.8604434715,55758.6167034936,38079.6346107810,22444.6065657798
6037642861,7654,1,0,2475.9681234100,46004.1878622330,-3185.5516990335,18117.6640662702,56605.5979116418,53786.8536010327,40136.0605477359,55761.0137397677,38080.6566973141,22446.8454219952
6037642861,7654,1,0,2469.9572811795,46000.5618885797,-3191.3435227212,18100.9213154418,56597.8592564624,53789.6400036051,40135.5251690757,55756.0371517671,38077.1524006291,22443.1586098578
6037642861,7654,1,0,2462.0117751541,46002.8737509761,-3191.2826842371,18091.7347043405,56599.4653924430,53787.9730291404,40138.9807949734,55758.5315296158,38077.3227483846,22440.5182196472
6037642861,7654,1,0,2465.4917364454,45997.5442997676,-3185.7220467890,18107.2485177897,56599.5870694112,53773.3596252560,40137.3138205087,55755.1245745054,38071.0928876112,22433.5826324582
6037642861,7654,1,0,2465.6012457169,45993.8088168430,-3188.0095737917,18101.5905387671,56594.8660030439,53776.6692387919,40132.9091142588,55751.6811163045,38064.6318405983,22433.3879493090
6037642861,7654,1,0,2462.0604459414,45999.5763051371,-3189.4818651073,18092.8541324482,56596.4356359341,53787.4619858738,40136.0605477359,55753.2264138010,38068.6350128530,22435.7119794022
6037676446,7655,1,0,2479.0100476157,46006.6457369912,-3177.4845160399,18117.4572154242,56606.1819610893,53786.7197563676,40140.2949062303,55760.4175226234,38072.2488188094,22438.9850898476
6037676446,7655,1,0,2483.0253875673,46005.2342841597,-3178.0563977906,18119.3675438254,56606.7295074463,53782.3515532082,40135.9267030709,55758.5680327063,38071.2023968826,22438.0968479795
6037676446,7655,1,0,2466.4894875849,46006.7187431721,-3184.7242956495,18094.7887962430,56602.1666211377,53790.2970592336,40133.8703623078,55758.3976849508,38072.8937067410,22438.3280342191
6037676446,7655,1,0,2466.9883631547,46008.3613822432,-3182.1569116199,18100.6779615053,56607.4108984684,53788.8612710084,40135.2939828361,55763.4472791323,38075.0108859882,22438.4010404001
6037676446,7655,1,0,2481.2002330439,46006.2685383897,-3182.0839054390,18115.4130423579,56608.3599788206,53780.8305911053,40133.3471513444,55758.6288711904,38073.9644640615,22439.3744561459
6037676446,7655,1,0,2471.8067710966,46004.9665948296,-3189.2263434740,18097.8915589329,56603.5537385755,53786.8049302454,40133.3106482539,55755.1975806863,38075.1812337438,22440.7615735837
6037676446,7655,1,0,2466.4043137072,46005.9521782723,-3189.7982252247,18095.5431934461,56604.0647818421,53786.9996133945,40137.8735345625,55758.6532065841,38076.2519910642,22438.8390774857
6037676446,7655,1,0,2479.3264077331,46005.1004394947,-3182.6071164024,18116.0944333800,56607.6055816175,53782.4732301764,40140.1853969589,55761.8654785453,38077.3105806878,22438.8999159698
6037705428,7656,1,0,2476.6495144321,46001.4866335383,-3185.5273636399,18105.4111955695,56602.3369688932,53783.5683228905,40138.1655592863,55756.9253936352,38075.2299045310,22438.6808974270
6037705428,7656,1,0,2468.6796730131,46005.2464518566,-3187.8027229458,18098.0010682043,56605.9021040623,53794.4340761534,40144.2737430914,55762.9240681689,38081.3867591235,22439.6908162633
6037705428,7656,1,0,2481.3340777089,46007.6556558275,-3183.2276689403,18117.8100786320,56612.7160142832,53784.8094279664,40147.4738473558,55768.1926808932,38083.3944290992,22439.1189345126
6037705428,7656,1,0,2481.7477794009,45998.8827464182,-3189.9077344961,18111.3125285286,56601.9719379885,53774.9779289335,40139.1633104258,55758.8965605205,38076.4710096070,22436.3446996370
6037705428,7656,1,0,2459.8945959069,45990.6452156690,-3199.8730781941,18082.1952300313,56588.6969807547,53774.0775193686,40132.7752695937,55750.8172098301,38072.3948311713,22433.9476633629
6037705428,7656,1,0,2459.3348818530,45989.0755827789,-3195.1520118268,18089.9095498170,56590.2422782512,53765.3289453529,40129.6238361166,55750.5616881968,38068.7810252149,22431.6966394506
6037705428,7656,1,0,2469.7869334239,45984.0868270815,-3194.3854469270,18103.6590472270,56589.3053655958,53759.1112522764,40126.7279242727,55745.1835662011,38062.9892015272,22428.3748582179
6037705428,7656,1,0,2461.5980734621,45985.3887706415,-3200.0434259496,18088.3764200173,56585.4603733998,53771.7413215786,40129.1006251532,55742.5066729000,38063.3298970382,22431.8304841157
6037739006,7657,1,0,2457.4488888455,45990.7303895468,-3200.7004815781,18091.2601641644,56589.1715209308,53770.2325271725,40133.4566606158,55745.9744664946,38067.5520878358,22436.0891780037
6037739006,7657,1,0,2467.1100401229,45989.6596322264,-3202.6716484634,18104.2309289776,56589.8285765592,53758.8800660367,40131.3759844591,55745.5851001962,38065.3497347108,22436.1865195783
6037739006,7657,1,0,2460.4299745671,45987.7249684315,-3210.4589744301,18083.0834718994,56583.9394112969,53765.8643240131,40126.6305826981,55741.6671018192,38063.3785678255,22437.2451092019
6037739006,7657,1,0,2456.8405040043,45993.8209845398,-3205.2268647962,18072.3758986952,56589.9015827402,53776.8030834569,40130.8041027084,55746.6315221230,38068.7080190339,22436.2960288497
6037739006,7657,1,0,2476.3696574052,45997.2522750439,-3190.0415791612,18094.9348086049,56600.9620191522,53772.0455139991,40135.1723058678,55753.2142461042,38073.7089424282,22437.7804878621
