steady_timestamp,sequence,battery,flags,EEG-ch1,EEG-ch2,EEG-ch3,EEG-ch4,EEG-ch5,EEG-ch6,EEG-ch7,EEG-ch8,EEG-ch9,EEG-ch10
6023563902,7350,-2,0,2072.3656197930,46126.5097183940,-3752.1891723811,18095.9447274412,56559.3484960178,54592.2821245305,39576.2978230933,55870.7785328075,37877.5291665519,22343.4930051811
6023563902,7350,-2,0,2057.5575327595,46127.1302709320,-3759.7574798050,18081.1731434982,56555.8685347264,54597.0883647755,39578.9990517880,55871.6181038882,37880.2668983370,22344.2839054746
6023563902,7350,-2,0,2063.7508904424,46126.0473459147,-3756.1558415454,18103.4156932905,56560.8694581206,54588.1816107012,39581.4204234557,55874.2828294925,37881.7026865622,22342.7872787654
6023563902,7350,-2,0,2073.7892403213,46120.6813916158,-3757.2144311690,18114.5734712771,56556.7202735040,54585.1883572827,39575.7867798267,55867.8461178731,37877.5169988551,22343.1401419732
6023563902,7350,-2,0,2065.8315665991,46119.8661559287,-3763.6389750915,18096.1515782872,56550.3565680656,54594.8251731665,39573.1342219193,55861.8961141267,37876.5192477156,22343.0793034891
6023563902,7350,-2,0,2066.7441438608,46124.6602284769,-3757.2144311690,18101.3836879211,56556.1362240565,54593.1216956113,39576.3221584869,55865.2422307530,37879.0987994420,22342.3857447702
6023563902,7350,-2,0,2067.4255348829,46124.7819054451,-3754.3306870219,18111.2273546508,56558.1073909418,54590.3109576452,39573.9372899096,55864.3904919754,37877.1641356472,22342.3492416797
6023563902,7350,-2,0,2046.6917794966,46125.8283273719,-3761.7164789935,18091.9172197928,56552.6684304620,54598.1104513087,39572.2094769608,55863.3684054423,37878.2835637549,22342.4830863448
6023598974,7351,-2,0,2035.6191753877,46133.3357963117,-3758.7353932718,18093.6815358322,56560.9424643016,54602.5394929522,39576.4803385456,55870.6933589297,37887.5188456435,22344.8679549221
6023598974,7351,-2,0,2052.8608017858,46135.2947955002,-3749.4636082928,18115.2305269056,56567.8293807033,54594.2167883253,39577.8431205898,55874.6843634876,37889.4170063479,22344.8071164380
6023598974,7351,-2,0,2059.7842212781,46131.4863063946,-3754.3550224156,18104.1700904935,56562.9866373678,54601.8459342333,39575.5190904966,55871.5085946168,37888.7112799322,22344.7827810443
6023598974,7351,-2,0,2052.2645846415,46134.7229137495,-3755.8759845184,18092.9393063260,56561.3561659935,54614.5003389292,39579.7047782037,55877.8479646616,37895.2818362166,22346.5349293868
6023598974,7351,-2,0,2062.9478224521,46141.5368239703,-3742.8930520084,18115.4495454484,56572.5139439802,54610.2173096475,39585.4357634073,55885.5866198410,37899.7230455569,22344.3812470492
6023598974,7351,-2,0,2067.6932242130,46140.0767003516,-3740.6785311866,18115.0115083628,56569.5815290458,54601.8215988397,39580.6660262527,55881.2427520752,37894.1502404120,22340.8769503642
6023598974,7351,-2,0,2060.2465937574,46139.7360048405,-3745.0345666492,18094.8496347272,56566.9533065321,54606.3479820578,39580.1549829862,55877.4099275760,37889.7455341621,22341.4609998117
6023598974,7351,-2,0,2069.1046770445,46141.1596253688,-3740.4595126438,18104.9366553934,56572.8303040976,54601.8215988397,39583.9391366981,55879.0403989502,37888.8207892036,22341.4853352053
6023620152,7352,-2,0,2077.2326985222,46136.8644283903,-3742.3698410450,18114.6221420644,56571.7717144740,54599.4002271719,39581.3960880621,55877.4829337569,37885.4138340931,22340.4754163690
6023620152,7352,-2,0,2060.9401524763,46135.3556339843,-3752.0796631097,18093.0123125069,56565.7730399403,54609.8157756523,39578.8773748197,55876.1809901969,37885.6085172423,22339.2464789899
6023620152,7352,-2,0,2059.4800288575,46142.0722026305,-3744.7060388350,18097.2710063949,56572.3800993151,54612.4926689534,39583.1117333141,55885.7326322029,37892.1790735267,22340.3294040071
6023620152,7352,-2,0,2079.9460949137,46142.4615689289,-3731.8812863836,18118.5888112287,56578.5247862107,54601.0793693335,39583.4280934315,55888.8718979832,37890.9866392381,22338.0662123981
6023620152,7352,-2,0,2079.1186915297,46138.7625890947,-3736.6145204477,18107.3458593643,56571.3093419947,54604.5836660185,39582.8197085904,55883.1409127796,37888.3462490275,22337.5551691315
6023620152,7352,-2,0,2068.5814660811,46141.4029793053,-3737.5879361936,18102.2110913050,56571.8082175645,54613.5025877897,39587.7597935005,55887.4726128485,37893.7852095073,22342.5439248289
6023620152,7352,-2,0,2073.4728802039,46140.2713835008,-3732.7695282517,18122.3242941534,56576.3954392667,54606.2749758769,39591.1545809141,55891.5731266779,37896.2674196592,22346.1455630885
6023620152,7352,-2,0,2068.1434289955,46132.4110513531,-3739.4374261106,18113.9285833455,56567.4765174955,54603.7197595441,39587.2730856276,55883.7249622271,37891.8627134093,22345.0626380713
6023650210,7353,-2,0,2055.9878998693,46132.7639145610,-3744.2071632652,18088.5832708633,56563.6801960867,54610.7161852172,39584.4745153583,55881.5104414053,37894.1867435025,22343.4321666970
6023650210,7353,-2,0,2068.4232860224,46135.6111556176,-3734.9840490735,18100.9213154418,56569.1434919602,54604.7296783804,39586.5551915150,55883.8831422858,37896.7297921385,22343.4565020906
6023650210,7353,-2,0,2078.1087726934,46132.9951008006,-3733.3657453960,18110.4729574478,56570.5427770949,54600.7143384288,39584.8882170503,55881.2792551657,37891.8870488029,22344.8071164380
6023650210,7353,-2,0,2063.1303379044,46133.3357963117,-3741.9439716562,18094.0952375241,56567.2818343463,54608.7085152415,39587.1270732657,55881.4861060117,37891.8870488029,22344.9409611030
6023650210,7353,-2,0,2064.2497660121,46140.6729174959,-3739.0480598123,18106.5914621613,56576.9308179269,54612.0181287773,39594.5615360245,55891.7921452207,37898.7617975079,22342.7264402813
6023650210,7353,-2,0,2083.6450747479,46141.5003208799,-3732.3679942565,18125.3783860559,56584.5599638349,54606.1776343023,39596.3866905480,55895.2234357248,37899.0416545348,22341.7165214450
6023650210,7353,-2,0,2082.5256466402,46141.1474576720,-3737.1864021984,18108.8911568608,56580.6663008516,54616.8122013255,39597.3479385970,55894.6272185804,37902.8136405500,22343.5538436652
6023650210,7353,-2,0,2076.1984442922,46144.3353942396,-3733.6577701198,18103.4765317746,56582.0047475021,54623.5409376686,39602.1785142357,55900.6988992951,37911.5013760815,22346.8877925947
6023683929,7354,-2,0,2084.7645028556,46145.8928594329,-3727.5252509210,18121.7280770090,56585.3508641284,54614.1596434181,39601.9108249056,55904.2153636769,37915.1881882189,22347.5083451327
6023683929,7354,-2,0,2076.7703260429,46139.7725079310,-3734.7528628338,18111.9939195507,56573.8158875402,54614.0988049340,39595.0604115943,55895.4789573580,37910.5766311230,22347.0703080470
6023683929,7354,-2,0,2062.9721578457,46139.8576818088,-3740.3135002819,18099.3638502485,56568.2065793049,54619.7811193503,39592.9919031344,55889.5776243989,37910.6009665166,22346.9242956852
6023683929,7354,-2,0,2074.9208361258,46142.4128981416,-3732.2828203788,18122.8475051167,56574.4486077750,54612.4318304693,39596.6908829685,55892.3396915777,37908.7271412059,22346.7904510201
6023683929,7354,-2,0,2080.1164426692,46137.3633039601,-3732.1489757137,18126.9723543397,56570.7131248504,54605.4110694024,39593.9166480929,55884.1873347064,37899.7595486474,22344.4907563206
6023683929,7354,-2,0,2060.8549785985,46134.0293550306,-3738.3545010934,18103.4035255937,56562.4512587076,54610.5093343713,39592.6877107138,55878.4076787155,37896.8758045004,22341.5096705990
6023683929,7354,-2,0,2056.2190861090,46135.0271061701,-3733.4630869706,18109.7428956384,56565.6513629720,54603.6710887568,39592.5051952614,55881.0480689260,37896.0849042069,22337.2266413173
6023683929,7354,-2,0,2069.4332048587,46129.5881456902,-3732.9885467945,18118.4671342605,56565.2863320673,54592.5498138606,39586.2631667913,55876.4851826174,37889.6603602844,22330.8507681821
6023720293,7355,-2,0,2066.5616284085,46127.6534818954,-3740.9705559103,18097.3805156663,56560.1758994017,54600.9211892748,39584.3893414805,55875.4874314779,37891.8627134093,22329.6218308029
6023720293,7355,-2,0,2065.1988463643,46129.8923381108,-3741.0800651817,18097.2345033044,56561.6968615046,54606.6400067816,39589.2685879065,55882.4595217575,37898.7496298111,22327.4316453748
6023720293,7355,-2,0,2073.5580540817,46129.1501086046,-3736.8092035969,18122.6406542708,56567.6468652510,54599.8382642575,39591.9454812076,55886.4870294059,37901.5968708677,22324.2193734136
6023720293,7355,-2,0,2063.4832011123,46127.5439726240,-3741.3112514214,18116.7514890084,56565.2863320673,54608.7206829383,39592.6998784106,55884.2360054936,37901.4265231121,22324.2437088072
6023720293,7355,-2,0,2057.0099864025,46132.4475544436,-3738.2936626093,18112.6144720886,56569.8613860728,54619.2822437806,39596.6665475749,55891.1229218954,37907.4373653427,22329.6339984998
6023720293,7355,-2,0,2076.0037611431,46137.3633039601,-3725.7000963975,18133.6524198955,56577.5513704649,54608.4529936082,39599.7449748711,55896.4767084975,37909.4937061057,22334.2090525052
6023720293,7355,-2,0,2081.3697154420,46132.3867159595,-3729.5085855031,18127.0940313079,56571.1389942392,54603.2452193680,39596.3380197607,55889.1152519196,37906.1719248731,22339.2099758994
6023720293,7355,-2,0,2065.7828958118,46131.0847723994,-3737.4784269222,18101.5418679798,56562.1957370743,54611.0082099410,39598.0780004063,55885.8543091711,37908.0944209711,22343.2253158510
6023770237,7356,-2,0,2069.1655155286,46133.3114609180,-3733.1953976405,18113.5270493504,56566.7586233829,54606.5548329038,39602.3853650817,55886.7060479487,37912.6208041892,22344.9409611030
6023770237,7356,-2,0,2079.8365856423,46130.1965305314,-3736.2981603303,18124.9281812735,56565.4566798229,54600.9333569716,39600.0735026853,55880.5978641436,37907.4738684331,22343.6146821493
6023770237,7356,-2,0,2072.4142905803,46128.3713760079,-3747.1274105027,18106.8104807041,56559.5310114701,54609.4994155349,39599.3312731791,55874.5748542162,37905.0768321590,22341.9355399878
6023770237,7356,-2,0,2075.3345378178,46133.4818086735,-3743.6839523019,18111.7505656142,56564.3494194120,54610.0347941952,39605.1839353509,55881.8146338259,37907.4738684331,22343.1644773669
6023770237,7356,-2,0,2081.8442556181,46131.2916232454,-3739.2305752647,18129.2598813424,56567.7077037351,54600.0694504972,39605.7801524953,55883.7979684080,37905.0524967654,22342.6169310099
6023770237,7356,-2,0,2069.6887264920,46127.1789417193,-3746.0079823950,18112.9916706902,56561.8185384728,54605.8491064881,39603.0545884069,55881.7781307354,37903.4220253911,22343.7728622080
6023770237,7356,-2,0,2067.2551871274,46133.1167777689,-3742.5036857100,18103.4035255937,56569.0704857793,54613.6607678484,39606.3033634587,55888.8110594991,37909.0435013233,22348.2992454262
6023770237,7356,-2,0,2088.5121534771,46133.4696409767,-3735.7992847606,18119.0025129207,56575.8965636970,54596.7111661740,39601.5214586072,55891.4392820128,37905.1011675527,22345.8413706679
6023779105,7357,-2,0,2090.0331155799,46128.1888605556,-3745.0102312556,18105.6180464155,56567.2574989527,54593.6084034842,39592.3835182932,55883.3599313224,37895.2088300356,22340.2563978262
6023779105,7357,-2,0,2073.7040664435,46129.0527670300,-3749.1350804785,18086.2105699829,56564.8969657690,54603.0383685220,39591.7873011489,55882.4595217575,37895.9753949355,22342.0572169560
6023779105,7357,-2,0,2079.5445609185,46133.2141193434,-3739.7659539249,18103.9389042539,56571.4796897502,54597.1127001692,39595.7418026163,55886.3166816504,37897.8978910335,22344.9774641935
6023779105,7357,-2,0,2087.5630731249,46129.1744439982,-3737.0282221397,18110.4729574478,56566.5031017496,54593.0851925208,39589.6457865081,55878.4441818059,37892.4832659473,22345.8170352743
6023779105,7357,-2,0,2077.6829033046,46128.6268976412,-3739.7416185312,18093.3651757148,56559.8473715875,54603.7197595441,39590.2055005619,55872.6401904214,37893.2741662408,22347.9950530056
6023779105,7357,-2,0,2081.4670570166,46134.5282306003,-3730.7131874886,18105.8735680487,56567.8293807033,54605.1312123755,39595.7174672227,55879.3324236740,37897.5450278256,22350.5746047321
6023779105,7357,-2,0,2086.8695144060,46132.5448960182,-3728.9367037525,18118.7713266811,56569.0704857793,54596.9910232010,39596.4961998194,55879.7217899723,37895.0749853706,22346.6809417487
6023779105,7357,-2,0,2066.7684792545,46128.7972453967,-3741.1774067563,18098.3052606249,56561.0884766634,54600.8725184875,39595.5836225576,55876.5095180111,37891.3638378396,22345.6588552156
6023808092,7358,-2,0,2058.2510914784,46133.9806842433,-3741.0800651817,18098.5729499550,56565.5540213975,54602.3934805903,39599.2339316045,55883.3355959287,37896.0362334196,22348.0923945802
6023808092,7358,-2,0,2077.7437417888,46131.6201510596,-3733.1832299437,18118.2846188081,56568.3282562731,54587.1595241680,39594.9509023229,55880.5370256595,37892.4345951600,22345.6588552156
6023808092,7358,-2,0,2079.9460949137,46125.0860978657,-3739.4252584138,18104.5107860046,56557.1096398023,54584.7746555907,39587.7111227132,55869.7686139712,37886.7157776532,22342.9819619145
6023808092,7358,-2,0,2067.5350441543,46123.4556264914,-3743.1850767321,18088.6562770443,56551.8653624716,54590.2379514642,39586.5916946055,55866.6171804940,37887.0321377706,22344.4907563206
6023808092,7358,-2,0,2068.2529382669,46122.1415152346,-3738.2328241252,18101.6757126448,56554.0798832934,54579.8345706806,39583.8052920330,55865.2665661467,37884.4404183473,22342.5317571321
6023808092,7358,-2,0,2067.4377025797,46119.4159511462,-3739.3400845361,18099.3760179453,56550.8554436353,54580.9296633947,39581.5542681208,55860.5089966889,37881.1794755988,22341.9355399878
6023808092,7358,-2,0,2057.5940358500,46122.7133969852,-3742.1994932895,18081.9640437917,56548.0082025788,54595.2023717680,39584.5231861456,55862.2489773346,37884.9879647043,22344.5515948047
6023808092,7358,-2,0,2068.2651059637,46128.5903945507,-3733.2562361246,18098.6824592264,56555.8076962423,54594.4114714745,39591.1424132173,55871.1557314090,37893.1038184852,22344.1743962032
6023839310,7359,-2,0,2080.0677718819,46124.7088992642,-3731.4797523884,18113.1376830520,56555.0776344329,54588.2546168821,39590.7530469189,55871.5937684946,37891.8627134093,22341.3028197530
6023839310,7359,-2,0,2064.0307474693,46122.4092045647,-3739.8146247122,18097.1006586394,56547.4971593122,54594.9225147411,39591.7629657552,55867.4080807875,37891.8992164998,22339.7818576501
6023839310,7359,-2,0,2061.9014005253,46128.3348729174,-3731.0538829996,18104.5107860046,56555.9415409073,54598.8161777244,39599.8544841425,55875.9863070477,37897.9708972144,22341.8503661100
6023839310,7359,-2,0,2080.0312687915,46129.5638102966,-3722.7555137664,18127.3860560317,56561.9645508347,54590.6516531562,39599.1487577268,55876.7772073412,37895.3548423975,22339.4168267454
6023839310,7359,-2,0,2078.7901637155,46127.0572647510,-3731.1268891806,18112.2007703967,56557.8153662181,54593.8030866334,39595.4132748021,55873.5405999863,37889.5386833161,22337.2631444078
6023839310,7359,-2,0,2072.6333091231,46129.9653442917,-3736.5171788731,18101.7852219162,56561.5995199300,54597.7940911913,39598.1145034968,55875.9619716540,37891.7775395315,22335.4866606716
6023839310,7359,-2,0,2082.9880191194,46130.9509277344,-3732.5140066184,18121.9105924614,56569.0948211729,54584.7989909844,39602.4583712626,55878.2981694440,37891.2664962650,22332.9679474293
6023839310,7359,-2,0,2080.1651134565,46124.5020484182,-3738.1233148538,18119.8542516983,56561.9767185315,54581.3190296930,39599.3434408759,55872.5428488468,37886.2777405676,22334.3550648671
6023894340,7360,-2,0,2066.3182744720,46122.4700430488,-3744.4261818081,18101.9068988845,56558.2534033037,54588.0599337329,39598.8202299125,55871.6424392819,37888.1028950910,22335.8151884858
6023894340,7360,-2,0,2073.9595880768,46124.2343590881,-3735.4342538559,18116.7149859180,56563.2178236075,54583.5700536053,39599.7571425679,55874.6113573067,37890.6337760302,22337.2023059236
6023894340,7360,-2,0,2078.6319836568,46118.6980570337,-3733.1345591564,18116.9826752481,56559.7500300129,54579.5912167442,39595.0969146847,55870.8880420789,37888.6017706608,22336.0707101191
6023894340,7360,-2,0,2059.0298240751,46114.5732078107,-3741.0678974849,18087.3543334842,56550.0280402514,54588.5709769995,39591.8968104203,55867.3959130907,37889.0763108369,22337.1049643491
6023894340,7360,-2,0,2054.9658133362,46117.2866042022,-3734.5703473815,18089.9825559980,56555.0046282520,54589.7269081977,39596.6057090908,55872.8105381769,37895.4521839721,22337.6160076156
6023894340,7360,-2,0,2071.6598933773,46117.5907966228,-3726.8438598989,18109.9497464844,56558.6062665116,54582.4019547103,39598.9662422744,55870.8758743821,37895.0141468864,22337.0562935618
6023894340,7360,-2,0,2069.8225711570,46115.8751513708,-3734.8623721052,18098.4512729867,56552.5710888874,54582.1586007738,39594.9509023229,55866.0452987433,37892.0573965585,22338.7111003297
6023894340,7360,-2,0,2062.2542637331,46118.4790384909,-3740.2526617978,18092.4647661499,56552.3399026477,54579.8467383774,39593.6976295501,55865.4734169927,37889.6968633748,22338.5285848773
6023908075,7361,-2,0,2068.1434289955,46113.9891583632,-3736.6266881446,18107.3336916675,56552.4737473128,54568.0562401560,39589.7066249922,55862.1638034568,37884.1483936236,22335.0121204955
6023908075,7361,-2,0,2060.3682707256,46109.9494830180,-3741.8466300816,18096.2245844681,56542.1312050133,54573.1910082153,39583.9269690013,55854.3886451870,37877.7360173979,22331.5443269010
6023908075,7361,-2,0,2049.4538466754,46114.9504064122,-3741.4329283896,18082.9496272343,56542.2772173752,54584.9815064367,39589.1225755447,55857.5035755736,37881.7513573494,22331.4226499327
6023908075,7361,-2,0,2062.1812575522,46118.6128831559,-3730.5915105204,18103.8415626793,56552.7049335524,54580.9905018788,39594.6953806896,55863.8794487089,37886.6306037754,22329.2811352919
6023908075,7361,-2,0,2067.7418950003,46112.6385440158,-3732.5261743152,18104.1944258872,56547.7648486423,54574.8701503769,39590.5948668602,55859.1827177352,37882.7004377016,22326.5190681131
6023908075,7361,-2,0,2052.5566093653,46110.8620602797,-3739.3887553234,18084.5679309118,56541.4498139912,54587.7435736155,39592.8823938630,55859.2922270066,37887.1051439515,22329.5731600157
6023908075,7361,-2,0,2052.7756279081,46115.5587912534,-3730.5063366426,18096.1515782872,56549.2493076547,54588.5831446963,39597.6764664112,55866.9457083082,37895.4278485784,22332.8827735515
6023908075,7361,-2,0,2066.8658208290,46115.0599156836,-3722.7798491600,18109.2926908560,56549.0667922024,54582.7183148277,39595.8026411005,55864.7190197896,37893.9677249597,22333.8440216005
6023933901,7362,-2,0,2064.3592752835,46115.3154373169,-3724.6780098644,18090.6639470201,56545.8788556348,54588.5588093027,39593.0649093153,55861.2268908015,37891.3760055364,22336.4844118111
6023933901,7362,-2,0,2063.3736918409,46118.4912061877,-3722.7190106759,18089.7270343647,56546.9496129552,54585.8089098207,39593.3447663422,55862.8816975694,37890.0618942795,22337.2874798014
6023933901,7362,-2,0,2070.2241051522,46117.1649272340,-3720.5531606414,18108.3801135943,56546.2317188426,54571.1468351490,39591.6047856965,55858.8055191337,37883.1019716968,22335.8395238795
6023933901,7362,-2,0,2060.5507861779,46114.2203446028,-3728.9488714493,18095.2633364191,56538.2862128172,54580.2604400694,39590.9477300681,55853.8167634363,37881.4593326257,22335.5840022462
6023933901,7362,-2,0,2054.3939315855,46117.1162564467,-3733.4265838801,18083.6796890437,56541.1091184802,54585.9792575762,39597.2384293256,55855.5080732947,37885.9492127534,22335.9490331509
6023933901,7362,-2,0,2074.3854574656,46118.4303677036,-3732.2584849851,18103.6955503174,56548.8234382659,54571.1833382395,39602.3853650817,55860.3508166302,37885.3164925186,22334.0265370529
6023933901,7362,-2,0,2080.7613306008,46112.4803639572,-3738.4153395775,18101.8338927035,56541.2916339325,54562.4590996175,39598.9054037903,55852.4783167858,37875.8013536030,22331.1914636931
6023933901,7362,-2,0,2062.4002760950,46108.2338377659,-3746.7258765076,18081.0271311363,56530.6692346061,54568.6524573003,39596.4718644257,55848.9496847071,37873.5138266003,22330.0598678886
6023964080,7363,-2,0,2059.6747120067,46108.2703408564,-3742.1143194117,18091.7347043405,56535.1591147337,54566.0364024834,39597.5669571398,55853.8410988299,37875.5701673634,22329.4758184411
6023964080,7363,-2,0,2067.7175596066,46102.4420140782,-3741.7006177197,18100.4224398721,56531.5939795646,54556.9106298662,39594.2573436039,55851.4562302526,37873.2096341797,22325.7038324260
6023964080,7363,-2,0,2061.4146926524,46099.4244252661,-3753.1504204301,18081.1853111950,56527.8949997305,54563.9922294171,39592.1644997504,55849.5215664578,37872.5647462481,22322.1386972568
6023964080,7363,-2,0,2063.1911763885,46101.3834244546,-3752.7610541318,18084.3854154594,56529.7566573444,54562.4469319206,39595.5592871640,55854.8510176662,37873.2096341797,22320.0215180096
6023964080,7363,-2,0,2074.0812650450,46099.1445682392,-3749.3540990213,18101.6878803416,56531.5088056869,54553.0413022765,39595.3524363180,55854.4251482774,37868.2573815728,22318.2693696671
6023964080,7363,-2,0,2061.7675558602,46098.5605187917,-3755.3892766455,18087.2083211223,56523.5511319647,54558.5654366341,39591.8359719362,55849.0348585849,37863.8770107165,22317.3202893150
6023964080,7363,-2,0,2053.0311495414,46103.9264730906,-3755.1702581027,18081.5138390092,56527.4812980385,54567.8128862195,39595.2915978339,55851.4683979495,37868.2817169664,22316.0183457549
6023964080,7363,-2,0,2076.8798353143,46110.0346568957,-3744.3166725367,18108.8303183767,56539.3448024408,54566.9733151388,39599.4407824505,55856.7856814611,37874.2073853192,22316.9309230166
6024005487,7364,-2,0,2086.0907818093,46109.5114459324,-3743.6839523019,18110.3512804796,56539.3691378345,54569.8448915890,39601.0955892184,55854.5833283361,37876.0447075395,22315.9088364835
6024005487,7364,-2,0,2073.5215509912,46112.6385440158,-3747.5411121947,18099.0596578279,56538.7850883870,54578.8854903284,39605.2204384414,55857.2845570308,37880.5832584544,22318.5492266941
6024005487,7364,-2,0,2077.7315740919,46115.2911019232,-3743.9029708447,18116.7271536148,56545.5381601237,54570.1004132223,39606.8022390284,55862.5044989679,37882.4814191588,22316.7849106547
6024005487,7364,-2,0,2085.9447694474,46115.7048036152,-3744.9615604683,18122.6406542708,56547.7891840360,54564.6006142583,39603.6873086417,55860.2899781461,37878.5877561755,22313.1954400920
6024005487,7364,-2,0,2081.4548893198,46119.0752556352,-3746.0323177887,18100.2034213292,56547.1077930139,54575.5028706116,39607.1307668426,55862.8938652662,37881.1308048115,22313.8524957204
6024005487,7364,-2,0,2090.5928296338,46126.7530723305,-3736.8335389905,18107.1511762151,56558.2899063942,54576.7683110812,39616.2200363694,55872.1413148516,37886.7644484405,22317.5149724641
6024005487,7364,-2,0,2108.1386484525,46126.5948922718,-3728.6933498160,18123.3342129897,56564.1912393533,54574.0792500834,39618.5927372498,55875.6334438398,37888.8207892036,22320.2648719461
6024005487,7364,-2,0,2095.1313805487,46123.1879371613,-3736.4441726922,18103.2331778382,56556.8784535627,54580.8931603042,39616.3173779439,55873.1755690816,37887.8473734577,22319.9971826160
6024026493,7365,-2,0,2085.3972230904,46127.6413141985,-3736.5901850541,18100.7509676863,56562.1714016807,54584.2392769305,39619.4931468147,55878.2129955663,37892.3007504949,22318.9264252956
6024026493,7365,-2,0,2098.4288263878,46126.7530723305,-3732.9885467945,18122.5919834835,56567.3426728304,54571.9012323521,39616.8405889073,55877.2882506077,37890.8406268762,22315.5681409724
6024026493,7365,-2,0,2095.6424238153,46120.9490809459,-3741.6884500229,18114.2692788566,56559.4580052892,54574.7728088023,39613.2511183446,55871.9587993993,37885.2678217313,22315.6898179407
6024026493,7365,-2,0,2084.4968135255,46122.7985708630,-3746.0566531823,18097.8307204488,56555.1263052202,54580.8201541233,39616.2687071566,55871.7397808565,37888.0907273942,22317.9895126402
6024026493,7365,-2,0,2092.4301518540,46122.5673846234,-3740.3986741597,18108.1124242642,56558.8009496607,54571.0008227872,39617.8018369563,55872.9322151451,37887.3728332816,22317.2716185277
6024026493,7365,-2,0,2098.7451865052,46118.0896721925,-3742.2116609863,18109.2683554623,56556.1727271470,54567.9102277941,39616.2322040662,55869.7564462743,37884.1848967140,22316.1521904200
6024026493,7365,-2,0,2089.2422152864,46118.5155415813,-3745.8254669427,18094.5089392161,56553.4228276650,54577.0603358050,39617.9600170150,55869.8659555457,37884.6472691933,22318.4153820290
6024026493,7365,-2,0,2094.8271881282,46121.2897764570,-3739.4374261106,18112.3467827585,56561.5751845364,54574.0305792961,39620.5152333479,55877.3612567887,37889.6360248907,22319.6443194081
6024059457,7366,-2,0,2102.8091972440,46120.1460129556,-3735.4342538559,18126.0232739875,56564.4954317739,54571.8768969584,39619.4079729370,55877.8114615711,37890.2687451255,22320.5325612762
6024059457,7366,-2,0,2083.0245222099,46118.0044983148,-3744.1463247811,18105.7397233837,56555.6616838804,54580.5281293995,39615.8306700710,55875.3292514193,37891.1691546904,22319.8390025573
6024059457,7366,-2,0,2075.0546807909,46124.2708621786,-3740.9827236072,18104.3404382490,56560.5165949128,54581.5745513263,39619.7121653575,55880.0989885738,37896.5351089893,22320.1675303715
6024059457,7366,-2,0,2088.1592902692,46122.3118629901,-3736.7727005064,18119.8055809110,56561.7820353823,54571.0251581808,39615.8185023742,55879.0038958598,37893.2863339376,22318.1355250021
6024059457,7366,-2,0,2087.9524394232,46116.5687100897,-3742.6496980719,18103.2331778382,56553.8608647506,54574.3591071103,39610.0266786865,55870.4743403869,37888.9789692623,22316.0548488454
6024059457,7366,-2,0,2080.0191010946,46120.4745407698,-3742.6983688592,18092.2457476070,56553.2768153031,54582.2802777420,39614.1271925158,55874.2584940988,37892.0695642553,22318.2572019703
6024059457,7366,-2,0,2086.7965082250,46121.3262795474,-3735.1057260417,18112.0425903380,56558.5575957243,54572.6677972519,39613.1902798604,55875.5847730525,37892.3494212822,22319.3401269876
6024059457,7366,-2,0,2084.9470183079,46116.0333314294,-3738.0138055824,18109.0980077068,56552.5345857969,54568.4334387575,39610.0875171706,55869.1115583427,37886.9104608024,22321.3234615697
6024089282,7367,-2,0,2072.6819799104,46119.1969326034,-3744.6695357445,18094.1195729178,56550.0888787355,54574.1157531738,39611.3042868529,55868.5275088952,37885.8153680883,22321.8101694426
6024089282,7367,-2,0,2084.8010059461,46124.3925391468,-3738.6830289076,18113.5878878345,56556.9149566532,54568.0197370655,39616.5972349709,55872.2994949103,37886.8252869246,22322.4793927679
6024089282,7367,-2,0,2094.1823001965,46121.0342548237,-3743.3919275781,18122.0809402169,56554.0068771125,54561.7168701113,39613.2267829509,55867.5419254526,37879.6950165864,22317.1621092563
6024089282,7367,-2,0,2078.2547850553,46119.1360941193,-3754.7078856234,18097.1371617299,56544.4674028033,54569.0418235987,39612.7765781685,55862.6626790266,37877.5413342487,22316.9187553198
6024089282,7367,-2,0,2076.2106119891,46123.4191234010,-3750.3640178577,18102.2962651828,56551.2569776305,54569.9665685572,39618.4223894943,55868.6248504698,37883.1871455745,22318.8412514178
6024089282,7367,-2,0,2092.5518288223,46119.8661559287,-3746.0444854855,18122.1782817915,56555.3331560662,54561.5708577494,39616.8162535137,55868.5275088952,37880.2060598529,22317.1377738626
6024089282,7367,-2,0,2094.4986603139,46116.9337409943,-3751.3496013003,18113.1620184457,56550.5147481243,54566.2189179357,39615.3439621981,55866.7996959464,37878.2470606644,22319.6929901954
6024089282,7367,-2,0,2092.0042824652,46120.1460129556,-3752.6272094667,18108.6478029244,56554.1528894744,54569.0539912955,39619.5296499052,55870.4986757805,37880.2912337307,22322.9661006408
6024128205,7368,-2,0,2099.0615466225,46119.7201435668,-3746.9083919599,18124.0521071022,56559.2511544432,54560.6217773972,39619.3836375433,55872.8957120547,37879.7558550705,22320.5690643667
6024128205,7368,-2,0,2090.5441588465,46115.1815926518,-3752.2743462589,18112.0790934284,56550.1497172196,54559.9282186783,39614.1150248190,55867.0552175796,37876.2515583855,22317.9895126402
6024128205,7368,-2,0,2077.7315740919,46117.6759705005,-3755.2310965868,18094.3872622479,56548.2028857279,54566.7056258087,39615.4291360759,55868.5153411984,37881.3984941416,22319.7416609827
6024128205,7368,-2,0,2094.6081695854,46123.3339495232,-3747.5046091043,18113.7825709837,56556.4890872644,54563.9678940235,39617.6558245945,55872.1656502453,37883.9658781712,22324.0246902644
6024128205,7368,-2,0,2107.5180959145,46123.2122725550,-3747.4072675297,18121.5577292535,56558.1317263355,54563.7245400870,39618.7995880958,55869.1723968268,37881.2524817797,22325.1076152816
6024128205,7368,-2,0,2094.3891510425,46125.6944827069,-3752.7853895254,18100.6292907181,56558.3142417878,54576.6222987194,39618.9456004577,55870.4865080837,37883.0898040000,22324.9250998293
6024128205,7368,-2,0,2090.9943636289,46130.7440768884,-3745.1805790111,18108.0394180832,56565.2133258864,54579.8589060743,39621.2696305509,55876.5460211015,37888.7721184163,22323.5866531788
6024128205,7368,-2,0,2097.7230999720,46128.8702515777,-3738.8168735727,18122.1417787010,56564.4345932897,54573.1058343375,39616.7189119391,55875.1954067542,37886.2047343866,22318.3667112417
6024163093,7369,-2,0,2093.1237105730,46129.4664687220,-3743.4405983654,18109.2561877655,56559.7500300129,54584.5191339574,39615.2709560172,55872.9687182356,37887.8108703673,22317.4419662832
6024163093,7369,-2,0,2096.4454918056,46136.7670868157,-3736.2738249367,18112.9673352965,56566.5031017496,54590.3352930388,39620.9897735240,55879.1985790089,37895.7807117863,22321.7980017458
6024163093,7369,-2,0,2109.9516352791,46137.2659623855,-3731.0903860901,18133.0075319639,56573.2440057896,54578.3379439714,39622.6202448982,55882.6663726035,37894.9168053119,22322.4185542838
6024163093,7369,-2,0,2097.9664539085,46134.4187213289,-3742.7713750401,18120.2557856935,56567.9267222779,54577.1698450764,39620.5152333479,55879.6852868819,37892.1060673458,22320.3135427334
6024163093,7369,-2,0,2081.9294294958,46134.9054292018,-3750.3883532513,18106.2629343471,56567.5860267669,54581.1486819375,39622.2187109031,55882.2161678210,37895.5495255467,22321.2504553888
6024163093,7369,-2,0,2096.4454918056,46138.2150427377,-3738.9872213282,18123.7479146816,56574.5824524401,54576.7318079908,39622.7784249569,55888.0323269024,37897.8248848525,22324.0976964453
6024163093,7369,-2,0,2104.9628795817,46134.1266966052,-3734.0836395086,18117.3598738496,56570.2629200679,54577.5105405874,39616.7797504232,55881.5104414053,37892.9821415170,22330.6317496393
6024163093,7369,-2,0,2093.1602136634,46135.5259817398,-3733.0128821881,18092.1119029420,56562.7067803409,54588.8751694201,39616.6945765455,55877.9574739330,37894.9898114928,22335.9733685445
6024183939,7370,-2,0,2089.5464077070,46135.8666772508,-3725.9556180308,18098.8528069819,56564.5441025612,54584.1419353559,39619.7486684480,55881.1332428038,37898.9808160507,22332.9679474293
6024183939,7370,-2,0,2089.9722770958,46127.4466310494,-3726.9533691703,18103.3305194127,56560.5044272159,54573.3248528803,39613.7986647016,55875.1589036637,37892.7631229742,22329.3663091697
6024183939,7370,-2,0,2077.1231892508,46123.9301666675,-3733.9741302371,18084.7991171514,56554.1528894744,54583.4848797275,39611.8396655131,55868.6126827730,37890.5120990620,22331.7511777470
6024183939,7370,-2,0,2079.6053994027,46128.2253636460,-3726.6613444466,18089.2889972791,56559.8108684970,54582.3776193166,39614.7964158411,55870.7663651106,37893.4323462995,22334.2333878988
6024183939,7370,-2,0,2091.5540776828,46125.6579796164,-3720.4801544605,18104.2309289776,56561.0033027857,54569.9665685572,39610.0145109897,55868.7951982253,37890.2930805191,22333.6736738450
6024183939,7370,-2,0,2080.0434364883,46121.6669750585,-3727.8172756447,18088.7657863157,56553.5566723300,54572.5947910710,39606.2790280650,55863.3805731391,37888.0177212133,22333.9291954783
6024183939,7370,-2,0,2066.9753301004,46122.2388568091,-3732.0881372296,18082.0370499726,56555.6251807899,54575.4420321275,39608.8099090042,55866.7753605527,37892.9091353361,22334.9391143146
6024183939,7370,-2,0,2081.0411876278,46122.7377323789,-3728.5351697573,18104.6933014569,56560.9181289079,54560.8529636368,39609.8684986278,55870.4256695996,37891.0353100253,22334.3794002607
6024263384,7371,-2,0,2083.1461991781,46115.1815926518,-3737.0768929270,18099.8262227277,56552.0843810145,54556.7646175043,39603.3709485243,55861.2390584983,37883.1749778777,22330.9359420598
6024263384,7371,-2,0,2065.9045727800,46110.9472341575,-3745.8619700332,18079.1168027351,56543.0194468814,54561.3396715097,39600.6453844360,55857.8321033879,37879.0866317452,22329.5974954093
6024263384,7371,-2,0,2062.9843255425,46106.9562295995,-3738.6951966045,18089.7270343647,56544.1510426859,54557.5920208883,39600.6818875265,55857.8686064783,37879.6706811927,22329.0621167491
6024263384,7371,-2,0,2062.0839159776,46102.0769831735,-3738.3910041839,18094.0952375241,56540.0261934629,54555.8520402426,39594.6832129927,55853.5247387125,37873.3921496321,22331.1184575122
6024263384,7371,-2,0,2048.9914741961,46101.5537722102,-3741.7979592943,18073.9820346758,56534.8062515259,54566.8151350801,39595.1212500784,55850.7261684433,37873.7815159304,22332.3230594976
6024263384,7371,-2,0,2057.3141788230,46107.6254529248,-3734.6676889561,18082.6576025106,56543.3844777861,54565.0386513439,39599.7814779616,55855.7392595343,37877.3953218868,22334.1603817179
6024263384,7371,-2,0,2070.5648006632,46104.9363919269,-3731.1633922710,18095.6527027175,56544.5160735906,54554.0877242033,39597.8711495604,55852.4661490889,37872.7350940036,22332.5055749500
6024263384,7371,-2,0,2058.9081471068,46098.5726864885,-3742.8078781306,18074.6512580011,56533.5651464499,54557.5676854946,39594.8413930514,55845.5427295967,37866.4200593525,22329.5244892284
6024274453,7372,-2,0,2047.7138660297,46103.3789267336,-3745.7646284586,18072.2542217269,56536.5218967779,54562.6416150698,39600.5115397709,55850.0569451180,37870.9586102675,22329.0012782650
6024274453,7372,-2,0,2066.0140820514,46108.5988686706,-3736.8822097778,18097.2223356076,56546.4142342950,54558.1030641548,39605.4759600747,55857.9416126593,37874.2803915002,22332.3717302849
6024274453,7372,-2,0,2072.9375015437,46106.7858818440,-3737.6122715872,18089.3133326727,56547.5823331900,54562.6416150698,39603.6629732481,55859.4139039748,37874.5602485271,22336.6304241730
6024274453,7372,-2,0,2065.8680696896,46109.6696259911,-3740.9340528199,18072.3150602111,56549.3588169261,54568.5186126353,39604.6728920844,55864.7798582738,37877.5656696424,22340.0130438897
6024274453,7372,-2,0,2069.9807512157,46109.7669675656,-3736.3589988144,18084.9938003006,56554.1407217775,54557.0323068344,39603.1397622847,55867.7609439954,37876.1055460236,22335.1946359479
6024274453,7372,-2,0,2071.6233902868,46104.0116469684,-3739.6442769566,18082.1100561535,56551.6098408384,54550.8876199388,39601.6309678786,55862.5044989679,37870.7760948151,22332.3352271945
6024274453,7372,-2,0,2060.2952645447,46106.1288262156,-3744.6452003509,18062.6904120241,56549.6021708626,54559.5023492895,39603.0910914974,55859.8762764541,37871.0681195389,22332.2987241040
6024274453,7372,-2,0,2074.1056004387,46114.3785246615,-3733.7916147848,18080.5160878697,56558.6427696020,54557.8962133088,39610.2335295325,55866.5928451004,37876.7747693489,22333.2843075467
6024280136,7373,-2,0,2089.5099046165,46113.6484628522,-3733.2927392151,18094.4481007320,56558.8009496607,54548.5879252393,39608.3597042217,55862.8573621757,37872.3457277053,22331.3861468423
6024280136,7373,-2,0,2076.8189968302,46111.6164574827,-3746.0079823950,18073.9576992822,56549.0911275960,54556.9714683503,39606.1938541873,55857.5765817546,37871.1289580230,22329.8286816489
6024280136,7373,-2,0,2068.0217520272,46113.6727982458,-3747.4437706201,18073.3979852283,56551.2204745400,54558.0908964580,39610.6350635276,55861.9934557013,37875.9108628744,22328.3442226365
6024280136,7373,-2,0,2081.6009016816,46112.8088917714,-3740.6785311866,18096.5044414951,56554.8707835869,54552.4694205258,39610.9514236450,55864.3539888850,37876.0082044490,22324.7182489833
6024280136,7373,-2,0,2081.0533553246,46107.9539807390,-3744.6330326540,18090.0190590884,56550.3322326720,54558.3342503945,39608.0433441043,55860.8861952904,37875.7040120284,22325.7768386069
6024280136,7373,-2,0,2072.4751290644,46112.4438608667,-3743.8543000574,18081.9518760948,56551.0622944813,54567.1314951975,39614.0298509412,55865.1692245721,37882.3232391001,22330.7534266075
6024280136,7373,-2,0,2082.1241126450,46114.2081769060,-3733.7307763007,18100.6657938085,56556.9149566532,54560.4392619448,39618.2033709515,55871.6424392819,37886.9347961960,22333.5519968768
6024280136,7373,-2,0,2082.2701250069,46110.4240231941,-3735.0570552544,18095.9933982285,56550.9892883004,54559.2103245657,39614.7355773570,55865.7411063228,37884.9027908266,22333.9048600846
6024311716,7374,-2,0,2072.4751290644,46112.9914072237,-3737.5514331031,18077.5471698449,56549.2371399579,54569.9909039509,39613.3362922223,55864.6460136087,37886.1803989930,22334.6592572876
6024311716,7374,-2,0,2087.7212531836,46119.7809820509,-3728.6446790287,18094.9104732113,56559.4336698955,54563.4568507569,39614.2488694840,55867.6757701176,37886.6184360786,22335.6935115176
6024311716,7374,-2,0,2101.1543904761,46117.6638028037,-3727.0628784417,18107.1633439120,56560.7721165460,54556.9471329567,39610.8419143736,55863.9524548898,37878.6607623564,22334.5375803194
6024311716,7374,-2,0,2081.8929264054,46118.6007154591,-3734.7650305306,18084.1663969166,56554.8829512837,54562.9823105808,39609.0410952438,55861.0565430459,37874.9617825222,22333.5641645736
6024311716,7374,-2,0,2070.8689930838,46121.0464225205,-3735.2517384036,18084.0568876452,56557.2191490737,54559.0764799007,39613.7256585207,55865.0475476039,37875.5945027570,22332.0918732580
6024311716,7374,-2,0,2083.4382239019,46119.3672803589,-3733.5360931515,18100.9943216227,56561.8793769569,54548.7096022075,39613.8351677921,55865.3030692371,37873.4773235098,22329.1472906269
6024311716,7374,-2,0,2079.9704303074,46115.6804682216,-3741.1044005754,18088.0113891127,56556.5620934453,54551.3986632054,39612.2168641146,55862.4314927869,37871.2871380817,22327.8088439763
6024311716,7374,-2,0,2082.9636837258,46119.5011250240,-3737.4540915285,18084.7869494546,56560.0177193430,54557.9935548834,39615.6481546187,55867.2985715161,37874.2073853192,22330.1328740695
6024358066,7375,-2,0,2101.7749430141,46122.4578753520,-3728.4499958795,18104.5594567919,56567.0263127130,54550.7416075770,39617.9356816214,55870.1093094822,37875.5945027570,22331.2888052677
6024358066,7375,-2,0,2093.6955923236,46117.1527595372,-3736.2738249367,18095.0686532700,56557.4990061007,54548.3810743933,39611.5111376989,55863.1615545963,37871.5913305023,22330.4979049742
6024358066,7375,-2,0,2075.8090779939,46118.1261752830,-3741.7249531134,18080.9662926522,56554.0677155966,54556.1684003600,39614.1636956063,55861.8474433394,37873.5259942971,22331.2888052677
6024358066,7375,-2,0,2084.5941551001,46118.6737216400,-3736.2616572399,18099.2908440675,56559.7621977097,54547.4319940411,39614.8085835379,55864.3904919754,37875.5214965761,22331.9336931993
6024358066,7375,-2,0,2096.4819948961,46113.9283198791,-3736.2008187557,18103.7807241952,56559.0321359004,54545.4243240653,39613.7743293079,55862.4558281806,37871.4453181404,22335.9125300604
6024358066,7375,-2,0,2087.1007006456,46114.3176861774,-3744.6573680477,18081.8667022171,56552.6440950683,54554.2215688683,39616.4390549122,55860.5454997794,37872.4430692799,22336.2653932683
6024358066,7375,-2,0,2082.5499820338,46116.1793437913,-3740.3135002819,18089.7757051520,56555.5521746090,54551.2161477531,39621.2696305509,55864.9988768166,37873.8910252018,22334.1360463243
6024358066,7375,-2,0,2089.4247307388,46116.1306730040,-3736.4685080859,18104.3526059459,56558.2899063942,54546.1787212684,39620.4543948637,55865.0597153007,37871.7860136515,22328.8430982063
6024370676,7376,-2,0,2081.1628645960,46118.1261752830,-3742.6131949814,18087.2448242128,56556.0023793914,54555.2679907951,39617.7775015627,55863.9646225866,37871.3844796563,22327.6506639176
6024370676,7376,-2,0,2077.7315740919,46125.2199425308,-3740.2039910105,18083.5215089850,56563.3638359693,54557.1053130154,39620.5639041351,55869.5252600347,37875.6431735443,22330.0842032822
6024370676,7376,-2,0,2088.8650166849,46126.1325197925,-3734.4730058069,18100.2155890261,56566.6004433242,54549.2814839582,39617.3516321739,55871.8127870374,37874.9496148254,22332.5542457373
6024370676,7376,-2,0,2076.0645996272,46118.1626783735,-3745.2657528888,18086.2835761638,56555.3088206725,54547.3468201634,39610.4525480753,55862.5531697552,37867.7463383062,22332.1040409548
6024370676,7376,-2,0,2061.9379036158,46116.2401822754,-3750.6803779750,18073.0086189300,56551.3299838114,54554.7812829222,39610.2700326229,55862.1151326695,37867.5029843698,22333.3816491212
6024370676,7376,-2,0,2081.9537648895,46117.4447842609,-3743.3919275781,18094.7644608494,56558.3629125751,54546.9817892587,39612.9834290144,55865.7776094132,37868.6102447807,22333.6980092386
6024370676,7376,-2,0,2093.0142013015,46112.2370100207,-3748.3685155787,18094.2169144924,56553.5323369364,54542.1512136200,39609.5399708136,55860.1439657842,37862.1857008582,22333.1991336689
6024370676,7376,-2,0,2080.3476289089,46113.0765811015,-3755.1824257995,18071.7310107636,56547.7648486423,54550.3644089754,39611.8883363004,55858.3309789576,37863.7796691420,22332.1405440453
6024402912,7377,-2,0,2076.5878105906,46117.1770949308,-3749.0985773881,18080.0658830873,56552.7414366429,54546.3977398112,39614.6990742665,55862.3463189092,37868.3182200569,22332.8341027642
6024402912,7377,-2,0,2081.9902679800,46110.7768864019,-3748.2225032168,18086.8554579145,56549.8576924959,54538.7199231159,39607.8973317425,55854.9483592408,37864.0108553816,22327.3829745875
6024402912,7377,-2,0,2077.1475246444,46109.8399737466,-3753.6127929094,18069.1149559466,56544.7594275270,54552.1287250148,39607.7634870774,55853.2813847761,37862.1613654645,22328.3077195461
6024402912,7377,-2,0,2085.6405770268,46116.3375238500,-3747.2612551678,18077.8026914782,56552.5102504033,54553.2359854257,39615.6724900123,55860.1561334810,37866.6634132890,22331.6903392628
6024402912,7377,-2,0,2100.4364963635,46117.0919210530,-3741.6762823261,18098.9379808597,56556.9392920468,54540.0705374632,39616.2687071566,55862.3219835155,37864.3637185895,22328.6362473603
6024402912,7377,-2,0,2088.2687995406,46112.6385440158,-3750.0598254371,18085.6995267163,56547.6066685836,54538.1358736684,39612.2533672051,55855.5324086883,37858.6205656890,22326.4947327195
6024402912,7377,-2,0,2073.0470108151,46116.3496915468,-3752.6393771635,18079.1654735224,56550.2835618847,54545.8745288478,39616.2200363694,55859.5477486399,37863.5606505991,22329.5123215315
6024402912,7377,-2,0,2087.8429301518,46118.1140075862,-3745.7889638522,18098.7919684978,56557.7788631276,54537.7221719764,39616.4998933963,55861.1782200142,37865.5196497876,22332.2865564072
6024431592,7378,-2,0,2095.9466162359,46114.7435555662,-3748.5266956374,18091.6251950691,56553.8243616601,54542.3337290723,39611.2677837624,55855.6054148693,37866.2253762034,22332.1040409548
6024431592,7378,-2,0,2087.1372037361,46116.1550083977,-3752.8340603127,18076.5250833118,56551.5124992638,54553.0656376701,39611.0974360069,55856.2624704977,37871.3358088690,22331.6781715660
6024431592,7378,-2,0,2088.4999857802,46118.4060323099,-3745.8498023363,18093.5598588639,56555.4913361249,54548.6000929361,39612.5575596257,55862.6383436329,37875.6310058475,22327.7601731890
6024431592,7378,-2,0,2089.1083706214,46113.8309783045,-3745.0832374365,18098.3904345026,56551.3543192051,54544.9132807988,39611.0731006132,55858.7933514369,37872.8811063655,22328.2833841524
6024431592,7378,-2,0,2075.9185872653,46113.0522457078,-3747.9913169772,18077.3281513021,56547.0956253171,54551.1918123594,39612.9347582272,55856.1407935295,37871.2871380817,22332.6394196150
6024431592,7378,-2,0,2080.5301443612,46117.3474426863,-3741.5302699642,18081.3556589505,56553.0334613666,54547.7848572490,39619.4931468147,55858.9393637987,37874.7549316763,22333.1869659721
6024431592,7378,-2,0,2093.6590892332,46112.2613454143,-3739.9971401645,18094.1317406146,56551.3056484178,54540.7275930917,39618.6535757339,55854.8631853631,37870.9099394802,22329.9016878299
6024431592,7378,-2,0,2083.0366899067,46106.2626708806,-3751.4104397844,18073.1911343823,56540.4033920644,54547.6753479776,39615.5994838314,55847.9154304772,37868.5007355093,22329.1229552332
6024485116,7379,-2,0,2074.2394451037,46109.7426321720,-3750.9358996083,18066.3772241615,56543.3479746956,54554.7934506190,39619.6878299639,55854.3399743997,37871.9928644974,22328.5632411794
6024485116,7379,-2,0,2090.2521341227,46113.4659473998,-3741.0922328786,18087.5125135429,56551.6341762320,54548.4419128774,39623.4963190695,55859.6572579113,37872.7837647909,22330.8629358789
6024485116,7379,-2,0,2092.2841394922,46114.6948847789,-3747.0544043218,18080.8202802903,56553.2159768190,54549.6586825597,39623.0339465902,55860.3264812366,37873.2096341797,22332.6515873119
6024485116,7379,-2,0,2079.3742131630,46116.8242317229,-3753.9656561172,18062.8607597796,56553.4714984523,54552.6884390686,39623.9100207615,55861.6892632807,37873.7450128399,22332.6759227055
6024485116,7379,-2,0,2084.8010059461,46117.1040887499,-3748.3076770946,18074.8216057566,56558.6184342084,54541.2386363582,39622.0483631475,55864.9988768166,37874.5724162239,22329.0256136586
6024485116,7379,-2,0,2083.2557084495,46112.1761715366,-3746.5798641457,18075.5029967787,56555.9293732105,54538.4157306953,39617.9478493182,55860.8131891095,37868.5494062966,22324.6695781960
6024485116,7379,-2,0,2070.3092790299,46114.0378291505,-3748.8308880580,18060.7679159261,56552.3277349509,54550.8754522420,39622.1700401158,55859.8276056668,37870.7882625120,22326.9936082892
6024485116,7379,-2,0,2077.4760524586,46118.4668707940,-3741.0800651817,18078.4597471066,56560.7234457587,54546.4464105985,39625.5283244389,55864.8650321515,37873.5624973876,22326.9327698051
6024497643,7380,-2,0,2088.9380228659,46115.6804682216,-3736.9430482619,18093.8762189813,56561.0641412698,54536.8582655020,39624.2020454852,55863.1250515058,37869.5836605265,22324.9250998293
6024497643,7380,-2,0,2077.2326985222,46113.7579721236,-3740.3986741597,18076.0627108325,56555.9415409073,54545.8015226668,39622.4985679300,55860.0101211192,37869.9243560375,22326.1053664211
6024497643,7380,-2,0,2071.8424088296,46121.0342548237,-3733.1832299437,18078.8612811018,56563.0231404583,54550.5104213373,39628.7892671875,55867.0065467924,37876.6409246838,22329.1594583237
6024497643,7380,-2,0,2085.5919062396,46121.9833351759,-3728.1458034590,18100.9578185323,56568.0849023366,54538.1480413652,39629.8843599015,55868.6248504698,37875.8013536030,22329.3419737760
6024497643,7380,-2,0,2088.1836256628,46118.1018398894,-3739.1088982964,18091.5400211913,56561.4413398713,54539.4013141380,39627.0006157545,55859.3774008844,37870.9829456611,22329.3541414728
6024497643,7380,-2,0,2084.8983475206,46120.3406961048,-3744.9858958619,18082.1222238504,56561.0641412698,54547.4684971316,39630.6509248014,55862.3706543028,37873.4164850257,22329.9868617076
6024497643,7380,-2,0,2095.4112375757,46121.0342548237,-3736.6023527509,18102.8924823271,56567.5495236764,54539.8393512236,39635.2868172909,55868.1503102937,37874.5967516176,22329.0986198396
6024497643,7380,-2,0,2093.4157352967,46118.6250508527,-3735.2274030099,18100.5319491435,56565.6026921848,54542.2485551945,39633.6320105230,55868.0529687191,37873.8301867177,22328.8552659031
6024529139,7381,1,0,2077.6950710015,46121.0342548237,-3739.0967305996,18080.4065785983,56564.4710963802,54552.5789297972,39634.7149355402,55870.6081850519,37877.9550359407,22330.4979049742
6024529139,7381,1,0,2087.7820916677,46125.4632964672,-3734.1688133863,18093.3895111084,56571.4066835693,54543.5626664514,39635.5180035305,55873.4310907149,37879.9262028260,22328.9769428713
6024529139,7381,1,0,2104.3179916501,46122.7377323789,-3736.7118620223,18099.4490241262,56568.0240638525,54537.4909857368,39630.0303722634,55869.4522538538,37873.5868327812,22326.2513787830
6024529139,7381,1,0,2094.8515235218,46119.5619635081,-3747.1030751091,18072.6192526316,56559.2633221400,54547.5780064030,39626.6720879403,55866.4346650417,37872.6255847322,22326.2635464798
6024529139,7381,1,0,2088.2687995406,46121.8373228140,-3745.7524607618,18071.7066753699,56562.5120971917,54550.4860859437,39627.6820067766,55870.3891665091,37877.4683280678,22325.2292922499
6024529139,7381,1,0,2099.0493789257,46121.4236211220,-3738.5248488489,18089.9703883012,56568.1700762144,54543.3679833023,39625.6134983167,55872.7740350864,37877.3831541900,22325.2292922499
6024529139,7381,1,0,2097.3093982800,46119.9513298064,-3744.1463247811,18078.2042254734,56563.8140407518,54546.3977398112,39622.9366050156,55867.7974470858,37873.4894912067,22324.4748950468
6024529139,7381,1,0,2097.1755536150,46123.4191234010,-3742.6618657687,18076.3669032531,56565.6391952752,54549.9750426771,39629.0326211239,55869.3062414919,37875.9838690554,22326.6650804750
6024558091,7382,1,0,2110.6816970885,46124.2343590881,-3733.8889563594,18101.0551601069,56569.5206905617,54541.1412947837,39631.7703529091,55870.3648311155,37875.5458319697,22326.2757141766
6024558091,7382,1,0,2103.7096068089,46120.7057270095,-3736.7240297191,18096.1759136809,56561.1979859348,54541.2994748424,39629.2638073635,55863.4779147137,37873.6963420527,22327.6019931303
6024558091,7382,1,0,2081.8320879213,46123.7111481247,-3739.8024570153,18080.1753923587,56560.3949179445,54551.9948803497,39632.0015391487,55865.7776094132,37876.6044215933,22330.6804204265
6024558091,7382,1,0,2092.1016240398,46129.3691271474,-3728.1944742463,18101.6270418575,56568.6811194810,54549.9142041930,39638.9006232473,55875.7307854144,37881.4471649289,22334.1968848084
6024558091,7382,1,0,2105.9849661148,46129.1136055141,-3724.5806682898,18110.1809327241,56571.7838821708,54547.7970249458,39639.1683125774,55877.4099275760,37881.5688418971,22334.1482140211
6024558091,7382,1,0,2093.3427291158,46129.9045058076,-3732.0151310487,18090.3110838122,56568.8271318428,54554.9394629809,39638.0975552570,55874.8182081527,37883.3453256333,22332.0553701675
6024558091,7382,1,0,2084.9105152175,46131.9851819643,-3729.5937593809,18092.8784678418,56571.7473790803,54549.9142041930,39640.0687221423,55877.1300705490,37886.4845914136,22330.4370664901
6024558091,7382,1,0,2090.6415004211,46127.9211712255,-3728.8636975715,18103.5495379556,56570.0804046156,54540.1800467346,39637.1971456921,55875.4509283875,37882.6882700048,22328.5632411794
6024611178,7383,1,0,2083.6937455352,46124.3073652691,-3734.7528628338,18085.9672160464,56563.6680283899,54547.8091926426,39634.6419293593,55868.9898813745,37879.6220104054,22330.1450417663
6024611178,7383,1,0,2087.5995762153,46129.0649347268,-3729.5937593809,18087.7071966921,56567.2209958622,54551.4960047800,39639.2048156679,55874.4410095512,37883.2358163618,22335.8151884858
6024611178,7383,1,0,2104.0624700168,46127.7751588636,-3722.1714643189,18106.9929961564,56571.9055591390,54541.3116425392,39638.4260830712,55874.7086988813,37881.4958357162,22335.3041452193
6024611178,7383,1,0,2098.1489693608,46125.9135012497,-3729.5450885936,18095.3363426001,56565.0186427372,54547.1886401047,39637.2214810858,55870.1701479663,37881.0334632369,22333.6128353609
6024611178,7383,1,0,2082.1727834323,46128.3105375238,-3732.0151310487,18081.0271311363,56564.3250840183,54556.0345556949,39640.8717901326,55871.4477561327,37886.0465543279,22331.9823639866
6024611178,7383,1,0,2092.3084748858,46132.9342623165,-3722.3539797712,18104.8393138188,56573.5360305133,54550.1088873422,39646.2377444316,55876.7772073412,37888.3827521179,22330.7169235170
6024611178,7383,1,0,2102.8091972440,46133.0681069816,-3720.1759620399,18111.8235717952,56573.4143535451,54545.9597027255,39643.8650435511,55873.8934631941,37884.0875551394,22330.0111971013
6024611178,7383,1,0,2092.7830150619,46134.9662676860,-3726.2111396641,18093.7910451036,56570.0560692219,54554.6717736508,39643.3053294972,55874.2828294925,37882.8586177603,22331.9823639866
6024639093,7384,1,0,2095.2408898201,46140.1132034421,-3722.5729983141,18103.5373702587,56579.1575064455,54552.6397682813,39646.4324275807,55881.7051245545,37884.9392939171,22332.6637550087
6024639093,7384,1,0,2103.4540851756,46136.5480682729,-3720.7235083970,18111.8965779761,56581.0069963626,54545.7406841827,39645.6171918936,55882.5811987257,37881.1673079019,22332.0066993802
6024639093,7384,1,0,2091.5540776828,46134.3578828448,-3727.5860894051,18089.7392020615,56572.5504470707,54549.7073533470,39642.5630999910,55879.3567590676,37878.8067747183,22329.1716260205
6024639093,7384,1,0,2088.5121534771,46135.0514415637,-3725.4202393706,18089.3498357632,56574.7893032861,54546.4342429016,39643.7555342797,55878.2860017472,37878.3200668454,22325.0102737071
6024639093,7384,1,0,2100.9232042365,46130.2573690155,-3723.1327123679,18105.7762264742,56575.4463589145,54534.5585708024,39640.3850822597,55873.0538921134,37874.2317207129,22322.7470820980
6024639093,7384,1,0,2095.1800513360,46125.4632964672,-3733.1345591564,18088.9117986776,56563.7045314804,54540.2165498251,39636.2358976431,55865.4247462054,37869.8270144630,22324.7790874674
6024639093,7384,1,0,2082.7811682735,46127.3857925653,-3736.2859926335,18075.2353074486,56564.0817300819,54549.8655334057,39638.5477600395,55869.0142167681,37874.3777330747,22328.5145703921
6024639093,7384,1,0,2096.5428333802,46131.7904988152,-3726.5640028720,18097.5630311187,56572.8668071880,54544.3170636544,39643.3174971940,55875.0128913018,37878.6485946596,22331.4104822359
6024651653,7385,1,0,2105.5104259387,46132.2528712944,-3727.5374186178,18099.3273471580,56574.8623094670,54545.1931378257,39640.7257777708,55873.0782275070,37875.0104533095,22333.0166182165
6024651653,7385,1,0,2093.9876170474,46135.7206648890,-3731.8082802027,18085.3831665989,56576.3102653889,54551.2283154499,39642.5996030815,55876.7407042507,37878.3930730263,22332.7489288864
6024651653,7385,1,0,2094.9853681869,46138.8964337598,-3727.9632880066,18099.3638502485,56582.0290828957,54540.8979408472,39644.8871300842,55877.7871261775,37878.4052407231,22329.4149799570
6024651653,7385,1,0,2095.2165544265,46131.7539957247,-3729.1557222953,18106.0074127138,56576.7239670809,54533.4026396043,39641.9425474531,55871.8249547342,37873.1366279988,22323.5866531788
6024651653,7385,1,0,2081.5400631975,46129.9166735044,-3732.5505097089,18088.5467677729,56569.0826534761,54545.0227900702,39645.3251671698,55870.0728063917,37876.4949123219,22325.9958571497
6024651653,7385,1,0,2087.4292284598,46135.9761865223,-3722.0984581380,18100.9943216227,56576.1277499366,54547.4319940411,39652.6014498700,55876.5095180111,37883.5765118729,22332.2013825294
6024651653,7385,1,0,2103.2472343296,46133.7251626100,-3714.7613369537,18117.0556814290,56579.5833758343,54540.0827051601,39651.2508355226,55877.9818093267,37884.5012568314,22335.4623252780
6024651653,7385,1,0,2092.1624625239,46128.4930529761,-3723.8262710868,18094.7766285462,56568.4012624540,54542.8447723389,39643.1836525290,55870.7663651106,37881.9703758923,22336.7886042317
6024683368,7386,1,0,2077.6707356078,46130.6102322233,-3724.7145129549,18083.5701797723,56567.9753930652,54547.8091926426,39642.8794601084,55872.9078797515,37885.4746725773,22337.4578275569
6024683368,7386,1,0,2087.3075514916,46130.2938721059,-3719.3728940496,18101.5297002829,56569.5936967427,54537.5639919177,39639.0953063965,55870.7055266265,37883.2236486650,22337.3726536792
6024683368,7386,1,0,2085.7014155110,46125.9378366433,-3725.2133885246,18091.0046425311,56563.1083143360,54539.5229911062,39633.3886565865,55861.4094062538,37876.3245645664,22332.4690718595
6024683368,7386,1,0,2079.9582626105,46131.3159586391,-3725.5175809452,18079.2871504906,56568.2430823953,54554.8177860126,39637.9758782888,55864.8893675452,37880.3885753053,22334.3672325639
6024683368,7386,1,0,2092.9533628174,46137.5214840188,-3712.3521329828,18102.7464699652,56579.5955435311,54551.1188061785,39643.1958202258,55873.0782275070,37885.5720141518,22334.7687665591
6024683368,7386,1,0,2096.9930381626,46133.8590072751,-3711.4760588115,18107.8690703277,56577.6365443426,54543.5018279673,39642.8916278052,55870.7907005043,37882.1285559510,22336.1193809064
6024683368,7386,1,0,2079.3133746789,46131.0117662185,-3720.6991730033,18086.5269301003,56569.0704857793,54551.3013216308,39642.1007275118,55869.3670799760,37882.5300899461,22336.6790949603
6024683368,7386,1,0,2089.1327060150,46136.4628943952,-3716.8176777168,18098.3174283217,56579.3521895947,54554.4040843207,39650.0584012340,55880.8898888673,37890.6459437270,22340.1833916453
6024718926,7387,1,0,2108.5888532349,46134.3092120575,-3714.5058153204,18113.8920802551,56582.1264244703,54543.0272877912,39648.4400975565,55880.8533857769,37890.6459437270,22338.9422865693
6024718926,7387,1,0,2098.2584786322,46129.6124810839,-3723.7045941186,18094.5211069129,56573.1466642150,54540.6424192139,39645.4346764412,55873.6622769545,37885.1948155503,22336.3627348429
6024718926,7387,1,0,2084.8861798238,46127.9698420128,-3723.1205446711,18088.8874632839,56572.2097515596,54536.3228868418,39644.1692359717,55872.8348735705,37883.9902135649,22334.3428971702
6024718926,7387,1,0,2091.9677793748,46125.9986751274,-3717.0731993501,18104.3404382490,56575.1178311003,54526.6739032612,39640.3729145629,55871.3260791645,37877.4318249773,22332.0553701675
6024718926,7387,1,0,2091.7974316193,46122.7255646821,-3721.0398685144,18093.1704925656,56568.8149641460,54531.9790190760,39634.8244448116,55863.6847655597,37872.5525785513,22333.4911583926
6024718926,7387,1,0,2086.2489618680,46125.3294518022,-3726.5153320847,18079.6156783048,56567.4643497987,54540.2773883092,39636.7591086065,55864.2079765231,37875.3998196079,22335.9855362413
6024718926,7387,1,0,2100.0106269747,46129.0527670300,-3718.8861861767,18100.9578185323,56574.8379740734,54536.4445638100,39643.4635095559,55869.5982662156,37879.6463457991,22337.9810385203
6024718926,7387,1,0,2093.4035675999,46124.1248498167,-3723.0962092774,18098.2687575344,56568.0727346398,54530.7379140000,39641.0786409786,55865.0597153007,37876.6287569870,22336.2410578746
6024744431,7388,1,0,2074.8113268544,46124.1248498167,-3731.2242307552,18077.6445114195,56564.7631211040,54539.1092894142,39644.2909129399,55864.5730074278,37878.6607623564,22335.5840022462
6024744431,7388,1,0,2084.2656272858,46124.2708621786,-3726.1746365736,18090.4327607804,56569.3260074126,54530.7865847873,39646.5419368521,55868.8073659221,37881.4106618384,22334.5984188035
6024744431,7388,1,0,2100.4973348477,46117.6881381974,-3728.4864989700,18098.4026021995,56565.2011581896,54519.7504837689,39640.8839578295,55863.4049085328,37875.6066704539,22332.1040409548
6024744431,7388,1,0,2090.9700282353,46113.8674813950,-3738.4275072743,18074.7242641820,56555.4183299439,54526.6982386548,39637.0146302398,55855.9704457739,37872.3943984926,22332.9679474293
6024744431,7388,1,0,2080.9681814468,46114.1716738155,-3737.1133960175,18074.2375563091,56555.8928701200,54526.4548847184,39635.9803760098,55857.8929418720,37874.2560561065,22333.2964752435
6024744431,7388,1,0,2084.4238073445,46112.3708546857,-3730.4941689458,18091.9293874896,56557.8640370054,54520.4075393974,39633.6806813103,55856.9803646103,37874.1465468351,22333.1869659721
6024744431,7388,1,0,2071.9397504042,46107.5402790470,-3735.3734153718,18075.3934875073,56548.9086121437,54524.7270717695,39629.2151365763,55850.4219760227,37871.1046226294,22330.2545510377
6024744431,7388,1,0,2063.7752258360,46112.7115501968,-3734.2418195673,18070.9644458637,56553.9338709315,54532.4292238584,39631.8068559995,55855.0822039059,37877.2371418281,22331.8971901088
6024774803,7389,1,0,2076.8798353143,46113.6606305490,-3730.2021442220,18090.4814315677,56560.5652657001,54525.2867858234,39628.3755654955,55855.7149241407,37878.7216008405,22332.8219350674
6024774803,7389,1,0,2075.4683824829,46111.8598114192,-3735.4099184623,18085.8333713814,56555.3574914598,54529.8253367383,39625.5648275294,55851.4440625558,37876.5800861997,22336.0098716350
6024774803,7389,1,0,2061.5728727111,46117.0310825689,-3738.5370165458,18069.0297820689,56556.0753855724,54541.7131765343,39630.1033784443,55854.6076637298,37879.6828488895,22339.4046590486
6024774803,7389,1,0,2070.0050866094,46120.3041930143,-3730.3846596744,18087.6463582080,56565.6756983657,54532.5509008267,39633.4738304643,55861.7987725521,37881.3984941416,22338.0053739140
6024774803,7389,1,0,2080.7369952072,46117.2866042022,-3728.4986666668,18095.3241749032,56565.0308104341,54524.8000779504,39630.8577756474,55861.3485677697,37875.1199625809,22338.3582371218
6024774803,7389,1,0,2071.8789119201,46114.5123693266,-3737.8434578268,18072.8747742649,56556.7202735040,54528.6572378433,39628.8501056716,55857.5035755736,37871.8955229229,22339.0274604471
6024774803,7389,1,0,2075.1276869718,46117.0189148721,-3733.6942732102,18078.9951257669,56563.0839789424,54527.9758468212,39634.8122771148,55864.4026596722,37875.9230305713,22339.8305284374
6024774803,7389,1,0,2083.6329070511,46112.5533701381,-3732.2949880756,18091.2723318612,56562.7311157345,54518.1200123947,39630.5535832268,55859.9127795446,37870.2650515486,22334.6470895908
6024831545,7390,1,0,2073.9109172895,46108.0148192231,-3743.1485736416,18071.5728307049,56554.9681251615,54523.3156189380,39626.5504109720,55854.6563345171,37865.7995068146,22330.3762280060
6024831545,7390,1,0,2077.9505926347,46116.6903870579,-3740.0944817391,18071.3416444652,56561.7576999887,54528.9249271734,39634.4959169974,55860.4846612953,37870.4353993041,22333.6006676640
6024831545,7390,1,0,2096.0196224168,46118.5642123686,-3729.9952933760,18091.3818411326,56569.0461503856,54520.5900548497,39636.8442824842,55864.9380383325,37869.0604495631,22333.9048600846
6024831545,7390,1,0,2092.9533628174,46118.8075663051,-3731.2485661488,18081.7206898552,56563.3881713630,54522.5003832509,39635.3476557750,55860.3629843270,37866.9797734064,22336.3383994492
6024831545,7390,1,0,2077.6950710015,46122.5187138361,-3735.1543968290,18068.2753848658,56562.5729356758,54532.6847454917,39641.2854918246,55862.3949896965,37871.1046226294,22335.5231637621
6024831545,7390,1,0,2088.8650166849,46125.9743397338,-3727.8051079479,18091.0168102279,56570.8104664250,54523.7171529332,39644.7897885096,55865.9236217751,37873.8788575050,22334.7322634686
6024831545,7390,1,0,2097.1633859182,46119.0874233320,-3728.7298529065,18093.5233557735,56566.4787663560,54518.5823848739,39640.5432623184,55860.2534750556,37870.2042130645,22335.4866606716
6024831545,7390,1,0,2087.4900669439,46117.0432502658,-3732.3558265597,18074.9067796344,56560.2610732795,54528.9249271734,39641.4315041865,55857.1020415785,37871.4939889277,22338.8449449947
6024840207,7391,1,0,2086.0786141125,46117.1162564467,-3731.3094046329,18083.2416519581,56561.5751845364,54524.9095872219,39642.2589075705,55860.4603259016,37876.2880614759,22336.6425918698
6024840207,7391,1,0,2087.5509054280,46110.9715695511,-3731.6866032344,18090.5301023550,56558.5819311179,54517.1709320425,39637.5013381127,55859.0245376765,37874.1100437446,22333.6736738450
6024840207,7391,1,0,2072.6576445168,46109.4992782355,-3739.8511278026,18069.8085146655,56552.2547287700,54525.5423074566,39634.3742400292,55856.3963151628,37874.1708822287,22332.2378856199
6024840207,7391,1,0,2074.8356622481,46116.3983623341,-3732.3071557724,18075.2961459327,56560.4314210350,54528.9005917798,39636.2724007336,55864.3539888850,37880.8387800877,22329.7191723775
6024840207,7391,1,0,2089.6315815848,46116.8729025102,-3719.3242232623,18097.6117019060,56568.9244734174,54526.7469094421,39638.0123813792,55865.5950939609,37881.0456309337,22325.8620124847
6024840207,7391,1,0,2081.2480384738,46114.4028600552,-3723.3030601234,18083.5093412882,56562.6702772504,54532.0885283474,39636.1993945526,55861.0565430459,37878.9892901706,22321.9561818045
6024840207,7391,1,0,2069.4453725555,46117.2257657181,-3726.0651273022,18074.6755933947,56561.8672092601,54538.8050969937,39640.1173929296,55864.8650321515,37883.7955304157,22322.6862436139
6024840207,7391,1,0,2082.7568328798,46120.9855840364,-3719.9934465876,18100.3494336911,56568.3769270604,54533.9136828708,39645.0574778397,55867.8947886604,37885.7058588169,22324.7425843769
6024880379,7392,1,0,2094.8880266123,46122.7985708630,-3718.3386398197,18104.5959598823,56569.4963551681,54538.4644014826,39645.9213843142,55866.5441743131,37884.0145489585,22328.6484150571
6024880379,7392,1,0,2092.0894563430,46130.6102322233,-3719.4093971401,18091.4548473136,56573.5481982101,54548.6609314202,39650.7762953465,55869.8416201521,37888.6991122353,22333.3451460308
6024880379,7392,1,0,2102.1399739188,46138.5557382487,-3710.5878169435,18108.2097658387,56584.5477961381,54544.0858774148,39658.0404103498,55878.4198464123,37893.2863339376,22337.9445354298
6024880379,7392,1,0,2107.6519405795,46137.2659623855,-3711.5125619020,18114.8898313945,56585.2900256443,54538.1967121525,39656.7019636993,55879.5027714295,37891.4855148078,22339.5263360168
6024880379,7392,1,0,2090.5076557560,46134.9419322923,-3723.1448800647,18090.1529037535,56578.4274446361,54544.3048959576,39654.6577906330,55877.1544059427,37891.6923656538,22336.5574179920
6024880379,7392,1,0,2088.8650166849,46137.6309932902,-3720.2733036145,18091.8442136119,56581.9074059275,54541.5184933852,39655.8380572249,55881.8998077036,37893.3958432090,22335.2068036447
6024880379,7392,1,0,2106.7271956210,46136.2560435492,-3711.7559158385,18107.3823624548,56586.3242798742,54531.5044788999,39653.5018594349,55880.3666779039,37891.3151670523,22336.3749025397
6024880379,7392,1,0,2100.0958008525,46132.0338527516,-3717.3773917707,18090.8464624724,56576.6752962936,54535.5076511546,39649.5960287547,55872.9565505388,37885.9857158438,22337.3483182855
6024896994,7393,1,0,2087.4657315503,46135.4043047716,-3719.4702356242,18085.3709989021,56576.7726378682,54544.8889454051,39654.5117782712,55875.9011331699,37889.2223231987,22338.7111003297
6024896994,7393,1,0,2098.6721803242,46136.8887637840,-3715.6617465186,18105.8492326551,56580.9339901817,54539.4256495316,39657.6023732642,55879.1985790089,37889.0154723527,22337.2753121046
6024896994,7393,1,0,2100.6676826032,46134.2240381797,-3721.4048994190,18101.1159985910,56577.4905319808,54539.3526433507,39655.4365232297,55873.4189230180,37886.0952251152,22336.3992379333
6024896994,7393,1,0,2092.2354687049,46136.9009314808,-3725.8582764562,18087.3665011810,56576.9429856237,54546.9209507746,39657.6997148388,55874.9763882114,37888.1759012720,22337.6403430093
6024896994,7393,1,0,2103.3324082074,46139.9063525961,-3716.2092928757,18104.9609907870,56585.9592489695,54538.5009045731,39662.0679179982,55880.8777211705,37891.7167010474,22338.1027154885
6024896994,7393,1,0,2104.4518363151,46134.9419322923,-3713.5445672714,18105.8979034424,56581.8465674434,54534.0110244454,39657.6753794451,55875.8889654731,37890.0983973700,22337.8471938553
6024896994,7393,1,0,2083.7059132320,46132.8125853483,-3718.8618507831,18080.8202802903,56573.3413473641,54538.0263643970,39654.6456229362,55871.3869176486,37890.5972729397,22339.1734728090
6024896994,7393,1,0,2086.5531542886,46136.4750620920,-3711.6099034766,18090.9559717438,56580.5689592770,54538.2088798493,39658.4419443450,55877.3247536982,37896.9609783781,22341.5948444767
6024951390,7394,1,0,2103.1377250582,46137.8986826203,-3705.5868935492,18108.6234675307,56585.1926840697,54535.8848497561,39659.8777325701,55879.3080882803,37897.8735556398,22343.8702037826
6024951390,7394,1,0,2094.5960018885,46137.7161671679,-3712.4616422542,18091.4913504040,56578.0745814283,54544.3779021386,39657.8457272006,55874.7452019717,37896.3160904465,22342.6777694940
6024951390,7394,1,0,2086.3341357457,46140.6242467086,-3712.1087790463,18090.0433944821,56578.8289786313,54545.8501934541,39662.6276320521,55879.6731191850,37898.7496298111,22340.7309380023
6024951390,7394,1,0,2090.4468172719,46137.0956146300,-3708.2272837598,18105.8979034424,56579.6685497121,54532.3805530711,39659.8899002669,55877.4707660601,37893.9433895660,22337.6768460997
6024951390,7394,1,0,2082.7203297893,46131.1456108835,-3716.4404791153,18092.4160953626,56573.7428813593,54533.9623536581,39653.6478717967,55870.9853836535,37887.5066779467,22335.0607912828
6024951390,7394,1,0,2080.0312687915,46135.4043047716,-3719.9569434971,18080.6134294443,56578.1597553060,54544.0372066275,39657.2130069658,55873.9056308910,37892.7022844901,22338.2122247599
6024951390,7394,1,0,2097.2363920991,46138.1298688599,-3712.8753439462,18097.8793912361,56584.2314360207,54533.2444595456,39657.4685285991,55876.7163688571,37890.4877636683,22338.0418770044
6024951390,7394,1,0,2099.2318943781,46130.8535861598,-3718.4116460006,18092.4769338467,56575.4706943082,54526.7104063517,39651.0683200703,55865.3882431149,37885.2799894281,22337.8715292489
6024975291,7395,1,0,2080.2746227279,46130.7440768884,-3727.5982571019,18073.0937928077,56567.6468652510,54533.5243165725,39650.7519599529,55863.1007161122,37884.7202753742,22341.5948444767
6024975291,7395,1,0,2083.2070376623,46131.2551201550,-3724.5563328962,18089.7513697583,56572.7086271293,54529.4968089241,39653.6843748872,55868.1746456874,37887.5918518245,22343.6390175430
6024975291,7395,1,0,2095.6545915121,46127.9090035286,-3721.9037749888,18102.5882899065,56571.1633296328,54521.5878059892,39653.3071762857,55867.2742361225,37884.5134245283,22341.2663166625
6024975291,7395,1,0,2084.9713537016,46126.6435630591,-3728.4621635764,18087.0744764573,56564.9821396468,54535.4833157610,39653.4410209507,55864.6338459119,37886.7157776532,22339.8305284374
6024975291,7395,1,0,2078.2182819648,46127.9333389223,-3724.7266806517,18090.3354192058,56566.3084186005,54534.9479371008,39656.5559513374,55869.3670799760,37892.8726322456,22338.0662123981
6024975291,7395,1,0,2086.0177756284,46122.4092045647,-3717.9249381277,18104.5351213982,56566.4909340528,54521.9771722875,39652.6987914445,55866.1913111052,37890.1957389446,22337.1292997427
6024975291,7395,1,0,2083.6572424447,46118.5398769750,-3720.1637943431,18089.9947236948,56560.8572904238,54527.9028406403,39649.9732273562,55861.8231079458,37883.1993132714,22338.6745972392
6024975291,7395,1,0,2086.7235020441,46124.1978559976,-3716.0267774233,18088.1208983841,56568.4864363318,54534.1083660200,39656.5681190342,55868.8317013158,37888.4435906021,22342.2032293179
6024993133,7396,1,0,2106.1674815671,46129.0649347268,-3710.8920093640,18114.5856389740,56580.8853193944,54525.6883198185,39660.0480803256,55875.0250589987,37890.8892976635,22341.0351304229
6024993133,7396,1,0,2104.0746377136,46127.8846681350,-3721.5144086905,18108.0150826896,56576.0547437557,54523.1452711825,39657.8578948975,55870.5351788710,37888.5044290862,22338.2000570631
6024993133,7396,1,0,2088.3904765088,46130.0991889568,-3728.6568467255,18084.3732477626,56572.3557639215,54532.2223730124,39660.1454219002,55871.5937684946,37889.5995218002,22337.5916722220
6024993133,7396,1,0,2095.7884361772,46132.9585977102,-3721.2953901476,18096.4679384046,56579.3400218978,54523.1209357889,39662.6276320521,55877.2517475173,37891.1204839031,22335.3893190970
6024993133,7396,1,0,2107.9926360906,46129.3082886633,-3720.2489682209,18103.2210101413,56578.4031092425,54520.1520177641,39659.0503291861,55872.4698426659,37886.6062683818,22333.1869659721
6024993133,7396,1,0,2099.0007081384,46128.4808852793,-3726.5153320847,18086.2227376797,56574.0105706894,54530.7744170905,39659.0381614893,55868.3571611397,37886.0100512375,22333.8683569942
6024993133,7396,1,0,2098.0881308767,46130.6832384043,-3723.0962092774,18093.4868526830,56576.8821471396,54528.0245176085,39661.3135207952,55872.3116626072,37891.2178254777,22334.3794002607
6024993133,7396,1,0,2101.2395643539,46124.9644208975,-3721.2710547540,18101.7852219162,56572.6721240389,54514.0681693526,39656.2030881295,55868.1259749001,37885.5476787582,22333.0287859134
6025070496,7397,1,0,2084.9348506111,46118.5033738845,-3730.8957029409,18075.3083136295,56561.9037123506,54517.3656151916,39648.0872343486,55857.3818986054,37878.7581039310,22332.7367611896
6025070496,7397,1,0,2083.0123545131,46120.9977517332,-3732.6478512834,18066.4867334329,56562.9744696710,54518.2903601502,39648.7442899771,55856.1164581358,37876.8599432266,22333.3694814244
6025070496,7397,1,0,2104.7681964325,46122.1171798409,-3725.9434503340,18087.9627183254,56569.5328582586,54508.2276748776,39649.9975627498,55858.1606312021,37875.8621920871,22332.7124257960
6025070496,7397,1,0,2103.9164576549,46118.0896721925,-3733.9011240562,18078.2285608670,56560.3097440668,54509.2984321980,39646.0552289792,55851.2372117098,37869.3524742869,22330.7899296980
6025070496,7397,1,0,2087.0155267678,46121.4357888188,-3741.7127854165,18063.5056477113,56559.2754898368,54523.4007928158,39649.9123888721,55857.3453955149,37874.3533976811,22332.0310347739
6025070496,7397,1,0,2093.1723813602,46124.7819054451,-3733.9376271467,18084.9572972101,56568.4742686350,54518.6310556612,39657.5293670832,55865.9114540783,37880.1817244593,22334.4645741385
6025070496,7397,1,0,2099.6699314637,46121.0342548237,-3732.5018389216,18091.0533133184,56567.8780514906,54511.3791083547,39656.2274235232,55863.9281194962,37877.3709864932,22335.4623252780
6025070496,7397,1,0,2089.2178798928,46120.1703483493,-3734.7528628338,18071.6823399763,56563.0718112456,54517.6454722186,39655.6312063789,55861.2268908015,37876.4705769283,22336.7399334444
6025073974,7398,1,0,2089.8992709149,46122.1415152346,-3723.6802587249,18081.0149634395,56567.2940020431,54514.2628525018,39657.8700625943,55864.7311874865,37878.0280421216,22337.8350261584
6025073974,7398,1,0,2094.5960018885,46116.8242317229,-3720.5531606414,18088.1330660809,56561.4291721745,54503.5066085103,39651.2508355226,55857.5887494514,37872.8932740623,22336.9589519872
6025073974,7398,1,0,2081.0655230214,46112.0788299620,-3728.4621635764,18066.3163856774,56551.2691453273,54512.2186794355,39648.2575821042,55850.3854729322,37871.7738459546,22334.3915679575
6025073974,7398,1,0,2080.7248275104,46117.3231072927,-3726.9533691703,18067.5939938438,56556.7202735040,54516.7207272600,39653.7695487650,55856.2989735882,37878.7337685373,22336.5695856888
6025073974,7398,1,0,2100.6433472095,46117.8828213465,-3720.7356760938,18088.3642523205,56562.1348985902,54508.4223580268,39656.1909204327,55857.9294449624,37877.8576943661,22335.8516915763
6025073974,7398,1,0,2096.3116471406,46115.3276050137,-3727.4765801337,18075.4786613850,56554.4570818949,54508.8847305060,39654.0250703982,55852.4296459985,37875.3268134269,22335.4379898843
6025073974,7398,1,0,2077.5490586396,46115.7778097962,-3730.2751504030,18063.0189398383,56552.0600456208,54513.2285982718,39655.5582001979,55851.8212611573,37876.7626016520,22335.2189713415
6025073974,7398,1,0,2083.5233977797,46116.7998963293,-3722.0862904411,18084.8356202419,56555.2844852789,54507.6436254301,39658.1134165307,55856.2503028009,37879.2569795007,22335.4744929748
6025087345,7399,1,0,2085.0565275793,46112.5655378349,-3721.8672718983,18084.3367446721,56550.5755866084,54510.1015001883,39653.5870333126,55852.5999937540,37877.9672036375,22335.3893190970
6025087345,7399,1,0,2072.4142905803,46112.2613454143,-3725.1038792532,18064.9414359364,56545.6598370919,54519.3732851674,39652.1755804811,55850.4341437195,37880.1817244593,22335.9612008477
6025087345,7399,1,0,2080.7491629040,46114.3785246615,-3718.6549999371,18076.2938970722,56552.8022751270,54515.9176592697,39653.6113687063,55856.4206505564,37885.1218093694,22334.7809342559
6025087345,7399,1,0,2091.8339347097,46111.3609358494,-3719.5067387147,18080.7107710189,56548.9816183246,54508.5196996013,39649.5595256642,55854.2304651283,37881.6540157749,22331.9458608961
6025087345,7399,1,0,2080.4328027866,46110.2171723481,-3725.9799534245,18057.4704700871,56542.7882606417,54515.6743053332,39647.5396879916,55851.0060254702,37879.6463457991,22330.1693771600
6025087345,7399,1,0,2083.4625592955,46116.0333314294,-3716.8906838977,18062.6174058432,56552.1087164081,54514.9199081302,39653.2220024079,55856.8830230357,37881.8852020145,22330.0720355854
6025087345,7399,1,0,2098.4409940846,46113.8066429109,-3709.4683888357,18081.4773359187,56556.6350996262,54501.7179570773,39653.2950085889,55854.9240238472,37876.8477755298,22328.2955518492
6025087345,7399,1,0,2091.4202330177,46113.7579721236,-3717.0366962596,18072.1325447587,56551.0501267845,54509.5782892249,39655.3026785646,55853.0380308396,37873.4894912067,22329.7435077712
6025121647,7400,1,0,2078.5468097791,46118.9292432733,-3725.5419163389,18067.6304969342,56552.0722133176,54513.2285982718,39660.6808005604,55856.5179921310,37875.8378566935,22329.2811352919
6025121647,7400,1,0,2084.5819874032,46116.4105300310,-3725.3715685833,18087.0136379732,56553.8243616601,54502.1194910725,39658.3689381640,55856.6640044929,37872.2970569180,22325.5943231546
6025121647,7400,1,0,2088.1592902692,46112.4438608667,-3728.4378281827,18081.6841867647,56550.4417419434,54503.5796146912,39653.9155611268,55852.1376212747,37869.0604495631,22326.2027079957
6025121647,7400,1,0,2079.5445609185,46115.1207541677,-3731.3094046329,18064.9049328459,56549.1032952928,54508.5075319045,39654.0615734887,55850.7991746242,37869.3281388932,22328.4172288175
6025121647,7400,1,0,2084.5819874032,46114.4028600552,-3723.7654326027,18076.9144496101,56554.6152619536,54494.9283822501,39652.4067667208,55849.6189080324,37868.4033939347,22327.3829745875
6025121647,7400,1,0,2082.4891435497,46108.6110363675,-3724.9213638009,18073.1302958982,56548.7504320850,54491.2294024159,39646.9799739378,55843.3403764717,37861.5894837138,22328.2712164556
6025121647,7400,1,0,2060.1857552732,46105.7881307045,-3732.6843543739,18046.6655553083,56539.4421440154,54504.4070180752,39643.6216896146,55839.4832165789,37861.9058438312,22330.7047558202
6025121647,7400,1,0,2065.0284986088,46110.6430417369,-3724.4103205343,18059.8553386644,56546.5480789600,54505.4534400020,39648.3792590724,55847.6599088439,37868.9144372012,22333.6128353609
6025154615,7401,1,0,2085.5554031491,46107.8688068613,-3721.5509117809,18079.7616906667,56550.1132141291,54496.4128412625,39648.5861099184,55847.6234057534,37867.8193444872,22333.6858415418
6025154615,7401,1,0,2083.6694101415,46106.1531616092,-3730.0682995570,18065.0874482982,56543.0802853655,54502.9833975469,39646.6149430331,55843.9852644034,37866.4443947462,22333.1261274880
6025154615,7401,1,0,2080.1164426692,46109.1950858150,-3728.0241264907,18062.5078965718,56546.6940913219,54504.9058936449,39653.2950085889,55850.3002990545,37873.6476712654,22334.1238786274
6025154615,7401,1,0,2085.4945646650,46107.8809745581,-3720.1029558590,18079.7495229699,56550.1132141291,54496.0964811451,39655.5582001979,55851.3832240717,37874.0370375637,22333.9291954783
6025154615,7401,1,0,2076.8068291334,46103.9629761811,-3722.5729983141,18068.9567758879,56545.9640295125,54500.5620258791,39654.6699583299,55847.2218717583,37871.2506349912,22332.3595625881
6025154615,7401,1,0,2071.7572349519,46110.4361908909,-3718.7280061180,18063.7368339509,56548.6287551167,54513.3381075432,39660.8754837096,55851.6144103113,37878.8554455056,22336.7642688380
6025154615,7401,1,0,2084.7158320683,46112.9670718301,-3711.9871020781,18088.3155815332,56556.0510501787,54506.4025203542,39660.2670988684,55856.7005075833,37883.1141393936,22336.0828778159
6025154615,7401,1,0,2085.7014155110,46107.6254529248,-3715.8077588805,18088.2669107459,56551.1109652686,54505.3195953369,39655.8258895280,55852.3688075144,37881.0821340242,22336.6912626571
6025186622,7402,1,0,2066.9023239195,46106.4938571203,-3721.5022409936,18064.8197589681,56545.2339677031,54514.1776786240,39655.4486909265,55850.6774976560,37879.5855073150,22338.4312433028
6025186622,7402,1,0,2067.6080503352,46108.6597071548,-3712.8753439462,18072.5584141475,56550.4904127307,54509.1645875330,39657.1521684817,55854.7415083948,37880.6562646354,22334.9999527987
6025186622,7402,1,0,2081.3940508356,46108.3676824310,-3707.9109236424,18080.8689510776,56553.6540139046,54503.8351363245,39655.2783431710,55854.9118561503,37877.2493095250,22333.1869659721
6025186622,7402,1,0,2074.1786066196,46110.6430417369,-3709.9064259214,18058.5898981948,56552.6319273715,54511.6711330785,39655.2418400805,55854.5346575488,37875.9838690554,22335.0486235860
6025186622,7402,1,0,2072.5724706390,46115.4857850724,-3704.0659314464,18058.1275257155,56555.7225223645,54510.7585558168,39658.0160749562,55859.5112455494,37879.9748736133,22337.8958646425
6025186622,7402,1,0,2078.1452757839,46113.0279103142,-3698.1889338809,18075.2596428422,56557.8397016117,54499.6494486174,39658.0039072593,55857.9051095688,37878.0158744248,22338.8206096011
6025186622,7402,1,0,2066.3426098657,46106.3843478489,-3705.7085705175,18059.0766060677,56548.9694506278,54502.3628450089,39654.2927597283,55851.7847580669,37873.8180190209,22336.4235733270
6025186622,7402,1,0,2061.0009909604,46109.6574582942,-3704.7473224684,18053.3577885609,56554.2015602617,54508.1911717871,39660.5226205017,55855.0822039059,37879.0136255643,22338.4434109996
6025220363,7403,1,0,2079.9217595201,46112.8697302555,-3695.8770714845,18077.3159836053,56562.3295817394,54502.3141742217,39664.4649542723,55860.3751520239,37879.5490042245,22338.2730632441
6025220363,7403,1,0,2082.0511064641,46109.7304644752,-3702.2529446197,18075.0162889058,56554.8099451028,54502.5453604613,39661.6055455189,55853.1718755047,37875.8135212998,22337.0684612586
6025220363,7403,1,0,2064.4931199486,46112.5290347444,-3707.9839298233,18060.5732327769,56550.3444003688,54514.1655109272,39660.8633160127,55853.1232047174,37878.0888806057,22338.9057834789
6025220363,7403,1,0,2067.1821809464,46118.1018398894,-3700.0992622821,18075.8923630770,56557.6328507657,54505.7941355130,39661.9949118173,55859.3652331875,37880.0478797942,22340.6822672150
6025220363,7403,1,0,2072.7306506977,46116.4105300310,-3698.1037600031,18082.5480932392,56558.1682294259,54499.3817592873,39656.7749698802,55857.1142092753,37876.0568752363,22340.2929009167
6025220363,7403,1,0,2060.4412769065,46114.0134937568,-3704.2727822923,18061.5831516132,56556.7324412008,54507.8018054888,39655.2418400805,55854.4008128838,37875.8378566935,22341.0838012102
6025220363,7403,1,0,2063.5197042027,46116.8607348134,-3699.1258465362,18064.3330510952,56563.7532022677,54506.0496571463,39660.0115772351,55861.5919217061,37879.5368365277,22340.5970933372
6025220363,7403,1,0,2076.3079535636,46113.1860903729,-3695.4025313084,18074.1523824313,56565.1403197055,54497.6174432480,39660.4982851080,55860.7645183222,37877.3101480091,22338.1027154885
6025251405,7404,1,0,2070.4187883013,46110.4361908909,-3704.5161362288,18055.4506324145,56558.4115833624,54506.3173464764,39659.6587140273,55856.3963151628,37876.3854030505,22338.2365601536
6025251405,7404,1,0,2069.2871924968,46114.8287294440,-3707.9109236424,18055.2802846589,56560.3462471572,54510.9775743596,39664.0999233676,55858.9271961019,37880.8509477845,22336.0342070286
6025251405,7404,1,0,2085.3728876967,46115.7534744025,-3700.7806533042,18082.7306086915,56564.1304008692,54502.6061989454,39665.4140346245,55860.8010214127,37881.2403140829,22335.2068036447
6025251405,7404,1,0,2079.9460949137,46110.3510170131,-3702.5693047371,18074.6512580011,56553.2646476063,54500.7932121188,39659.6343786336,55850.2637959640,37876.1177137204,22333.9048600846
6025251405,7404,1,0,2063.7995612297,46111.1419173066,-3700.4521254899,18056.4483835539,56548.8477736596,54509.1280844425,39660.5347881985,55850.2759636608,37876.9086140139,22335.5353314589
6025251405,7404,1,0,2070.4309559982,46112.6628794095,-3689.1483351414,18069.9545270274,56552.4737473128,54502.7400436105,39662.4572842965,55852.1497889715,37878.3809053295,22337.0441258649
6025251405,7404,1,0,2079.8122502487,46108.9030610912,-3692.0807500758,18069.9180239369,56550.7946051512,54498.2866665733,39656.1909204327,55848.4264737437,37873.9883667764,22338.0662123981
6025251405,7404,1,0,2074.5679729180,46109.2437566022,-3702.9830064291,18050.2306904774,56550.2227234005,54506.0739925399,39655.1688338996,55846.6743254012,37872.6377524291,22339.0517958407
6025295071,7405,1,0,2078.2912881458,46112.4803639572,-3699.8315729520,18060.5245619896,56560.3219117636,54501.9369756201,39658.6122921005,55853.8289311331,37875.1808010651,22338.7962742074
6025295071,7405,1,0,2086.2854649585,46111.3366004558,-3697.4710397683,18075.4178229009,56561.2953275094,54497.2280769497,39658.8434783401,55855.6540856565,37873.5868327812,22338.2973986377
6025295071,7405,1,0,2071.6720610741,46107.8323037708,-3705.9519244539,18055.7913279255,56550.9527852099,54504.7477135862,39656.7628021834,55851.2615471035,37871.9685291038,22337.7376845839
6025295071,7405,1,0,2070.2606082426,46112.2735131112,-3701.4863797199,18058.1761965028,56553.6540139046,54508.9577366870,39661.1553407365,55855.8487688057,37875.9838690554,22340.7066026086
6025295071,7405,1,0,2085.5432354523,46112.2248423239,-3695.9135745750,18081.0027957426,56555.9537086042,54495.9626364801,39659.4761985749,55854.5954960330,37872.2605538275,22337.3969890728
6025295071,7405,1,0,2080.7613306008,46106.8467203281,-3703.9320867813,18072.2907248174,56546.1222095712,54495.0743946120,39656.5681190342,55844.6666554254,37866.6512455922,22334.8782758305
6025295071,7405,1,0,2068.5571306874,46107.4429374725,-3707.8135820678,18057.8476686886,56543.6156640257,54497.3619216147,39657.6267086578,55844.3502953080,37866.7850902572,22333.9291954783
6025295071,7405,1,0,2074.8234945512,46104.8755534428,-3705.8302474857,18073.3249790474,56546.9252775615,54484.8900323712,39657.8457272006,55843.8392520415,37862.7940856993,22329.2324645046
6025303162,7406,1,0,2082.2336219164,46100.4951825866,-3712.3764683764,18073.0694574141,56542.0095280451,54485.1698893981,39655.8867280121,55837.1348510920,37858.4867210240,22328.4050611207
6025303162,7406,1,0,2079.0456853488,46102.1986601418,-3716.7933423232,18056.7404082777,56539.8558457074,54497.4835985829,39656.1179142518,55837.2686957571,37861.6989929852,22331.3861468423
6025303162,7406,1,0,2093.4035675999,46106.4330186361,-3710.5269784593,18072.6557557221,56549.6995124372,54489.8301172813,39658.3202673767,55843.1700287162,37865.9576868733,22335.7786853954
6025303162,7406,1,0,2100.6920179968,46102.5636910465,-3710.4418045816,18081.4043297378,56548.0203702756,54482.1279651924,39653.9277288237,55840.8946694103,37863.0982781199,22334.7687665591
6025303162,7406,1,0,2078.2791204490,46101.0062258531,-3719.2147139909,18057.6043147521,56542.0581988324,54490.8278684208,39652.9299776842,55837.4268758158,37861.1271112346,22333.7710154196
6025303162,7406,1,0,2071.8424088296,46106.3965155457,-3718.0466150959,18059.9283448453,56546.0370356935,54490.6940237557,39655.9962372836,55842.0992713958,37863.2199550881,22332.6272519182
6025303162,7406,1,0,2088.5973273548,46106.7737141472,-3715.2480448266,18077.8391945687,56550.2348910974,54482.9310331827,39655.1444985059,55844.2286183398,37862.1613654645,22330.5952465488
6025303162,7406,1,0,2086.3463034426,46104.4983548413,-3722.9501969156,18060.4637235055,56545.7571786665,54495.1960715802,39652.9056422905,55839.4710488820,37862.3682163105,22332.2743887103
6025338862,7407,1,0,2079.9339272169,46110.1563338640,-3716.7811746263,18053.1387700181,56549.7360155276,54504.1636641387,39658.6974659782,55845.9564312887,37872.3700630990,22333.7710154196
6025338862,7407,1,0,2085.2025399412,46105.6421183427,-3707.6432343123,18068.2145463817,56552.7414366429,54488.6741860831,39656.7141313961,55843.5350596209,37869.2307973186,22328.4902349984
6025338862,7407,1,0,2080.9195106595,46100.3491702247,-3710.5634815498,18062.4713934813,56545.4773216396,54487.5182548850,39652.1634127843,55834.7743179084,37861.9666823153,22328.1495394874
6025338862,7407,1,0,2070.1267635776,46103.5857775796,-3714.2137905967,18049.8656595727,56543.9198564463,54496.1208165388,39653.8060518554,55833.6913928911,37864.2420416212,22331.1549606026
6025338862,7407,1,0,2083.0366899067,46108.3676824310,-3704.9055025271,18071.9378616096,56550.8432759385,54494.0644757757,39658.2959319831,55839.1546887646,37867.7341706094,22332.8827735515
6025338862,7407,1,0,2092.1137917366,46106.0679877315,-3702.0582614706,18078.1068838988,56548.5192458453,54489.5015894671,39657.7727210197,55837.7675713268,37865.3614697289,22332.6394196150
6025338862,7407,1,0,2073.9839234705,46102.9165542543,-3711.4517234179,18055.1707753875,56538.6755791156,54490.8887069049,39659.2693477289,55835.1271811163,37863.5849859928,22334.4889095321
6025338862,7407,1,0,2072.1100981597,46103.4519329145,-3707.7284081901,18063.4691446208,56541.4011432039,54489.3069063179,39661.2770177047,55839.0573471901,37867.5516551571,22337.4578275569
6025370346,7408,1,0,2084.3751365573,46098.4145064298,-3705.4165457937,18077.1091327593,56541.3768078103,54478.8913578375,39657.0669946040,55836.4169569795,37863.0739427262,22335.3528160066
6025370346,7408,1,0,2075.5657240574,46094.4600049624,-3716.1362866947,18059.4903077597,56534.0153512324,54484.0869643809,39652.2364189653,55829.9559099665,37858.9125904128,22336.8129396253
6025370346,7408,1,0,2064.4322814645,46095.4942591923,-3721.9402780793,18055.1342722971,56533.8085003864,54484.9630385521,39653.3315116793,55829.6273821523,37859.7643291904,22335.9855362413
6025370346,7408,1,0,2074.3854574656,46095.5550976764,-3716.8176777168,18075.7341830183,56537.4466417365,54477.6259173679,39655.7163802566,55832.0244184264,37859.4236336793,22336.7642688380
6025370346,7408,1,0,2071.5260487122,46093.7664462435,-3721.7455949301,18066.8517643376,56532.0563520439,54481.2640587180,39654.3170951220,55827.3520228464,37854.0576793804,22336.0828778159
6025370346,7408,1,0,2067.1700132496,46100.0936485914,-3720.6261668224,18060.3420465373,56537.2519585873,54493.2005693013,39660.3887758366,55833.6548898007,37860.7255772394,22338.4312433028
6025370346,7408,1,0,2086.6869989536,46106.5911986948,-3710.7946677894,18084.5922663054,56548.9816183246,54485.7904419361,39662.3599427220,55840.1037691168,37864.9964388243,22338.0662123981
6025370346,7408,1,0,2092.1502948271,46099.8624623518,-3714.6883307728,18084.0568876452,56541.1456215706,54478.5019915392,39656.5194482469,55833.2046850182,37860.3483786379,22334.5010772289
6025425521,7409,1,0,2075.9185872653,46097.1490659602,-3725.8096056690,18062.9946044447,56534.2830405625,54487.8346150023,39657.3346839341,55832.0609215169,37861.1149435377,22335.3163129161
6025425521,7409,1,0,2075.9794257494,46099.2540775106,-3725.2863947056,18074.8216057566,56538.5660698442,54485.4254110314,39659.8655648732,55837.3417019380,37864.2542093181,22333.7223446323
6025425521,7409,1,0,2093.3913999031,46099.4122575693,-3718.7280061180,18086.3444146479,56541.4498139912,54481.6777604099,39661.7272224872,55838.6801485885,37864.6679110100,22337.0076227745
6025425521,7409,1,0,2089.2908860737,46100.3735056183,-3721.1128746953,18066.3650564646,56535.7553318781,54490.3168251542,39661.8002286681,55835.3705350527,37864.8017556751,22338.1635539727
6025425521,7409,1,0,2087.8916009391,46104.3645101763,-3715.6739142154,18063.2257906843,56539.0041069298,54492.3244951300,39664.3676126977,55837.6458943586,37871.4209827468,22335.3163129161
6025425521,7409,1,0,2098.0759631799,46102.2351632322,-3708.0447683075,18077.0847973657,56541.3281370230,54485.2063924886,39661.7758932744,55835.5652182019,37870.1312068835,22333.9170277814
6025425521,7409,1,0,2087.0155267678,46100.1301516819,-3711.0866925132,18062.3132134226,56534.7940838291,54493.0667246362,39657.7727210197,55832.0000830328,37867.4908166730,22337.7985230680
6025425521,7409,1,0,2076.4296305319,46104.1819947239,-3710.3444630070,18055.2437815685,56538.9919392330,54497.2524123433,39661.5690424285,55835.1150134194,37868.5494062966,22340.0738823739
6025452069,7410,1,0,2088.0497809978,46105.6056152522,-3702.6909817054,18077.8148591750,56547.6431716741,54486.8855346502,39660.4009435335,55840.6513154739,37867.8923506681,22340.0738823739
6025452069,7410,1,0,2085.3972230904,46101.6389460879,-3705.5503904588,18077.9608715369,56544.1267072923,54487.4939194913,39658.1985904085,55838.6923162854,37865.9333514796,22339.1126343248
6025452069,7410,1,0,2069.1898509222,46103.4275975209,-3713.3377164254,18060.4272204151,56541.6810002308,54497.8729648813,39660.8998191032,55842.6103146624,37870.5449085755,22341.1689750879
6025452069,7410,1,0,2073.4242094166,46106.9197265091,-3712.1209467431,18074.8337734534,56549.7360155276,54494.6971960105,39666.0224194657,55849.5337341546,37876.6409246838,22340.7796087896
6025452069,7410,1,0,2088.4513149929,46105.6542860395,-3715.5279018536,18081.5138390092,56548.8356059627,54488.9905462005,39664.2702711232,55848.6454922865,37872.7959324878,22338.5529202710
6025452069,7410,1,0,2079.8730887328,46105.8611368855,-3721.9889488666,18058.9549290995,56545.4651539428,54499.8076286761,39661.9462410300,55846.3823006775,37871.1411257198,22338.9057834789
6025452069,7410,1,0,2080.8830075691,46110.3510170131,-3711.1353633005,18064.6129081221,56550.9771206036,54497.4835985829,39663.8565694312,55850.4341437195,37874.7427639794,22339.2221435962
6025452069,7410,1,0,2092.8073504556,46108.7327133357,-3701.4255412358,18080.5647586570,56551.0866298750,54485.9486219948,39659.6465463304,55846.6621577044,37869.5836605265,22339.1004666280
6025464435,7411,1,0,2082.7203297893,46106.7858818440,-3707.4728865568,18065.3794730220,56544.6742536493,54491.0103838731,39658.0890811371,55840.9920109849,37867.3569720079,22338.9057834789
6025464435,7411,1,0,2078.0966049966,46113.6119597617,-3705.1975272509,18063.7124985572,56547.7161778550,54495.3177485485,39663.6253831915,55844.8856739682,37872.0780383752,22340.3050686135
6025464435,7411,1,0,2091.9799470716,46115.0112448963,-3698.2011015777,18085.5900174449,56553.3741568777,54486.1311374471,39663.8809048248,55846.8081700663,37873.1852987861,22339.0517958407
6025464435,7411,1,0,2090.0574509736,46107.3942666852,-3705.3070365223,18075.5151644755,56545.7815140602,54488.1023043325,39658.9894907020,55839.2763657329,37870.0703683994,22338.7111003297
6025464435,7411,1,0,2069.9564158221,46105.8733045823,-3710.0889413737,18053.6498132847,56539.1014485044,54492.8477060934,39659.3301862130,55839.0573471901,37873.8058513241,22340.8282795769
6025464435,7411,1,0,2070.7959869029,46102.1986601418,-3704.0294283559,18064.3938895793,56544.3822289255,54485.0238770362,39660.9241544968,55841.5517250388,37876.2880614759,22341.5461736894
6025464435,7411,1,0,2077.4030462777,46099.0472266646,-3704.8811671335,18067.7156708120,56545.3556446714,54484.5736722538,39658.1012488339,55840.6999862612,37872.9784479401,22340.2929009167
6025464435,7411,1,0,2073.2903647516,46104.9485596238,-3707.4242157695,18053.1144346245,56546.6454205346,54498.8220452335,39662.3842781156,55843.0605194448,37878.5147499945,22342.7142725844
6025543930,7412,1,0,2084.3994719509,46111.0324080352,-3700.0749268884,18066.6327457947,56555.6738515772,54496.3520027784,39666.3022764926,55847.5625672693,37881.5445065035,22343.8702037826
6025543930,7412,1,0,2093.9389462601,46106.9075588122,-3697.9699153381,18078.4475794098,56553.4714984523,54485.4497464251,39661.3500238857,55843.5228919241,37876.3610676569,22341.3028197530
6025543930,7412,1,0,2076.9893445857,46102.6123618337,-3706.5359739014,18057.4826377839,56543.2628008178,54492.3609982205,39655.8137218312,55836.3561184954,37872.5769139449,22339.0639635376
6025543930,7412,1,0,2070.5891360569,46107.5767821375,-3704.8811671335,18057.6286501458,56546.2438865395,54495.0622269152,39657.8092241102,55840.1646076009,37875.3876519110,22337.8715292489
6025543930,7412,1,0,2088.3418057215,46110.3631847100,-3697.0573380763,18078.8247780113,56552.2790641636,54484.8535292807,39659.5248693622,55841.0528494690,37874.2682238033,22334.9391143146
6025543930,7412,1,0,2086.6869989536,46110.6065386464,-3702.7274847958,18069.0662851593,56549.0424568087,54487.1897270707,39657.1521684817,55836.8184909746,37868.6224124775,22335.7056792144
6025543930,7412,1,0,2077.5003878523,46114.1595061187,-3707.7770789774,18055.5601416859,56551.1718037527,54495.8531272087,39662.9926629567,55842.6589854496,37871.3358088690,22337.2266413173
6025543930,7412,1,0,2087.9524394232,46115.0720833804,-3703.7617390258,18072.7896003872,56557.5598445848,54488.0414658483,39664.8543205707,55849.2538771277,37874.3290622874,22338.5164171805
6025556778,7413,1,0,2091.4689038050,46108.5501978833,-3710.1497798578,18069.5529930323,56551.7680208971,54483.8192750508,39659.9385710542,55845.0803571174,37871.1167903262,22340.0495469802
6025556778,7413,1,0,2083.7667517161,46107.4307697756,-3715.1628709489,18051.8124910644,56547.9838671851,54490.0248004305,39659.8290617828,55843.0605194448,37872.4309015831,22340.8891180610
6025556778,7413,1,0,2093.3548968126,46109.5236136292,-3707.7649112805,18068.4213972277,56552.8509459143,54486.8611992565,39663.6497185852,55845.4697234158,37873.8423544145,22339.7696899533
6025556778,7413,1,0,2098.1246339672,46106.4938571203,-3706.8523340188,18079.0802996446,56550.7337666671,54482.3956545225,39662.5546258711,55840.6634831707,37869.0239464726,22337.7255168870
6025556778,7413,1,0,2083.2435407527,46109.0490734531,-3712.4494745574,18060.5610650801,56545.3191415809,54494.0644757757,39664.8543205707,55838.3272853807,37870.1068714899,22339.2343112931
6025556778,7413,1,0,2080.9073429627,46115.2302634391,-3707.6432343123,18066.6814165820,56552.8996167016,54494.8432083724,39669.7213992998,55845.9442635918,37875.5945027570,22338.7841065106
6025556778,7413,1,0,2100.5460056349,46118.1140075862,-3700.3547839154,18088.5467677729,56561.5386814459,54487.8589503960,39670.3176164442,55849.9352681498,37874.9982856127,22337.6525107061
6025556778,7413,1,0,2102.7848618504,46117.1040887499,-3707.0226817743,18075.0892950867,56556.6716027167,54489.8909557654,39668.7479835540,55847.4165549074,37871.6765043800,22337.5308337379
6025561454,7414,1,0,2094.6690080695,46120.4015345889,-3710.4418045816,18065.2091252665,56556.4160810834,54492.5800167633,39673.5663914959,55851.1398701352,37874.5967516176,22339.8426961342
6025561454,7414,1,0,2097.2485597959,46117.3596103832,-3708.0812713979,18083.6796890437,56558.5332603306,54482.1523005860,39675.0751859019,55851.5535718272,37873.2948080575,22338.2852309409
6025561454,7414,1,0,2087.9646071200,46111.7746375414,-3712.2061206209,18077.7418529941,56550.3930711561,54479.6214196469,39673.3960437404,55845.2142017825,37869.1821265313,22336.7886042317
6025561454,7414,1,0,2074.4949667370,46112.3586869889,-3712.1696175304,18060.8652575007,56548.1907180311,54488.1996459070,39673.8705839165,55844.3624630049,37871.1654611135,22336.0098716350
6025561454,7414,1,0,2089.8384324308,46114.8895679281,-3696.9113257145,18081.3434912537,56556.6472673231,54487.3114040390,39676.3162909779,55849.5093987610,37875.1442979746,22339.2099758994
6025561454,7414,1,0,2100.8258626619,46111.4826128177,-3692.2510978313,18086.3322469511,56553.2889829999,54483.0770455446,39670.8286597107,55843.9974321002,37874.7062608890,22338.2973986377
6025561454,7414,1,0,2086.7235020441,46111.0324080352,-3699.9532499202,18064.0531940683,56544.5160735906,54496.8508783482,39672.2401125422,55840.6878185643,37877.3101480091,22337.6890137966
6025561454,7414,1,0,2089.3395568610,46117.1405918403,-3696.1204254210,18072.6435880253,56552.2790641636,54500.1361564903,39680.5871525627,55846.0051020760,37882.2624006160,22340.1225531611
6025592172,7415,1,0,2106.8853756797,46115.8021451898,-3692.0442469853,18088.9726371617,56556.1240563597,54491.1320608414,39677.3383775110,55845.9199281982,37881.1064694178,22340.0495469802
6025592172,7415,1,0,2102.5415079139,46112.2856808080,-3696.2664377829,18074.6999287884,56549.3953200166,54496.6196921085,39672.6294788405,55842.4886376941,37878.4782469041,22342.8602849463
6025592172,7415,1,0,2097.7109322752,46114.9139033217,-3693.7720599341,18071.3051413748,56552.7171012493,54499.0045606858,39673.1283544103,55847.6477411471,37883.6616857506,22343.2983220319
6025592172,7415,1,0,2105.0358857626,46115.3641081042,-3686.8121373514,18087.6706936016,56556.3552425993,54486.2893175058,39671.8629139407,55849.6554111228,37882.6639346112,22341.1933104816
6025592172,7415,1,0,2093.5495799618,46110.3510170131,-3694.2952708975,18076.2452262849,56546.6575882314,54485.4619141219,39667.5190461749,55843.4377180463,37878.1375513930,22338.5650879678
6025592172,7415,1,0,2077.3908785809,46110.7038802210,-3702.2894477102,18064.8075912713,56544.9906137667,54487.9806273642,39671.1571875249,55841.8194143689,37877.5900050360,22338.9422865693
6025592172,7415,1,0,2089.3760599515,46109.9738184116,-3698.6513063601,18084.5557632149,56550.8311082417,54478.0031159694,39671.9359201216,55843.9730967065,37876.5192477156,22336.6912626571
6025592172,7415,1,0,2091.7244254383,46101.2495797896,-3706.4021292364,18081.8545345203,56541.5228201721,54474.9611917637,39664.2702711232,55833.4358712579,37871.3236411722,22335.8638592731
6025620450,7416,1,0,2078.3642943267,46101.8336292371,-3712.8023377652,18060.2933757500,56536.2298720542,54491.6552718048,39665.0490037198,55831.9514122455,37873.4894912067,22340.1712239484
6025620450,7416,1,0,2084.3264657700,46107.5402790470,-3703.1898572751,18073.9455315853,56545.7206755761,54491.4484209588,39672.7876588992,55839.8482474835,37877.2371418281,22341.9477076846
6025620450,7416,1,0,2102.6266817917,46112.1153330525,-3694.6724694990,18090.5057669614,56550.6972635766,54484.9143677648,39674.4302979703,55843.1700287162,37875.0591240968,22341.2784843593
6025620450,7416,1,0,2099.7794407351,46114.6583816885,-3696.7288102621,18074.9189473312,56550.9041144226,54493.9914695948,39675.7444092272,55845.8469220173,37874.6697577985,22339.3316528677
6025620450,7416,1,0,2102.2981539775,46121.7034781489,-3691.8495638361,18077.8878653560,56561.2709921158,54494.9040468565,39682.1081146656,55854.4008128838,37882.4692514620,22339.1978082026
6025620450,7416,1,0,2116.0598190842,46121.8738259045,-3688.3574348479,18093.2800018370,56566.1745739354,54485.9729573884,39683.5682382843,55858.6960098623,37880.8144446941,22335.7543500017
6025620450,7416,1,0,2105.8754568434,46117.0797533562,-3695.0496681006,18078.6787656495,56559.1051420813,54492.5070105824,39681.9621023037,55855.4472348106,37881.0334632369,22335.9246977572
6025620450,7416,1,0,2093.0385366952,46120.2676899238,-3694.1979293230,18073.5439975902,56558.9104589321,54500.4525166077,39686.6101624901,55857.3088924245,37887.2389886166,22338.8814480852
6025666681,7417,1,0,2108.9782195332,46122.0563413568,-3685.4128522168,18100.4589429625,56566.5152694465,54493.0423892426,39689.7615959672,55859.9614503319,37889.6116894971,22342.6290987067
6025666681,7417,1,0,2118.7610477789,46117.1040887499,-3692.2997686186,18099.6802103659,56560.8572904238,54490.0491358241,39684.3226354874,55854.0357819791,37885.2313186408,22343.6755206334
6025666681,7417,1,0,2109.3919212252,46120.2798576207,-3698.4809586046,18080.7959448967,56560.1272286144,54503.1537453024,39685.1987096586,55852.2106274557,37887.7500318832,22346.0238861203
6025666681,7417,1,0,2114.6483662527,46124.7575700515,-3695.4268667021,18093.7058712258,56567.1966604686,54498.6151943875,39687.2428827249,55857.3697309086,37892.0208934680,22343.7241914207
6025666681,7417,1,0,2123.7254680827,46120.8517393713,-3697.2763566192,18099.1204963120,56565.0794812214,54493.3100785727,39679.3582151836,55851.9551058224,37888.4557582989,22339.6723483787
6025666681,7417,1,0,2115.7556266636,46120.3771991952,-3703.8347452067,18078.8369457082,56558.2534033037,54501.8274663487,39678.9201780980,55849.0713616753,37887.3606655848,22339.1126343248
6025666681,7417,1,0,2119.4546064978,46124.6358930833,-3698.3349462428,18088.8266247998,56561.4291721745,54501.5719447154,39682.4488101766,55852.5513229667,37890.6459437270,22341.2054781784
6025666681,7417,1,0,2133.2041039077,46127.0207616606,-3691.8860669266,18109.7307279416,56565.6878660625,54495.2812454580,39684.3348031842,55854.3521420965,37889.1493170178,22344.4907563206
6025677581,7418,1,0,2118.6272031138,46124.5263838119,-3696.1325931178,18088.5467677729,56558.6062665116,54499.4060946810,39680.3803017167,55850.1056159053,37886.1925666898,22345.2086504331
6025677581,7418,1,0,2105.9484630243,46128.3713760079,-3693.0785012152,18075.4543259914,56558.8252850544,54499.7224547984,39679.5650660296,55850.8965161988,37887.8838765482,22346.3524139345
6025677581,7418,1,0,2119.1625817740,46130.8049153725,-3683.4295176346,18091.5156857977,56566.6734495052,54490.5723467875,39679.3703828804,55852.7095030254,37888.7356153258,22346.1090599980
6025677581,7418,1,0,2121.1824194467,46126.4367122131,-3689.0388258700,18081.1609758013,56561.8915446538,54491.0225515700,39675.0508505083,55845.6887419586,37883.3209902396,22345.6223521251
6025677581,7418,1,0,2109.7326167363,46127.4222956557,-3697.2276858319,18064.2722126111,56561.3439982967,54497.2402446465,39675.0630182051,55845.7860835331,37883.5521764792,22346.9486310788
6025677581,7418,1,0,2118.1161598473,46129.5151395093,-3694.0762523547,18083.6431859532,56569.2773366253,54491.9837996190,39678.3482963473,55851.5535718272,37885.6328526360,22345.1478119490
6025677581,7418,1,0,2127.6312987628,46125.7796565846,-3696.2177669956,18092.9636417196,56568.1700762144,54486.6908515010,39676.1094401319,55849.7649203942,37879.8045258578,22340.1955593421
6025677581,7418,1,0,2122.7155492463,46129.0649347268,-3700.6468086391,18078.9221195859,56567.2209958622,54495.4272578199,39677.9224269585,55851.6874164923,37879.7071842832,22338.5407525742
6025709467,7419,1,0,2131.9264957413,46134.2118704829,-3695.5485436703,18092.6594492990,56575.3246819463,54492.1176442840,39685.2838835364,55858.9758668892,37883.0411332127,22338.3947402123
6025709467,7419,1,0,2140.0545172190,46129.6854872648,-3696.6679717780,18106.1290896820,56576.1764207239,54483.6489272953,39684.1522877318,55856.2137997104,37880.6075938481,22337.4213244665
6025709467,7419,1,0,2120.6227053928,46127.3006186875,-3703.4697143020,18086.9162963986,56565.5661890943,54493.4682586314,39685.1743742650,55851.9186027319,37881.9338728018,22342.2275647115
6025709467,7419,1,0,2109.0390580174,46129.1379409078,-3698.6878094506,18082.1952300313,56566.9898096226,54495.8044564214,39689.1410434292,55855.4837379010,37886.8861254087,22342.6290987067
6025709467,7419,1,0,2124.8570638872,46127.5683080176,-3689.0631612637,18099.4490241262,56569.8127152855,54482.4686607034,39689.6642543926,55856.6883398865,37885.9978835407,22341.7408568386
6025709467,7419,1,0,2126.9499077407,46124.6602284769,-3693.7720599341,18089.1308172204,56563.7532022677,54483.2960640874,39685.6732498347,55851.9672735192,37881.8121958336,22340.8647826673
6025709467,7419,1,0,2117.6781227616,46126.2541967607,-3695.2930220370,18076.3912386467,56561.3805013872,54488.0658012420,39690.2604715370,55854.5711606393,37883.6130149634,22342.5439248289
6025709467,7419,1,0,2127.4122802200,46126.0473459147,-3689.3065152001,18092.3674245753,56568.1579085176,54481.7629342877,39691.1973841923,55855.9461103803,37884.3430767727,22342.3857447702
6025744431,7420,1,0,2129.4807886799,46120.9369132491,-3691.1925082077,18091.5400211913,56564.0330592946,54483.8314427476,39686.1356223140,55849.3512187023,37881.0212955401,22343.6511852398
6025744431,7420,1,0,2124.6988838285,46124.7332346579,-3692.5309548582,18078.3259024416,56561.6968615046,54496.9603876196,39687.2185473312,55849.0470262817,37884.4404183473,22347.1798173185
6025744431,7420,1,0,2136.2581958103,46130.8292507661,-3681.6408662017,18097.4778572409,56571.0051495741,54492.5070105824,39692.9495325348,55857.2115508499,37889.6968633748,22346.9851341693
6025744431,7420,1,0,2145.5056453957,46128.6999038221,-3679.7670408909,18109.0858400100,56571.5161928407,54488.6985214768,39691.9882844858,55855.3012224487,37888.1028950910,22342.0207138655
6025744431,7420,1,0,2128.0571681516,46128.2253636460,-3687.5543668576,18089.0091402521,56566.2962509037,54498.0068095463,39691.5502474002,55855.2525516614,37888.6261060544,22338.9301188725
6025744431,7420,1,0,2121.7543011973,46133.0316038911,-3683.9283932044,18094.4115976415,56574.9353156479,54500.4646843046,39697.3907418752,55863.3927408359,37893.8460479915,22338.8206096011
6025744431,7420,1,0,2135.6863140596,46133.7860010941,-3680.0590656147,18115.3157007833,56580.1795929786,54487.8467826992,39694.5556685155,55865.2057276626,37890.5729375461,22338.5772556646
6025744431,7420,1,0,2131.5249617462,46131.7539957247,-3684.9991505248,18100.5562845371,56574.1200799608,54487.8346150023,39688.6178324659,55857.7590972069,37885.1096416726,22338.7597711170
6025778449,7421,1,0,2116.6560362285,46133.9563488496,-3686.3254294785,18086.2835761638,56572.2340869532,54492.3123274332,39687.8390998692,55858.9271961019,37886.1317282057,22340.6700995182
6025778449,7421,1,0,2117.8119674267,46130.2695367123,-3681.0689844510,18098.0619066884,56572.2097515596,54481.2640587180,39685.5150697760,55855.4350671137,37883.7955304157,22339.4046590486
6025778449,7421,1,0,2110.9128833281,46121.6913104521,-3687.7003792195,18090.3719222963,56562.3295817394,54481.0572078720,39680.7209972278,55848.6454922865,37878.8676132024,22337.2996474982
6025778449,7421,1,0,2102.6388494885,46123.7111481247,-3691.4480298410,18079.2506474001,56559.0321359004,54493.3222462695,39683.3613874384,55850.7261684433,37884.4647537410,22337.5186660410
6025778449,7421,1,0,2123.1170832415,46130.3668782869,-3681.2271645097,18102.7829730557,56570.5914478822,54490.3168251542,39689.5304097276,55858.4891590163,37888.6139383576,22338.7476034202
6025778449,7421,1,0,2140.1640264904,46130.8657538566,-3679.2316622307,18113.0768445679,56570.0439015251,54486.1433051440,39689.8954406323,55856.9316938230,37887.8473734577,22339.0517958407
6025778449,7421,1,0,2125.6722995743,46132.1920328103,-3689.2456767160,18094.6306161843,56567.2331635590,54497.5809401575,39693.9716190680,55856.2137997104,37889.2223231987,22340.5605902468
6025778449,7421,1,0,2120.8782270261,46138.7017506106,-3682.3465926174,18105.4233632663,56577.5148673744,54500.1361564903,39702.9027085360,55867.0065467924,37896.4012643243,22342.1058877433
6025808418,7422,1,0,2132.9242468808,46139.4561478136,-3672.2595719512,18121.9105924614,56583.7203927541,54489.6110987385,39702.5255099345,55870.0363033013,37898.2629219382,22343.5660113620
6025808418,7422,1,0,2126.3050198091,46134.0415227274,-3677.6985324310,18101.5540356766,56573.9132291148,54489.4772540734,39694.9693702074,55863.7212686502,37894.6004451945,22343.2131481542
6025808418,7422,1,0,2118.8948924439,46133.2992932212,-3679.9617240401,18092.9149709323,56573.6942105720,54492.9450476680,39694.9572025106,55866.0574664402,37896.7297921385,22344.1622285064
6025808418,7422,1,0,2126.1468397504,46132.0703558421,-3675.4840116093,18109.7063925480,56575.4220235209,54482.4078222193,39693.6674266474,55865.0110445134,37895.1358238547,22345.7561967902
6025808418,7422,1,0,2114.4901861940,46125.9865074306,-3686.0942432389,18095.8838889571,56566.0650646640,54482.1279651924,39688.8855217960,55857.0777061848,37890.2687451255,22345.1478119490
6025808418,7422,1,0,2103.3810789947,46128.8824192745,-3693.2488489708,18081.3313235569,56564.0938977787,54490.7183591494,39692.5358308428,55857.7712649037,37894.1745758057,22344.8557872253
6025808418,7422,1,0,2117.9823151822,46128.6268976412,-3690.9004834839,18098.3904345026,56572.4287701024,54484.1721382586,39693.9716190680,55861.3850708602,37895.4643516689,22339.5628391073
6025808418,7422,1,0,2127.7408080342,46122.8229062567,-3693.4435321199,18098.9501485565,56570.7374602440,54483.3447348747,39690.2118007497,55856.8221845516,37892.1547381331,22336.0342070286
6025835686,7423,1,0,2117.0210671332,46124.3803714500,-3695.4877051862,18079.1898089160,56568.5229394223,54493.3465816631,39693.0833771999,55856.7005075833,37893.9190541724,22337.3361505887
6025835686,7423,1,0,2120.9268978134,46132.1190266294,-3685.1451628867,18093.5963619544,56574.9353156479,54491.2659055064,39698.0234621100,55863.7577717406,37898.2142511509,22337.3239828919
6025835686,7423,1,0,2132.4253713111,46134.2848766639,-3674.1212295651,18114.4882973994,56579.7293881962,54488.0292981515,39701.5155910982,55863.3805731391,37896.0484011164,22339.3803236549
6025835686,7423,1,0,2124.1026666842,46136.7427514221,-3679.0126436879,18100.7631353831,56578.6342954821,54499.5764424365,39703.0973916852,55862.6748467234,37895.7928794831,22342.6047633130
6025835686,7423,1,0,2120.9634009038,46142.4859043225,-3679.6818670132,18099.4246887326,56586.2512736933,54497.6782817321,39707.0762285463,55869.9998002108,37901.0979952979,22343.9310422667
6025835686,7423,1,0,2129.4929563767,46138.4097258868,-3679.6453639227,18112.7483167537,56586.9326647154,54487.2140624644,39702.8662054455,55870.1458125727,37900.0394056743,22343.7485268144
6025835686,7423,1,0,2117.8971413045,46130.1965305314,-3688.8319750240,18092.5742754213,56575.8235575160,54490.0369681273,39696.6485123690,55863.0642130217,37896.1579103878,22342.2884031956
6025835686,7423,1,0,2109.9394675823,46133.4939763704,-3687.5421991608,18081.9153730044,56576.3102653889,54499.0167283826,39701.1140571030,55868.0773041128,37903.3003484229,22344.1622285064
6025894058,7424,1,0,2130.6245521813,46138.6895829138,-3674.0360556873,18106.8834868850,56585.0466717078,54489.7084403131,39705.1172293578,55870.0849740886,37905.8920678462,22340.9134534546
6025894058,7424,1,0,2140.2370326714,46134.5403982971,-3676.0437256631,18106.2994374375,56577.6730474331,54483.8436104444,39700.4813368682,55862.3584866060,37897.8248848525,22336.6060887793
6025894058,7424,1,0,2127.6921372469,46132.3623805658,-3682.9793128522,18085.7238621099,56573.7307136625,54489.7936141908,39701.0167155284,55859.0610407670,37895.0993207642,22336.1072132096
6025894058,7424,1,0,2129.5172917704,46133.4818086735,-3679.1951591403,18097.4291864536,56582.2481014385,54484.0991320777,39703.4867579835,55866.9822113987,37895.6225317276,22337.5308337379
6025894058,7424,1,0,2135.4794632136,46130.9509277344,-3680.4484319130,18106.5306236772,56581.2381826022,54476.3483092015,39701.8927896997,55865.4004108117,37888.6504414481,22336.3870702365
6025894058,7424,1,0,2125.4654487283,46132.0460204484,-3687.2745098307,18091.1263194993,56579.9240713453,54488.6863537800,39702.2334852107,55868.8317013158,37889.0276400496,22338.2973986377
6025894058,7424,1,0,2128.6047145087,46138.5070674614,-3682.6751204316,18102.3571036669,56589.7555703783,54489.0513846846,39710.0938173584,55876.3391702556,37896.2674196592,22338.9909573566
6025894058,7424,1,0,2139.8963371603,46137.5823225029,-3679.4871838640,18123.3828837770,56591.8727496255,54477.6745881552,39710.5561898376,55875.6699469303,37895.9510595418,22337.4821629506
6025909149,7425,1,0,2121.4257733831,46131.1577785804,-3688.7224657526,18103.1601716572,56579.8510651644,54480.7651831482,39706.5165144924,55867.9312917509,37891.9235518934,22337.2509767109
6025909149,7425,1,0,2109.3675858316,46131.6201510596,-3691.2411789950,18090.9438040470,56577.2350103475,54482.8580270018,39705.9689681354,55865.8871186846,37892.9091353361,22337.3361505887
6025909149,7425,1,0,2127.8016465183,46129.6246487807,-3683.5998653902,18108.0515857800,56579.0479971741,54472.2842984626,39700.0554674794,55865.7654417164,37889.3196647733,22333.1261274880
6025909149,7425,1,0,2134.4695443773,46126.2420290639,-3685.9117277865,18100.1060797547,56573.9984029926,54475.3992288493,39692.6210047206,55857.9659480529,37884.8784554329,22331.1184575122
6025909149,7425,1,0,2125.6844672711,46132.2407035976,-3686.7391311705,18087.4516750588,56575.3246819463,54491.7404456825,39697.1838910292,55862.0542941854,37892.3615889790,22333.6006676640
6025909149,7425,1,0,2130.0283350369,46138.6287444297,-3678.8544636292,18108.1489273546,56584.8763239523,54487.8954534865,39703.3529133184,55868.9898813745,37897.1921646178,22336.9589519872
6025909149,7425,1,0,2131.3302785970,46136.4628943952,-3680.7161212431,18116.7393213116,56583.3553618494,54480.2906429721,39700.5665107460,55866.1669757116,37892.7752906710,22335.9003623636
6025909149,7425,1,0,2119.8561404930,46135.5503171334,-3687.8463915814,18101.0308247132,56577.8798982791,54482.5416668844,39698.9238716749,55861.7257663712,37888.1880689688,22333.8683569942
6025940171,7426,1,0,2126.3415228996,46138.0203595885,-3685.8630569992,18111.6532240396,56584.0124174779,54476.8106816808,39702.0631374552,55864.7920259706,37887.3971686753,22331.0941221185
6025940171,7426,1,0,2136.7935744705,46132.7395791673,-3687.0919943784,18122.9448466913,56578.9263202059,54464.0832708040,39697.8896174449,55857.7956002974,37878.0402098184,22323.7204978438
6025940171,7426,1,0,2121.4622764736,46128.9189223649,-3698.4809586046,18097.4048510600,56570.3359262489,54471.6515782278,39694.3974884568,55851.2007086194,37876.8234401361,22321.4694739316
6025940171,7426,1,0,2109.6839459490,46131.0239339153,-3701.9000814119,18087.4881781493,56573.1466642150,54472.3329692499,39697.8531143545,55855.6297502629,37882.8829531540,22321.4086354475
6025940171,7426,1,0,2121.5961211386,46128.4322144920,-3700.0749268884,18102.7099668748,56576.2007561175,54462.1729424028,39693.4119050141,55855.0213654218,37881.4715003225,22319.3401269876
6025940171,7426,1,0,2125.3559394569,46125.9986751274,-3704.8811671335,18092.6594492990,56572.4409377992,54468.5244801443,39692.1951353318,55852.4053106048,37883.4426672078,22321.0922753301
6025940171,7426,1,0,2121.3405995054,46130.2573690155,-3703.4332112116,18082.2317331218,56574.9839864352,54481.3614002925,39697.7679404767,55858.3553143512,37889.7942049494,22329.2202968078
6025940171,7426,1,0,2132.4983774920,46135.5138140430,-3694.5142894403,18107.0903377310,56584.3287775953,54478.3803145709,39702.3794975726,55865.7897771101,37895.3061716102,22335.2311390383
6025967357,7427,1,0,2132.9485822744,46135.5016463462,-3695.9987484527,18113.7339001964,56583.6960573605,54484.2208090459,39703.0608885947,55865.2787338435,37895.3061716102,22340.4754163690
6025967357,7427,1,0,2122.0098228306,46140.9162714324,-3697.1790150446,18102.2597620923,56585.1561809792,54495.4759286072,39707.2222409081,55871.1800668026,37902.1322495279,22344.8922903157
6025967357,7427,1,0,2133.9098303235,46146.0753748853,-3686.3254294785,18119.4283823095,56593.7587426330,54488.4308321467,39712.4786859356,55879.2594174931,37906.9993282571,22348.3965870007
6025967357,7427,1,0,2145.8585086036,46142.0965380242,-3682.4074311015,18131.1337066532,56592.7974945840,54474.0121114115,39709.9234696028,55875.4144252970,37904.0790810195,22345.9630476362
6025967357,7427,1,0,2126.6092122297,46133.7373303068,-3694.3926124721,18104.7054691537,56580.4351146119,54476.3361415047,39704.6548568785,55867.3594100002,37900.7816351805,22343.1401419732
6025967357,7427,1,0,2113.0543979689,46133.1897839498,-3695.1348419783,18101.7243834321,56578.9506555995,54476.6281662284,39706.7477007320,55867.8461178731,37902.1322495279,22340.4875840658
6025967357,7427,1,0,2121.9733197401,46130.4642198615,-3692.1659239535,18117.2990353655,56580.8974870912,54469.3397158315,39704.9103785118,55866.6050127972,37898.1899157572,22336.5330825984
6025967357,7427,1,0,2123.6159588112,46127.7386557731,-3699.3813681695,18107.9907472959,56576.2007561175,54473.3793911767,39700.7855292888,55860.4238228111,37894.2719173802,22335.9246977572
6026015299,7428,1,0,2124.3095175302,46135.5503171334,-3695.6945560322,18104.8149784251,56580.2769345532,54483.4664118429,39707.1492347272,55866.6050127972,37899.1024930190,22339.6723483787
6026015299,7428,1,0,2134.8345752820,46136.4993974856,-3687.6152053417,18125.0863613322,56585.0710071015,54474.7543409177,39707.4412594509,55869.3549122792,37901.0249891170,22339.3924913518
6026015299,7428,1,0,2127.7043049438,46129.7828288394,-3690.6206264570,18114.2449434629,56578.3301030615,54476.8471847712,39700.0554674794,55862.2246419409,37898.4576050873,22339.0882989312
6026015299,7428,1,0,2107.5180959145,46129.8193319298,-3692.7499734010,18091.0168102279,56575.3246819463,54486.8733669533,39697.6462635085,55861.4337416475,37901.4873615963,22338.3460694250
6026015299,7428,1,0,2113.9548075338,46132.0946912357,-3682.5169403729,18103.6590472270,56582.1020890767,54480.9233632069,39696.9405370928,55866.2399818925,37904.6631304670,22335.9855362413
