steady_timestamp,sequence,battery,flags,EEG-ch1,EEG-ch2,EEG-ch3,EEG-ch4,EEG-ch5,EEG-ch6,EEG-ch7,EEG-ch8,EEG-ch9,EEG-ch10
4115748905,26716,-2,0,-7998.2043203213,44262.9782791731,14321.5373406614,32490.3179012848,53466.6849945306,15450.6752704368,47860.5160249346,60008.4768436298,62726.1927675180,15984.7033162989
4115748905,26716,-2,0,-7999.9443009670,44259.9485226642,14304.2592111729,32489.0646285120,53461.1365247793,15461.3098374601,47849.4190854321,60006.5178444413,62726.2901090926,15983.9975898832
4115748905,26716,-2,0,-7996.3183273137,44263.0269499604,14284.5840454102,32493.4815024587,53467.5489010050,15469.6812128742,47870.5300394199,60013.0518976353,62731.6195603011,15991.1643633119
4115748905,26716,-2,0,-7991.8771179734,44264.7182598188,14265.6511091537,32495.1849800140,53469.7025833427,15478.5271284645,47874.3506962223,60015.2907538507,62734.1017704530,15997.3455532979
4115748905,26716,-2,0,-7988.9203676454,44263.3554777747,14246.3288065988,32497.4238362294,53466.0766096894,15484.5379706951,47856.1721571689,60017.8581378803,62738.9201783948,15995.5934049554
4115748905,26716,-2,0,-7991.5850932496,44264.3288935205,14214.6076209814,32500.6239404938,53466.7701684084,15475.2540180191,47867.6949660602,60025.4021099105,62740.7696683119,15992.9895178353
4115748905,26716,-2,0,-7996.0019671963,44259.9971934515,14172.9332593628,32495.2701538917,53463.8499211708,15464.8628049324,47874.2168515573,60020.2551741544,62734.6128137195,15987.1246879667
4115748905,26716,-2,0,-8000.6378596859,44253.8768419496,14133.7411078961,32490.3544043752,53454.3104468617,15470.6424609233,47851.7796186158,60012.8450467893,62729.4537102666,15976.6726363958
4115781563,26717,-2,0,-8000.4675119304,44252.3558798467,14097.7003899066,32491.9240372654,53453.1058448762,15472.1512553293,47852.3636680633,60013.9766425938,62728.2977790684,15970.2359247764
4115781563,26717,-2,0,-8003.1930760187,44248.3892106824,14063.4726587437,32490.1840566197,53450.8304855703,15465.9092268591,47865.2492589988,60012.6381959433,62725.7303950388,15972.1949239649
4115781563,26717,-2,0,-8009.2282536429,44239.0565872192,14032.7735596594,32485.9253627317,53440.5609494517,15463.5365259787,47846.6448505565,60004.4250005878,62722.9439924663,15971.3675205810
4115781563,26717,-2,0,-8010.1164955109,44238.8862394637,14006.6860176710,32485.7428472794,53436.4726033192,15468.0629091968,47835.6452526286,60004.4128328910,62723.3820295519,15967.9483977737
4115781563,26717,-2,0,-8002.5725234807,44247.0020932446,13985.5628959864,32494.9172906839,53445.1238357603,15473.0029941069,47858.5448580493,60013.2587484812,62727.8597419828,15971.4770298524
4115781563,26717,-2,0,-8001.6112754317,44246.3693730098,13964.2815942430,32494.7226075347,53443.1405011782,15468.9998218522,47853.9941394375,60011.3484200800,62724.5622961438,15971.0146573731
4115781563,26717,-2,0,-8002.5238526934,44243.5464673469,13947.5388434147,32495.1606446203,53439.8795584296,15474.8889871145,47836.4239852252,60009.2677439233,62722.7006385299,15970.2115893828
4115781563,26717,-2,0,-8004.4341810946,44246.5640561590,13930.0416953833,32498.1417303419,53443.7610537162,15472.1147522388,47851.6944447380,60014.4025119826,62726.9106616306,15970.3089309574
4115791639,26718,-2,0,-8007.8898069923,44243.9966721294,13912.7513981979,32497.2413207770,53439.8552230360,15466.7609656367,47856.5006849831,60009.8761287645,62720.4496146176,15966.1962494312
4115791639,26718,-2,0,-8009.7149615158,44238.0588360798,13897.1767462645,32494.9051229870,53433.0048097247,15463.1593273771,47835.4749048730,60003.1108893309,62715.9719021868,15962.4242634161
4115791639,26718,-2,0,-8007.9141423860,44236.9029048816,13884.7656955051,32498.7136120926,53433.8200454118,15461.2489989759,47840.6948468101,60004.4615036783,62716.7628024803,15964.1885794554
4115791639,26718,-2,0,-8008.9118935255,44235.1629242359,13870.0062792589,32500.6969466748,53436.2900878669,15459.4846829366,47854.8580459120,60004.1451435609,62714.0980768760,15962.9231389858
4115791639,26718,-2,0,-8008.9483966159,44232.7293848713,13864.3483002362,32502.3639211395,53431.8732139202,15464.1570785166,47839.3320647659,60002.6363491548,62713.2098350080,15959.4310099977
4115791639,26718,-2,0,-8009.0944089778,44233.7514714044,13860.3816310719,32504.3350880248,53431.0823136267,15464.7046248737,47836.2171343792,60006.1163104462,62716.1422499423,15954.8194529018
4115791639,26718,-2,0,-8010.8830604108,44235.4914520501,13852.2657772910,32505.5883607976,53434.3554240720,15460.7866264967,47854.7363689437,60007.8319556982,62714.7673002013,15957.2894953568
4115791639,26718,-2,0,-8009.8609738777,44234.4815332138,13847.5082078333,32503.8848832424,53432.7857911819,15464.1327431230,47848.9567129529,60005.7877826320,62713.8060521523,15962.9839774700
4115844046,26719,-2,0,-8009.6906261221,44231.4882797954,13844.1012527228,32502.8019582251,53428.1012279050,15462.5144394455,47834.3919798558,60003.3785786610,62713.0516549493,15964.2372502427
4115844046,26719,-2,0,-8009.4351044889,44231.4031059176,13840.3779374950,32504.2864172375,53431.2769967758,15457.1971559339,47850.5263458430,60004.9603792480,62712.5527793795,15965.5148584091
4115844046,26719,-2,0,-8014.1561708562,44229.3711005482,13835.0606539834,32502.4855981077,53431.1796552012,15453.4373376156,47851.4875938920,60002.5633429739,62708.9876442104,15962.9353066827
4115844046,26719,-2,0,-8019.0840880695,44226.7428780344,13831.0818171223,32500.6847789779,53427.4806753671,15455.8830446770,47830.4983168725,59999.7161019173,62706.8339618727,15955.8780425254
4115844046,26719,-2,0,-8011.8808115503,44231.7924722159,13831.3616741492,32507.8393847098,53435.4505167861,15462.4170978709,47847.8129494515,60006.2379874144,62714.4387723871,15959.1024821834
4115844046,26719,-2,0,-8007.9019746892,44233.7028006171,13827.6140235277,32511.3923521821,53438.2004162681,15460.4824340761,47859.1654105873,60008.9270484123,62713.9520645142,15962.0957356019
4115844046,26719,-2,0,-8007.3300929385,44229.3711005482,13825.4846765837,32510.1634148030,53430.3279164236,15466.8096364240,47841.0112069275,60002.6728522453,62714.0615737856,15962.6189465653
4115844046,26719,-2,0,-8004.8357150898,44233.3012666220,13829.9745567114,32512.6091218644,53432.4815987613,15469.2188403950,47842.2279766098,60006.2014843239,62716.8723117517,15967.3643483262
4115849707,26720,-2,0,-8004.4220133978,44238.9835810383,13833.3328410345,32515.1643381972,53441.1693342929,15463.2323335581,47864.7382157322,60010.5331843929,62720.8633163096,15976.0277484641
4115849707,26720,-2,0,-8009.8123030904,44237.3774450577,13837.9687335241,32511.8303892677,53437.6772053047,15465.0818234752,47851.4389231047,60009.1582346519,62720.9971609746,15979.6537221174
4115849707,26720,-2,0,-8015.6527975654,44234.5302040011,13839.3801863555,32508.6789557906,53434.5744426148,15464.6072832991,47834.8056815478,60008.6958621726,62720.8633163096,15979.1913496381
4115849707,26720,-2,0,-8019.2787712186,44235.0412472677,13835.5351941595,32507.2796706560,53436.1562432018,15459.7037014794,47849.3947500385,60010.0708119136,62718.3689384609,15977.1350088750
4115849707,26720,-2,0,-8021.0065841675,44231.7438014287,13830.2909168288,32505.5640254039,53432.3234187026,15459.9105523254,47844.8440314267,60005.0698885194,62711.2751712131,15971.5865391238
4115849707,26720,-2,0,-8015.8231453209,44233.5811236489,13831.9578912935,32507.6568692575,53432.5424372454,15465.2765066243,47830.7781738994,60003.2812370864,62710.6667863720,15966.8533050596
4115849707,26720,-2,0,-8007.5856145718,44240.9425802268,13834.6104492009,32514.6411272338,53443.0431596036,15466.8826426050,47847.5695955150,60011.9811403148,62717.2008395659,15969.3111798179
4115849707,26720,-2,0,-8002.8645482045,44246.4910499781,13838.3824352161,32518.9606596060,53447.9224060296,15469.9975729916,47858.3866779906,60014.9378906428,62723.4915388233,15979.8727406602
4115886751,26721,-2,0,-8006.7582111878,44241.3197788283,13841.1445023949,32514.6411272338,53439.7700491582,15471.0439949184,47833.3333902322,60009.9978057327,62719.1355033607,15980.8096533156
4115886751,26721,-2,0,-8009.4959429730,44240.5775493221,13838.3459321256,32514.3612702069,53439.4658567377,15465.4711897735,47835.6452526286,60009.8274579772,62718.3932738545,15977.5852136575
4115886751,26721,-2,0,-8011.1507497409,44238.6063824368,13828.3805884276,32512.9376496786,53439.3685151631,15455.8465415866,47851.4267554079,60010.0951473073,62712.2485869590,15974.7014695104
4115886751,26721,-2,0,-8013.4139413500,44231.3909382208,13822.6131001335,32507.7542108321,53431.4230091377,15454.1065609409,47836.4118175284,60001.3587409884,62705.3129997699,15967.7902177150
4115886751,26721,-2,0,-8009.0944089778,44232.8875649300,13829.5486873226,32510.6136195854,53432.4572633677,15463.0254827121,47831.1067017136,60006.0433042652,62708.4522655502,15965.9893985852
4115886751,26721,-2,0,-8004.9817274517,44239.2512703684,13838.0904104923,32515.7605553416,53440.2810924248,15467.8195552603,47851.0617245032,60013.1249038162,62713.2706734921,15969.0434904878
4115886751,26721,-2,0,-8004.9087212707,44240.8209032586,13839.8547265316,32513.2296744024,53438.9061426838,15465.7632144973,47845.5740932361,60012.9788914543,62713.3436796730,15969.8343907813
4115886751,26721,-2,0,-8006.2471679213,44239.1052580065,13838.4676090938,32511.2950106075,53434.1242378324,15466.1525807956,47829.8169258504,60011.2997492928,62713.9277291205,15970.7469680430
4115906444,26722,-2,0,-8010.0434893300,44239.6528043636,13833.0651517044,32511.8303892677,53434.8056288545,15461.1029866141,47842.5930075144,60010.8130414198,62713.4896920349,15969.5301983607
4115906444,26722,-2,0,-8012.7082149342,44235.4062781724,13829.4391780512,32510.3580979522,53434.1364055292,15458.5842733717,47845.8782856566,60008.2334896934,62711.4941897559,15970.1385832018
4115906444,26722,-2,0,-8007.5977822686,44234.9439056931,13834.7077907755,32512.2197555661,53430.5469349664,15466.5176117003,47826.1301137130,60006.4691736540,62717.3103488373,15973.8618984297
4115906444,26722,-2,0,-8000.4431765367,44242.5000454201,13839.8912296221,32520.9439941881,53437.0201496763,15466.1525807956,47837.1783824282,60013.7089532637,62723.4307003392,15982.0020876042
4115906444,26722,-2,0,-7999.9929717543,44244.8362432101,13840.0737450744,32521.6740559975,53442.2522593101,15468.1115799841,47853.6899470170,60016.8117159535,62725.1098425008,15987.9642590475
4115906444,26722,-2,0,-8005.5901122928,44241.7091451266,13841.3878563313,32517.7560576205,53435.5356906639,15467.4058535683,47836.2293020761,60009.9856380359,62723.5645450043,15985.0926825972
4115906444,26722,-2,0,-8007.2814221512,44241.0277541046,13842.2882658962,32519.8975722614,53433.9903931673,15467.9412322286,47834.9760293033,60013.0640653321,62723.2725202805,15979.9092437507
4115906444,26722,-2,0,-8009.1309120683,44241.1129279823,13840.2075897395,32521.4793728483,53436.9593111921,15463.1228242867,47853.7872885916,60017.0550698900,62722.2260983538,15977.3661951147
4115935577,26723,-2,0,-8012.6108733597,44235.5036197469,13840.6821299156,32518.7294733664,53433.1873251770,15466.8339718177,47843.3960755048,60013.4169285399,62719.4153603877,15980.8826594965
4115935577,26723,-2,0,-8010.9682342886,44239.3972827303,13846.2914381510,32520.7006402517,53439.5997014027,15470.0340760821,47833.8079304083,60018.5395289024,62725.7668981292,15986.5528062160
4115935577,26723,-2,0,-8009.7027938190,44244.3982061245,13845.8777364590,32522.4527885942,53445.1846742444,15459.4603475430,47849.2244022830,60021.4719438367,62727.1418478702,15989.0471840647
4115935577,26723,-2,0,-8013.3044320786,44239.2391026716,13842.2517628057,32517.3666913222,53439.4293536472,15451.9407109064,47844.3816589474,60014.5485243445,62722.1774275665,15985.5428873797
4115935577,26723,-2,0,-8021.1282611357,44226.8767226995,13838.3580998224,32508.9223097271,53422.6987705156,15447.8401970771,47817.9655891448,60004.1938143482,62714.7064617172,15975.3950282294
4115935577,26723,-2,0,-8024.5352162461,44225.1489097506,13835.3891817976,32506.8659689640,53419.8271940654,15444.0682110619,47825.1080271799,60002.7215230326,62712.6379532573,15972.8884826838
4115935577,26723,-2,0,-8025.8614951998,44224.5891956968,13830.9114693668,32505.6491992817,53418.5495858990,15444.6644282063,47834.9030231224,60000.2271451839,62711.1413265481,15972.5356194760
4115935577,26723,-2,0,-8026.9930910044,44225.2827544157,13832.8583008584,32502.3395857458,53414.5464136443,15450.0303825052,47819.5960605191,59995.9562835990,62710.3260908609,15973.2170104980
4115963667,26724,-2,0,-8025.4477935079,44227.0105673645,13835.7298773086,32503.1791568266,53413.9988672872,15445.2971484411,47822.6623201185,59998.8765308365,62711.2873389099,15972.9979919552
4115963667,26724,-2,0,-8026.6767308870,44228.5071940737,13836.6546222672,32502.8871321029,53419.1214676497,15443.4841616144,47837.8962765408,60002.3929952184,62711.1656619417,15976.5752948212
4115963667,26724,-2,0,-8029.5118042467,44224.7352080586,13837.7253795876,32497.2291530802,53416.2255558058,15447.3291538105,47823.2463695660,59998.9617047143,62708.7321225771,15979.3008589095
4115963667,26724,-2,0,-8028.1733575962,44230.1498331448,13845.8412333685,32499.9303817749,53419.6446786131,15454.7392811757,47817.1016826704,60004.6440191306,62714.5847847490,15982.9024971691
4115963667,26724,-2,0,-8025.0584272095,44237.7911467497,13849.6618901709,32503.8362124551,53430.3157487268,15450.5292580749,47839.9647850007,60011.6161094102,62721.7150550872,15983.2796957706
4115963667,26724,-2,0,-8027.0904325790,44236.3796939182,13849.9660825915,32501.4270084841,53429.8290408539,15450.1763948671,47835.2680540270,60008.1848189061,62723.1143402218,15980.9678333743
4115963667,26724,-2,0,-8025.8128244125,44232.7780556586,13853.3487023083,32500.2954126796,53426.0692225356,15448.5580911896,47817.4423781814,60007.2479062507,62720.8876517032,15975.1151712024
4115963667,26724,-2,0,-8022.9777510528,44232.5103663285,13850.1120949534,32501.7677039952,53428.0525571177,15444.3237326952,47833.0778685989,60007.7589495173,62720.3036022557,15971.3918559746
4116010216,26725,-2,0,-8021.2012673166,44232.0236584556,13846.7538106302,32500.6482758875,53426.6776073768,15440.1867157754,47843.2378954461,60004.0964727736,62715.5825358884,15970.6982972557
4116010216,26725,-2,0,-8021.9434968228,44230.1498331448,13848.1774311585,32497.5333455008,53422.8691182712,15449.3854945736,47823.7939159230,60001.5169210471,62716.3612684851,15972.5477871728
4116010216,26725,-2,0,-8017.7456414189,44236.9029048816,13851.4018708166,32502.5707719855,53427.7361970003,15457.1119820561,47830.9728570485,60009.0973961678,62721.5568750285,15981.7952367582
4116010216,26725,-2,0,-8018.7433925584,44240.5167108380,13854.5289689001,32505.5518577071,53434.3675917689,15460.8352972840,47847.7156078769,60013.8306302319,62726.7281461783,15986.9056694239
4116010216,26725,-2,0,-8023.6713097717,44239.0322518256,13858.5929796390,32502.3517534427,53429.7560346730,15460.1782416555,47830.2914660265,60010.2168242755,62726.9106616306,15986.6866508810
4116010216,26725,-2,0,-8022.3815339085,44240.2976922952,13862.1824502017,32502.6072750760,53429.7316992793,15458.5234348876,47825.0350209989,60012.0906495862,62728.0787605256,15984.9710056290
4116010216,26725,-2,0,-8020.1183422994,44243.6681443151,13859.7975816244,32502.0110579316,53435.0489827909,15450.1277240798,47841.8629457051,60012.9423883639,62726.9349970242,15984.8736640544
4116010216,26725,-2,0,-8020.8727395024,44239.5676304858,13857.4978869249,32496.8519544787,53432.8466296660,15454.0943932440,47833.5524087750,60007.5277632776,62722.8344831949,15982.9268325628
4116032799,26726,-2,0,-8018.5852124997,44240.5653816253,13862.1337794144,32500.4170896478,53431.9705554947,15458.7667888241,47819.5717251254,60008.8905453218,62724.6961408088,15979.1548465476
4116032799,26726,-2,0,-8017.6726352380,44242.7555670534,13860.1626125291,32505.9655593991,53435.8155476908,15454.5324303297,47835.9494450491,60012.6990344274,62725.7547304324,15978.1327600145
4116032799,26726,-2,0,-8018.4635355315,44241.6848097330,13857.7777439518,32504.7609574136,53432.5181018518,15455.7370323151,47838.0544565995,60010.8617122071,62722.0922536887,15978.4369524351
4116032799,26726,-2,0,-8014.2170093403,44241.7821513076,13862.7543319524,32504.7974605041,53431.9827231916,15463.1593273771,47822.3459600011,60011.9811403148,62723.4185326424,15977.5487105670
4116032799,26726,-2,0,-8009.7392969094,44245.5298019290,13862.6204872874,32507.3040060496,53438.4316025077,15460.7379557094,47835.0003646969,60018.0163179390,62726.0224197625,15979.9700822348
4116032799,26726,-2,0,-8002.7307035394,44250.6280668979,13862.9733504952,32511.1733336393,53446.6447978632,15453.5833499775,47851.7796186158,60022.4696949762,62729.6727288094,15984.4599623624
4116032799,26726,-2,0,-8006.7947142783,44241.3806173124,13858.9580105436,32502.4490950173,53436.9349757985,15447.5238369597,47826.4343061336,60013.5142701145,62721.9705767205,15979.6780575110
4116032799,26726,-2,0,-8009.1917505524,44238.9349102510,13857.7899116486,32500.3562511637,53434.0755670451,15449.2394822117,47823.1246925977,60011.9081341339,62718.1620876149,15971.8785638475
4116062647,26727,-2,0,-8007.9628131733,44239.7014751509,13857.3883776535,32499.5045123861,53435.3288398179,15438.9821137900,47839.3198970691,60010.2046565787,62715.2905111647,15968.6176210990
4116062647,26727,-2,0,-8011.8686438535,44235.8686506516,13856.9746759615,32495.8663710360,53427.8335385749,15437.2543008411,47828.5393176840,60002.5146721866,62709.5595259611,15968.6906272799
4116062647,26727,-2,0,-8013.3287674722,44234.1530053996,13858.8850043627,32496.0488864884,53421.5915101048,15444.9321175364,47814.8019879709,59998.8156923524,62708.7077871835,15971.1241666445
4116062647,26727,-2,0,-8011.3941036774,44240.2003507206,13863.0220212825,32505.4180130421,53432.6884496073,15451.3201583684,47835.4384017826,60009.0487253805,62715.3391819520,15979.6293867237
4116062647,26727,-2,0,-8009.2769244302,44241.3441142220,13861.2820406368,32503.7632062741,53435.3653429083,15448.0592156199,47834.6353337922,60009.0487253805,62716.1179145486,15981.2963611885
4116062647,26727,-2,0,-8010.6640418680,44237.7911467497,13856.4514649981,32498.4580904593,53429.4640099492,15443.3868200399,47814.9723357264,60003.6827710816,62712.2120838685,15974.9083203564
4116062647,26727,-2,0,-8011.4792775551,44236.2701846468,13856.3297880299,32495.4891724345,53428.2350725701,15435.8063449192,47823.8912574976,60001.7602749836,62707.0529804156,15970.7956388303
4116062647,26727,-2,0,-8015.8474807146,44230.7947210765,13853.9084163621,32493.7126886984,53425.5216761786,15431.4138063661,47831.5447387992,59996.5403330465,62703.4635098528,15965.6608707710
4116090442,26728,-2,0,-8017.2102627587,44222.2651656036,13853.2270253400,32491.0722984878,53415.7510156298,15429.7224965077,47810.2391016622,59990.0184475494,62699.3021575393,15962.9839774700
4116090442,26728,-2,0,-8015.0322450274,44225.9884808314,13854.0544287240,32496.3530789090,53419.9367033368,15431.2921293979,47812.9281626601,59994.8003524008,62701.4680075738,15965.9893985852
4116090442,26728,-2,0,-8013.7303014674,44228.1421631691,13852.7038143767,32495.9880480043,53423.1733106917,15425.5611441943,47828.3689699284,59996.6863454084,62700.0322193487,15968.3377640720
4116090442,26728,-2,0,-8019.7046406074,44221.8149608211,13846.6199659652,32486.1200458809,53413.0497869351,15418.6742277925,47811.1638466208,59988.3879761752,62690.7969374601,15966.0137339789
4116090442,26728,-2,0,-8021.0309195611,44219.3449183661,13848.0435864935,32484.5017422034,53408.1097020249,15423.8089958517,47803.1818375049,59984.5551516759,62688.9717829367,15964.7726289029
4116090442,26728,-2,0,-8018.3175231696,44221.4986007037,13848.0679218871,32486.3877352110,53413.8163518349,15420.2681960763,47823.4532204120,59990.1766276081,62693.1574706438,15970.6009556811
4116090442,26728,-2,0,-8018.2080138982,44217.5562669331,13844.9529915004,32485.5359964334,53412.9037745732,15418.3943707655,47818.8416633161,59989.4952365860,62693.5711723357,15971.6473776079
4116090442,26728,-2,0,-8016.1881762256,44218.7243658281,13847.1918477159,32486.1322135777,53412.3805636098,15421.0955994602,47805.2381782680,59988.8260132608,62695.8830347321,15972.1827562681
4116135422,26729,-2,0,-8010.9925696822,44226.5116917948,13850.1729334375,32491.3643232116,53420.2895665447,15421.2781149126,47824.9011763339,59995.6885942689,62699.1804805711,15976.2345993101
4116135422,26729,-2,0,-8009.3134275206,44230.2228393258,13852.9350006163,32492.8122791335,53425.2174837580,15418.8202401543,47831.7029188579,59996.4916622592,62697.5986799841,15973.8253953392
4116135422,26729,-2,0,-8011.3697682837,44228.3976848023,13858.4347995803,32491.7536895099,53418.4035735372,15427.0212678130,47812.8794918728,59992.0626206157,62697.1606428985,15969.5545337543
4116135422,26729,-2,0,-8012.3918548168,44229.9429822989,13859.4812215070,32491.6198448448,53417.0651268866,15423.4196295534,47816.7244840689,59992.1964652807,62698.5599280331,15968.6662918863
4116135422,26729,-2,0,-8016.9790765191,44226.9618965772,13856.2446141521,32487.1177970203,53417.8195240897,15418.0293398609,47828.8556778014,59990.9310248112,62695.1286375291,15969.0434904878
4116135422,26729,-2,0,-8021.0795903484,44223.3480906208,13856.0012602157,32481.2164640612,53411.4193155608,15416.4232038802,47811.4680390414,59983.8737606538,62693.3399860961,15968.4229379498
4116135422,26729,-2,0,-8021.8704906419,44222.8127119606,13856.4027942108,32482.1290413229,53413.6216686857,15415.7539805550,47808.4017794420,59984.2144561649,62690.7847697633,15966.0989078566
4116135422,26729,-2,0,-8021.2864411944,44225.5139406553,13854.1152672081,32483.1146247656,53416.6514251947,15411.3127712146,47827.3955541826,59989.0815348941,62689.7261801397,15967.7415469277
4116161771,26730,-2,0,-8020.3251931454,44223.5184383763,13853.4825469733,32479.8415143202,53413.0741223287,15418.5525508242,47816.8583287339,59984.9201825806,62687.6576716798,15972.1219177840
4116161771,26730,-2,0,-8017.0520827000,44226.5481948853,13859.7732462308,32485.3169778906,53413.3174762652,15428.6152360968,47808.0732516278,59988.8381809576,62695.4936684338,15975.7722268309
4116161771,26730,-2,0,-8009.9826508459,44235.6252967152,13868.7043356988,32493.6275148206,53425.0106329120,15424.8675854753,47835.3167248143,59998.9738724111,62700.9447966104,15979.8240698729
4116161771,26730,-2,0,-8014.6063756386,44229.7482991497,13867.1225351118,32485.8888596412,53419.3891569798,15416.1068437628,47832.9561916307,59990.9066894175,62693.8631970595,15974.6406310263
4116161771,26730,-2,0,-8016.8087287636,44225.9154746505,13870.4564840413,32482.2385505943,53413.4756563239,15417.1045949023,47812.3076101222,59986.7088340136,62690.7482666728,15968.4959441307
4116161771,26730,-2,0,-8015.7866422304,44229.1885850958,13875.1167119245,32486.5580829665,53418.1602196007,15415.4497881344,47823.4653881088,59992.3303099458,62694.8244451085,15967.8267208055
4116161771,26730,-2,0,-8015.8961515018,44229.8943115116,13871.7340922077,32487.9208650107,53419.6811817036,15414.7805648091,47835.0125323938,59992.4519869140,62693.4859984580,15965.5026907123
4116161771,26730,-2,0,-8019.5829636392,44226.2926732520,13870.9310242174,32483.9785312400,53412.1737127638,15419.0514263940,47817.4423781814,59985.8570952360,62692.5490858026,15961.9497232400
4116193359,26731,-2,0,-8014.8984003624,44229.9186469052,13874.8490225944,32484.6355868685,53414.5585813411,15423.7603250645,47818.9755079811,59989.6899197352,62694.2403956610,15964.5292749665
4116193359,26731,-2,0,-8012.4891963914,44232.2670123920,13876.6620094210,32484.1975497828,53418.4522443244,15420.5602208000,47836.7038422522,59993.0482040583,62697.8420339206,15966.9263112406
4116193359,26731,-2,0,-8013.3287674722,44227.8623061421,13880.3853246488,32480.2673837090,53414.4612397665,15419.4651280860,47821.4212150425,59989.2640503464,62695.3233206782,15967.2670067516
4116193359,26731,-2,0,-8018.0376661427,44222.8857181416,13879.6430951426,32476.7265839336,53408.4869006265,15416.8734086627,47810.8596542002,59985.3582196662,62690.8699436410,15963.9330578221
4116193359,26731,-2,0,-8015.1539219956,44224.8812204205,13876.9296987511,32478.3935583983,53413.5243271112,15411.7508083002,47831.3865587405,59989.0815348941,62690.4805773427,15966.5856157295
4116193359,26731,-2,0,-8016.9669088223,44221.1944082832,13874.3258116310,32476.1912052733,53410.2877197562,15407.3217666567,47827.4563926667,59981.7687491035,62686.0272003055,15964.6874550252
4116193359,26731,-2,0,-8019.0354172822,44216.6923604587,13878.2681454017,32474.4390569308,53404.3863867971,15413.0405841634,47806.6983018868,59977.3640428536,62685.8690202468,15962.0957356019
4116193359,26731,-2,0,-8015.7744745336,44223.0195628066,13884.4249999941,32480.5959115233,53413.3539793556,15416.7760670881,47822.2729538201,59984.9323502774,62693.0114582819,15966.5004418518
4116234430,26732,-2,0,-8011.2602590123,44227.3269274819,13888.5133461266,32483.7838480909,53416.9434499184,15416.0338375819,47832.2504652150,59987.1590387960,62696.3697426050,15967.8510561991
4116234430,26732,-2,0,-8008.1696640193,44227.3755982692,13891.6891149974,32485.4143194651,53414.6072521284,15418.5160477338,47820.4964700840,59986.9278525564,62695.4084945560,15966.3787648836
4116234430,26732,-2,0,-8004.3368395201,44231.1719196780,13895.6801195553,32489.2106408739,53419.4743308576,15417.8833274990,47829.8290935472,59991.6245835301,62696.8929535684,15964.2859210300
4116234430,26732,-2,0,-8003.9353055249,44231.2327581621,13893.7454557604,32490.7681060672,53423.8303663202,15414.3790308140,47845.8052794757,59993.6322535058,62696.0412147908,15967.6563730500
4116234430,26732,-2,0,-8006.2228325276,44227.2052505137,13896.5926968170,32487.2394739886,53420.5572558748,15418.7837370639,47828.6853300458,59990.9675279016,62694.5202526879,15967.7537146245
4116234430,26732,-2,0,-8007.2449190607,44229.5292806069,13900.5593659813,32487.8843619202,53421.3481561683,15422.3002014457,47822.1999476392,59993.5835827186,62697.3188229572,15967.4981929913
4116234430,26732,-2,0,-8002.3170018474,44239.9569967841,13906.2051773071,32494.4062474173,53432.6154434264,15428.6639068841,47845.6714348107,60003.0500508468,62704.2544101463,15971.5257006397
4116234430,26732,-2,0,-8005.2980875691,44239.3121088525,13908.9915798796,32490.4760813435,53428.2107371764,15423.3952941598,47837.0202023695,59999.7769404014,62703.3174974909,15968.8974781259
4116256674,26733,-2,0,-8011.2237559218,44235.0777503581,13915.3917884085,32484.8667731081,53423.8060309265,15424.3565422088,47816.0552607436,59995.9319482054,62701.5288460579,15963.9695609126
4116256674,26733,-2,0,-8013.3896059563,44236.7690602165,13919.3341221791,32485.2439717096,53427.1764829465,15414.8657386869,47829.0260255569,59998.7183507778,62702.6239387720,15967.1940005707
4116256674,26733,-2,0,-8014.2656801276,44234.9682410867,13918.3485387364,32482.4575691372,53426.4464211371,15415.1699311075,47831.4230618310,59994.2528060438,62697.3188229572,15968.0822424388
4116256674,26733,-2,0,-8011.4062713742,44235.4427812628,13923.3372944338,32483.3823140957,53421.2873176842,15422.3975430203,47813.7312306504,59990.8458509334,62696.6495996319,15963.5436915238
4116256674,26733,-2,0,-8005.6387830801,44241.9646667599,13928.7032487327,32488.8456099692,53425.3513284231,15421.9230028442,47825.8624243829,59995.4939111198,62698.9492943315,15963.3490083746
4116256674,26733,-2,0,-8004.5436903660,44241.0642571950,13927.6081560187,32487.6531756806,53426.9939674941,15420.4750469223,47838.1761335677,59994.4961599803,62697.2701521699,15963.9573932158
4116256674,26733,-2,0,-8008.3765148653,44234.6397132725,13930.6135771340,32485.5724995238,53421.6523485889,15423.1641079201,47819.1458557366,59988.3758084783,62693.3764891866,15963.1786606191
4116256674,26733,-2,0,-8014.9470711497,44233.2890989252,13934.7505940538,32483.9906989369,53422.9907952394,15423.6629834899,47815.1305157851,59987.1590387960,62693.7658554849,15962.7406235335
4116285809,26734,-2,0,-8010.6883772616,44238.3751961972,13942.0877152380,32487.5071633187,53432.5667726391,15426.5345599401,47838.2856428391,59994.6056692517,62698.5355926395,15971.5378683365
4116285809,26734,-2,0,-8007.7072915400,44237.0245818498,13945.5433411357,32484.7085930494,53430.3035810300,15423.6386480962,47827.0791940652,59989.8602674907,62696.4792518764,15972.8763149870
4116285809,26734,-2,0,-8002.6455296617,44238.9714133415,13951.7853696059,32485.0614562573,53428.6487742621,15430.3308813488,47814.9723357264,59988.8990194417,62699.0101328156,15973.7767245519
4116285809,26734,-2,0,-8000.6256919891,44241.5631327648,13952.5154314152,32487.5801694996,53433.4550145071,15427.1551124781,47832.6033284228,59993.8756074423,62701.8573738722,15971.8542284539
4116285809,26734,-2,0,-8006.0281493784,44237.8398175369,13951.1404816743,32484.7329284430,53429.5978546143,15428.4205529476,47831.9341050976,59989.7507582193,62699.4603375980,15970.2602601701
4116285809,26734,-2,0,-8007.0502359116,44238.9470779478,13957.5893609904,32485.8280211571,53427.7361970003,15434.3705566941,47819.3405388858,59992.2816391585,62700.2512378915,15969.0069873973
4116285809,26734,-2,0,-8006.5513603418,44241.1859341633,13961.1909992500,32486.7040953284,53430.1210655776,15429.2844594221,47832.1166205499,59993.3158933884,62700.9934673977,15969.4328567861
4116285809,26734,-2,0,-8004.9573920580,44239.3851150335,13959.9863972645,32483.3701463989,53429.1598175286,15427.8121681065,47839.3320647659,59990.3104722732,62700.6892749772,15975.5167051976
4116314561,26735,-2,0,-8004.9695597548,44237.2679357863,13967.3600215392,32480.9487747311,53423.7695278361,15430.2943782584,47819.1093526462,59986.4654800771,62700.2755732852,15983.5108820103
4116314561,26735,-2,0,-8008.8753904350,44238.5090408622,13970.8399828306,32481.9465258706,53425.5825146627,15424.8067469912,47822.5406431502,59987.5727404880,62701.3584983024,15985.8349121034
4116314561,26735,-2,0,-8011.1872528314,44238.6793886177,13968.9783252167,32479.8536820170,53426.1300610197,15415.5592974058,47836.3266436506,59985.9544368106,62695.1773083164,15983.2796957706
4116314561,26735,-2,0,-8013.0489104453,44233.1917573506,13966.8003074854,32473.8185043929,53419.8880325496,15413.6854720951,47821.6645689790,59978.6538187168,62690.1763849221,15974.1782585471
4116314561,26735,-2,0,-8012.6838795406,44229.7117960592,13965.9242333141,32472.1271945345,53414.5585813411,15410.3393554688,47811.6748898874,59975.5753914206,62685.8568525500,15967.7780500182
4116314561,26735,-2,0,-8010.3355140538,44229.0425727340,13962.5537812942,32475.2421249212,53415.4346555124,15410.0960015323,47830.7051677184,59979.2743712548,62685.7351755818,15967.2670067516
4116314561,26735,-2,0,-8008.7902165572,44228.1908339564,13964.8291406001,32477.9676890095,53415.5076616933,15417.8224890149,47829.6344103980,59979.6394021595,62688.3877334892,15971.4770298524
4116314561,26735,-2,0,-8008.8753904350,44229.3711005482,13971.1563429480,32478.6490800316,53414.0110349841,15416.0825083692,47815.0453419073,59978.4956386581,62688.7649320907,15972.4139425077
4116359372,26736,-2,0,-8012.7568857215,44228.9817342498,13971.2171814321,32477.5661550143,53415.3373139378,15406.1658354585,47826.8723432192,59978.3252909026,62684.6765859582,15968.9218135195
4116359372,26736,-2,0,-8016.8330641572,44225.4896052617,13971.1320075543,32472.4070515614,53412.1493773702,15401.3960983039,47829.5370688234,59973.9814231368,62679.0916131164,15968.2404224975
4116359372,26736,-2,0,-8022.4667077862,44219.4300922438,13974.1374286696,32467.8563329496,53403.5346480195,15407.4312759281,47807.1120035788,59968.2869410237,62676.5607321773,15968.4594410403
4116359372,26736,-2,0,-8019.2787712186,44225.3679282934,13980.5498048953,32472.3218776836,53408.6329129883,15413.7341428824,47815.1426834819,59975.0400127604,62684.4088966281,15971.0146573731
4116359372,26736,-2,0,-8018.3053554728,44228.3368463182,13980.6471464699,32470.9469279427,53412.4657374876,15408.0639961629,47828.6001561681,59977.3032043695,62685.4309831612,15970.2724278669
4116359372,26736,-2,0,-8021.7366459769,44226.7428780344,13981.5353883380,32466.2623646658,53409.4116455850,15408.7575548818,47812.1007592762,59970.7204803882,62682.9366053125,15967.1940005707
4116359372,26736,-2,0,-8022.1990184561,44227.4972752374,13983.0198473504,32465.3254520105,53408.9249377121,15407.1392512043,47806.7956434614,59971.6087222563,62682.7054190728,15965.6608707710
4116359372,26736,-2,0,-8022.1138445784,44228.2151693500,13980.7079849540,32467.7954944655,53412.2832220352,15398.1351555553,47824.0007667690,59973.6163922321,62680.6004075225,15968.5446149180
4116391270,26737,-2,0,-8023.9998375859,44222.4111779655,13978.5299672227,32463.2691112474,53406.7104168903,15401.0067320056,47810.8961572907,59967.9949162999,62674.3218759618,15969.9682354463
4116391270,26737,-2,0,-8024.2796946129,44223.4575998922,13985.6845729546,32466.0555138198,53406.0290258682,15410.9355726131,47800.6752919594,59970.5014618454,62678.0938619770,15973.3386874663
4116391270,26737,-2,0,-8025.0340918159,44228.4950263769,13990.7219994393,32469.1582765097,53414.9722830331,15407.6381267741,47820.3261223285,59977.1571920076,62683.1677915521,15974.3486063026
4116391270,26737,-2,0,-8026.6767308870,44224.6378664841,13994.3358053957,32464.9360857121,53413.0741223287,15399.5101052963,47819.2431973112,59972.3022809752,62679.5539855957,15967.3521806294
4116391270,26737,-2,0,-8025.8736628967,44220.7563711975,13997.5359096601,32461.2127704843,53405.9438519905,15402.7467126512,47797.5116907855,59968.2261025395,62677.6436571945,15963.2760021937
4116391270,26737,-2,0,-8021.8339875514,44225.1002389633,14000.5413307754,32465.8364952770,53408.9857761962,15404.1338300891,47810.3729463273,59971.9980885547,62680.9776061240,15964.0425670935
4116391270,26737,-2,0,-8020.2765223581,44227.4486044502,14001.5269142181,32468.7810779082,53412.9159422700,15409.4511136007,47826.3004614685,59974.6384787652,62683.1312884616,15971.4891975492
4116391270,26737,-2,0,-8019.1570942504,44227.8014676580,14003.2912302574,32468.1240222797,53412.3683959130,15414.7805648091,47814.5829694280,59971.9129146769,62684.9564429851,15976.1859285228
4116404460,26738,-2,0,-8017.3076043333,44230.4905286559,14004.6783476952,32472.8085855566,53414.4125689792,15416.4475392739,47819.6934020937,59975.2103605159,62690.1155464380,15979.1426788508
4116404460,26738,-2,0,-8016.2246793161,44230.1498331448,14002.3421499052,32475.8991805496,53417.7221825151,15408.7697225786,47838.2613074455,59977.0598504330,62691.8311916901,15980.1525976871
4116404460,26738,-2,0,-8019.5951313360,44222.7275380829,13999.5800827264,32470.1438599523,53412.2588866416,15404.7908857175,47822.3702953947,59970.5744680264,62688.1930503400,15975.2855189579
4116404460,26738,-2,0,-8021.1039257421,44219.2110737010,14002.2691437243,32466.3597062404,53409.4481486755,15406.7255495123,47809.8497353639,59971.1706851707,62687.6576716798,15968.8123042481
4116404460,26738,-2,0,-8017.1250888810,44221.8149608211,14004.7878569666,32466.0798492135,53415.6415063583,15404.0486562113,47827.2738772144,59975.3077020905,62686.2218834547,15967.3521806294
4116404460,26738,-2,0,-8016.6018779176,44218.8582104932,14008.4138306198,32460.8720749733,53412.1615450670,15407.4069405344,47821.6158981917,59969.6497230678,62683.1312884616,15965.3080075631
4116404460,26738,-2,0,-8018.7190571648,44218.2741610457,14018.3913420147,32461.0424227288,53406.8320938585,15414.7683971123,47802.6707942384,59967.7880654539,62683.7518409996,15963.3125052842
4116404460,26738,-2,0,-8019.5707959424,44220.1114832659,14021.0804030125,32465.5931413406,53409.3873101914,15407.5042821090,47816.5784717070,59971.4627098944,62686.1732126674,15966.7681311819
4116438251,26739,-2,0,-8021.0917580452,44221.2065759800,14021.2142476776,32468.0023453115,53410.9934461720,15405.2167551063,47825.9110951702,59972.4482933371,62683.3381393076,15969.5788691480
4116438251,26739,-2,0,-8021.0552549548,44219.9898062977,14027.2494253018,32467.2357804117,53410.4337321181,15411.4466158796,47811.3220266795,59971.7912377087,62683.6301640314,15967.0114851183
4116438251,26739,-2,0,-8016.7600579763,44226.3048409488,14032.6883857816,32472.0541883535,53420.5085850875,15412.1158392049,47818.7199863478,59977.6925706678,62686.6599205403,15965.7338769519
4116438251,26739,-2,0,-8015.5919590813,44229.5779513942,14032.5910442070,32471.3849650283,53426.6411042863,15405.1559166222,47833.6254149559,59978.1306077534,62686.5260758753,15968.2282548006
4116438251,26739,-2,0,-8017.7456414189,44225.7207915013,14035.3531113858,32467.9415068274,53420.5815912685,15409.9864922609,47814.2909447043,59974.2612801637,62684.9077721978,15969.3963536956
4116438251,26739,-2,0,-8020.2643546613,44226.7185426408,14040.9259165307,32467.8685006465,53417.7830209992,15409.5606228721,47804.7758057887,59974.1031001050,62685.7473432786,15964.2250825459
4116438251,26739,-2,0,-8020.8849071993,44228.9573988562,14040.2566932055,32469.1096057224,53420.5937589653,15409.1712565737,47824.9741825148,59977.5222229123,62685.5404924326,15963.1299898318
4116438251,26739,-2,0,-8019.4247835805,44226.8402196090,14039.9890038754,32465.9703399421,53416.4445743487,15410.5218709211,47821.3847119521,59975.3685405746,62685.5526601294,15964.6874550252
4116473455,26740,-2,0,-8013.8033076483,44227.3512628756,14047.9710129912,32469.7544936540,53415.1913015759,15414.9630802615,47811.4680390414,59974.8818327017,62687.2318022910,15967.4495222040
4116473455,26740,-2,0,-8010.8465573203,44234.3841916392,14055.7096681706,32476.7509193272,53422.7474413029,15410.9477403099,47829.8899320313,59981.6957429225,62692.2448933820,15972.5842902633
4116473455,26740,-2,0,-8016.6748840985,44231.7559691255,14057.1454563957,32473.2952934295,53419.6325109163,15402.0896570228,47829.2815471902,59974.3586217383,62687.3534792592,15971.6595453047
4116473455,26740,-2,0,-8023.3184465638,44227.4486044502,14059.8466850904,32467.8319975560,53411.7478433750,15404.3771840255,47806.4549479503,59966.9119912827,62682.2065435031,15967.9849008642
4116473455,26740,-2,0,-8021.1039257421,44232.2791800889,14064.8354407878,32473.5264796691,53418.3183996594,15406.4091893949,47820.7276563236,59972.4239579435,62685.9176910341,15967.7780500182
4116473455,26740,-2,0,-8018.2323492919,44233.2890989252,14066.7336014922,32474.3903861436,53425.1809806675,15405.3262643777,47834.4771537335,59977.6438998805,62686.1732126674,15969.2381736369
4116473455,26740,-2,0,-8016.6870517953,44230.9285657415,14072.3672451212,32473.9036782706,53422.0173794936,15416.3988684866,47816.3107823769,59975.5023852397,62687.5481624084,15972.1584208745
4116473455,26740,-2,0,-8012.7082149342,44234.7005517566,14079.9842233324,32477.4809811366,53423.5748446869,15417.3601165356,47817.3328689100,59979.9435945800,62691.4904961790,15971.1850051286
4116502558,26741,-2,0,-8012.2823455454,44235.5522905342,14077.9157148725,32475.3272987989,53425.1444775771,15403.4646067638,47836.1197928046,59979.0796881056,62689.3611492350,15969.3355152115
4116502558,26741,-2,0,-8017.8308152967,44231.6342921572,14073.7300271654,32468.5012208812,53418.3914058403,15400.0941547438,47823.4897235024,59972.4604610339,62685.0416168629,15967.9118946832
4116502558,26741,-2,0,-8021.5054597372,44230.1498331448,14073.7056917717,32466.1285200008,53412.2223835511,15399.0964036044,47809.0953381609,59969.2846921631,62682.3038850777,15968.1552486197
4116502558,26741,-2,0,-8021.7001428864,44232.2913477857,14077.7697025106,32468.0023453115,53415.1547984854,15394.9107158973,47823.8547544071,59972.6429764863,62681.3669724223,15971.7690545761
4116502558,26741,-2,0,-8020.6050501723,44228.7140449197,14083.5371908047,32467.0167618688,53413.8041841381,15394.8377097163,47822.1147737614,59970.1242632439,62680.6855814002,15972.5234517791
4116502558,26741,-2,0,-8019.3517773996,44225.2340836284,14088.7814681354,32465.2767812232,53407.7081680298,15398.4150125823,47802.8046389034,59965.1111721529,62680.3813889797,15971.6352099111
4116502558,26741,-2,0,-8015.6284621717,44229.8456407243,14089.5358653384,32466.5787247832,53413.7068425635,15400.1306578343,47816.1039315309,59968.9318289553,62681.6955002365,15973.9835753979
4116502558,26741,-2,0,-8017.3562751206,44230.7582179860,14090.8499765953,32466.3232031499,53416.2012204122,15397.4659322301,47826.7993370383,59968.3356118109,62681.0262769113,15975.6627175595
4116533353,26742,-2,0,-8021.7001428864,44223.8104631001,14092.4804479695,32463.6828129394,53405.8830135063,15393.7669523959,47807.8177299945,59960.0494102745,62677.1326139279,15967.2791744485
4116533353,26742,-2,0,-8024.4743777620,44220.8902158626,14093.5512052900,32463.8288253012,53403.9970204988,15388.7295259112,47808.9736611927,59960.9863229299,62676.0131858202,15963.5436915238
4116533353,26742,-2,0,-8024.2796946129,44220.4765141706,14088.4407726243,32460.9572488510,53407.2944663378,15386.4541666053,47825.5217288719,59961.4608631060,62673.9568450572,15964.1155732745
4116533353,26742,-2,0,-8025.9101659871,44218.3593349234,14090.2780948446,32457.3069398041,53403.6441572909,15390.2748234077,47807.6717176326,59956.4842751054,62672.7644107685,15964.0303993967
4116533353,26742,-2,0,-8029.1224379484,44217.2885776030,14095.1086704833,32456.7472257503,53401.4418041660,15389.9219601999,47797.5846969664,59955.2796731199,62673.9690127540,15965.0038151426
4116533353,26742,-2,0,-8032.9552624476,44218.0186394124,14097.9802469335,32456.8202319312,53404.7027469145,15386.9895452655,47815.5077143866,59955.2431700295,62673.8230003921,15969.1651674560
4116533353,26742,-2,0,-8038.4185583211,44211.8739525168,14102.0564253692,32452.2208425321,53400.4805561170,15394.0711448165,47809.1561766450,59949.9380542147,62670.6715669150,15969.4085213925
4116533353,26742,-2,0,-8039.7205018812,44210.6571828345,14107.5318889395,32451.3812714514,53396.7085701019,15393.4262568849,47792.1092333961,59947.6626949088,62668.1285182790,15967.9727331674
4116562636,26743,-2,0,-8036.5325653136,44214.4048334560,14106.9843425825,32453.6931338477,53402.8532569974,15389.3865815396,47807.7812269040,59952.0430657650,62667.0942640490,15968.1065778324
4116562636,26743,-2,0,-8035.8025035042,44215.4999261700,14107.4832181522,32452.6345442241,53405.0556101224,15384.4586643264,47814.4612924598,59952.1525750364,62667.3862887728,15966.1840817344
4116562636,26743,-2,0,-8038.7714215290,44211.3629092502,14113.9686005589,32449.6047877152,53398.1443583270,15387.1963961115,47795.0781514209,59946.0930620186,62664.1740168115,15962.3999280225
4116562636,26743,-2,0,-8040.0611973922,44213.8572870989,14121.2813863495,32454.6787172904,53400.3953822392,15384.2153103899,47800.7117950499,59949.0863154371,62666.8509101126,15964.0547347904
4116562636,26743,-2,0,-8040.8520976857,44209.8176117537,14116.4264753171,32451.7097992656,53397.5724765763,15374.1282897237,47810.7744803225,59945.5576833584,62663.6264704545,15965.4296845314
4116562636,26743,-2,0,-8041.9715257934,44202.5534967504,14109.9532606073,32444.7012058956,53387.4854559101,15375.2842209219,47791.2818300121,59935.5801719636,62658.5160377888,15962.9474743795
4116562636,26743,-2,0,-8040.0246943017,44202.0667888775,14112.3746322751,32445.2244168590,53385.3196058756,15379.4334055385,47788.5562659238,59937.3444880029,62661.5944650850,15963.5193561302
4116562636,26743,-2,0,-8042.1783766394,44203.5025771026,14114.6256561873,32444.6525351083,53389.7121444287,15376.5253259978,47808.2435993833,59940.3620768150,62663.0180856133,15963.3125052842
4116592221,26744,-2,0,-8045.6948410212,44199.6210818161,14116.6454938599,32439.6881148045,53383.3119358998,15376.9268599930,47798.7284604677,59936.5779231031,62659.7084720775,15961.9253878464
4116592221,26744,-2,0,-8047.2766416082,44200.1442927795,14121.1840447749,32438.9945560856,53381.4381105891,15381.5627524825,47784.9911307546,59936.3710722571,62661.7161420533,15960.7937920418
4116592221,26744,-2,0,-8045.5609963562,44205.3885701102,14123.3985655966,32444.4456842623,53388.3371946877,15376.0629535185,47804.7758057887,59942.6496038177,62665.0135878923,15962.7527912303
4116592221,26744,-2,0,-8047.9945357208,44203.8432726136,14124.3841490393,32443.8981379053,53389.3227781303,15375.0652023790,47807.9759100532,59942.5035914558,62661.7769805374,15961.7063693035
4116592221,26744,-2,0,-8043.0057800234,44206.0456257386,14133.0232137836,32445.2365845558,53388.1546792353,15375.9534442471,47790.5030974154,59943.6473549572,62663.8941597846,15957.5450169901
4116592221,26744,-2,0,-8039.9516881208,44206.6783459734,14132.9623752995,32445.7719632160,53388.4102008686,15366.9736839918,47797.6942062378,59944.5842676126,62660.6575524297,15953.6148509163
4116592221,26744,-2,0,-8045.5853317498,44199.4263986669,14126.0146204136,32439.1892392348,53383.0320788729,15361.8024128420,47803.0358251431,59939.7171888834,62651.6777921743,15951.4733362755
4116592221,26744,-2,0,-8049.9048641220,44193.7562519474,14126.6595083452,32433.9449619041,53377.0090689455,15369.4193910532,47785.3561616593,59934.5094146432,62650.1811654651,15952.1425596007
4116622058,26745,-2,0,-8049.6128393982,44197.1997101483,14134.3981635246,32439.5055993522,53380.0144900608,15380.0174549860,47788.3129119873,59940.5202568737,62655.3524366149,15954.7829498113
4116622058,26745,-2,0,-8047.5930017256,44202.5291613568,14137.8172863318,32442.5110204674,53386.2443508341,15372.6073276208,47809.6185491243,59944.1949013142,62657.8833175540,15958.3237495868
4116622058,26745,-2,0,-8049.9900379997,44199.0978708527,14137.4157523367,32439.1770715380,53379.3330990387,15370.4414775863,47794.7496236066,59938.5490899884,62654.0261576612,15958.8104574597
4116622058,26745,-2,0,-8049.2721438872,44198.0027781386,14138.9002113491,32439.3352515967,53375.5854484172,15367.8132550726,47781.7180203093,59936.9064509173,62651.5804505998,15954.5760989653
4116622058,26745,-2,0,-8046.0963750164,44199.1708770336,14136.0894733830,32440.4181766139,53379.7833038211,15364.5766477177,47799.6897085168,59940.4715860864,62651.1789166046,15951.5463424564
4116622058,26745,-2,0,-8042.2757182140,44199.3412247892,14138.2796588111,32441.3794246629,53380.5011979337,15365.4648895857,47801.1985029228,59938.3665745360,62650.4731901889,15954.9654652636
4116622058,26745,-2,0,-8038.1873720815,44199.4872371510,14146.0183139905,32442.7422067071,53378.9559004372,15371.9989427797,47784.9059568769,59938.5855930789,62649.9378115287,15955.7563655571
4116622058,26745,-2,0,-8034.0016843744,44205.3885701102,14152.3090132480,32448.7530489376,53386.8284002816,15374.8218484426,47798.9961497979,59945.7401988107,62654.1843377199,15956.7297813030
4116658521,26746,-2,0,-8032.9674301444,44207.5300847510,14154.4505278888,32447.8648070695,53390.4543739349,15377.5595802277,47805.7248861409,59945.3751679061,62654.7197163801,15960.4774319244
4116658521,26746,-2,0,-8037.6276580276,44208.2358111667,14156.6407133169,32445.6502862478,53389.4079520081,15379.4090701448,47787.3881670288,59943.4526718080,62655.9973245465,15963.9938963063
4116658521,26746,-2,0,-8033.8556720125,44215.8892924684,14160.1328423051,32447.2929253189,53396.2096945321,15379.2752254798,47793.7883755576,59949.9745573051,62661.9959990802,15971.3675205810
4116658521,26746,-2,0,-8030.1445244815,44219.2232413978,14162.6758909411,32450.4200234024,53403.8023373496,15376.1481273963,47812.3319455158,59954.9511453057,62664.1740168115,15975.0299973247
4116658521,26746,-2,0,-8031.3369587702,44215.6459385319,14168.8449132303,32447.4876084680,53399.6166496425,15380.4311566780,47796.3922626777,59951.9335564936,62664.2835260829,15970.1872539891
4116658521,26746,-2,0,-8026.2386938013,44219.0893967328,14177.5813195492,32452.4641964686,53401.5148103469,15385.7971109769,47794.4454311861,59956.3869335308,62669.8319958342,15966.2570879153
4116658521,26746,-2,0,-8020.4225347200,44224.6865372713,14179.7106664932,32458.2803555500,53407.3188017315,15378.3383128244,47819.4013773699,59961.0471614140,62668.1041828853,15965.6608707710
4116658521,26746,-2,0,-8020.4347024168,44222.5936934178,14176.7904192557,32455.8346484886,53403.5589834132,15375.6005810393,47815.6293913548,59956.0949088071,62663.7238120291,15968.5446149180
4116714101,26747,2,0,-8022.2355215466,44220.6103588357,14179.6011572218,32455.2992698284,53399.6288173394,15380.1026288637,47798.6432865900,59954.1359096186,62664.6485569876,15969.8830615686
4116714101,26747,2,0,-8022.0286707006,44222.3016686940,14183.6895033543,32457.8666538580,53404.5445668558,15376.6470029660,47814.9114972423,59958.9299821668,62668.2380275504,15971.4526944587
4116714101,26747,2,0,-8023.1115957178,44219.1258998233,14182.8255968799,32456.1510086060,53402.0015182198,15373.2887186429,47815.8119068072,59954.7686298534,62664.5025446257,15970.3089309574
4116714101,26747,2,0,-8021.7123105832,44215.8284539842,14186.1473781126,32453.1699228843,53395.5283035100,15371.7555888432,47797.3291753331,59950.7411222050,62662.1906822294,15966.9993174215
4116714101,26747,2,0,-8022.3206954244,44217.7631177791,14189.1162961374,32451.4421099355,53397.9740105714,15363.9439274829,47806.0534139552,59951.3738424398,62660.5358754614,15966.3787648836
4116714101,26747,2,0,-8030.4122138116,44213.0785545023,14183.7625095353,32443.8007963307,53395.0537633339,15355.3778689195,47816.6149747975,59946.6771114661,62656.1068338179,15966.4882741550
4116714101,26747,2,0,-8037.2382917293,44203.8432726136,14179.4429771631,32437.4127554986,53383.2024266284,15357.6775636191,47794.0438971909,59935.7870228096,62650.5583640666,15961.2561645211
4116714101,26747,2,0,-8037.8466765704,44202.4683228727,14182.2537151292,32439.5055993522,53380.8418934447,15362.0944375658,47790.9776375915,59936.4197430444,62652.4565247710,15959.3580038167
4116722239,26748,2,0,-8034.6344046092,44204.3664835770,14182.5092367625,32442.7787097975,53386.5485432547,15363.5545611845,47811.4193682541,59939.8632012453,62654.2086731135,15960.9641397973
4116722239,26748,2,0,-8036.1553667120,44205.4129055038,14185.3199747286,32443.9346409957,53388.4953747464,15370.3806391022,47804.5202841555,59939.2913194946,62657.1532557447,15959.6013577532
4116722239,26748,2,0,-8038.0170243260,44206.3011473719,14192.9977914239,32445.3339261304,53387.4611205164,15370.4658129800,47793.4963508339,59941.1164740180,62658.1266714905,15961.8280462718
4116722239,26748,2,0,-8037.8101734800,44205.8022718021,14194.3362380744,32444.3240072941,53388.5927163209,15362.0944375658,47808.4869533197,59942.8564546637,62657.6764667081,15960.5261027117
4116722239,26748,2,0,-8037.0436085801,44200.0712865985,14194.2023934093,32440.3330027361,53384.7477241249,15356.4972970272,47804.0944147667,59937.7216866044,62653.1014127026,15956.5837689411
4116722239,26748,2,0,-8039.9760235144,44194.4254752727,14189.9558672181,32435.4537563101,53374.2591694635,15349.8659022587,47781.9613742457,59930.6887578408,62645.7034530343,15945.6936802846
4116722239,26748,2,0,-8040.5844083556,44195.2528786566,14185.0887884890,32438.3131650635,53376.0478208965,15346.0695808500,47794.2629157337,59930.7252609312,62640.4956787941,15940.0965397460
4116722239,26748,2,0,-8039.7935080621,44196.2141267057,14183.3609755401,32438.6173574841,53378.9437327404,15347.7122199211,47805.3355198426,59931.3701488629,62639.5709338355,15942.0190358440
4116752278,26749,2,0,-8037.1896209420,44195.7517542264,14191.7810217416,32440.5276858853,53378.3231802024,15361.8754190230,47787.0961423050,59931.8811921294,62643.1360690046,15945.7666864655
4116752278,26749,2,0,-8029.1711087357,44205.8387748926,14205.7617053911,32450.1279986786,53386.5363755579,15363.1651948862,47795.2363314796,59943.1606470843,62655.8756475783,15952.3250750531
4116752278,26749,2,0,-8025.9345013808,44212.1051387564,14210.9086411472,32453.5106183954,53392.8514102090,15357.0813464747,47812.6361379364,59947.9182165420,62657.5426220430,15959.8082085992
4116752278,26749,2,0,-8029.4996365499,44208.1263018953,14209.8743869173,32449.2397568105,53389.5539643700,15356.2539430908,47798.6919573773,59941.6153495878,62654.1965054167,15963.7748777634
4116752278,26749,2,0,-8030.1566921783,44209.4039100617,14211.3710136265,32446.4655219349,53386.9744126435,15364.7834985637,47788.7387813761,59940.4350829959,62652.8458910694,15965.1863305949
4116752278,26749,2,0,-8027.4554634836,44212.6891882039,14212.2349201009,32449.7629677739,53393.7396520770,15363.1043564021,47807.3918606057,59946.0808943218,62654.3546854754,15966.8046342724
4116752278,26749,2,0,-8025.5938058697,44212.1781449374,14215.8852291478,32450.2010048595,53392.4133731234,15359.4053765679,47801.8920616417,59942.3332437003,62652.8337233725,15966.7072926978
4116752278,26749,2,0,-8023.6834774685,44211.1438907074,14219.8762337058,32452.0991655639,53386.2321831373,15362.7636608910,47789.5175139728,59941.5301757100,62652.8093879789,15964.6144488442
4116780313,26750,2,0,-8021.1404288325,44214.8672059352,14218.6351286298,32456.4186979361,53388.3615300813,15357.0691787779,47808.2801024738,59941.8343681306,62654.0383253580,15965.4661876218
4116780313,26750,2,0,-8026.0318429554,44212.0199648787,14221.3485250213,32451.1500852117,53388.6535548051,15359.8434136535,47815.2035219660,59939.4738349469,62652.7728848884,15964.5171072696
4116780313,26750,2,0,-8028.5627238945,44206.5931720956,14224.2444368652,32445.0419014066,53382.3020170635,15363.1043564021,47792.1092333961,59935.2638118462,62651.5682829029,15962.1079032987
4116780313,26750,2,0,-8030.2905368434,44206.6540105797,14221.8839036815,32444.4213488686,53384.2853516456,15356.9475018097,47795.2484991764,59936.4197430444,62650.3880163111,15960.9763074942
4116780313,26750,2,0,-8030.8624185941,44205.8752779831,14216.1529184779,32443.1924114895,53386.6945556166,15350.1335915888,47806.9416558232,59935.3611534208,62647.2122474403,15961.8402139686
4116780313,26750,2,0,-8028.8912517087,44204.9383653277,14220.8009786643,32443.3505915482,53385.5872952057,15358.2737807634,47794.2507480369,59934.0105390734,62646.6647010833,15963.1178221350
4116780313,26750,2,0,-8023.8781606177,44210.4138288980,14231.2043594479,32449.7264646834,53390.9167464141,15362.9583440402,47794.8469651812,59939.1088040422,62653.8314745120,15968.1309132261
4116780313,26750,2,0,-8023.9389991018,44214.7333612702,14235.6455687883,32451.3934391482,53396.3557068940,15355.9740860638,47815.0575096041,59942.2967406099,62656.1311692115,15969.5545337543
4116833294,26751,2,0,-8035.3401310249,44205.3642347165,14231.8979181668,32440.5155181885,53384.3218547361,15352.6888079217,47796.1489087413,59930.0560376060,62647.2000797435,15964.3224241205
4116833294,26751,2,0,-8038.0656951132,44201.9329442124,14231.7275704113,32439.2987485062,53379.2844282514,15366.3531314538,47778.9316177368,59926.8924364320,62647.9301415529,15961.3291707020
4116833294,26751,2,0,-8031.3491264670,44208.3088173477,14235.3170409741,32444.3118395972,53386.1713446532,15372.1571228384,47797.4630199982,59932.3435646087,62653.0770773090,15965.1254921108
4116833294,26751,2,0,-8028.9764255865,44208.2723142572,14239.0890269892,32443.9103056021,53386.3173570151,15364.3697968717,47800.7969689276,59927.7076721191,62652.0914938663,15965.9285601011
4116833294,26751,2,0,-8026.9200848234,44207.7491032938,14248.6041659047,32444.3483426877,53383.7256375918,15368.8110062121,47783.5553425295,59926.9167718257,62655.9486537592,15968.2647578911
4116833294,26751,2,0,-8027.6136435423,44208.3453204381,14247.5334085843,32445.3217584335,53386.2565185309,15359.1620226315,47793.5085185307,59929.6910067013,62656.9464048987,15970.5522848938
4116833294,26751,2,0,-8034.3423798854,44204.5611667262,14239.6487410430,32440.6493628535,53384.1515069806,15350.6324671586,47804.4107748841,59928.1457092048,62650.9964011523,15970.7104649525
4116833294,26751,2,0,-8039.5136510352,44201.0447023444,14239.7095795271,32436.5245136306,53379.6251237624,15358.8334948172,47786.4755897670,59923.7896737422,62649.3172589907,15967.3035098421
4116847073,26752,2,0,-8036.3622175580,44205.4859116847,14243.9196026279,32440.4668474012,53382.8373957237,15361.6685681770,47787.0353038209,59930.8104348090,62652.1036615632,15966.5004418518
4116847073,26752,2,0,-8033.4054672301,44210.6815182281,14247.0467007114,32445.5529446732,53390.4300385412,15357.6045574381,47806.3819417694,59936.0912152302,62654.1113315389,15968.2647578911
4116847073,26752,2,0,-8035.4131372058,44204.5611667262,14247.2292161637,32442.3771758024,53384.1393392837,15356.3877877558,47794.0560648877,59931.7595151612,62651.8846430203,15966.6586219105
4116847073,26752,2,0,-8035.7660004137,44202.1397950584,14250.1859664917,32442.0243125945,53381.2190920462,15356.7649863573,47781.4016601919,59931.1024595327,62650.1689977683,15967.7537146245
4116847073,26752,2,0,-8034.7439138806,44205.6440917434,14252.5221642817,32446.2465033921,53386.3781954992,15353.1633480977,47803.3886883509,59935.1664702716,62651.4587736315,15972.4991163855
4116847073,26752,2,0,-8032.2617037287,44208.0532957144,14255.0287098272,32446.3073418762,53390.6125539936,15357.7992405873,47805.2746813585,59933.4021542323,62653.0162388249,15973.7767245519
4116847073,26752,2,0,-8027.8083266915,44207.7247679002,14260.6380180626,32448.4123534266,53390.1258461206,15358.1886068856,47788.8847937380,59933.0006202371,62653.3569343359,15970.2480924732
4116847073,26752,2,0,-8023.9998375859,44210.7788598027,14260.7231919404,32451.5272838132,53394.1411860722,15356.9840049002,47800.7848012308,59937.0889663696,62654.4520270500,15969.0678258814
4116877001,26753,2,0,-8024.3040300065,44209.1727238221,14261.4532537497,32450.4200234024,53396.3922099844,15357.9452529492,47805.7370538378,59936.1033829270,62654.3790208690,15968.9704843068
4116877001,26753,2,0,-8027.6014758455,44206.2889796751,14264.3491655936,32445.0297337098,53391.1722680474,15357.6775636191,47783.9203734342,59932.5869185451,62650.7043764285,15966.4761064581
4116877001,26753,2,0,-8028.3193699581,44208.7346867365,14263.5947683906,32444.5551935337,53391.9388329473,15360.2084445582,47784.2975720357,59934.3755699781,62652.1766677441,15965.9407277979
4116877001,26753,2,0,-8028.1246868089,44214.0032994608,14266.6610279900,32446.6237019936,53397.5603088795,15362.6298162260,47799.1056590693,59938.8654501058,62655.7174675196,15967.3643483262
4116877001,26753,2,0,-8025.6911474443,44214.0032994608,14273.0490688220,32447.0130682919,53396.5382223463,15370.1616205594,47784.1515596739,59938.9871270740,62658.7472240285,15970.5522848938
4116877001,26753,2,0,-8019.8263175757,44217.1912360284,14278.0499922162,32451.9531532020,53399.0204324982,15373.2522155524,47779.2236424606,59945.4116709965,62664.6972277749,15973.6672152805
4116877001,26753,2,0,-8014.3143509149,44222.4598487527,14279.4371096541,32456.0171639409,53407.7325034234,15368.8353416057,47802.7559681161,59951.7997118286,62667.8729966457,15976.6361333053
4116877001,26753,2,0,-8014.3021832180,44219.9776386009,14277.8674767639,32453.8391462096,53404.3742191003,15367.0831932632,47801.7947200671,59946.3242482582,62665.5246311589,15971.9515700285
4116904650,26754,2,0,-8014.5820402450,44217.1425652411,14279.8143082556,32450.8823958816,53399.3246249188,15368.5919876692,47790.4300912345,59941.5545111037,62662.7747316769,15967.6442053531
4116904650,26754,2,0,-8015.3729405385,44218.9677197646,14277.1252472577,32455.1410897697,53403.4494741418,15369.2125402072,47806.7469726741,59945.3386648156,62666.1451836968,15968.4107702530
4116904650,26754,2,0,-8017.9038214776,44213.8937901894,14269.8732999512,32452.7318857987,53402.0136859167,15370.0399435912,47808.2801024738,59942.4427529717,62662.3853653785,15968.0822424388
4116904650,26754,2,0,-8019.7776467884,44210.5598412599,14265.2495751585,32451.0405759403,53395.3457880577,15375.9047734598,47786.7067760067,59940.0213813040,62658.8202302094,15967.8023854118
4116904650,26754,2,0,-8021.8096521578,44214.4778396369,14254.9070328590,32455.9806608504,53399.0204324982,15380.7961875826,47795.4188469319,59945.4846771775,62661.1685956962,15972.1949239649
4116904650,26754,2,0,-8023.1724342020,44213.4922561942,14236.4608044754,32455.7373069140,53400.8334193248,15383.4365777932,47806.9538235201,59946.7622853439,62662.1785145325,15973.7037183710
4116904650,26754,2,0,-8019.5951313360,44210.7423567123,14217.8198929427,32453.4376122144,53394.7374032165,15403.9999854240,47789.7243648188,59944.2314044047,62666.2303575746,15970.0047385368
4116904650,26754,2,0,-8009.8609738777,44214.3318272750,14198.3880811164,32458.0126662199,53394.5427200674,15407.0784127202,47788.4832597428,59948.7456199260,62672.4845537416,15971.8177253634
4116953728,26755,2,0,-8011.2115882250,44213.4192500133,14168.8084101399,32455.9198223663,53392.2916961551,15401.5421106658,47803.4616945319,59950.3274205130,62670.2700329198,15971.9150669380
4116953728,26755,2,0,-8018.8894049203,44205.1938869610,14136.0894733830,32447.4876084680,53383.4336128680,15401.2014151547,47790.1258988139,59944.9492985173,62667.5566365283,15967.9240623801
4116953728,26755,2,0,-8024.5838870334,44199.3168893955,14100.4381216918,32445.5042738859,53376.8387211900,15405.3749351650,47775.2691409931,59941.9438774020,62665.1109294669,15962.3999280225
4116953728,26755,2,0,-8021.8948260356,44201.3975655522,14064.7502669101,32452.1356686544,53382.5940417872,15409.6944675371,47794.2020772496,59947.3098317009,62666.2546929682,15964.4319333919
4116953728,26755,2,0,-8018.7555602552,44201.9329442124,14028.2350087444,32454.3988602635,53381.4016074986,15413.3691119777,47793.6788662862,59945.1926524537,62666.5588853888,15966.3787648836
4116953728,26755,2,0,-8013.6694629832,44202.7725152932,13999.2028841249,32457.7328091929,53379.0775774054,15425.8166658275,47779.9902073604,59947.7357010897,62670.5377222499,15968.5324472212
4116953728,26755,2,0,-8009.1674151588,44209.9514564188,13970.8399828306,32465.0334272867,53385.5629598120,15423.6021450058,47796.2462503159,59954.3305927677,62674.6017329888,15966.6221188200
4116953728,26755,2,0,-8010.4936941125,44209.7932763601,13942.6474292918,32467.2966188958,53388.5197101400,15421.6553135141,47810.2512693591,59956.3382627435,62675.2101178299,15965.2836721695
4116967830,26756,2,0,-8018.5852124997,44201.4584040363,13916.5963903939,32463.0379250077,53377.7391307549,15419.0392586972,47787.5220116938,59949.4635140386,62668.1163505821,15960.4774319244
4116967830,26756,2,0,-8022.8804094782,44198.0757843196,13888.9392155154,32464.3885393551,53373.7116231065,15411.2397650336,47784.7721122118,59946.9813038867,62666.5102146015,15956.9244644521
4116967830,26756,2,0,-8024.2675269160,44196.4939837326,13861.9025931748,32465.7391537024,53373.2979214145,15408.6480456104,47798.4972742281,59946.4094221360,62662.5192100436,15955.0993099287
4116967830,26756,2,0,-8025.6303089602,44192.4786437810,13845.2085131337,32465.4106258882,53370.1708233310,15413.8801552442,47785.5630125053,59942.0047158861,62660.3290246155,15953.5418447354
4116967830,26756,2,0,-8019.2787712186,44197.9054365640,13834.5252753232,32470.6427355221,53372.4218472433,15421.9473382378,47781.1583062554,59944.0002181651,62663.6143027577,15959.6621962373
4116967830,26756,2,0,-8012.7325503279,44205.9969549513,13823.5743481825,32479.5129865060,53380.8053903543,15422.8355801059,47803.1818375049,59950.9844761414,62667.9703382203,15968.8974781259
4116967830,26756,2,0,-8007.1962482734,44208.8806990983,13819.0357972676,32484.0880405114,53383.2876005061,15432.6427437452,47800.3589318420,59954.7564621565,62673.0929385827,15974.9934942342
4116967830,26756,2,0,-8004.2881687328,44209.8297794505,13816.8942826267,32488.0060388884,53384.2488485552,15437.0474499951,47785.1371431165,59956.6059520736,62679.9433518940,15972.6937995347
4117000537,26757,2,0,-8002.0128094269,44214.0276348545,13807.3061375303,32491.1331369719,53388.0208345703,15426.0721874608,47798.6067834995,59960.6456274188,62682.3768912586,15969.2503413338
4117000537,26757,2,0,-8005.4197645373,44210.4868350790,13789.8454925893,32488.0425419789,53385.4412828438,15415.3524465598,47802.4031049083,59954.7807975502,62674.6625714729,15962.8257974113
4117000537,26757,2,0,-8007.7316269337,44205.6684271371,13781.4497817815,32485.0249531668,53375.5124422363,15421.3997918808,47779.0776300987,59947.9547196325,62668.4205430027,15958.4819296455
4117000537,26757,2,0,-8005.3710937500,44208.6251774651,13778.4686960599,32488.6874299105,53377.9703169945,15427.0577709035,47786.6824406130,59951.2034946842,62669.4061264454,15959.7352024182
4117000537,26757,2,0,-8002.1223186983,44214.7333612702,13777.7629696442,32493.1894777350,53384.9545749709,15428.7612484587,47802.5977880574,59956.8858091006,62673.4092987001,15962.7527912303
4117000537,26757,2,0,-8000.7960397446,44214.8428705416,13775.4997780351,32492.6662667716,53384.3218547361,15431.2677940042,47787.1813161828,59954.3184250709,62673.3971310033,15961.1953260370
4117000537,26757,2,0,-7998.7640343751,44221.0848990118,13774.1978344750,32499.0421399068,53391.1844357442,15435.2344631685,47786.4755897670,59960.2927642110,62682.5837421046,15959.3336684231
4117000537,26757,2,0,-7994.2011480665,44228.5315294674,13771.4966057803,32506.1845779419,53402.3422137309,15436.4634005476,47809.4360336719,59969.2725244663,62685.2849707993,15962.1079032987
4117032891,26758,2,0,-7992.7896952351,44226.9862319709,13769.7809605283,32507.2796706560,53401.6121519215,15434.5287367528,47799.8113854850,59965.7073892972,62682.3403881682,15964.5657780569
4117032891,26758,2,0,-7993.0573845652,44227.7284614771,13770.9855625138,32508.1314094336,53395.4187942386,15436.9987792078,47783.5431748327,59963.4685330818,62681.9145187794,15961.5116861544
4117032891,26758,2,0,-7991.2930685259,44231.1719196780,13768.7345386015,32510.2364209839,53398.4850538380,15437.4368162934,47801.2471737101,59966.5104572875,62682.4255620459,15961.2074937338
4117032891,26758,2,0,-7987.2047223933,44234.9439056931,13767.6881166748,32510.6866257664,53402.4030522150,15437.9843626505,47809.4360336719,59967.6177176984,62681.7685064175,15964.0547347904
4117032891,26758,2,0,-7984.5764998796,44235.5279551406,13769.9999790711,32513.1079974342,53401.8555058580,15442.9244475606,47796.1367410445,59966.1454263828,62683.1677915521,15965.2715044727
4117032891,26758,2,0,-7983.6517549210,44240.3585307793,13772.0198167437,32518.1089208284,53408.6329129883,15445.0051237173,47810.0322508163,59970.8178219628,62685.0537845597,15969.5423660575
4117032891,26758,2,0,-7985.5985864127,44240.6505555030,13772.8350524309,32518.5226225204,53411.2976385926,15450.4075811067,47822.8448355708,59970.1485986376,62686.7450944181,15973.0344950457
4117032891,26758,2,0,-7988.7986906772,44237.7424759624,13775.6214550033,32515.3346859527,53406.2602121079,15454.5689334201,47806.7956434614,59966.0359171114,62687.1709638069,15971.7203837888
4117075570,26759,2,0,-7993.4467508635,44238.6550532241,13775.7431319715,32512.4022710184,53403.1574494180,15449.6410162069,47801.1133290450,59964.1499241039,62685.6134986135,15969.5423660575
4117075570,26759,2,0,-7993.1060553525,44243.0719271708,13775.6336227001,32511.2950106075,53406.5887399221,15441.4764916387,47817.3450366069,59966.4982895907,62684.0195303297,15970.9051481017
4117075570,26759,2,0,-7993.8847879491,44236.4283647055,13771.1559102693,32506.4766026656,53400.5292269043,15443.9221987001,47800.2737579643,59957.8470571496,62677.9356819183,15967.3521806294
4117075570,26759,2,0,-7993.3859123794,44235.4062781724,13771.1437425725,32507.3526768369,53398.8744201363,15446.0272102504,47787.1569807891,59960.2197580300,62681.5008170874,15968.1430809229
4117075570,26759,2,0,-7993.6536017095,44237.2070973022,13767.4204273447,32510.7109611600,53406.8564292522,15442.6445905337,47805.8465631092,59964.3324395562,62684.6765859582,15970.3819371383
4117075570,26759,2,0,-7994.5540112744,44235.2724335073,13765.4370927625,32510.9178120060,53407.2092924600,15444.3602357857,47806.2359294075,59965.4031968766,62682.7905929506,15972.1827562681
4117075570,26759,2,0,-7993.0817199588,44234.8708995121,13768.8318801761,32512.7307988326,53404.9582685478,15448.3390726468,47790.0893957235,59963.4563653849,62683.6544994250,15973.2535135885
4117075570,26759,2,0,-7990.3318204768,44238.8862394637,13771.0707363915,32517.6465483491,53408.3652236582,15451.3444937621,47804.9461535443,59969.6375553710,62685.7716786722,15970.9659865858
4117099463,26760,2,0,-7985.9636173174,44241.9159959726,13774.2465052623,32522.2337700514,53412.2710543384,15450.5900965590,47816.7609871593,59972.5821380022,62687.7185101639,15973.3751905567
4117099463,26760,2,0,-7988.0321257773,44237.7789790528,13771.9346428660,32518.7051379727,53404.7392500050,15444.1533849397,47797.9983986584,59968.5546303538,62686.0880387896,15972.3652717204
4117099463,26760,2,0,-7993.5197570445,44233.4229435902,13765.7412851831,32514.1300839673,53401.2836241073,15436.4877359413,47798.5702804090,59965.5127061480,62683.6544994250,15967.1088266929
4117099463,26760,2,0,-7999.6887793337,44229.1764173990,13756.5911771722,32509.2143344508,53398.4485507475,15428.4327206445,47812.2224362444,59962.2030926122,62679.0551100260,15964.2980887268
4117099463,26760,2,0,-8005.6509507769,44222.2773333004,13754.5713394996,32504.4080942057,53390.1136784238,15433.3606378578,47795.1876606923,59955.6690394183,62674.7112422602,15962.4729342034
4117099463,26760,2,0,-8001.0028905906,44221.1700728895,13755.1188858567,32507.4743538051,53391.1357649569,15439.8095171739,47786.0497203782,59961.3635215314,62679.9676872877,15963.6288654016
4117099463,26760,2,0,-7993.6657694063,44226.4508533107,13752.8191911571,32515.1886735909,53401.7338288897,15443.8248571255,47809.8984061512,59969.7714000361,62684.2872196598,15968.7149626736
4117099463,26760,2,0,-7992.9113722033,44227.4486044502,13752.0282908636,32516.4541140605,53404.9826039414,15444.0925464556,47808.6451333784,59970.3919525740,62683.2773008235,15972.7059672315
4117130636,26761,2,0,-7993.0087137779,44229.2129204895,13757.3942451625,32517.8047284078,53404.1552005575,15446.5382535170,47795.8447163207,59970.8664927501,62683.9830272393,15973.6185444932
4117130636,26761,2,0,-7991.9622918511,44230.7825533796,13759.8034491335,32520.3112739533,53408.8275961375,15435.9523572810,47812.0520884889,59975.0643481540,62686.0150326087,15971.5257006397
4117130636,26761,2,0,-7996.6955259152,44225.2584190220,13754.8998673138,32515.6632137670,53405.7978396286,15432.0951973882,47813.6338890758,59971.8155731023,62681.8171772048,15967.3765160230
4117130636,26761,2,0,-7999.7982886051,44221.6324453688,13752.5758372207,32514.8479780798,53399.1542771633,15440.8316037070,47793.6545308926,59968.3356118109,62683.2773008235,15965.6730384678
4117130636,26761,2,0,-7997.8392894166,44225.3679282934,13751.1522166924,32518.4252809458,53401.2349533200,15443.6910124604,47801.3080121942,59972.0832624324,62684.4332320217,15965.7217092551
4117130636,26761,2,0,-7996.0384702868,44228.5923679515,13749.6190868927,32519.8732368677,53404.3620514035,15442.1700503576,47815.5563851739,59973.1175166624,62685.7473432786,15968.7027949767
4117130636,26761,2,0,-7996.7320290057,44225.0637358729,13747.3558952836,32515.5172014051,53397.0370979161,15439.9068587485,47798.0957402330,59967.6785561825,62684.1168719043,15966.6342865168
4117130636,26761,2,0,-8001.1002321651,44223.5306060732,13747.1368767408,32513.7650530626,53393.4719627469,15435.0032769289,47791.3670038899,59966.3887803193,62682.3403881682,15964.0303993967
4117182383,26762,2,0,-8003.2539145028,44225.5504437458,13746.7110073520,32516.1742570335,53399.1299417696,15426.5588953337,47805.9682400774,59971.6452253468,62679.5783209893,15964.5049395728
4117182383,26762,2,0,-8008.0723224447,44220.3548372024,13743.4987353907,32512.0372401137,53397.4994703953,15426.3885475782,47796.4774365555,59965.5370415417,62674.6504037761,15962.3269218415
4117182383,26762,2,0,-8010.7978865330,44217.5927700236,13744.0827848383,32510.2485886808,53395.1267695149,15436.0375311588,47784.1272242802,59962.8479805438,62675.6481549155,15961.9375555432
4117182383,26762,2,0,-8008.0601547479,44220.1358186596,13745.4577345792,32510.4432718299,53397.1344394906,15433.3849732514,47800.6387888689,59965.9264078400,62677.6314894977,15968.1552486197
4117182383,26762,2,0,-8010.5301972029,44215.4634230796,13745.0075297968,32505.3206714675,53389.8946598810,15430.7445830408,47797.4995230886,59959.7330501571,62673.4944725779,15970.7956388303
4117182383,26762,2,0,-8016.2125116192,44209.2092269126,13748.5970003596,32500.3805865574,53379.6737945497,15432.1803712659,47773.2006325332,59953.7587110171,62669.0410955407,15966.0867401598
4117182383,26762,2,0,-8016.0786669542,44210.7545244091,13748.9620312643,32501.1471514572,53383.5917929267,15431.3651355788,47784.8572860896,59957.9687341178,62670.9757593355,15968.1552486197
4117182383,26762,2,0,-8012.4405256041,44212.2389834215,13746.9786966821,32499.2124876623,53387.7166421497,15427.2524540526,47796.1854118317,59959.1003299223,62671.1096040006,15971.7447191825
4117190558,26763,2,0,-8013.0975812326,44207.5179170542,13748.9376958706,32492.4107451383,53380.6837133860,15426.5710630306,47772.7504277508,59953.8560525916,62669.4304618390,15969.0678258814
4117190558,26763,2,0,-8012.8785626898,44206.6175074893,13751.3712352352,32494.6130982633,53381.4381105891,15420.7792393428,47773.7360111934,59956.9223121910,62670.2578652230,15968.2039194070
4117190558,26763,2,0,-8011.7347991884,44205.4859116847,13746.7961812298,32495.1728123171,53385.0032457582,15414.2816892394,47792.9488044769,59959.3558515556,62670.2700329198,15967.7172115341
4117190558,26763,2,0,-8017.3197720301,44201.7017579728,13742.2211272243,32489.7946903214,53380.2456763004,15411.3736096987,47777.5323326022,59953.5883632615,62663.5777996672,15965.2228336854
4117190558,26763,2,0,-8020.7997333215,44204.9748684182,13746.0661194204,32487.9817034948,53383.0077434792,15416.5083777580,47768.2362122295,59953.5153570806,62666.2303575746,15967.3643483262
4117190558,26763,2,0,-8027.4311280900,44206.0334580418,13745.1900452491,32484.4165683257,53385.3561089660,15411.8724852684,47782.5210882996,59954.2575865868,62665.3177803129,15968.5932857053
4117190558,26763,2,0,-8028.9520901929,44203.8067695232,13746.3581441441,32479.7806758361,53382.5332033031,15413.0770872539,47775.2813086899,59952.0187303714,62664.2226875988,15971.2945144000
4117190558,26763,2,0,-8034.3667152791,44196.4088098548,13745.0927036746,32475.7410004909,53371.4119284070,15406.5917048473,47755.3506212940,59946.3120805614,62661.9594959897,15965.3931814409
4117219418,26764,2,0,-8031.2639525892,44198.9640261876,13744.4234803493,32479.9266881980,53375.4151006617,15404.8760595952,47774.2592221568,59950.3639236035,62663.5534642735,15962.2904187510
4117219418,26764,2,0,-8031.4708034352,44200.0347835081,13743.5595738749,32479.7685081393,53376.4858579821,15404.9003949889,47784.5165905785,59950.6559483272,62663.9428305719,15962.1322386923
4117219418,26764,2,0,-8033.6974919538,44197.0050269992,13746.7596781393,32478.9289370585,53372.4461826369,15413.3569442808,47764.8414248159,59947.7113656961,62665.9748359413,15964.2007471522
4117219418,26764,2,0,-8031.4951388289,44199.2195478209,13748.7673481151,32481.7761781151,53373.9184739525,15416.4110361834,47768.4430630754,59951.8118795254,62670.6350638245,15968.5932857053
4117219418,26764,2,0,-8028.6478977723,44200.0956219922,13747.0517028630,32483.9055250591,53377.1794167010,15410.8138956448,47783.7500256787,59954.3792635550,62672.4480506511,15975.6262144690
4117219418,26764,2,0,-8031.5924804034,44198.1122874100,13749.9841177974,32483.1632955529,53372.1663256100,15412.8580687111,47768.6012431341,59952.6636183030,62670.9879270324,15975.4436990166
4117219418,26764,2,0,-8035.1454478757,44196.7251699722,13752.1378001350,32483.1754632497,53371.6552823434,15411.4344481828,47764.5859031826,59952.1404073396,62670.5255545531,15972.4382779014
4117219418,26764,2,0,-8033.7096596506,44197.9176042609,13748.0737893962,32481.9586935674,53376.2790071361,15411.6412990288,47784.3827459135,59955.0363191835,62669.4913003231,15972.4626132950
4117265853,26765,2,0,-8032.7727469953,44196.6034930040,13750.8966950591,32478.4300614888,53375.1717467252,15415.0847572297,47777.6053387831,59953.0529846013,62670.1970267389,15969.1164966687
4117265853,26765,2,0,-8033.0526040222,44193.1113640158,13751.2373905701,32476.9942732637,53373.2370829304,15411.2884358209,47763.0406056861,59953.5761955647,62669.1992755994,15963.1178221350
4117265853,26765,2,0,-8031.6411511907,44193.0261901381,13745.7862623935,32478.5639061538,53375.4272683585,15404.0486562113,47779.1263008860,59955.7663809928,62667.4957980442,15961.9740586337
4117265853,26765,2,0,-8033.7826658316,44191.2497064019,13740.8461774833,32476.3372176352,53371.8134624021,15404.7178795366,47781.4990017665,59951.9335564936,62661.4241173295,15965.1619952013
4117265853,26765,2,0,-8033.4541380174,44190.4588061084,13745.0927036746,32476.7022485399,53368.0049732965,15410.9964110972,47764.3912200334,59948.2102412658,62659.4164473537,15969.9682354463
4117265853,26765,2,0,-8028.8912517087,44196.6278283976,13749.3392298658,32481.7640104183,53375.4516037522,15412.5417085937,47775.5489980200,59953.4666862933,62663.3344457307,15973.9714077011
4117265853,26765,2,0,-8029.0007609802,44198.5868275861,13750.2153040370,32482.2142152007,53380.3551855718,15413.7828136696,47788.1547319286,59954.4644374328,62664.8067370463,15974.3607739994
4117265853,26765,2,0,-8028.7452393469,44198.8545169162,13755.9219538470,32480.4377314645,53378.5787018357,15423.0667663455,47773.1154586555,59953.4545185965,62666.0721775159,15970.1750862923
4117296787,26766,2,0,-8022.7465648132,44201.4097332491,13759.9372937985,32480.6080792201,53380.5985395083,15414.4642046917,47771.5701611589,59956.3747658340,62666.0113390318,15962.6797850494
4117296787,26766,2,0,-8021.7488136737,44200.8013484079,13754.6321779837,32478.6125769411,53383.6891345013,15405.5939537078,47790.2232403885,59956.2895919562,62661.9716636866,15962.2660833574
4117296787,26766,2,0,-8024.5352162461,44197.1145362706,13750.9088627559,32473.0276040994,53378.1163293564,15403.5376129447,47778.2867298052,59949.2688308894,62656.0581630306,15963.6653684920
4117296787,26766,2,0,-8026.9565879139,44194.4863137568,13750.7020119099,32473.3561319136,53373.5047722605,15412.4200316255,47763.0162702924,59948.0398935103,62655.8513121846,15964.3954303014
4117296787,26766,2,0,-8025.1192656936,44199.8644357525,13750.4221548830,32477.9798567063,53379.3209313419,15411.6656344225,47780.5742568079,59953.7830464107,62661.4606204200,15967.6685407468
4117296787,26766,2,0,-8024.4013715811,44202.4926582663,13753.2937313332,32479.1114525108,53381.8518122810,15415.2794403789,47779.5765056684,59953.8073818044,62665.2204387383,15966.3300940963
4117296787,26766,2,0,-8025.8128244125,44204.5976698167,13760.6795233047,32478.2232106428,53382.2168431857,15421.3754564872,47762.4078854513,59955.3770146945,62669.4669649295,15966.6099511232
4117296787,26766,2,0,-8024.3770361874,44211.4724185216,13770.8395501519,32483.2484694307,53391.7806528886,15419.5989727510,47776.5102460691,59965.9507432337,62674.3218759618,15971.8055576666
4117317130,26767,2,0,-8021.9678322165,44212.5918466293,13775.1225794336,32483.3458110052,53394.0195091040,15414.6102170536,47784.2975720357,59965.4762030576,62673.8230003921,15972.5721225664
4117317130,26767,2,0,-8024.3283654001,44207.4935816605,13774.6723746511,32481.3989795136,53387.5341266973,15416.1190114596,47763.9410152510,59958.8813113795,62670.6959023086,15964.9794797489
4117317130,26767,2,0,-8025.2896134492,44209.3430715776,13774.4411884115,32485.1587978319,53388.5318778368,15421.0834317634,47769.3313049435,59960.5482858443,62668.5908907582,15960.1367364134
4117317130,26767,2,0,-8017.4536166952,44217.3129129966,13774.3803499274,32491.3156524243,53398.6310661999,15420.8279101301,47793.1921584133,59967.7637300603,62673.0442677954,15967.7902177150
4117317130,26767,2,0,-8015.2755989639,44213.3949146197,13773.6502881180,32487.7991880424,53394.2385276468,15420.8157424333,47780.4282444460,59961.7650555266,62668.9194185725,15970.7469680430
4117317130,26767,2,0,-8015.2147604798,44210.4746673822,13775.5971196097,32484.7815992303,53388.9942503161,15412.8215656206,47769.3069695499,59956.9831506751,62669.4304618390,15968.4229379498
4117317130,26767,2,0,-8016.6383810080,44208.2844819540,13772.4943569198,32481.9100227801,53389.2741073430,15401.2500859420,47786.6094344321,59956.1435795944,62665.2691095256,15964.1885794554
4117317130,26767,2,0,-8019.2301004313,44206.8243583353,13774.0518221132,32478.5274030633,53389.5661320668,15403.0387373750,47784.0298827056,59953.7465433202,62662.1298437453,15963.1056544382
4117345495,26768,2,0,-8020.3495285390,44207.4205754796,13777.3979387395,32478.0893659777,53386.3173570151,15407.2365927789,47767.3844734518,59951.9700595841,62659.6354658966,15965.3080075631
4117345495,26768,2,0,-8020.5077085977,44211.3385738566,13776.9355662602,32480.1457067408,53392.6688947566,15409.9864922609,47782.5575913901,59956.6667905577,62662.8720732515,15967.0479882088
4117345495,26768,2,0,-8017.6239644507,44211.8131140327,13777.7264665537,32481.6058303596,53394.9320863657,15416.0338375819,47790.2354080853,59957.0683245529,62664.9284140145,15973.3021843758
4117345495,26768,2,0,-8015.4824498099,44209.9271210251,13782.6908868574,32483.5404941544,53390.3448646634,15415.4254527407,47774.9406131789,59956.9588152815,62666.2181898778,15973.8862338233
4117345495,26768,2,0,-8013.1462520199,44212.3849957834,13784.9905815570,32485.6576734016,53392.5350500916,15410.8625664321,47783.3119885931,59958.1877526606,62663.8089859068,15974.4216124835
4117345495,26768,2,0,-8012.2701778486,44213.4800884974,13785.0392523443,32484.4895745066,53396.9640917351,15407.7111329550,47798.4121003503,59961.1079998981,62663.4439550021,15974.5554571486
4117345495,26768,2,0,-8017.1494242746,44205.3520670197,13778.4808637567,32475.2056218307,53388.0208345703,15407.5286175027,47774.0767067045,59951.6536994667,62656.2528461798,15966.9019758469
4117345495,26768,2,0,-8020.7875656247,44200.7283422270,13774.8183870130,32471.3971327251,53382.8495634205,15401.7854646022,47763.5759843463,59948.1859058722,62653.9653191771,15961.3656737925
4117375631,26769,2,0,-8020.3860316295,44199.5724110288,13776.8138892920,32471.1537787886,53384.0298300123,15397.3320875650,47777.0334570324,59947.6991979992,62652.2375062282,15963.8478839444
4117375631,26769,2,0,-8020.7388948374,44197.9906104418,13781.0725831800,32468.2822023384,53382.3385201540,15395.6651131003,47771.7891797018,59946.2025712900,62653.0405742185,15966.8898081501
4117375631,26769,2,0,-8019.7654790915,44196.0559466470,13786.2681897234,32468.0753514924,53380.5498687210,15398.2568325236,47760.8990910452,59945.2413232410,62654.4276916563,15965.4661876218
4117375631,26769,2,0,-8017.7578091158,44199.1343739432,13787.6309717676,32471.2511203632,53384.7842272154,15395.7259515844,47779.4304933066,59950.9479730510,62655.7418029132,15967.5468637786
4117375631,26769,2,0,-8022.9169125687,44193.5128980110,13786.0491711806,32466.0920169103,53379.3939375228,15390.5790158283,47775.9992028025,59944.0123858619,62651.4466059347,15968.1917517102
4117375631,26769,2,0,-8029.8768351514,44188.6823223723,13788.0325057627,32460.5557148559,53370.8765497467,15395.0567282591,47752.4547094501,59936.8821155236,62649.5119421399,15968.3499317689
4117375631,26769,2,0,-8028.0273452343,44189.6922412086,13789.2006046577,32458.5723802737,53375.0744051507,15392.8787105278,47760.3272092945,59938.3422391424,62651.5682829029,15966.5247772454
4117375631,26769,2,0,-8027.4676311805,44191.1036940400,13787.3997855279,32453.9243200874,53377.7269630581,15389.2040660873,47770.8035962591,59939.1453071327,62650.9233949713,15963.4098468588
4117424423,26770,2,0,-8027.9178359629,44187.4412172963,13789.8698279830,32450.7242158229,53374.9040573951,15394.5943557799,47753.7688207070,59934.5215823400,62649.4146005653,15960.3435872594
4117424423,26770,2,0,-8029.5726427308,44187.6602358391,13793.6296463013,32449.5804523216,53374.2470017667,15390.5668481315,47754.0608454307,59938.3057360519,62651.4709413284,15956.2065703396
4117424423,26770,2,0,-8030.3392076307,44188.1469437121,13793.7634909663,32450.0671601945,53376.9238950677,15392.2946610803,47770.8035962591,59940.0943874849,62648.3803463353,15957.9952217725
4117424423,26770,2,0,-8030.4365492053,44185.7255720443,13793.9216710250,32447.7552977981,53374.9040573951,15393.9859709387,47759.6458182725,59938.2935683551,62648.5871971813,15960.6112765895
4117424423,26770,2,0,-8026.9322525203,44190.9333462845,13797.4746384973,32449.9333155294,53375.4516037522,15391.6254377551,47752.8562434453,59938.9384562867,62647.6989553132,15967.8510561991
4117424423,26770,2,0,-8025.8614951998,44193.9631027934,13797.6693216465,32452.3790225908,53378.8463911658,15382.0616280522,47772.6652538730,59942.0168835829,62647.4556013768,15972.5356194760
4117424423,26770,2,0,-8031.6168157971,44189.3515456975,13798.0951910353,32447.7187947077,53373.5169399573,15379.3117285702,47766.5692377647,59937.1741402474,62642.5033487698,15969.9804031431
4117424423,26770,2,0,-8034.6952430933,44184.4236284842,13799.3849668985,32445.2730876462,53366.9463836729,15382.5240005315,47747.3929475718,59934.8501101542,62641.8949639287,15965.9285601011
4117433698,26771,2,0,-8033.5879826824,44187.9887636534,13800.6869104586,32449.5561169279,53371.7039531307,15384.1423042090,47761.8968421847,59941.7005234655,62645.9103038803,15968.2890932848
4117433698,26771,2,0,-8033.7218273475,44191.3348802797,13801.8063385663,32451.0649113340,53375.1230759379,15385.7606078864,47773.4074833792,59941.1894801990,62643.6227768776,15968.7149626736
4117433698,26771,2,0,-8033.9651812839,44191.6025696098,13805.8095108210,32450.8093897007,53375.4881068426,15390.5303450410,47756.6160617635,59938.3422391424,62641.8827962319,15964.8821381743
4117433698,26771,2,0,-8030.1810275720,44193.4885626173,13808.4012302443,32451.0284082435,53376.7413796154,15386.8800359941,47758.1491915632,59939.5468411279,62639.5709338355,15960.7816243450
4117433698,26771,2,0,-8027.4432957868,44193.3425502554,13810.8469373057,32450.0914955881,53377.8608077231,15384.4464966295,47770.3898945671,59939.1331394359,62639.9116293466,15964.3589272109
4117433698,26771,2,0,-8028.7087362564,44187.4412172963,13812.8667749783,32445.2730876462,53371.1199036832,15384.1058011185,47751.7124799439,59934.0957129512,62637.2955745296,15961.9497232400
4117433698,26771,2,0,-8030.9354247750,44187.6480681423,13814.8379418637,32445.1392429812,53369.5867738835,15381.2950631524,47746.4560349164,59933.0127879339,62636.8332020504,15960.1245687166
4117433698,26771,2,0,-8035.6199880518,44189.2055333356,13813.3534828513,32443.7277901497,53372.2028287004,15375.6857549170,47765.1091141460,59933.9862036798,62635.6772708522,15964.2494179395
4117470527,26772,2,0,-8040.0855327859,44183.9734237018,13813.2926443671,32438.2766619731,53365.2064030273,15377.0485369612,47753.6836468292,59925.8216791116,62629.3744038979,15965.6121999837
4117470527,26772,2,0,-8039.8421788494,44183.8395790367,13819.8145298642,32437.7534510097,53361.8116156137,15391.6011023614,47738.6443735561,59925.3471389355,62630.5911735802,15967.2791744485
4117470527,26772,2,0,-8030.9719278655,44193.6345749792,13828.9159670878,32444.7863797733,53372.0689840354,15392.4406734422,47758.9765949472,59935.1299671811,62638.8652074198,15972.7303026251
4117470527,26772,2,0,-8029.8038289705,44195.8612634978,13830.3030845256,32441.7201201739,53373.9549770429,15389.1432276032,47764.0140214319,59935.1421348780,62639.0233874785,15970.0899124146
4117470527,26772,2,0,-8034.4397214600,44191.2983771892,13829.6216935035,32434.1761481437,53367.1045637316,15388.6321843366,47741.8566455173,59927.5981628477,62636.7358604758,15965.7095415583
4117470527,26772,2,0,-8034.7439138806,44192.9531839571,13829.9015505305,32435.7822841244,53369.5989415803,15388.1698118574,47750.0455054792,59930.2142176647,62638.3298287596,15964.8212996902
4117470527,26772,2,0,-8035.9241804724,44190.2641229592,13829.1836564179,32436.1959858163,53371.5457730720,15383.6190932456,47762.3105438767,59931.6378381930,62640.6416911559,15966.7802988787
4117470527,26772,2,0,-8034.1111936458,44187.6115650518,13831.4590157238,32437.7777864033,53370.9738913213,15388.1698118574,47747.4781214495,59933.1588002958,62641.0432251511,15967.8875592896
4117502048,26773,2,0,-8032.3103745160,44192.4908114778,13836.6059514799,32441.3915923597,53374.7093742460,15390.2139849236,47749.1572636111,59936.6144261935,62643.5984414839,15969.7613846003
4117502048,26773,2,0,-8032.5780638461,44198.5989952830,13841.9354026884,32442.5961943452,53383.0685819633,15389.5447615983,47768.2605476231,59940.3012383309,62647.4921044673,15973.0101596521
4117502048,26773,2,0,-8037.5424841499,44193.8900966125,13846.0967550018,32436.3663335719,53376.4980256789,15387.2085638083,47754.5840563941,59934.0348744671,62644.4258448679,15971.7933899698
4117502048,26773,2,0,-8040.3775575096,44190.8603401036,13847.3256923809,32434.8453714690,53369.7206185486,15387.6466008940,47737.1599145437,59932.0393721881,62642.6371934349,15968.9218135195
4117502048,26773,2,0,-8037.7006642086,44194.9851893265,13847.9340772221,32438.5078482127,53372.4461826369,15386.8313652068,47754.5475533036,59936.9307863109,62643.4280937284,15970.4914464097
4117502048,26773,2,0,-8037.5424841499,44192.1866190573,13846.2914381510,32436.5366813274,53367.9076317219,15384.4221612359,47756.1171861938,59932.9641171467,62639.7534492879,15966.5612803359
4117502048,26773,2,0,-8037.0557762769,44190.5196445925,13846.8268168112,32434.3099928088,53363.4177515943,15385.7362724928,47740.4451926859,59927.8901875715,62638.7435304516,15963.4828530397
4117502048,26773,2,0,-8033.9408458903,44193.9022643093,13849.5645485963,32439.5421024426,53367.1288991253,15387.1355576274,47758.4533839838,59934.0713775575,62641.8097900509,15966.3422617931
4117538418,26774,2,0,-8031.8358343399,44192.4786437810,13848.2382696426,32440.6615305504,53369.0757306169,15381.3315662429,47768.7837585865,59936.1520537143,62640.2401571608,15966.3300940963
4117538418,26774,2,0,-8039.1729555241,44185.6403981665,13850.7934859755,32435.7944518212,53361.9089571882,15382.6821805902,47746.6142149751,59930.7739317185,62637.9526301581,15959.2606622421
4117538418,26774,2,0,-8036.9219316119,44189.2663718198,13859.4568861134,32437.6074386478,53367.6521100887,15386.1743095784,47750.7877349854,59933.6455081687,62641.7489515668,15965.5635291964
4117538418,26774,2,0,-8034.7439138806,44191.2253710083,13859.8097493213,32437.9968049461,53371.5822761625,15381.1368830937,47769.3313049435,59933.7671851370,62639.6804431069,15970.9538188890
4117538418,26774,2,0,-8034.1598644331,44188.8891732183,13862.6204872874,32433.7381110581,53367.9076317219,15385.1887261357,47758.0518499887,59929.4476527648,62638.9990520848,15970.7956388303
4117538418,26774,2,0,-8032.6997408143,44190.5926507735,13867.1103674150,32435.7336133371,53368.0293086902,15390.0679725617,47751.5786352788,59933.0979618117,62643.4524291220,15971.0876635540
4117538418,26774,2,0,-8031.8480020367,44194.3159660013,13867.8404292244,32436.8530414448,53370.9373882309,15384.8480306247,47770.3777268703,59936.0912152302,62644.4623479583,15968.8974781259
4117538418,26774,2,0,-8037.8710119641,44188.8161670373,13867.4510629261,32431.9372919283,53366.3379988318,15378.1436296752,47761.7873329133,59928.9609448919,62641.2987467844,15964.0425670935
4117564100,26775,2,0,-8042.8719353583,44185.0198456286,13869.1058696940,32427.1918901674,53357.7354371780,15380.6015044335,47743.2194275615,59922.7675872090,62637.3320776201,15962.3269218415
4117564100,26775,2,0,-8040.7060853238,44189.7044089054,13873.1577127360,32432.9350430678,53366.9220482793,15386.5880112704,47761.2276188594,59930.1655468774,62642.5033487698,15967.7658823214
4117564100,26775,2,0,-8037.9440181450,44193.3547179523,13880.6408462821,32434.5776821389,53371.0955682896,15392.7813689532,47770.7792608654,59932.7937693911,62646.6160302960,15975.5410405912
4117564100,26775,2,0,-8036.1066959248,44195.1190339916,13888.4525076425,32434.7601975912,53368.8567120741,15395.2757468019,47751.1649335869,59932.8546078752,62651.4952767220,15980.5784670759
4117564100,26775,2,0,-8035.9606835629,44197.0536977864,13891.0685624594,32435.4294209165,53371.1442390768,15390.0193017744,47757.3461235729,59935.6653458413,62652.1036615632,15978.9601633985
4117564100,26775,2,0,-8039.5501541256,44194.8756800551,13887.7224458331,32432.0954719870,53369.3312522502,15385.1400553484,47770.4994038385,59934.6432593082,62647.6016137387,15976.4901209434
4117564100,26775,2,0,-8042.1540412458,44189.7165766022,13887.7954520140,32427.2892317419,53364.2208195846,15387.1720607179,47751.5542998852,59929.1677957379,62642.8197088872,15974.2390970312
4117564100,26775,2,0,-8041.6308302824,44189.2298687293,13889.9126312612,32426.7903561722,53364.8778752130,15388.9242090604,47747.2469352099,59930.1655468774,62644.0608139632,15973.7280537646
4117597286,26776,2,0,-8041.2414639840,44189.4367195753,13887.5034272903,32427.0823808960,53369.3677553407,15386.4176635148,47765.4619773538,59932.3557323055,62642.6858642222,15972.6694641410
4117597286,26776,2,0,-8040.1098681795,44189.6679058149,13893.8062942446,32430.0391312239,53370.8400466563,15392.8057043469,47760.8990910452,59934.1200483448,62645.8494653962,15975.5775436817
4117597286,26776,2,0,-8036.2770436803,44195.0216924170,13901.8004710572,32435.8917933958,53373.6386169255,15397.4659322301,47753.5132990737,59939.6685180961,62652.8458910694,15978.3517785573
4117597286,26776,2,0,-8032.2495360319,44200.3146405350,13905.2074261676,32438.9458852983,53379.4182729164,15394.6065234767,47770.4750684449,59942.7712807859,62655.0239088007,15974.9813265374
4117597286,26776,2,0,-8034.4397214600,44196.3114682802,13901.9343157223,32434.2004835374,53374.7215419428,15388.8268674858,47768.5890754373,59938.1353882964,62648.9035572987,15968.4837764339
4117597286,26776,2,0,-8039.2337940082,44188.2807883771,13900.2551735607,32429.1995601431,53363.8436209831,15382.5605036220,47744.6065449993,59930.4940746916,62642.1504855620,15961.5603569417
4117597286,26776,2,0,-8041.7646749474,44184.1194360637,13896.5440260297,32428.1166351259,53361.8116156137,15375.1017054695,47751.0919274059,59929.9343606377,62639.1937352340,15958.8712959438
4117597286,26776,2,0,-8038.0900305069,44182.7688217163,13892.5530214718,32428.8101938448,53364.9752167876,15377.5474125309,47763.4786427717,59930.0925406964,62636.9548790186,15962.3390895383
4117625429,26777,2,0,-8032.4198837874,44182.0509276038,13897.0915723867,32428.5181691211,53360.4975043568,15386.3324896371,47747.5024568432,59926.0893684417,62636.4073326616,15966.7802988787
4117625429,26777,2,0,-8028.5870592882,44186.3704599759,13906.8865683292,32433.7624464517,53364.6588566702,15392.2338225962,47748.4515371953,59933.0979618117,62642.6006903444,15971.0024896763
4117625429,26777,2,0,-8028.4410469263,44191.8824266367,13914.6373912054,32439.3595869903,53370.6088604166,15387.3789115639,47769.9153543910,59938.5855930789,62646.0928193326,15975.8330653150
4117625429,26777,2,0,-8035.4253049027,44188.7918316437,13918.4580480078,32435.1130607991,53367.7494516632,15389.2892399651,47758.5750609520,59932.5747508483,62645.3992606137,15973.7280537646
4117625429,26777,2,0,-8038.1143659005,44188.3294591644,13920.3683764090,32431.9737950188,53362.3226588802,15387.2328992020,47747.1982644226,59930.9442794740,62645.5087698851,15968.4959441307
4117625429,26777,2,0,-8039.7570049716,44188.6336515850,13916.5842226971,32430.6840191555,53366.2406572572,15378.3626482181,47764.9752694809,59932.2218876405,62643.2942490633,15968.2769255879
4117625429,26777,2,0,-8041.1076193190,44183.5353866162,13914.3453664817,32428.2139767005,53363.4907577752,15376.7200091470,47763.2474565320,59928.9609448919,62638.8895428134,15972.6207933537
4117625429,26777,2,0,-8039.8786819399,44180.2987792613,13917.9470047413,32427.3379025292,53360.6191813250,15381.4532432111,47746.2248486767,59927.8658521778,62640.1184801925,15973.7888922487
4117683926,26778,2,0,-8037.0679439738,44183.6205604939,13920.1493578662,32429.8931188620,53365.1333968463,15379.1778839052,47759.8161660280,59932.5747508483,62642.6371934349,15972.7424703220
4117683926,26778,2,0,-8032.5780638461,44186.3826276727,13923.8240023068,32431.8886211410,53369.9518047882,15377.8881080420,47773.7360111934,59935.5801719636,62642.6371934349,15972.8033088061
4117683926,26778,2,0,-8032.6997408143,44183.9977590954,13928.0948638916,32429.7836095906,53364.3546642496,15377.8637726483,47756.2023600716,59930.5305777821,62639.9481324370,15971.6352099111
4117683926,26778,2,0,-8034.1233613426,44183.5475543130,13930.8934341609,32431.6330995077,53364.5493473988,15376.3914813327,47758.1735269569,59931.1876334105,62641.8949639287,15972.3409363268
4117683926,26778,2,0,-8036.9584347024,44183.2190264988,13931.7816760290,32434.7723652880,53367.0072221570,15373.5199048825,47771.5093226748,59934.9596194256,62642.6736965254,15975.8574007086
4117683926,26778,2,0,-8039.3919740669,44178.9725003076,13935.0669541711,32432.7768630091,53362.0549695501,15377.8272695578,47754.3163670640,59931.5526643152,62642.6128580413,15973.7767245519
4117683926,26778,2,0,-8038.9904400718,44182.1117660879,13941.2724795508,32434.8575391658,53362.6268513008,15379.1292131179,47749.4006175475,59933.1466325990,62642.0409762906,15971.4283590651
4117683926,26778,2,0,-8039.0756139495,44183.5962251003,13942.8786155315,32432.3631613171,53365.4132538732,15368.4459753074,47768.1145352612,59932.3557323055,62639.3884183832,15969.9195646590
4117688986,26779,2,0,-8042.7867614805,44177.1473457841,13939.5324989052,32423.9066120252,53357.9422880240,15367.9592674344,47758.8184148885,59923.7166675612,62631.8079432625,15969.3963536956
4117688986,26779,2,0,-8044.4172328548,44174.2514339403,13944.8254470231,32421.5095757510,53353.9026126787,15373.9944450586,47741.1387514048,59921.2344574093,62635.0688860110,15969.3233475147
4117688986,26779,2,0,-8044.1008727374,44175.7845637399,13947.3319925687,32423.0427055507,53357.2730646987,15368.7866708184,47754.3893732449,59925.7486729306,62639.4005860800,15970.1507508987
4117688986,26779,2,0,-8047.2036354273,44173.2293474071,13945.7258565880,32419.6357504403,53354.2676435834,15362.2039468372,47758.3803778029,59922.8162579963,62636.4316680552,15968.0092362578
4117688986,26779,2,0,-8049.7101809728,44169.8223922967,13947.9525451066,32417.5064034963,53348.3419752307,15365.6595727349,47738.9120628862,59917.7301607243,62634.9958798301,15965.8555539202
4117688986,26779,2,0,-8048.8827775888,44171.7692237884,13950.0940597475,32418.2486330025,53350.1062912700,15364.9416786224,47749.1085928238,59919.1659489494,62635.7746124268,15966.2205848249
4117688986,26779,2,0,-8049.9413672124,44172.4506148105,13951.2256555520,32419.6235827435,53351.5542471919,15366.3531314538,47760.1811969327,59920.0541908175,62635.7989478204,15971.5378683365
4117688986,26779,2,0,-8051.2311430757,44169.5425352698,13955.8493803447,32418.5771608167,53344.6429953965,15374.2134636014,47741.7958070332,59916.3065401960,62634.2171472334,15971.9028992412
4117720843,26780,2,0,-8045.8286856863,44172.0855839058,13963.1499984385,32421.1932156336,53344.9836909075,15367.1805348378,47742.2216764220,59920.0541908175,62635.8232832141,15968.6784595831
4117720843,26780,2,0,-8041.0589485317,44176.8674887572,13968.6863004929,32423.8457735410,53350.3131421160,15363.2868718544,47765.2672942047,59924.4832324611,62635.7989478204,15973.4968675250
4117720843,26780,2,0,-8039.4406448542,44172.7304718374,13973.4438699507,32420.1467937069,53346.1882928930,15367.1075286568,47753.6958145260,59920.0663585143,62634.5091719572,15975.1151712024
4117720843,26780,2,0,-8040.5235698715,44169.4451936952,13974.8918258726,32417.8227636137,53340.0314383006,15368.0444413122,47739.1432491258,59917.2799559419,62635.6651031554,15972.9249857743
4117720843,26780,2,0,-8045.5974994466,44168.7394672795,13970.6331319846,32416.9953602297,53338.8998424961,15355.7672352179,47752.5033802374,59916.6472357071,62632.1364710767,15968.5811180085
4117720843,26780,2,0,-8056.0982218048,44163.4100160710,13964.8534759937,32408.5023078473,53332.4874662704,15345.1448358914,47746.5047057037,59906.6940597059,62622.8281830072,15965.1254921108
4117720843,26780,2,0,-8061.7927039180,44158.9079682465,13962.3104273577,32402.1386024089,53324.1160908562,15347.6392137401,47726.4766767331,59898.9310691329,62615.6127387911,15959.4066746040
4117720843,26780,2,0,-8062.3767533655,44160.5992781049,13965.9972394951,32404.2557816561,53326.1602639224,15345.4003575247,47739.5204477273,59902.1676764878,62615.4180556420,15958.1412341344
4117782648,26781,2,0,-8064.8467958205,44157.7520370483,13966.5691212457,32403.4040428785,53326.4522886462,15339.0488197831,47750.6660580171,59901.2550992261,62612.3761314362,15961.6455308194
4117782648,26781,2,0,-8069.4340175228,44152.2400703875,13970.2437656863,32399.8510754062,53320.4171110220,15340.1925832845,47730.0904826895,59895.9499834113,62608.9935117195,15960.1489041102
4117782648,26781,2,0,-8068.6187818357,44152.7997844414,13972.7259758382,32401.8587453820,53319.1395028556,15341.1416636367,47733.3879285285,59897.1059146094,62609.3220395337,15957.5815200806
4117782648,26781,2,0,-8063.8125415906,44157.2409937818,13972.9693297746,32404.1706077783,53325.2963574480,15340.5941172796,47755.1072673575,59899.7098017296,62609.0543502036,15959.0781467898
4117782648,26781,2,0,-8060.1744002405,44158.5794404323,13975.7557323471,32403.9394215387,53325.4302021131,15347.1403381704,47743.4019430138,59896.2420081350,62609.8939212844,15960.7329535577
4117782648,26781,2,0,-8057.0594698539,44159.2851668480,13981.9004192427,32403.8420799641,53325.5518790813,15347.1038350799,47732.4510158732,59896.2420081350,62611.1836971476,15956.6446074252
4117782648,26781,2,0,-8055.8913709589,44160.6844519827,13984.2122816390,32404.2557816561,53330.3337839327,15341.0199866685,47748.9869158556,59900.1600065120,62610.7943308493,15952.9334598942
4117782648,26781,2,0,-8059.7972016390,44156.9976398453,13985.2222004753,32400.6663110933,53327.9610830522,15341.1659990303,47744.3510233660,59897.1789207904,62606.7789908977,15952.1790626912
4117789353,26782,2,0,-8060.4542572675,44157.4965154151,13990.2352915664,32401.0191743012,53326.4036178589,15342.8573088887,47729.9201349340,59896.2420081350,62609.1273563845,15953.3471615862
4117789353,26782,2,0,-8061.6345238593,44161.1954952492,13991.2695457963,32402.7348195532,53331.7574044610,15341.3120113922,47745.3366068087,59900.4033604485,62608.5311392402,15958.5062650391
4117789353,26782,2,0,-8059.9553816977,44160.9764767064,13991.9752722120,32402.8443288246,53332.8159940846,15340.4846080082,47751.9436661835,59898.0184918712,62607.7524066435,15962.6189465653
4117789353,26782,2,0,-8057.0959729443,44159.0418129116,13996.6111647016,32402.7834903405,53330.0417592090,15344.4999479598,47733.2905869540,59895.1469154209,62607.1440218024,15962.7892943208
4117789353,26782,2,0,-8049.0409576475,44166.2450894308,14003.2425594701,32410.3274623708,53339.7515812737,15347.4932013783,47743.2437629551,59903.9441602239,62614.6271553485,15965.3445106536
4117789353,26782,2,0,-8046.9846168845,44169.1410012746,14005.8464465902,32413.3328834860,53347.3442240912,15347.6757168306,47760.8990910452,59908.9572513150,62617.4865641019,15962.0714002082
4117789353,26782,2,0,-8049.2356407967,44167.3036790543,14012.2709905127,32412.3107969529,53344.7403369711,15355.4143720100,47744.5822096057,59906.3290288012,62616.9998562290,15961.1588229465
4117789353,26782,2,0,-8052.4965835453,44166.6952942132,14018.4156774083,32412.2134553783,53342.3311330001,15353.1268450073,47738.3036780450,59907.3024445471,62616.8295084734,15960.6599473768
4117811637,26783,2,0,-8052.5087512421,44168.7881380668,14018.5008512861,32413.6127405130,53343.2558779587,15348.4422817304,47756.9567572746,59907.5579661803,62616.0264404831,15965.6121999837
4117811637,26783,2,0,-8054.1027195259,44166.9508158465,14017.9289695354,32411.1305303611,53338.0116006280,15349.5495421413,47747.9769970193,59903.1167568400,62612.4856407077,15968.9461489132
4117811637,26783,2,0,-8052.6060928167,44166.1964186435,14022.1024895457,32409.7434129233,53334.4464654589,15351.9709138091,47733.8016302205,59901.1090868642,62611.0133493921,15971.3553528841
4117811637,26783,2,0,-8047.4104862733,44171.4163605805,14028.5878719523,32412.5906539798,53342.0147728827,15353.5162113056,47753.8174914943,59905.8301532315,62614.8583415881,15974.7623079946
4117811637,26783,2,0,-8044.5389098231,44172.6818010501,14036.5577133713,32411.8240890800,53346.7723423405,15356.5459678145,47758.7819117980,59908.8720774372,62620.2242958870,15975.9425745864
4117811637,26783,2,0,-8045.6340025371,44169.6520445412,14040.3175316896,32412.2499584688,53344.7038338806,15361.3278726659,47739.5326154241,59906.0978425616,62619.8105941951,15972.4869486887
4117811637,26783,2,0,-8045.0499530896,44173.9715769133,14041.6073075528,32417.9444405819,53350.0211173922,15355.3657012227,47749.9603316014,59909.9063316672,62619.1778739603,15971.3553528841
4117811637,26783,2,0,-8047.9336972367,44172.5722917787,14038.4680417725,32417.2387141662,53350.2158005414,15349.6347160191,47760.4488862628,59907.9838355692,62614.2377890502,15968.5811180085
4117839720,26784,2,0,-8048.1770511731,44169.1288335778,14042.5442202082,32414.8416778921,53345.5190695677,15359.8920844408,47740.5060311700,59904.2361849477,62612.5221437981,15965.8798893138
4117839720,26784,2,0,-8044.4902390358,44172.2194285708,14049.9178444829,32417.0927018043,53349.6195833971,15367.4238887742,47742.1608379379,59910.1010148163,62617.1458685908,15968.1187455292
4117839720,26784,2,0,-8040.5235698715,44175.3465266543,14053.7141658917,32419.0882040833,53356.3361520433,15363.7857474242,47760.7165755929,59913.9703424060,62621.1368731488,15973.5820414027
4117839720,26784,2,0,-8039.6718310939,44173.9715769133,14057.5834934814,32418.5041546358,53353.7444326200,15358.6266439712,47752.7102310834,59911.8409954620,62620.4311467330,15973.8862338233
4117839720,26784,2,0,-8040.4870667810,44173.4483659499,14060.3698960538,32417.8470990073,53349.9237758176,15351.7397275695,47743.4262784075,59909.5534684593,62618.8493461460,15968.9948197005
4117839720,26784,2,0,-8045.0377853928,44172.7791426247,14056.6465808260,32416.9831925329,53350.7998499889,15348.5761263955,47759.4876382138,59909.0910959800,62615.6370741848,15967.4373545072
4117839720,26784,2,0,-8049.1869700094,44169.6763799348,14058.5082384399,32415.4135596427,53350.5564960524,15354.9154964402,47757.3582912697,59908.3610341707,62615.0773601309,15968.2769255879
4117839720,26784,2,0,-8046.1815488941,44169.7007153285,14066.2833967098,32418.9543594182,53349.8629373335,15362.3621268959,47739.2405907004,59909.1154313737,62619.2995509285,15969.8465584781
4117900699,26785,2,0,-8043.0544508107,44170.7106341648,14066.2468936193,32419.8669366799,53350.0211173922,15357.5315512572,47749.8508223300,59910.3200333592,62618.2044582144,15965.0524859299
4117900699,26785,2,0,-8039.7691726685,44172.0977516026,14066.5875891303,32419.5384088657,53351.3960671332,15350.3769455253,47760.4245508691,59910.6242257797,62616.0507758768,15961.0979844624
4117900699,26785,2,0,-8041.5334887078,44169.1775043651,14068.9116192235,32417.3238880439,53345.8354296851,15350.6933056427,47741.5159500063,59905.1487622094,62612.7411623409,15957.7031970488
4117900699,26785,2,0,-8042.0810350648,44173.4240305563,14072.2699035466,32421.1932156336,53347.8187642673,15350.2917716475,47747.8796554447,59907.8743262978,62613.9944351137,15962.1200709955
4117900699,26785,2,0,-8040.3167190255,44177.0135011191,14075.9445479872,32424.7340154091,53352.7345137837,15352.0682553837,47767.9320198089,59909.9671701513,62615.9777696958,15967.3156775389
4117900699,26785,2,0,-8041.8376811284,44173.6187137055,14080.7751236259,32423.1278794285,53345.9692743502,15358.4441285189,47755.0950996607,59905.1244268158,62614.7731677104,15969.0191550941
4117900699,26785,2,0,-8043.5046555931,44172.9494903802,14087.1144936706,32421.8502712621,53344.4239768537,15360.5734754629,47749.2911082761,59906.0248363807,62617.2310424686,15968.5202795244
4117900699,26785,2,0,-8043.6263325613,44174.0810861847,14086.9684813088,32418.8570178436,53347.3442240912,15357.3855388953,47766.9829394567,59907.4849599994,62615.8804281213,15970.1994216860
4117908258,26786,2,0,-8045.8895241704,44168.2649271034,14083.5615261983,32410.9966856960,53341.6254065844,15349.6833868064,47754.5840563941,59901.4619500721,62610.7091569715,15968.1795840133
4117908258,26786,2,0,-8044.6727544881,44167.4496914162,14086.2627548930,32409.9867668597,53337.1111910631,15348.2719339749,47736.5150266120,59899.3691062185,62609.0543502036,15966.5004418518
4117908258,26786,2,0,-8041.1927931967,44169.4938644825,14087.0901582770,32413.9899391145,53336.8313340361,15341.7013776905,47752.3452001787,59902.8003967226,62610.8186662429,15964.1642440618
4117908258,26786,2,0,-8044.0156988597,44165.8435554356,14086.3722641644,32413.9656037208,53335.7849121094,15337.5765284676,47756.0441800129,59897.9698210839,62605.8664136360,15964.9916474457
4117908258,26786,2,0,-8048.9436160730,44160.6722842859,14087.3456799103,32411.4225550848,53328.9344987981,15345.7653884294,47736.5393620057,59891.2654201344,62602.8123217334,15965.7582123456
4117908258,26786,2,0,-8049.1991377062,44165.4298537436,14094.0135777692,32415.1945410999,53336.0404337427,15350.4864547967,47747.2591029067,59897.6412932697,62608.1661083355,15968.3742671625
4117908258,26786,2,0,-8049.4424916427,44168.8733119445,14096.8729865226,32414.1602868700,53339.9462644228,15345.1570035883,47760.7774140770,59898.4565289568,62608.7379900862,15970.5401171970
4117908258,26786,2,0,-8047.7268463907,44163.5073576456,14095.8630676863,32410.0841084343,53334.3734592779,15341.6648746001,47738.3036780450,59892.0928235184,62604.6739793473,15967.8753915928
4117943546,26787,2,0,-8045.2446362388,44166.3667663990,14098.0045823272,32412.5176477989,53335.7484090189,15342.2489240476,47736.9165606072,59892.2510035771,62602.4594585255,15966.2084171280
4117943546,26787,2,0,-8042.9814446297,44173.3510243754,14100.3164447235,32415.3405534618,53343.6939150443,15343.8428923314,47759.1834457932,59897.9576533870,62604.7226501346,15969.0678258814
4117943546,26787,2,0,-8048.0675419017,44169.6885476316,14103.3948720197,32409.2202019599,53339.1066933420,15345.5098667961,47747.3077736940,59892.4456867263,62602.4472908287,15968.4716087371
4117943546,26787,2,0,-8047.1062938527,44167.7052130495,14109.8680867295,32407.9304260966,53335.0791856936,15350.4864547967,47734.5073566363,59891.5939479487,62606.1097675724,15971.5378683365
4117943546,26787,2,0,-8043.8210157105,44171.4650313678,14112.6788246956,32412.3351323465,53339.2648734007,15344.7676372899,47755.5453044431,59897.1545853967,62608.4581330593,15977.6947229289
4117943546,26787,2,0,-8043.1274569916,44173.1928443167,14115.5625688427,32416.9223540488,53342.6109900270,15346.7509718721,47761.5318112800,59898.9189014361,62611.0498524825,15978.2301015891
4117943546,26787,2,0,-8046.6074182830,44172.2194285708,14118.1177851755,32415.2067087968,53339.5203950340,15346.1669224246,47745.9936624371,59895.3294308733,62609.4923872892,15970.0412416273
4117943546,26787,2,0,-8042.8232645710,44177.0743396032,14122.4008144572,32417.1292048948,53344.3753060664,15342.3219302285,47756.3970432207,59901.4132792848,62611.3297095095,15968.2039194070
4117971674,26788,2,0,-8042.1905443362,44174.7624772068,14122.1209574302,32412.5176477989,53341.9539343986,15337.4913545898,47761.5318112800,59897.1910884872,62606.6938170199,15966.8046342724
4117971674,26788,2,0,-8045.1959654515,44169.3478521206,14126.1971358659,32406.7379918080,53335.3347073269,15348.0529154321,47737.6222870229,59894.3560151275,62605.5865566090,15964.9551443553
4117971674,26788,2,0,-8045.0012823023,44172.0855839058,14134.6293497642,32409.5243943804,53339.7029104864,15356.2539430908,47739.1919199131,59899.6854663359,62614.2256213533,15964.9916474457
4117971674,26788,2,0,-8040.7304207175,44180.2744438676,14141.9664709485,32413.8682621462,53349.0477016464,15353.8082360294,47761.8116683069,59908.2515248993,62618.8980169333,15974.3121032121
4117971674,26788,2,0,-8041.4726502237,44178.5587986156,14144.0228117115,32411.9335983514,53343.0733625063,15350.0362500143,47748.2568540462,59904.6498866397,62617.6934149479,15976.4657855498
4117971674,26788,2,0,-8044.7092575786,44175.6142159844,14140.4576765424,32409.0985249916,53340.1896183593,15353.6622236675,47739.2162553067,59903.9076571335,62617.1945393781,15971.4770298524
4117971674,26788,2,0,-8042.1540412458,44179.3253635154,14139.5937700680,32413.6370759066,53344.0467782522,15353.7230621516,47760.1690292358,59910.3930395401,62620.8205130314,15974.6406310263
4117971674,26788,2,0,-8040.8886007762,44177.5002089920,14142.6965327578,32413.4545604543,53342.6839962080,15353.7108944548,47757.2366143015,59908.1785187183,62619.7497557109,15976.0520838578
4118015539,26789,2,0,-8037.5789872403,44178.3032769823,14150.5690326023,32414.8660132857,53342.1486175478,15356.6189739955,47742.1608379379,59906.9982521265,62620.2729666743,15976.0277484641
4118015539,26789,2,0,-8036.5690684040,44184.1559391541,14154.2923478301,32418.4676515453,53350.7268438079,15358.0547622206,47758.5020547711,59912.2303617604,62623.7042571784,15977.6095490511
4118015539,26789,2,0,-8038.6862476512,44183.5962251003,14154.4505278888,32417.3725588312,53350.0089496954,15354.2462731150,47765.4619773538,59910.0036732418,62620.7110037600,15977.0620026941
4118015539,26789,2,0,-8041.0467808349,44179.5443820582,14154.5113663729,32413.3085480924,53342.1121144573,15354.0880930563,47743.0734151996,59904.3943650064,62617.1458685908,15970.2845955637
4118015539,26789,2,0,-8041.4239794364,44177.0743396032,14153.5136152334,32413.1503680337,53340.1044444815,15347.9190707671,47746.7845627306,59904.1023402826,62616.2819621164,15964.9429766584
4118015539,26789,2,0,-8043.5533263804,44176.5389609430,14150.8002188419,32412.0431076228,53342.4771453620,15343.6360414854,47760.4975570501,59903.8224832557,62614.3838014120,15965.8190508297
4118015539,26789,2,0,-8046.2058842878,44177.8530721998,14156.2756824122,32411.6294059308,53338.4618054104,15352.6644725280,47748.9382450683,59902.5327073925,62615.5884033975,15967.3278452357
4118015539,26789,2,0,-8043.7115064391,44180.8706610119,14162.7367294252,32415.4378950364,53339.0093517675,15355.8037383083,47745.6164638356,59904.2118495540,62618.9345200238,15968.7271303704
4118034329,26790,2,0,-8040.0246943017,44181.3695365817,14160.7777302367,32416.4843169632,53341.3698849511,15347.2498474418,47763.5029781653,59903.8224832557,62618.0219427621,15965.0889890203
4118034329,26790,2,0,-8038.6132414703,44178.0477553490,14158.9039049260,32414.6713301365,53339.4960596404,15347.9434061607,47754.7787395433,59901.1820930451,62615.9047635149,15963.3976791619
4118034329,26790,2,0,-8032.3225422128,44183.4988835257,14168.4920500225,32420.4996569147,53342.4771453620,15350.0605854079,47746.6142149751,59905.0635883316,62618.1314520335,15965.6000322869
4118034329,26790,2,0,-8031.8845051272,44189.6192350276,14170.8039124188,32423.7849350569,53349.2667201892,15344.2444263265,47765.9121821363,59908.9694190118,62617.2918809527,15971.1363343413
4118034329,26790,2,0,-8039.4528125511,44184.7643239953,14168.8084101399,32417.5672419804,53344.2171260077,15339.1948321450,47764.0505245224,59901.3524408006,62611.5730634459,15971.5987068206
4118034329,26790,2,0,-8044.4294005516,44176.2834393097,14168.2851991765,32410.7046609723,53335.4442165983,15341.8352223556,47735.5416108662,59893.6381210149,62607.7159035531,15967.9727331674
4118034329,26790,2,0,-8041.8985196125,44180.9923379802,14171.9355082234,32415.3892242491,53342.7204992985,15347.9799092512,47742.9517382314,59900.6710497786,62613.4712241503,15971.1363343413
4118034329,26790,2,0,-8041.8620165220,44184.1194360637,14171.1932787172,32416.0097767871,53347.2712179102,15343.2588428839,47754.7179010592,59904.4552034905,62614.7975031040,15974.4824509676
4118062173,26791,2,0,-8040.1342035731,44181.9049152419,14172.4830545804,32412.6758278576,53342.3676360906,15347.9920769480,47737.5127777515,59898.6268767123,62611.9015912601,15971.0024896763
4118062173,26791,2,0,-8036.3013790739,44182.6958155354,14176.1576990209,32414.2941315350,53341.7592512494,15350.4621194031,47735.2982569297,59903.1410922336,62615.7222480625,15967.5711991722
4118062173,26791,2,0,-8034.0381874649,44183.9855913986,14180.3312190312,32415.0971995254,53345.1053678758,15344.5242833535,47755.8008260764,59904.7837313047,62616.9146823512,15968.9948197005
4118062173,26791,2,0,-8037.9318504482,44177.8287368062,14181.8035103468,32410.5951517009,53339.7759166673,15347.9555738575,47742.5623719330,59899.8436463946,62615.9534343022,15969.1773351528
4118062173,26791,2,0,-8031.9818467018,44184.3627900001,14191.0387922354,32416.1922922394,53345.9449389565,15354.6478071101,47737.1355791500,59905.9518301997,62619.5915756523,15976.1007546451
4118062173,26791,2,0,-8027.8935005693,44191.7729173653,14193.3263192381,32419.6114150467,53353.0387062043,15349.5738775350,47760.1325261454,59910.5512195988,62622.3414751342,15977.7190583225
4118062173,26791,2,0,-8030.6434000513,44188.2321175898,14192.4745804605,32415.7785905474,53349.9602789081,15345.3395190406,47755.4601305654,59905.5381285077,62619.6280787427,15976.4414501561
4118062173,26791,2,0,-8038.3577198370,44180.6151393786,14192.4867481573,32410.4369716422,53342.1364498510,15344.3904386884,47731.3924262496,59898.5660382282,62616.8051730798,15970.7713034366
4118095108,26792,2,0,-8040.7304207175,44180.5177978041,14190.8441090862,32411.8849275641,53343.6087411665,15338.8054658467,47741.0049067397,59898.1158334458,62614.1282797787,15970.1142478082
4118095108,26792,2,0,-8042.7259229964,44180.5664685914,14186.9017753156,32412.9800202782,53345.5555726582,15338.1970810055,47753.1482681690,59898.3835227759,62610.6361507906,15972.7059672315
4118095108,26792,2,0,-8046.1085427132,44177.8044014125,14186.4637382300,32411.8119213832,53340.8223385941,15339.9005585607,47737.7196285975,59892.7255437532,62607.6185619785,15969.9560677495
4118095108,26792,2,0,-8040.4627313874,44181.0410087675,14189.3474823770,32416.1436214521,53343.2437102618,15344.7189665026,47742.5988750235,59897.3736039396,62609.4923872892,15969.0921612751
4118095108,26792,2,0,-8035.2792925408,44180.8341579215,14188.9581160787,32417.5429065868,53345.8597650788,15340.7157942479,47756.0076769224,59898.2375104140,62610.2832875827,15972.7424703220
4118095108,26792,2,0,-8037.3843040912,44173.1076704389,14188.7512652327,32413.6735789971,53337.5127250582,15344.5729541407,47737.3059269055,59893.1149100515,62608.6284808148,15969.6032045416
4118095108,26792,2,0,-8035.0602739980,44175.3221912607,14195.7841939963,32416.4478138727,53334.5438070334,15341.6648746001,47731.1977431004,59896.0229895922,62612.9966839742,15970.6009556811
4118095108,26792,2,0,-8032.6754054207,44179.2036865472,14198.7652797179,32415.8880998188,53339.0458548579,15331.7238662957,47750.4227040807,59898.1158334458,62612.5951499791,15970.9903219794
4118131811,26793,2,0,-8036.3987206485,44172.9129872897,14196.6967712580,32408.5509786346,53332.8768325687,15326.3335766032,47743.3532722265,59888.6615330143,62606.8763324723,15969.2625090306
4118131811,26793,2,0,-8040.3410544191,44168.9949889127,14199.1303106226,32406.7501595048,53329.0196726758,15329.8865440755,47725.0530562048,59886.3375029211,62605.8177428487,15971.2701790064
4118131811,26793,2,0,-8044.0887050406,44169.4816967857,14198.3759134196,32406.1417746637,53329.9079145439,15325.4818378256,47737.2937592087,59888.8927192540,62605.3310349758,15970.7469680430
4118131811,26793,2,0,-8047.8606910557,44166.7074619100,14196.6359327739,32404.2557816561,53325.5762144749,15322.9752922800,47742.3311856934,59886.2766644370,62602.9461663985,15969.5788691480
4118131811,26793,2,0,-8047.0576230654,44163.0571528631,14199.1789814099,32404.0976015974,53321.6582160979,15326.8081167793,47725.8926272856,59884.0864790089,62601.4982104765,15966.7802988787
4118131811,26793,2,0,-8044.8187668500,44168.2527594065,14199.8603724320,32410.9966856960,53327.8394060840,15328.4020850631,47739.4352738496,59891.3262586185,62606.9250032596,15967.0479882088
4118131811,26793,2,0,-8041.8498488252,44176.0279176764,14204.7639542517,32417.3360557408,53339.4595565499,15329.8622086818,47759.3659612455,59898.3348519886,62613.4833918471,15975.6870529531
