steady_timestamp,sequence,battery,flags,EEG-ch1,EEG-ch2,EEG-ch3,EEG-ch4,EEG-ch5,EEG-ch6,EEG-ch7,EEG-ch8,EEG-ch9,EEG-ch10
6007896251,7126,-2,0,1596.3653200795,46351.3079171979,-4246.1489926052,17959.2406536355,56604.0769495389,55429.3223243743,38872.0071955878,56094.9805144670,37710.3571799015,22292.0236476201
6007896251,7126,-2,0,1605.3085772444,46352.9140531785,-4235.1372269805,17976.8108078478,56609.4185684442,55416.3393918642,38872.9806113336,56097.3167122570,37712.0728251535,22288.9817234143
6007896251,7126,-2,0,1601.2810695960,46348.2538252953,-4238.0939773085,17971.9802322091,56605.4762346735,55413.6503308664,38869.6223270105,56091.4275469947,37708.5320253780,22288.8478787493
6007896251,7126,-2,0,1584.9155173691,46350.7117000535,-4247.6091162240,17958.7539457625,56601.4730624188,55423.0924636010,38872.1653756465,56092.3522919532,37708.7875470113,22289.6387790428
6007896251,7126,-2,0,1593.2747250865,46355.2745863621,-4242.2918327124,17978.9888255791,56611.0003690311,55419.6611730969,38878.0910439992,56098.0224386727,37711.9998189726,22288.9330526270
6007896251,7126,-2,0,1607.5230980662,46355.4571018145,-4239.0917284479,17993.6509002507,56614.3586533543,55416.6800873753,38879.2348075006,56098.1319479441,37709.1525779160,22288.5436863287
6007896251,7126,-2,0,1598.1053007252,46356.9780639173,-4243.1800745804,17975.7643859210,56610.3311457059,55428.9329580760,38881.4979991096,56098.1684510346,37708.0696528988,22293.0092310627
6007896251,7126,-2,0,1593.5059113261,46362.7212168178,-4238.5685174846,17979.2930179997,56617.4735837410,55425.3678229069,38884.9779604010,56105.3230567665,37710.8438877744,22295.3697642464
6007943854,7127,-2,0,1598.7988594441,46357.2214178538,-4236.5000090247,17990.0492619912,56616.3663233301,55409.9878541227,38876.5457465027,56101.7944246878,37702.7158662967,22288.7992079620
6007943854,7127,-2,0,1589.6000806460,46353.8387981370,-4245.7352909133,17968.7557925510,56610.0391209821,55415.7188393263,38871.8003447418,56097.2680414697,37699.7347805751,22284.9907188564
6007943854,7127,-2,0,1589.1863789540,46358.1461628124,-4246.9885636860,17962.0513916016,56613.5555853640,55421.8026877377,38875.9860324489,56100.1152825263,37705.9403059548,22283.4210859662
6007943854,7127,-2,0,1608.0219736359,46359.9469819421,-4240.7830383063,17983.7342273400,56621.7444453258,55414.6480820058,38878.4439072071,56102.7921758273,37706.7798770355,22280.1723109145
6007943854,7127,-2,0,1606.7200300758,46354.3255060099,-4247.3535945907,17977.4435280826,56615.6240938239,55415.4876530866,38877.9937024246,56100.2612948882,37705.2954180231,22281.3039067190
6007943854,7127,-2,0,1590.2571362744,46356.0898220493,-4252.5978719214,17962.2095716603,56614.3586533543,55426.6089279828,38882.7269364888,56101.4537291768,37711.8903097012,22287.0227242258
6007943854,7127,-2,0,1597.7281021237,46358.9979015900,-4244.3968442627,17979.1713410314,56622.0729731400,55417.9455278449,38887.4966736434,56105.6272491871,37713.2652594422,22289.8456298888
6007943854,7127,-2,0,1611.0030593575,46358.2313366901,-4241.1724046047,17988.0902628027,56621.0508866069,55417.7995154830,38887.5331767338,56105.3108890697,37708.2278329575,22290.3566731553
6007973796,7128,-2,0,1604.1404783494,46360.4336898151,-4245.3337569181,17972.4791077788,56620.0166323769,55430.4782555725,38890.5507655459,56105.0310320427,37710.7708815935,22291.0258964806
6007973796,7128,-2,0,1604.3959999827,46365.8361472044,-4239.0187222670,17979.3660241806,56627.8891322214,55429.1519766188,38896.0262291162,56111.2852282097,37715.3824386894,22292.4251816152
6007973796,7128,-2,0,1611.3315871717,46361.4557763482,-4235.3684132201,17988.7838215216,56626.7818718105,55416.8626028276,38890.8914610570,56107.9756146739,37709.9799813000,22291.3909273853
6007973796,7128,-2,0,1602.6316839433,46360.2511743627,-4240.1016472842,17970.2645869570,56619.3230736580,55423.3723206279,38888.6282694479,56105.2257151919,37706.7068708546,22291.9019706518
6007973796,7128,-2,0,1603.7754474447,46365.8604825981,-4238.3008281544,17969.2303327271,56623.8981276635,55426.2804001686,38891.1469826902,56110.0806262243,37710.5396953538,22296.3188445986
6007973796,7128,-2,0,1616.9773984976,46363.7311356541,-4235.3927486138,17986.4597914284,56625.6381083091,55411.4358100446,38888.1293938782,56108.2554717008,37708.4590191971,22292.9848956691
6007973796,7128,-2,0,1607.9611351518,46358.4868583234,-4242.8272113726,17975.6427089528,56616.5610064792,55415.4633176930,38883.8706999901,56101.3685552990,37704.5288531233,22293.2525849992
6007973796,7128,-2,0,1589.6974222205,46360.2511743627,-4247.4266007717,17964.9716388391,56614.5046657162,55425.0149596990,38887.7278598830,56102.6096603750,37707.7411250845,22296.7568816842
6007989909,7129,-2,0,1598.4824993267,46358.7302122598,-4240.8682121841,17984.7198107827,56618.0698008853,55414.2465480107,38886.6692702594,56103.4979022431,37705.4779334755,22296.4891923541
6007989909,7129,-2,0,1606.6348561981,46353.2182455991,-4242.3891742870,17983.7828981273,56613.5069145767,55410.2068726655,38880.3785710019,56096.2216195429,37701.6694443699,22296.5500308382
6007989909,7129,-2,0,1597.3265681285,46351.3930910756,-4248.8867243904,17958.3889148579,56607.9584448254,55414.2587157075,38876.6795911678,56094.1531110830,37701.1462334065,22297.7789682173
6007989909,7129,-2,0,1595.8421091161,46348.9230486206,-4248.6190350603,17961.0779758557,56605.3302223117,55406.3862158631,38873.8080147175,56095.1751976162,37700.5378485654,22292.4495170089
6007989909,7129,-2,0,1602.2423176450,46346.1974845322,-4245.6136139450,17972.4061015979,56604.4541481404,55404.0135149826,38874.3677287714,56094.7006574401,37699.4184204577,22293.2039142119
6007989909,7129,-2,0,1591.3278935948,46347.5846019700,-4252.2206733199,17955.4078291362,56599.5018955335,55413.9301878933,38874.4285672555,56091.4640500852,37698.4450047118,22297.0124033175
6007989909,7129,-2,0,1596.7668540747,46356.8077161618,-4245.4432661895,17963.3289997680,56609.4672392315,55418.5904157765,38881.0964651145,56099.0566929027,37702.8618786586,22299.4702780757
6007989909,7129,-2,0,1619.6299564050,46362.3926890036,-4235.0642207995,17986.3016113697,56622.7543641621,55411.2167915018,38886.2434008706,56103.7777592700,37703.1295679887,22300.4923646088
6008020513,7130,-2,0,1610.2608298513,46357.0997408856,-4241.5982739935,17970.1672453825,56615.5267522493,55408.8075875308,38880.6097572416,56096.8178366873,37696.4373347360,22296.0511552685
6008020513,7130,-2,0,1591.8632722550,46357.1727470665,-4244.9200552261,17958.7417780657,56612.5700019213,55413.8571817124,38879.7580184640,56098.7281650885,37697.9339614453,22292.2426661629
6008020513,7130,-2,0,1599.2003934393,46356.0168158683,-4239.8704610446,17977.8450620777,56614.1274671146,55403.7701610461,38877.6165038231,56099.0080221154,37696.3034900710,22288.4585124509
6008020513,7130,-2,0,1604.7975339778,46350.7360354472,-4247.0494021701,17976.2389260971,56607.7394262826,55404.2325335254,38874.6840888888,56093.1066891563,37691.3999082513,22287.3755874337
6008020513,7130,-2,0,1599.9547906423,46354.1794936481,-4253.0237413102,17960.8467896161,56610.8786920629,55419.7585146715,38880.0135400973,56099.0688605995,37698.0556384135,22291.4030950821
6008020513,7130,-2,0,1609.6767804038,46361.2245901086,-4244.4941858373,17978.3074345570,56625.3947543727,55420.5129118745,38886.0608854183,56110.8836942146,37707.0719017593,22290.7947102409
6008020513,7130,-2,0,1616.1743305073,46363.0010738447,-4238.8118714210,17991.5093856099,56630.1158207400,55423.0802959041,38889.5530144064,56113.6092583029,37710.9290616522,22290.8312133314
6008020513,7130,-2,0,1601.6704358943,46365.8239795076,-4241.3792554507,17979.5363719361,56627.7066167690,55431.9262114944,38893.3980066025,56116.2131454230,37716.9155684891,22294.9317271607
6008053646,7131,-2,0,1606.8417070441,46370.3016919385,-4232.6793522222,17990.7306530132,56633.0969064616,55429.5900137044,38897.5228558255,56120.5813485825,37722.7195598736,22298.2535083934
6008053646,7131,-2,0,1630.1428464600,46371.5549647112,-4220.4994877025,18010.3571479886,56635.6399550976,55422.3867371852,38899.9198920996,56121.7251120838,37721.6974733405,22302.9259039734
6008053646,7131,-2,0,1626.7237236528,46368.0385003294,-4227.7027642217,17993.0668508032,56624.7376987442,55422.6300911217,38895.8558813607,56115.1788911931,37717.8281457508,22301.9159851371
6008053646,7131,-2,0,1614.8845546440,46369.5351270386,-4231.8641165351,17991.1200193116,56623.3019105191,55425.8666984766,38897.6810358842,56115.3249035550,37718.1323381713,22299.3729365011
6008053646,7131,-2,0,1623.9981595644,46369.5351270386,-4229.0290431754,18015.6622638034,56630.9553918208,55416.5340750134,38897.0361479525,56115.5560897946,37715.1877555402,22297.7302974300
6008053646,7131,-2,0,1621.4186078380,46365.0330792141,-4238.1913188830,18011.1723836758,56626.4046732090,55417.9941986322,38891.3903366267,56108.3528132754,37709.2864225811,22295.8078013320
6008053646,7131,-2,0,1614.3735113775,46366.6027121043,-4245.1269060721,17995.6098994392,56623.6182706365,55423.0437928137,38891.1713180839,56108.0607885517,37709.8948074222,22297.1340802857
6008053646,7131,-2,0,1626.7480590464,46366.4932028329,-4236.8650399293,18012.3161471771,56623.3262459128,55413.7355047441,38891.1834857807,56109.9589492560,37708.3981807130,22295.5887827892
6008081451,7132,-2,0,1631.0432560249,46360.0686589104,-4234.7478606821,18013.8736123705,56617.0112112617,55407.4691408803,38888.5552632670,56105.3960629474,37705.4049272945,22296.3918507795
6008081451,7132,-2,0,1611.0273947512,46359.1317462550,-4241.5861062966,17990.4507959863,56613.5555853640,55418.2862233559,38889.7476975556,56105.6272491871,37707.5342742386,22299.0565763837
6008081451,7132,-2,0,1612.9012200619,46365.0209115173,-4236.4148351469,17998.1894511657,56622.0729731400,55420.1357132730,38891.2686596585,56111.7597683858,37714.1535013102,22301.2710972055
6008081451,7132,-2,0,1631.5542992915,46366.7608921630,-4230.7081853369,18010.9533651330,56627.3780889548,55417.4831553656,38889.8572068270,56112.6115071634,37713.0340732025,22302.7312208242
6008081451,7132,-2,0,1627.2104315257,46368.7198913515,-4232.9105384619,17994.6364836934,56627.1590704120,55426.0127108385,38890.1735669444,56113.3294012760,37716.5505375844,22303.2422640908
6008081451,7132,-2,0,1617.8048018815,46373.0880945109,-4231.5112533272,17992.1421058447,56630.5416901288,55424.1875563150,38892.4975970376,56117.8314491005,37721.7339764309,22300.6383769707
6008081451,7132,-2,0,1622.9030668504,46368.1115065103,-4229.1142170531,18005.7455908927,56628.4366785784,55410.5354004797,38891.0739765093,56116.9432072324,37720.2738528122,22295.3697642464
6008081451,7132,-2,0,1622.8300606694,46360.4580252087,-4235.5752640661,17992.9086707445,56619.3717444453,55412.3118842158,38887.5696798243,56107.9391115834,37714.5915383959,22294.6762055275
6008117682,7133,-2,0,1621.1022477206,46361.3949378641,-4233.3850786380,17986.5571330030,56620.2843217070,55422.4962464566,38893.3980066025,56110.0197877402,37718.2296797459,22295.0412364321
6008117682,7133,-2,0,1638.3073710282,46365.4102778156,-4219.5869104408,18015.3824067765,56631.1014041826,55418.8337697129,38902.0492390436,56117.7219398291,37721.2107654675,22294.3355100164
6008117682,7133,-2,0,1643.5029775716,46365.7874764172,-4216.5449862350,18020.2373178089,56631.6976213270,55424.5769226134,38905.9672374206,56117.4055797117,37721.3932809199,22297.4261050094
6008117682,7133,-2,0,1629.8508217363,46372.9177467554,-4216.8248432620,18005.2102122325,56631.9531429603,55437.4625135489,38911.3940302036,56121.0680564554,37726.7105644315,22302.8042270052
6008117682,7133,-2,0,1638.4533833901,46382.2138671281,-4208.1492754272,18024.3134962446,56640.9694063061,55430.6607710248,38915.4823763361,56126.0203090623,37729.3752900357,22302.4635314941
6008117682,7133,-2,0,1652.0812038318,46379.8898370349,-4207.8815860971,18039.7178004224,56640.8233939442,55421.0604582315,38908.4859506629,56120.3136592524,37722.2571873943,22297.5964527650
6008117682,7133,-2,0,1642.3713817671,46378.8920858955,-4217.2020418635,18019.6167652709,56637.0027371418,55428.5800948681,38904.6409584669,56116.9310395356,37719.1179216140,22295.8808075129
6008117682,7133,-2,0,1637.9058370330,46384.2580401944,-4213.3935527579,18019.2030635789,56643.7071380912,55431.5003421056,38907.4638641298,56124.0126390865,37724.3621989447,22293.9339760213
6008141380,7134,-2,0,1646.2772124472,46381.8488362234,-4211.1425288456,18027.7812898391,56643.6462996071,55419.2353037081,38904.3002629558,56122.9905525534,37720.2738528122,22289.2007419571
6008141380,7134,-2,0,1641.6413199577,46380.6077311475,-4220.4751523088,18009.5297446047,56638.2803453082,55421.8391908282,38900.0294013710,56121.4209196633,37717.6699656921,22286.7306995021
6008141380,7134,-2,0,1642.0793570433,46386.8619273145,-4218.8568486314,18006.5243234894,56644.5467091720,55428.7747780173,38905.7482188778,56128.1009852190,37721.7096410373,22290.6121947886
6008141380,7134,-2,0,1663.1903110311,46391.1449565962,-4209.2687035349,18033.6704551014,56653.2222770068,55421.6323399822,38909.8122296166,56133.4061010338,37722.4518705435,22291.8411321677
6008141380,7134,-2,0,1664.8572854959,46388.0908646936,-4214.0992791736,18032.0156483335,56647.1384285953,55423.2141405692,38907.4151933425,56127.8941343731,37721.4176163135,22290.3080023680
6008141380,7134,-2,0,1646.9099326820,46390.4148947868,-4219.9154382550,18015.4554129575,56642.3321883502,55436.1727376856,38911.0289992989,56128.6363638793,37727.0999307298,22292.0479830137
6008141380,7134,-2,0,1655.4029850644,46396.9854510712,-4207.9789276717,18033.3297595904,56648.5498814267,55436.0267253237,38918.2322758181,56133.5034426084,37733.4879715619,22293.6297836007
6008141380,7134,-2,0,1672.9366361863,46400.7331016926,-4200.8973281207,18043.1247555328,56650.3507005565,55433.2159873577,38918.1714373340,56131.2645863930,37732.5023881192,22290.6486978791
6008172982,7135,-2,0,1670.1867367043,46410.1022282463,-4201.9315823507,18027.3310850566,56647.8198196174,55445.5661996329,38921.0551814810,56128.6241961824,37735.6538215964,22290.7703748473
6008172982,7135,-2,0,1676.3557589935,46424.0829118959,-4196.6142988391,18037.7466335371,56658.3692127629,55444.2277529824,38929.1588675651,56135.7057957334,37740.4722295383,22291.0502318742
6008172982,7135,-2,0,1693.4635407266,46429.7652263122,-4189.9707363737,18057.7503271140,56663.7351670618,55439.1051526200,38933.8921016292,56138.6138752741,37740.6304095970,22292.7415417326
6008172982,7135,-2,0,1694.4734595629,46436.4087887775,-4190.4452765498,18047.0062508193,56662.3602173208,55447.5251988214,38936.4229825684,56137.2267578363,37740.1071986336,22293.6054482070
6008172982,7135,-2,0,1701.3847113583,46448.7103302655,-4181.4898516881,18050.8877461059,56671.4494868475,55450.0925828511,38941.5455829309,56142.5318736511,37745.8990223213,22291.2205796297
6008172982,7135,-2,0,1727.2410671071,46455.9379421783,-4167.7890250655,18076.8657788228,56680.8186134012,55442.0984060384,38940.3409809454,56145.2696054362,37745.7651776562,22288.2638293018
6008172982,7135,-2,0,1729.1878985988,46460.9997040567,-4166.2923983563,18072.4975756634,56678.5797571858,55453.4021963869,38938.5158264220,56142.8360660716,37745.8625192308,22289.0912326857
6008172982,7135,-2,0,1719.8917782260,46474.1408166255,-4161.9606982873,18060.2325372659,56680.9402903694,55472.1404494942,38945.5122520951,56150.2583611336,37756.1320553494,22292.6320324612
6008236337,7136,-2,0,1732.2298228045,46484.0331541425,-4149.6591567993,18075.9653692579,56689.3481688741,55467.6627370634,38949.6127659245,56158.2525379463,37761.8265374625,22291.2327473266
6008236337,7136,-2,0,1746.3078480286,46487.9998233068,-4145.3639598208,18077.4011574831,56691.8912175101,55470.5829843009,38947.5320897678,56158.1186932812,37763.4570088368,22289.0060588080
6008236337,7136,-2,0,1742.5358620135,46495.2761060069,-4147.0552696792,18062.2158718480,56694.1665768160,55482.8601903953,38951.7299451717,56161.7933377218,37767.7522058153,22293.8122990530
6008236337,7136,-2,0,1748.4006918822,46501.2747805406,-4137.9538324556,18075.3326490232,56700.6641269194,55477.1170374948,38955.7817882137,56165.2246282258,37771.5971980113,22297.7668005205
6008236337,7136,-2,0,1755.8351546410,46496.0670063004,-4133.0624183328,18086.8067871272,56696.7947993297,55467.0665199191,38955.5140988836,56161.8055054186,37766.9369701282,22297.3774342222
6008236337,7136,-2,0,1740.6742043996,46491.6866354441,-4139.4261237712,18070.7089242304,56689.2386596027,55474.6348273429,38955.4775957931,56156.9384266894,37765.6593619618,22293.8488021435
6008236337,7136,-2,0,1739.1167392063,46494.8502366181,-4138.1241802112,18076.4034063436,56691.6235281800,55472.7366666386,38959.2860848987,56161.0024374283,37769.1514909499,22291.9384737423
6008236337,7136,-2,0,1757.1614335947,46493.1589267597,-4133.2692691788,18098.9014777692,56697.7925504692,55462.7226521533,38958.9940601750,56160.5278972522,37769.2366648277,22295.4914412146
6008242547,7137,-2,0,1753.6814723033,46491.1390890871,-4138.4770434190,18087.8167059635,56690.4675969818,55470.6073196946,38957.2540795293,56156.1840294864,37765.3064987539,22300.4801969120
6008242547,7137,-2,0,1742.9738990991,46498.7925703887,-4138.3188633603,18077.2673128180,56696.3932653346,55482.5194948842,38961.8534689284,56162.4382256534,37772.1569120652,22306.8560700472
6008242547,7137,-2,0,1750.9437405182,46503.7204876020,-4128.2318426941,18095.3241749032,56701.2846794574,55472.2377910688,38960.7827116079,56166.7699257224,37773.9942342855,22303.1692579099
6008242547,7137,-2,0,1752.0023301418,46497.0890928335,-4131.2007607189,18092.6837846927,56694.2274153001,55468.3684634791,38954.0539752649,56160.7712511886,37768.0442305390,22296.9515648334
6008242547,7137,-2,0,1739.7372917442,46493.9498270532,-4137.1020936780,18074.7729349693,56690.0052245025,55476.7763419838,38954.1148137490,56158.6419042446,37770.1979128767,22295.1872487940
6008242547,7137,-2,0,1744.6773766544,46494.0228332341,-4129.5459539510,18089.9947236948,56695.8700543712,55471.9214309514,38956.3658376612,56163.6793307293,37775.9167303835,22297.7181297332
6008242547,7137,-2,0,1750.1406725279,46488.0119910036,-4129.7406371002,18095.4823549619,56694.1422414223,55466.9205075572,38954.5893539251,56161.5256483917,37774.5539483393,22302.3905253132
6008242547,7137,-2,0,1731.7674503252,46482.7190428856,-4142.1395201627,18068.0076955357,56684.0795561497,55470.5221458168,38952.8007024921,56156.4152157260,37773.6170356840,22303.1692579099
6008294241,7138,-2,0,1728.1779797625,46481.5387762938,-4143.0642651213,18071.2199674970,56685.2233196511,55467.8574202126,38952.7763670984,56156.5247249974,37772.4854398794,22300.2246752787
6008294241,7138,-2,0,1741.0270676075,46476.2336604790,-4141.6771476835,18086.9406317922,56686.8537910254,55454.4364506169,38948.3959962422,56153.7504901218,37767.5453549693,22298.4603592394
6008294241,7138,-2,0,1731.2685747555,46466.6333476857,-4153.0174411224,18063.9193494032,56673.8586908185,55452.4166129443,38940.2314716740,56142.9334076462,37758.6142655013,22297.3652665253
6008294241,7138,-2,0,1714.2703022938,46461.6445919883,-4161.4861581112,18049.1599331570,56668.5170719132,55453.9254073503,38936.3378086906,56139.8306449564,37756.2172292271,22295.1020749163
6008294241,7138,-2,0,1716.3509784506,46457.3128919193,-4158.1887122722,18066.1095348314,56669.2349660257,55444.2885914665,38934.3788095022,56140.9135699736,37753.7715221657,22292.0723184074
6008294241,7138,-2,0,1711.9462722006,46451.4602297475,-4162.6420893094,18061.3763007672,56665.9131847931,55446.7464662248,38932.3589718295,56139.1127508438,37750.3645670553,22290.2349961871
6008294241,7138,-2,0,1701.6889037789,46453.9302722026,-4166.2802306595,18051.5569694311,56671.7171761776,55458.1841012383,38938.3089755760,56143.9433264825,37754.0270437990,22292.5711939771
6008294241,7138,-2,0,1712.6763340100,46459.6125866189,-4155.7186698171,18074.6269226074,56684.9677980178,55454.6067983724,38945.9989599681,56153.8356639996,37760.5245939025,22298.0223221538
6008302660,7139,-2,0,1710.2792977359,46449.3430505003,-4160.6587547273,18074.9919535121,56676.6572610877,55443.2786726302,38940.8276888183,56148.2628588547,37754.6840994275,22297.5842850681
6008302660,7139,-2,0,1683.3278492731,46438.5381357215,-4177.8273749444,18044.4145313961,56662.6887451350,55449.1678378925,38936.8610196540,56140.8648991863,37750.8391072314,22298.5333654203
6008302660,7139,-2,0,1678.5946152090,46431.6512193197,-4178.3627536046,18045.0959224181,56661.5206462400,55439.2998357691,38934.3666418053,56140.4146944039,37749.2451389476,22298.7280485695
6008302660,7139,-2,0,1691.6383862032,46422.0022357391,-4176.6714437462,18056.4483835539,56659.0141006945,55424.9662889117,38925.3625461564,56132.2014990484,37740.7277511715,22296.4040184763
6008302660,7139,-2,0,1682.4517751018,46416.4172628974,-4184.0085649305,18040.3626883540,56651.7986564785,55431.7193606484,38922.8438329140,56125.5579365830,37736.4203864962,22298.7523839631
6008302660,7139,-2,0,1670.7099476677,46418.2667528145,-4185.1888315223,18038.8538939480,56652.4435444101,55428.3367409316,38926.7618312910,56128.0036436445,37736.8949266723,22299.5797873471
6008302660,7139,-2,0,1673.8492134480,46414.9936423691,-4184.2884219574,18054.5745582432,56651.4214578770,55415.6458331453,38925.2287014913,56127.2005756541,37733.7191578015,22298.8253901441
6008302660,7139,-2,0,1666.8771231685,46405.3933295758,-4195.7260569710,18036.8948947595,56638.8887301493,55415.4876530866,38918.2687789086,56116.5660086309,37728.1706880503,22295.9781490875
6008331393,7140,-2,0,1657.4836612212,46403.7263551111,-4200.5931357002,18020.2494855057,56634.3988500217,55422.4597433662,38917.3562016469,56115.3127358581,37729.7403209404,22294.2625038355
6008331393,7140,-2,0,1671.7076988072,46404.4077461332,-4190.3844380657,18040.0098251462,56640.9572386092,55418.4079003241,38917.8185741261,56119.1212249637,37734.0111825253,22293.3012557865
6008331393,7140,-2,0,1672.3039159515,46397.0584572521,-4191.0779967846,18039.1094155813,56633.7296266964,55416.1203733214,38912.7203091573,56113.5240844252,37729.8133271214,22292.3035046470
6008331393,7140,-2,0,1650.2925523988,46393.4324835989,-4198.7436457831,18021.4784228848,56626.9278841724,55421.2673090775,38913.1096754556,56113.0130411586,37731.0300968037,22296.3675153858
6008331393,7140,-2,0,1649.5868259831,46394.1017069241,-4196.6264665359,18036.2135037374,56634.8247194105,55416.7165904657,38917.1858538913,56120.7030255507,37733.8651701634,22300.3585199438
6008331393,7140,-2,0,1657.5688350989,46389.1859574077,-4198.0865901546,18048.1865174112,56635.5912843103,55406.9946007042,38913.9492465364,56117.6854367386,37728.8885821628,22296.2580061144
6008331393,7140,-2,0,1644.5859025888,46383.5036429914,-4208.1614431240,18027.5136005090,56627.3659212580,55416.6192488912,38910.5544591228,56113.0252088554,37727.2824461822,22293.6176159039
6008331393,7140,-2,0,1638.8184142948,46385.9980208401,-4205.0465127373,18029.2900842451,56630.2131623146,55421.6688430727,38914.5211282871,56116.6390148118,37730.6163951117,22294.8587209798
6008369305,7141,-2,0,1643.2109528478,46380.8510850840,-4201.4813775682,18041.0562470729,56630.1523238305,55406.5808990122,38909.3133540469,56113.6822644839,37726.6375582506,22295.9294783002
6008369305,7141,-2,0,1627.3686115844,46374.8524105503,-4210.2907900680,18022.8777080195,56620.4668371594,55408.0653580246,38901.8423881976,56106.5276587520,37722.0016657610,22297.1097448920
6008369305,7141,-2,0,1617.4276032800,46377.6266454259,-4211.9577645328,18014.9443696909,56622.5475133161,55412.5430704555,38905.1154986430,56108.4258194564,37724.6907267589,22297.6207881586
6008369305,7141,-2,0,1629.4857908316,46376.7992420419,-4208.2952877891,18032.2468345731,56626.3438347249,55402.8940868749,38905.4926972445,56110.7863526400,37722.9385784164,22298.5090300267
6008369305,7141,-2,0,1627.9404933351,46370.1921826671,-4215.9609367875,18021.2107335547,56615.7701061857,55397.1631016713,38899.9077244028,56103.9481070255,37718.1688412618,22299.9204828581
6008369305,7141,-2,0,1608.0828121200,46363.9623218937,-4227.1673855615,17991.8987519082,56602.9575214312,55399.4992994613,38896.5859431701,56097.3897184379,37715.0782462688,22297.6451235523
6008369305,7141,-2,0,1609.6159419197,46361.0542423530,-4225.4030695221,18001.7424186380,56604.5514897150,55391.8093150692,38897.0969864367,56099.4217238074,37714.2265074912,22293.0700695468
6008369305,7141,-2,0,1618.2915097545,46355.7247911446,-4227.4959133757,18011.7077623360,56603.5294031819,55389.7043035188,38893.5926897517,56092.6686520706,37711.0750740140,22292.6563678549
6008413688,7142,-2,0,1610.5041837878,46356.4791883476,-4235.2224008582,17998.6153205545,56600.6699944285,55395.0702578177,38893.7387021135,56089.8700818014,37709.1282425224,22295.5279443051
6008413688,7142,-2,0,1614.0936543505,46357.2700886411,-4231.1583901194,18006.9988636655,56604.9530237101,55385.8471436259,38896.8658001970,56091.7439071121,37710.5518630506,22294.3233423196
6008413688,7142,-2,0,1624.5335382246,46352.7437054230,-4229.7104341975,18015.7717730749,56601.5217332061,55371.4770936780,38894.6391116784,56085.9764188180,37703.6284435584,22289.7239529205
6008413688,7142,-2,0,1613.0715678174,46347.8644589970,-4239.3594177780,17992.6774845049,56590.8263276987,55379.3009227352,38890.7576163919,56080.5009552477,37697.8122844770,22290.2714992776
6008413688,7142,-2,0,1608.0828121200,46351.4174264693,-4236.7676983548,17989.1610201231,56592.3107867111,55382.8173871170,38893.8117082945,56081.8028988077,37701.4382581303,22297.4747757967
6008413688,7142,-2,0,1620.4695274858,46349.8721289727,-4229.8199434689,18010.6613404092,56595.3405432200,55372.4018386366,38891.0374734188,56079.7465580447,37697.6297690247,22297.8398067014
6008413688,7142,-2,0,1616.6123675929,46345.6377704784,-4233.7257741490,17999.9294318114,56588.0764282167,55379.1305749797,38885.2699851248,56075.2688456138,37696.5346763106,22299.5676196503
6008413688,7142,-2,0,1602.1571437672,46346.7815339797,-4236.8772076262,17984.8414877509,56582.9781632479,55387.9278197827,38886.6814379562,56076.2300936628,37699.2724080958,22299.8839797677
6008428073,7143,-2,0,1608.5938553866,46349.2272410411,-4224.2471383240,18004.5409889073,56588.8064900261,55382.1116607013,38887.9712138195,56080.6104645191,37702.7158662967,22297.7424651268
6008428073,7143,-2,0,1616.0526535390,46348.1564837207,-4222.0204498054,18008.7996827953,56589.1958563244,55374.5920240647,38883.8950353838,56077.5442049197,37698.3719985309,22295.9659813907
6008428073,7143,-2,0,1606.0994775379,46349.2880795252,-4227.9947889454,17991.5945594877,56584.0245851747,55380.1283261192,38885.0144634915,56072.9448155206,37696.6685209757,22295.8808075129
6008428073,7143,-2,0,1614.1909959251,46349.7747873982,-4223.5900826955,18003.9569394598,56589.1836886276,55377.1715757912,38889.1758158049,56076.6924661421,37698.0434707167,22296.4526892636
6008428073,7143,-2,0,1625.9814941466,46344.7373609135,-4220.1831275851,18016.3558225224,56589.2931978990,55373.7159498935,38889.7598652524,56075.7920565772,37693.6630998604,22294.2625038355
6008428073,7143,-2,0,1617.0625723753,46344.1046406787,-4228.7005153611,17997.0335199675,56585.3873672188,55384.8737278801,38890.8306225728,56074.0277405379,37696.2304838900,22294.8222178893
6008428073,7143,-2,0,1615.8823057835,46351.7581219803,-4227.4472425884,17999.0533576401,56592.3594574984,55388.6578815920,38894.0915653214,56081.4013648126,37704.5166854265,22296.7082108969
6008428073,7143,-2,0,1631.7246470470,46352.8897177848,-4221.5215742356,18020.2616532025,56599.9155972254,55376.4171785882,38892.0473922551,56081.9367434728,37703.5189342870,22295.3332611559
6008458564,7144,-2,0,1624.8255629484,46349.1055640729,-4228.4328260310,18009.5175769079,56592.3351221047,55379.2522519479,38887.8860399417,56075.6947150026,37697.6541044183,22294.9803979480
6008458564,7144,-2,0,1610.8205439052,46353.8266304402,-4226.5590007203,18001.5720708825,56596.0097665453,55390.9454085948,38893.8117082945,56082.3261097711,37705.0033932994,22298.8618932346
6008458564,7144,-2,0,1617.2329201309,46357.2700886411,-4216.7640047778,18023.1210619559,56603.7849248151,55382.8903932980,38897.6810358842,56089.3468708380,37708.8605531923,22297.5599496745
6008458564,7144,-2,0,1619.9828196129,46352.1474882786,-4220.6089969739,18022.1233108164,56598.6136536654,55381.1990834396,38892.4367585535,56084.5527982897,37703.8839651917,22295.8443044225
6008458564,7144,-2,0,1614.7628776758,46355.8829712033,-4224.9163616492,18008.4954903747,56600.0007711032,55390.7020546583,38899.0924887156,56086.9985053511,37706.6825354610,22296.3553476890
6008458564,7144,-2,0,1627.0400837702,46361.3340993800,-4217.8956005824,18023.9849684303,56609.2603883855,55386.3946899830,38904.6409584669,56093.4717200610,37710.2476706301,22297.5721173713
6008458564,7144,-2,0,1630.6417220297,46355.8829712033,-4221.2538849055,18027.7569544454,56606.3401411480,55379.0819041924,38901.1001586914,56090.0160941632,37706.6825354610,22295.9051429066
6008458564,7144,-2,0,1609.7619542816,46355.2380832717,-4235.7942826089,18002.5089835378,56600.1832865555,55387.6479627557,38897.8148805492,56088.6046413318,37707.4856034513,22294.8222178893
6008487413,7145,-2,0,1609.4334264674,46358.6572060789,-4232.5211721636,18005.5265723499,56605.9264394560,55384.2896784326,38899.7982151314,56093.6785709069,37709.6514534857,22288.1299846367
6008487413,7145,-2,0,1632.9292490325,46358.9979015900,-4222.9816978544,18023.0967265623,56612.7281819800,55377.3175881531,38896.6954524415,56096.2581226334,37706.6095292800,22284.1633154724
6008487413,7145,-2,0,1638.8914204757,46361.6869625878,-4221.5945804165,18011.0142036171,56613.2635606402,55392.2960229421,38895.9167198448,56096.2337872398,37707.9358082337,22290.7703748473
6008487413,7145,-2,0,1631.8341563184,46369.3647792831,-4218.2484637902,18004.2976349708,56617.7047699806,55396.9927539158,38901.9397297722,56104.1671255683,37713.2409240485,22299.8353089804
6008487413,7145,-2,0,1635.2411114288,46370.2530211512,-4209.1348588699,18020.2859885962,56620.2964894039,55386.0539944719,38903.3268472100,56106.8926896567,37714.2143397944,22301.0155755722
6008487413,7145,-2,0,1626.9792452860,46362.0884965830,-4216.7396693842,18009.0673721254,56615.4050752811,55385.4091065403,38899.1533271997,56100.9183505166,37709.8704720286,22295.7469628479
6008487413,7145,-2,0,1613.3270894507,46360.5797021769,-4222.9938655512,17990.2804482308,56611.8521078088,55393.0990909324,38902.7793008530,56100.4073072500,37712.4500237550,22294.3720131069
6008487413,7145,-2,0,1625.3244385181,46363.3661047494,-4216.9343525334,18011.7442654265,56620.1018062547,55386.6867147067,38907.2448455870,56105.0553674364,37715.7718049877,22293.8609698403
6008536375,7146,-2,0,1633.7566524164,46359.3507647978,-4218.3701407585,18021.0038827087,56615.5145845525,55380.3108415715,38903.7527165988,56099.9449347708,37710.0043166936,22294.1408268672
6008536375,7146,-2,0,1617.9264788498,46360.3606836341,-4223.7725981479,18000.7933382858,56612.0589586547,55391.6998057978,38902.1830837087,56097.1341968047,37708.8240501018,22294.1529945641
6008536375,7146,-2,0,1619.7029625859,46365.3981101188,-4214.0019375990,18007.2178822083,56618.1914778535,55391.4564518613,38903.8257227797,56101.5267353577,37712.3283467868,22293.1917465151
6008536375,7146,-2,0,1636.6160611698,46364.6437129158,-4207.1515242877,18021.1863981611,56621.3915821179,55386.2608453179,38901.7572143198,56100.9913566975,37711.8294712171,22292.4981877962
6008536375,7146,-2,0,1632.3938703723,46363.8528126223,-4213.9654345086,18007.1448760274,56616.6096772665,55398.7692376519,38905.1033309462,56101.9891078370,37715.0539108751,22295.7834659383
6008536375,7146,-2,0,1627.0765868606,46369.8879902465,-4214.8293409830,18007.7775962622,56624.0441400253,55399.5358025517,38912.7811476414,56110.2874770703,37722.0990073356,22295.9173106034
6008536375,7146,-2,0,1638.3073710282,46371.1412630192,-4209.2443681413,18028.5235193453,56628.7165356053,55388.4631984429,38915.5797179107,56114.5583386551,37722.4762059371,22297.4017696158
6008536375,7146,-2,0,1631.7976532279,46367.6247986374,-4216.1312845430,18018.2783186204,56620.5033402499,55389.6921358220,38911.8077318956,56106.9048573535,37717.2197609096,22298.0344898506
6008561367,7147,-2,0,1626.8088975305,46369.8393194592,-4217.3480542253,18006.0984541006,56618.3131548217,55397.3821202141,38912.0389181352,56104.3131379302,37720.3590266899,22301.1859233277
6008561367,7147,-2,0,1644.3060455619,46371.7374801636,-4206.7013195053,18025.1530673253,56625.1270650426,55391.5902965264,38912.9636630938,56108.4258194564,37722.9020753259,22302.3296868291
6008561367,7147,-2,0,1647.9928576993,46367.4057800946,-4208.2466170018,18025.8952968315,56618.7511919074,55388.7065523793,38909.5202048929,56104.0697839937,37719.2152631886,22300.0543275232
6008561367,7147,-2,0,1624.8742337357,46362.9524030574,-4221.0957048468,18004.0056102471,56607.7515939794,55394.9120777590,38909.6297141643,56101.0156920912,37718.0349965968,22298.4116884521
6008561367,7147,-2,0,1623.7183025375,46366.0308303536,-4218.5648239076,18013.9831216419,56612.3874864690,55389.5461234601,38911.3818625068,56105.3473921601,37721.9529949737,22295.9173106034
6008561367,7147,-2,0,1636.1780240842,46362.1249996735,-4217.7617559173,18020.6023487136,56613.1905544593,55378.8872210432,38904.6044553764,56101.6727477196,37716.9034007922,22290.3931762458
6008561367,7147,-2,0,1632.0166717707,46359.9348142453,-4226.3521498743,17999.7712517527,56608.2991403365,55384.5817031563,38900.4796061534,56095.5402285209,37713.0949116866,22292.4495170089
6008561367,7147,-2,0,1633.6593108418,46362.8063906955,-4224.7703492873,18001.7302509412,56611.5479153882,55384.6912124278,38903.6067042369,56098.5091465456,37713.1800855644,22293.0822372437
6008587540,7148,-2,0,1643.8436730826,46362.2101735512,-4221.0713694532,18020.8578703468,56611.4627415104,55375.6992844756,38904.7991385256,56097.9616001886,37709.6636211826,22290.8433810282
6008587540,7148,-2,0,1630.2523557314,46360.0321558199,-4232.4116628921,18004.6870012692,56605.2207130402,55383.3040949899,38906.7216346236,56094.9926821638,37708.2400006543,22291.4882689598
6008587540,7148,-2,0,1616.8557215294,46363.8163095318,-4234.4680036552,17994.0646019427,56609.7227608647,55387.4289442129,38910.5179560324,56097.3653830443,37713.9709858579,22293.4594358452
6008587540,7148,-2,0,1632.6493920055,46365.1547561824,-4223.2128840940,18014.7861896322,56614.7480196526,55375.7357875661,38909.0213293231,56098.2901280028,37714.2873459753,22293.2890880896
6008587540,7148,-2,0,1639.5363084073,46360.5066959960,-4220.3291399470,18010.9411974361,56608.3599788206,55378.0354822656,38902.3777668578,56092.3766273469,37713.3504333199,22296.8420555619
6008587540,7148,-2,0,1625.0689168848,46360.8230561134,-4224.9893678302,17990.2561128371,56602.4951489519,55388.1711737191,38901.5260280802,56092.4009627405,37716.3071836479,22299.1174148678
6008587540,7148,-2,0,1626.4682020195,46360.9569007785,-4220.7428416389,18001.8032571221,56609.7105931679,55383.4136042613,38905.4318587604,56097.6209046776,37719.2639339759,22297.4869434936
6008587540,7148,-2,0,1633.9026647783,46354.6540338242,-4222.4219838005,18007.9236086241,56607.1067060478,55375.9183030184,38903.3025118164,56094.1409433862,37715.5649541417,22294.6762055275
6008615118,7149,-2,0,1625.8111463910,46353.7536242593,-4229.7591049847,17987.2750271155,56600.7064975189,55383.4501073518,38902.8401393371,56088.0814303684,37712.2553406059,22295.8078013320
6008615118,7149,-2,0,1631.3717838391,46360.7257145388,-4222.5436607687,17993.2371985588,56608.3478111237,55383.3162626868,38909.6053787706,56094.3842973227,37715.5041156576,22298.7402162663
6008615118,7149,-2,0,1640.0473516739,46358.7180445630,-4215.2430426750,18004.8816844183,56609.1995499014,55373.1440681428,38906.8676469855,56091.1720253614,37710.1016582682,22300.4558615184
6008615118,7149,-2,0,1623.2315946646,46352.3421714278,-4224.9406970429,17981.8969051198,56596.7033252642,55375.3220858741,38900.3700968820,56082.0584204410,37703.9813067663,22298.5820362076
6008615118,7149,-2,0,1614.0449835633,46354.6662015210,-4227.4107394979,17979.6458812075,56600.5118143698,55378.7777117718,38903.3268472100,56085.0881769499,37707.7532927814,22297.6086204618
6008615118,7149,-2,0,1632.5033796437,46355.4205987240,-4223.7482627542,18005.5752431372,56605.0016944974,55368.5568464405,38902.7184623689,56087.0715115321,37705.6847843215,22294.3598454101
6008615118,7149,-2,0,1631.0797591154,46351.9406374326,-4231.0853839384,17999.6617424813,56598.3824674258,55368.2039832327,38899.7252089504,56082.1192589252,37700.0754760861,22292.0844861042
6008615118,7149,-2,0,1615.7606288153,46354.2038290417,-4234.5288421393,17981.6900542738,56596.3017912690,55377.0742342166,38902.3290960705,56084.8083199230,37703.7622882235,22296.0024844812
6008652771,7150,-2,0,1625.2392646404,46355.2015801812,-4228.5666706961,17996.9848491802,56602.7263351915,55371.9151307637,38903.2781764227,56089.1643553856,37704.9060517248,22298.9592348091
6008652771,7150,-2,0,1636.3362041429,46350.5656876917,-4230.8785330925,18000.6716613176,56600.8646775776,55365.1133882396,38898.8126316887,56084.1390965978,37700.9393825605,22298.1805022125
6008652771,7150,-2,0,1630.6903928170,46350.3223337552,-4236.8285368389,17987.6643934139,56595.9002572739,55374.5676886711,38899.6156996790,56082.5937991012,37700.2093207511,22296.3431799922
6008652771,7150,-2,0,1634.1825218052,46350.9428862932,-4232.8983707651,18000.3309658065,56600.8403421840,55366.1111393791,38900.9298109359,56083.7740656931,37701.4625935239,22294.3598454101
6008652771,7150,-2,0,1642.6025680067,46345.3822488451,-4229.5765895324,18010.6126696219,56595.3405432200,55357.8492732363,38897.8392159429,56077.6537141911,37696.1818131028,22293.7514605689
6008652771,7150,-2,0,1627.8674871541,46342.4985046980,-4232.7401907064,17987.5792195361,56585.4482057030,55366.1963132569,38896.9874771653,56072.2999275890,37694.3809939730,22293.0579018500
6008652771,7150,-2,0,1620.3600182144,46347.7914528160,-4228.5666706961,17985.5472141667,56589.3662040800,55369.1408958880,38899.6278673758,56076.7289692326,37696.8023656407,22292.6685355517
6008652771,7150,-2,0,1631.0919268122,46345.7229443561,-4225.6220880649,18004.2367964867,56594.0629350536,55356.2066341653,38896.3912600209,56074.9768208901,37692.3976593908,22285.0028865532
6008672580,7151,-2,0,1624.2658488945,46342.3403246394,-4239.3350823844,17994.7094898743,56587.7600680993,55358.6036704394,38891.5971874727,56067.0069794711,37687.5792514489,22279.0528828068
6008672580,7151,-2,0,1608.8615447167,46345.0415533340,-4245.4310984927,17984.9753324160,56588.4292914246,55365.1012205428,38898.2164145444,56071.2048348750,37692.7626902955,22277.8117777309
6008672580,7151,-2,0,1620.5790367572,46349.4462595840,-4237.3152447118,18003.2877161345,56598.6744921495,55361.0615451976,38903.5823688433,56079.5275395019,37698.4815078023,22277.9334546991
6008672580,7151,-2,0,1630.9459144503,46347.7671174224,-4236.8528722325,18001.3895554301,56595.3283755232,55362.5946749973,38902.0370713468,56078.9556577512,37697.9461291421,22280.7441926652
6008672580,7151,-2,0,1624.4848674373,46352.3786745183,-4238.8240391178,17985.6202203476,56592.8826684618,55373.4117574729,38904.3124306527,56080.4644521572,37697.8609552643,22285.4774267293
6008672580,7151,-2,0,1633.4037892086,46356.7225422841,-4230.3431544322,18001.8640956062,56601.3878885410,55368.1674801422,38907.1110009219,56085.3923693705,37700.0633083893,22289.1155680794
6008672580,7151,-2,0,1641.3127921435,46356.5156914381,-4225.4517403094,18015.2120590210,56602.2517950155,55369.6276037610,38906.3566037189,56084.7353137421,37701.5477674017,22292.1453245883
6008672580,7151,-2,0,1626.9062391051,46358.7180445630,-4231.9371227160,18000.7446674985,56600.3779697047,55384.4113554008,38911.4305332941,56084.6501398643,37708.7267085272,22296.7325462905
6008720139,7152,-2,0,1626.7723944401,46366.4080289551,-4226.1818021188,18009.5662476952,56610.4649903709,55384.5208646722,38919.7897410114,56094.2747880513,37716.4531960098,22302.1106682863
6008720139,7152,-2,0,1641.5561460799,46367.1259230677,-4226.3521498743,18026.8078740933,56614.4924980193,55369.5302621864,38917.4900463119,56093.9340925402,37714.5428676086,22301.1494202373
6008720139,7152,-2,0,1635.9955086318,46360.2146712723,-4240.2719950398,18007.4612361448,56603.6997509374,55368.8245357706,38909.8852357976,56083.3481963043,37706.9623924879,22296.0389875716
6008720139,7152,-2,0,1628.0986733938,46362.8550614828,-4246.5505266004,18001.1096984032,56605.9507748496,55375.1030673313,38911.6860549274,56084.3702828374,37709.2134164001,22293.7879636594
6008720139,7152,-2,0,1639.3537929550,46362.8185583924,-4243.1922422773,18023.4739251638,56609.6619223806,55366.7316919171,38913.6207187222,56086.9741699575,37708.6050315590,22292.2670015565
6008720139,7152,-2,0,1639.2442836836,46360.3971867246,-4247.3535945907,18019.5437590900,56605.4640669767,55369.6884422451,38912.3431105558,56084.3824505342,37705.7212874119,22292.4738524025
6008720139,7152,-2,0,1630.6052189393,46362.7455522114,-4245.4676015832,18006.8163482132,56605.6587501259,55374.8718810916,38913.9735819301,56087.5460517082,37709.1404102192,22294.0799883831
6008720139,7152,-2,0,1642.5782326131,46365.8726502949,-4230.8055269115,18026.8443771837,56616.7070188411,55368.9583804357,38916.4922951724,56093.8124155720,37712.5230299360,22294.0678206863
6008755754,7153,-2,0,1652.9207749126,46359.3751001915,-4226.0844605442,18031.9669775462,56612.7038465864,55361.7064331292,38913.6450541159,56088.9940076301,37706.8163801260,22294.7978824957
6008755754,7153,-2,0,1638.6358988424,46357.9028088759,-4232.1561412589,18007.8140993526,56604.7705082578,55371.2215720448,38912.7203091573,56086.5604682655,37706.5730261895,22296.2336707208
6008755754,7153,-2,0,1635.1924406415,46359.9226465485,-4228.4206583342,18013.1557182579,56607.5082400430,55367.8876231153,38914.0830912015,56089.1765230825,37707.8384666591,22296.6108693223
6008755754,7153,-2,0,1643.5881514494,46355.4814372081,-4226.0722928474,18027.4527620249,56606.5226566003,55358.4089872902,38907.6707149758,56083.4090347884,37701.4139227366,22293.2525849992
6008755754,7153,-2,0,1635.9468378446,46354.5810276432,-4234.2246497188,18010.2963095045,56599.7330817731,55364.1764755843,38902.4872761292,56077.3130186801,37695.4152482029,22293.1065726373
6008755754,7153,-2,0,1631.8098209248,46359.6184541279,-4232.2291474398,18006.4026465212,56604.9408560133,55368.8853742548,38906.8311438950,56082.7154760695,37699.1628988244,22296.4161861731
6008755754,7153,-2,0,1638.6237311456,46358.8640569249,-4229.1872232341,18019.9452930851,56607.6420847080,55358.2873103220,38906.5756222617,56083.8227364804,37698.1529799881,22296.4891923541
6008755754,7153,-2,0,1630.6660574234,46354.6418661273,-4237.2179031372,18006.1349571911,56600.8525098808,55360.5748373247,38903.7527165988,56079.4058625336,37694.8311987554,22294.0556529895
6008771124,7154,-2,0,1618.0481558180,46354.5810276432,-4246.6965389623,17991.7770749400,56596.8493376261,55365.8312823522,38903.6553750242,56079.5640425923,37695.9506268631,22290.5513563045
6008771124,7154,-2,0,1637.3704583728,46359.2777586169,-4237.6072694355,18015.8934500431,56608.8588543903,55363.2517306257,38907.9870750932,56087.2175238940,37700.5256808685,22292.0114799232
6008771124,7154,-2,0,1651.9595268635,46360.7378822356,-4235.2589039487,18017.2318966936,56609.3942330505,55365.0282143619,38910.5179560324,56087.4122070431,37701.0975626192,22293.3499265738
6008771124,7154,-2,0,1637.4799676442,46362.5752044559,-4242.8272113726,17993.5657263730,56603.6754155437,55375.0787319376,38913.4017001794,56087.7042317669,37705.0520640867,22294.3355100164
6008771124,7154,-2,0,1636.9202535904,46366.7487244662,-4232.0344642906,18001.3652200365,56609.4185684442,55373.3265835951,38916.6383075343,56093.7029063006,37710.8317200776,22294.8222178893
6008771124,7154,-2,0,1646.0581939044,46365.3129362411,-4223.9794489938,18012.6081719009,56612.4361572562,55369.3720821277,38912.6107998859,56090.0160941632,37710.2598383269,22295.7834659383
6008771124,7154,-2,0,1636.7985766222,46366.2133458060,-4226.4738268425,17993.6874033412,56608.1896310650,55379.5442766717,38910.1285897340,56089.0061753269,37710.6735400189,22296.3310122954
6008771124,7154,-2,0,1639.7188238597,46374.4387088583,-4220.1466244946,18002.5941574156,56620.0409677706,55387.7818074208,38919.7289025273,56099.1905375677,37720.0548342694,22303.3031025749
6008799394,7155,-2,0,1656.7170963213,46376.3125341690,-4214.3669685037,18025.7371167728,56625.1879035267,55379.2279165543,38923.8780871440,56105.0188643459,37721.0404177120,22305.3594433380
6008799394,7155,-2,0,1647.4818144327,46370.8249029019,-4224.5026599572,18013.0948797738,56619.0432166311,55377.5122713022,38924.7663290120,56100.5411519151,37716.1003328019,22300.9669047849
6008799394,7155,-2,0,1640.4245502754,46371.7253124668,-4224.9893678302,18004.0177779439,56616.3906587237,55377.9868114783,38927.1025268020,56100.5654873087,37716.4288606161,22297.5842850681
6008799394,7155,-2,0,1658.5665862384,46372.0051694937,-4213.7950867530,18028.0246437756,56619.8219492278,55369.4815913991,38926.1777818435,56100.3829718564,37712.0606574567,22297.5112788872
6008799394,7155,-2,0,1663.8717020532,46368.0750034199,-4213.4787266356,18028.4018423771,56614.0422932369,55366.8168657949,38922.9776775791,56093.3987138800,37705.8429643802,22298.3143468775
6008799394,7155,-2,0,1643.9045115668,46366.7243890725,-4221.7892635657,18005.1858768389,56608.8953574808,55376.2955016199,38922.6126466744,56091.2815346328,37706.8772186101,22296.8055524715
6008799394,7155,-2,0,1643.7463315081,46369.1700961339,-4216.0947814526,18013.4842460721,56615.6362615207,55373.7889560744,38924.1701118677,56098.5213142425,37711.6226203711,22297.3165957380
6008799394,7155,-2,0,1650.6089125162,46365.8361472044,-4217.0803648952,18014.9687050845,56616.2568140587,55369.3720821277,38919.3638716226,56096.7813335968,37709.6392857889,22298.1561668188
6008832379,7156,-2,0,1641.5196429895,46365.0087438205,-4226.5711684171,17994.8676699330,56613.0810451879,55376.0643153803,38917.5995555833,56092.4009627405,37709.0674040383,22301.1250848436
6008832379,7156,-2,0,1645.4498090633,46371.8713248286,-4223.0547040353,18006.1714602816,56619.2744028707,55378.0476499624,38922.1381064983,56100.2004564040,37716.4653637066,22304.3738598953
6008832379,7156,-2,0,1656.0600406929,46368.8050652292,-4217.8104267046,18026.8808802742,56620.5276756435,55365.3080713888,38921.0916845715,56098.5334819393,37714.0318243420,22301.8064758657
6008832379,7156,-2,0,1635.7643223922,46360.3850190278,-4228.0191243391,18008.9091920667,56604.7096697737,55363.4464137749,38916.9424999549,56087.8502441288,37708.2765037448,22298.6185392981
6008832379,7156,-2,0,1622.2095081315,46360.1051620008,-4229.3575709896,17998.9681837624,56600.7673360031,55367.1453936091,38918.8649960529,56087.8745795224,37708.4833545907,22300.3950230342
6008832379,7156,-2,0,1640.8869227547,46359.5576156438,-4220.4873200057,18015.5162514416,56605.4640669767,55357.5329131190,38920.1304365225,56085.4897109451,37704.1516545218,22299.7501351026
6008832379,7156,-2,0,1646.8490941979,46355.7734619319,-4226.7415161727,18004.4314796359,56599.8425910445,55359.6744277598,38915.6405563948,56078.6027945433,37699.9781345115,22299.7136320122
6008832379,7156,-2,0,1635.6183100303,46358.0488212378,-4231.9371227160,17985.7053942254,56599.2585415970,55366.1963132569,38916.8694937739,56078.4202790910,37702.2656615142,22298.7523839631
6008906611,7157,1,0,1636.9567566809,46358.3286782647,-4228.8951985103,17999.9659349019,56602.3856396805,55353.2498838373,38915.7378979694,56080.7078060937,37700.8542086828,22295.5644473955
6008906611,7157,1,0,1635.3871237907,46351.1862402296,-4235.5022578852,18004.8816844183,56594.6226491075,55349.3197177635,38911.9902473479,56075.9867397264,37694.8311987554,22291.6829521090
6008906611,7157,1,0,1623.2194269678,46351.5877742248,-4239.5662686240,17992.4219628716,56589.6947318942,55361.6455946451,38914.5941344681,56074.8794793155,37694.0646338556,22292.0358153169
6008906611,7157,1,0,1629.5466293157,46356.5156914381,-4226.5103299330,18005.1737091421,56598.3702997289,55359.9421170899,38919.9235856765,56080.6591353064,37698.3111600468,22291.9628091359
6008906611,7157,1,0,1643.5029775716,46354.7270400051,-4216.2407938145,18016.4896671874,56599.8304233477,55352.6049959057,38916.8329906835,56079.0043285385,37696.4008316456,22294.3355100164
6008906611,7157,1,0,1629.2424368951,46349.7626197013,-4225.0745417079,17990.7549884069,56590.5464706718,55356.1214602875,38911.7712288051,56071.9227289875,37694.0402984619,22295.2115841877
6008906611,7157,1,0,1620.9684030555,46354.1064874671,-4225.3909018253,17988.9176661866,56594.4644690488,55359.9542847867,38917.1128477104,56074.6969638632,37699.5644328195,22294.5058577719
6008906611,7157,1,0,1638.1735263632,46355.2989217558,-4222.6896731306,18012.7663519596,56598.8205045114,55349.1006992207,38918.1471019403,56075.5973734280,37697.5080920565,22291.1232380552
6008912778,7158,1,0,1639.3051221677,46353.0478978435,-4231.5599241145,18005.2710507167,56591.7145695668,55345.8275887753,38914.3751159252,56068.9538109627,37691.9352869115,22288.8478787493
6008912778,7158,1,0,1629.2302691983,46356.9415608269,-4233.0078800365,17994.2957881824,56594.6591521979,55355.8294355637,38915.7013948789,56072.8474739461,37694.8677018459,22292.5955293707
6008912778,7158,1,0,1637.0419305586,46360.2390066659,-4224.3566475954,18010.1868002331,56600.5848205507,55348.4193081986,38916.0664257836,56074.5387838045,37695.3057389315,22295.2602549750
6008912778,7158,1,0,1639.8526685247,46358.7788830471,-4226.7658515663,18006.5486588831,56595.6204002469,55352.3616419692,38914.2412712602,56071.2048348750,37692.5193363591,22295.5644473955
6008912778,7158,1,0,1636.4457134143,46362.1128319766,-4231.8032780510,17991.1078516147,56594.9268415280,55362.4729980291,38918.7311513879,56073.5410326650,37695.7681114108,22295.2359195813
6008912778,7158,1,0,1655.2691403994,46368.7807298356,-4223.8942751161,18009.6392538761,56604.1621234167,55356.5716650699,38927.3945515258,56081.6933895363,37701.3409165557,22292.9605602754
6008912778,7158,1,0,1669.7365319219,46362.5630367591,-4224.7460138937,18019.1665604885,56602.5316520424,55347.6405756019,38925.3017076722,56080.0020796780,37695.3665774156,22290.1984930966
6008912778,7158,1,0,1649.5746582862,46357.3552625189,-4236.7920337484,17995.4638870774,56593.2598670633,55352.2399650010,38922.3936281316,56075.0984978583,37692.0326284861,22287.8257922161
6008927927,7159,1,0,1638.6358988424,46358.5963675948,-4234.5896806235,17997.8000848674,56597.0440207752,55352.2156296073,38923.2453669092,56077.4711987388,37695.7072729267,22286.9618857417
6008927927,7159,1,0,1645.2672936109,46358.5476968075,-4228.9195339040,18015.8812823463,56600.8768452745,55345.3287132055,38920.7023182732,56077.5563726165,37693.7726091318,22284.3214955311
6008927927,7159,1,0,1639.7553269501,46358.8762246217,-4230.9028684861,18005.0885352643,56595.9854311516,55355.2088830258,38920.2034427034,56073.7235481173,37692.9208703542,22287.2295750718
6008927927,7159,1,0,1635.3749560939,46366.3228550774,-4225.7437650332,18001.4260585206,56601.4365593283,55364.5658418826,38925.5328939119,56080.0385827684,37697.1673965454,22289.9308037665
6008927927,7159,1,0,1647.9928576993,46371.9078279191,-4215.1822041909,18026.4063400981,56610.4771580678,55358.0804594760,38928.1732841225,56088.3126166080,37701.2192395875,22292.8997217913
6008927927,7159,1,0,1645.3281320950,46367.7708109993,-4217.2142095603,18020.5050071390,56606.8146813241,55356.7420128255,38923.7807455694,56084.1512642946,37697.7514459929,22291.6099459281
6008927927,7159,1,0,1634.6327265877,46368.5252082023,-4223.2250517908,18001.9005986967,56603.0061922185,55358.5306642584,38923.7442424789,56083.3968670916,37698.2259861690,22291.6099459281
6008927927,7159,1,0,1646.7030818360,46364.9114022459,-4223.9186105097,18014.1169663069,56605.6344147322,55345.3652162960,38925.5328939119,56083.4333701820,37693.3832428335,22287.1322334972
6008955635,7160,1,0,1657.3619842529,46356.4183498635,-4230.9028684861,18019.4342498186,56598.6866598463,55339.9140881193,38920.3616227621,56074.4049391394,37684.5981657273,22286.1466500546
6008955635,7160,1,0,1640.9842643292,46352.2083267628,-4238.3616666386,18000.5499843494,56591.6293956890,55349.8429287269,38922.1989449824,56073.2125048508,37686.5936680063,22287.3147489496
6008955635,7160,1,0,1633.2091060594,46353.3520902641,-4230.9150361829,18009.9312785998,56595.5838971565,55347.1295323353,38926.3968003863,56077.4103602547,37688.6986795566,22286.6698610180
6008955635,7160,1,0,1641.2762890530,46351.0523955646,-4220.6576677612,18025.9561353157,56598.3581320321,55343.2602047456,38926.3724649927,56076.8263108072,37687.8712761727,22286.6941964116
6008955635,7160,1,0,1635.2654468225,46346.6233539210,-4225.1718832825,18008.0087825018,56589.1958563244,55348.9425191620,38920.4711320335,56071.0344871194,37685.3038921430,22287.6067736733
6008955635,7160,1,0,1633.0874290912,46351.6607804057,-4223.4562380305,18003.5919085551,56593.2476993665,55353.6635855293,38922.6369820680,56076.0597459073,37691.5215852196,22290.9772256933
6008955635,7160,1,0,1644.7197472539,46349.9207997600,-4218.8203455409,18014.0682955196,56595.0120154058,55338.3079521387,38919.4612131972,56075.0498270710,37689.4044059724,22287.7162829447
6008955635,7160,1,0,1636.7134027444,46343.3015726884,-4226.7536838695,17996.8875076056,56585.1318455856,55339.3057032782,38914.2899420475,56068.1629106692,37685.2065505685,22287.4242582210
6008994797,7161,1,0,1627.2712700098,46344.7495286103,-4225.4639080062,17983.6855565528,56584.2436037175,55348.2732958367,38915.0321715537,56068.2359168502,37688.2363070774,22290.1376546125
6008994797,7161,1,0,1642.4930587353,46347.3899188209,-4215.6932474574,18004.7600074501,56594.0629350536,55343.3453786234,38917.3927047373,56073.2976787285,37691.0348773466,22288.8965495366
6008994797,7161,1,0,1650.0735338560,46344.9442117595,-4217.5792404650,18009.8704401157,56592.0065942905,55339.0988524322,38914.9104945854,56069.9150590117,37687.6400899330,22290.1254869157
6008994797,7161,1,0,1635.2411114288,46344.3236592215,-4225.6464234586,17990.7063176196,56587.1516832582,55346.5333151910,38915.0565069473,56071.2170025718,37688.8325242217,22293.4594358452
6008994797,7161,1,0,1634.0730125338,46344.0559698914,-4220.5238230961,17999.8442579336,56590.8141600019,55343.6982418313,38920.6049766986,56075.1715040392,37690.9618711657,22295.6739566669
6008994797,7161,1,0,1643.9166792636,46340.8802010206,-4215.3403842496,18014.6280095735,56590.6803153368,55338.3566229260,38919.6923994369,56073.7235481173,37689.8181076644,22298.4116884521
6008994797,7161,1,0,1637.0419305586,46338.7265186829,-4220.3413076438,17997.1551969357,56585.5820503680,55346.3386320418,38917.8915803071,56072.5554492223,37689.4895798501,22298.1318314252
6008994797,7161,1,0,1635.1194344606,46344.9320440626,-4215.5350673987,17997.9704326229,56591.9092527160,55349.0763638270,38924.3647950169,56077.9579066117,37693.8456153127,22297.2557572539
6009024001,7162,1,0,1646.5814048678,46345.0780564245,-4209.9987653443,18015.4067421702,56594.9755123153,55341.6784041587,38923.3913792710,56081.0119985143,37692.2151439385,22291.9384737423
6009024001,7162,1,0,1636.7742412285,46343.4719204439,-4219.9032705582,18001.2678784619,56591.4712156303,55351.5099031916,38921.5540570508,56079.3815271400,37692.0812992734,22288.9817234143
6009024001,7162,1,0,1628.4515366016,46350.3466691488,-4221.3025556928,17990.6819822259,56594.9390092249,55359.8812786058,38923.3305407869,56083.7010595121,37697.9461291421,22293.2039142119
6009024001,7162,1,0,1647.9320192151,46355.9316419906,-4208.0762692463,18013.6910969181,56605.8412655782,55353.6635855293,38922.9898452759,56089.9065848918,37700.2214884480,22298.5698685108
6009024001,7162,1,0,1656.2790592357,46353.5467734133,-4203.6350599059,18016.2219778573,56604.5636574118,55352.6293312993,38921.2985354175,56085.2585247055,37696.9118749121,22300.8452278167
6009024001,7162,1,0,1641.7873323196,46356.1628282302,-4204.7544880136,17999.6374070876,56602.5924905265,55362.3999918481,38926.1047756626,56084.9664999817,37698.6883586483,22302.3418545259
6009024001,7162,1,0,1642.2618724957,46359.0952431645,-4197.5268761008,18011.7686008201,56609.6132515933,55358.9565336472,38933.0403628516,56091.4518823883,37702.9227171427,22303.5342888146
6009024001,7162,1,0,1646.1677031758,46352.9870593594,-4198.3786148784,18016.8912011826,56606.6565012654,55352.0939526391,38928.2827933939,56086.2927789354,37697.1673965454,22302.4513637973
6009051531,7163,1,0,1638.1735263632,46353.5711088069,-4201.1163466635,17997.0943584516,56602.3978073773,55365.8921208363,38929.3292153206,56083.9322457518,37698.8222033133,22302.3175191323
6009051531,7163,1,0,1647.2019574058,46361.4557763482,-4192.6354619779,18007.1205406337,56613.3730699116,55369.6154360641,38936.1431255415,56093.7394093911,37706.1228214071,22302.5487053719
6009051531,7163,1,0,1662.7401062487,46360.7987207198,-4186.8923090775,18022.7073602639,56617.7777761615,55358.1656333537,38933.5879092087,56093.7394093911,37706.4756846150,22300.1881721883
6009051531,7163,1,0,1651.3633097192,46358.7910507440,-4195.1176721298,18006.8285159100,56610.5014934614,55364.1278047970,38931.2638791155,56090.4541312489,37706.9380570942,22300.5653707898
6009051531,7163,1,0,1639.9256747057,46362.0763288862,-4196.0180816947,18001.9614371808,56610.3068103122,55363.5680907431,38933.6000769055,56092.8876706135,37710.3450122047,22302.5608730687
6009051531,7163,1,0,1655.7193451818,46362.5873721527,-4187.6710416742,18026.1264830712,56616.1351370904,55354.2476349768,38932.8821827929,56094.4451358068,37708.8362177986,22303.9358228097
6009051531,7163,1,0,1659.2358095637,46358.3165105679,-4188.9364821438,18019.9331253883,56612.7403496768,55359.2972291583,38929.1832029588,56086.4022882068,37704.8330455439,22306.7587284726
6009051531,7163,1,0,1645.3159643982,46360.1903358786,-4194.6187965601,18002.5089835378,56609.9174440139,55365.8434500490,38930.7771712426,56087.5825547986,37706.8163801260,22308.3283613628
6009080629,7164,1,0,1647.9685223056,46361.5896210132,-4190.0802456451,18017.5604245078,56613.5069145767,55356.4621557985,38931.9696055312,56090.3324542806,37708.3738453193,22308.5230445120
6009080629,7164,1,0,1648.1997085453,46358.8883923185,-4192.1852571955,18022.4275032370,56610.8786920629,55354.2111318863,38930.6311588807,56087.0350084416,37704.0299775536,22307.9754981549
6009080629,7164,1,0,1634.7544035559,46360.7500499325,-4197.3565283452,18004.6383304819,56609.2117175982,55366.1841455601,38933.3445552722,56087.2540269844,37705.8916351675,22308.8759077198
6009080629,7164,1,0,1643.9775177477,46366.8095629503,-4188.9243144470,18014.8835312068,56618.6903534232,55364.9308727873,38938.9416958108,56093.0945214594,37711.3792664346,22305.8339835141
6009080629,7164,1,0,1661.7910258965,46365.1912592728,-4185.7485455762,18026.7105325187,56618.1063039757,55356.2066341653,38938.0169508522,56092.7294905548,37707.8749697496,22302.7068854306
6009080629,7164,1,0,1648.5647394499,46360.2268389691,-4201.3962036905,18003.2268776504,56608.0679540968,55361.7429362197,38932.5779903724,56086.2197727545,37705.4049272945,22302.0133267117
6009080629,7164,1,0,1640.1081901580,46363.7433033509,-4200.8486573334,17998.4084697085,56609.6984254711,55364.6023449731,38935.1332067052,56090.2837834933,37708.3738453193,22305.3837787316
6009080629,7164,1,0,1655.0379541597,46366.1525073218,-4188.9364821438,18020.3833301707,56615.5632553397,55351.2057107710,38935.0480328274,56091.4762177820,37703.9448036758,22305.4202818221
6009107414,7165,1,0,1657.3254811625,46363.0984154193,-4191.4065245988,18011.6469238519,56611.7304308405,55352.3616419692,38929.4995630762,56085.9764188180,37699.2359050053,22304.6537169223
6009107414,7165,1,0,1650.9496080272,46367.6247986374,-4194.1685917776,18001.0610276159,56611.2315552708,55359.8569432121,38933.6122446023,56087.8624118256,37700.1606499639,22306.2476852061
6009107414,7165,1,0,1659.6495112556,46368.7807298356,-4186.6002843538,18019.7749453296,56617.0112112617,55352.9456914167,38938.4671556347,56094.5546450782,37704.1638222186,22308.0120012454
6009107414,7165,1,0,1654.5877493773,46362.5752044559,-4190.4452765498,18016.1611393732,56611.0368721216,55353.7852624975,38937.1408766810,56089.5172185935,37702.1926553333,22308.9124108103
6009107414,7165,1,0,1635.8859993604,46361.3219316831,-4194.9959951616,17995.5977317424,56608.8466866935,55361.9984578530,38938.8200188425,56089.3712062316,37705.1859087517,22309.8979942530
6009107414,7165,1,0,1643.5151452684,46366.8095629503,-4185.6998747889,18007.6072485067,56615.6971000048,55354.4666535196,38940.8033534247,56091.9750933517,37708.1791621702,22310.4698760036
6009107414,7165,1,0,1654.1862153821,46362.6360429400,-4184.0572357178,18014.4576618180,56611.0247044248,55343.8807572836,38934.2693002307,56085.0395061627,37702.0223075778,22307.9268273676
6009107414,7165,1,0,1639.9013393120,46360.4823606024,-4192.7936420366,17993.9915957618,56601.7042486584,55352.4589835438,38931.4707299615,56079.2355147781,37698.6640232546,22309.3747832896
6009146475,7166,1,0,1632.6980627928,46360.9812361721,-4191.1388352687,17995.5247255615,56603.0913660962,55356.3161434367,38934.8533496782,56081.3283586317,37702.4968477539,22311.4676271431
6009146475,7166,1,0,1647.2384604962,46361.6626271942,-4183.7652109940,18014.1413017006,56608.8466866935,55350.3783073871,38933.1742075167,56084.7839845294,37703.5189342870,22313.5239679062
6009146475,7166,1,0,1646.2528770536,46359.1439139518,-4186.0892410872,18000.8541767699,56605.2207130402,55358.2508072315,38929.8159231935,56081.5108740840,37703.3850896219,22312.7330676127
6009146475,7166,1,0,1640.6922396055,46361.6747948910,-4184.9819806763,17990.8279945878,56607.1310414414,55362.5825073005,38932.1277855899,56085.0030030722,37707.1570756370,22311.3094470844
6009146475,7166,1,0,1649.3921428339,46360.0199881231,-4181.1248207834,18008.9578628540,56609.6254192902,55348.4071405017,38934.2936356244,56086.8159898988,37707.1692433339,22305.7123065459
6009146475,7166,1,0,1643.3934683002,46353.8631335307,-4191.1266675719,18002.4724804474,56600.0737772841,55343.9050926773,38931.1543698441,56081.8880726855,37700.0389729956,22302.0011590149
6009146475,7166,1,0,1629.1572630174,46354.8000461860,-4198.0014162769,17987.7860703821,56598.0904427020,55353.6149147420,38935.5712437908,56081.8637372919,37700.8907117732,22301.4414449610
6009146475,7166,1,0,1642.2010340115,46362.4535274877,-4186.6002843538,18012.0484578470,56610.2581395249,55353.2985546246,38942.1052969847,56090.9286714250,37706.0254798325,22302.3418545259
6009175149,7167,1,0,1650.5724094257,46357.6351195458,-4184.1180742019,18018.1079708649,56608.3843142142,55345.7424148975,38936.6054980208,56087.0471761384,37701.3044134652,22299.5919550439
6009175149,7167,1,0,1638.2343648473,46358.6328706853,-4188.9364821438,18000.2214565351,56606.8633521113,55357.8371055395,38938.9781989012,56088.3612873953,37704.6140270011,22301.1250848436
6009175149,7167,1,0,1636.2997010524,46363.6459617763,-4183.5826955417,18005.9646094356,56615.5267522493,55357.3260622730,38943.9669545986,56094.3356265354,37709.3229256715,22302.6582146433
6009175149,7167,1,0,1650.5480740321,46363.2809308716,-4179.3848401378,18017.6090952951,56618.8241980883,55349.9037672110,38941.9714523197,56093.0215152785,37706.5973615832,22303.6803011764
6009175149,7167,1,0,1650.9982788145,46362.6482106368,-4187.7318801583,17999.7712517527,56615.0522120732,55355.7077585955,38938.8200188425,56089.8579141045,37703.5797727711,22305.7488096363
6009175149,7167,1,0,1653.4561535728,46367.5639601533,-4186.3690981141,17999.0411899433,56616.4514972078,55358.4454903807,38943.1517189115,56092.7538259484,37706.8893863069,22310.1656835831
6009175149,7167,1,0,1664.8207824054,46365.6049609648,-4179.5065171060,18018.4486663759,56617.7899438583,55347.9447680225,38942.0566261974,56092.5591427992,37705.7699581992,22309.8128203752
6009175149,7167,1,0,1657.1673011038,46358.1339951155,-4182.1834104070,18009.1403783064,56605.1355391625,55350.2079596315,38937.2868890428,56084.1634319914,37701.5721027953,22306.1868467220
6009201388,7168,1,0,1642.4687233416,46359.3507647978,-4181.5385224754,17994.3687943633,56602.0936149567,55353.5419085610,38939.6717576201,56082.8614884314,37703.7257851330,22302.6217115528
6009201388,7168,1,0,1656.7292640181,46364.2178435270,-4170.1617259460,18013.3625691039,56611.6695923564,55345.9370980467,38940.9615334834,56087.2905300749,37707.0840694561,22300.8087247262
6009201388,7168,1,0,1666.0862228750,46361.2854285927,-4172.1450605281,18014.6036741798,56610.5258288550,55343.4183848043,38937.1408766810,56084.9178291944,37703.4824311965,22301.5631219292
6009201388,7168,1,0,1651.1929619637,46359.5454479470,-4184.0937388082,17990.8036591942,56606.0967872115,55352.9943622040,38937.7127584316,56084.1999350819,37704.0786483408,22302.9015685798
6009201388,7168,1,0,1649.7571737386,46363.4391109303,-4183.1446584561,18001.7059155475,56612.1563002293,55348.3828051081,38941.6064214150,56090.0160941632,37706.6947031578,22302.9624070639
6009201388,7168,1,0,1658.1285491528,46361.8816457370,-4177.3163316779,18018.5460079505,56614.9427028018,55344.5378129121,38942.1904708625,56090.6853174885,37704.2854991868,22302.0741651958
6009201388,7168,1,0,1653.7725136902,46365.2886008474,-4179.4821817123,18011.5860853678,56612.7160142832,55360.4288249628,38946.4369970537,56093.3500430927,37708.6171992558,22306.0408343601
6009201388,7168,1,0,1653.6751721156,46372.3215296111,-4175.9413819369,18015.1877236274,56623.1680658541,55367.2792382741,38951.0728895432,56100.9913566975,37715.2972648116,22306.9777470155
6009241324,7169,1,0,1667.2056509827,46371.0560891415,-4175.5276802449,18030.8475494385,56626.3073316344,55352.6536666930,38947.6659344328,56100.6871642770,37713.2165886549,22306.0043312696
6009241324,7169,1,0,1659.1628033827,46366.2498488964,-4184.7142913462,18012.3161471771,56617.4979191346,55352.8848529326,38941.6064214150,56093.9827633275,37710.8682231680,22305.4202818221
6009241324,7169,1,0,1644.2573747746,46367.0164137963,-4185.3713469747,17996.3399612486,56615.1130505573,55356.4864911922,38944.2103085351,56095.6862408827,37713.5572841659,22305.7488096363
6009241324,7169,1,0,1659.5034988938,46370.1070087893,-4172.3154082836,18019.4099144249,56622.8273703430,55349.6969163650,38946.9115372298,56097.4870600125,37712.9854024152,22303.5829596019
6009241324,7169,1,0,1666.3417445083,46366.2133458060,-4173.7755319024,18019.3247405472,56617.5709253155,55347.7135817828,38942.8475264909,56092.1211057136,37706.6947031578,22301.1372525404
6009241324,7169,1,0,1656.3520654166,46367.4422831851,-4176.9513007732,18002.7036666870,56614.2491440829,55358.0196209919,38944.4293270779,56089.6388955617,37707.5951127227,22304.7997292841
6009241324,7169,1,0,1657.1307980133,46368.4400343246,-4172.5709299169,18012.7055134755,56616.6218449633,55352.3981450597,38946.3639908727,56093.4230492737,37708.2643360479,22303.3517733622
6009241324,7169,1,0,1660.0632129476,46365.5927932680,-4173.4591717850,18019.1908958821,56614.9548704986,55343.5643971662,38943.2855635766,56090.7704913663,37704.0178098567,22299.9813213423
6009271423,7170,1,0,1646.4232248091,46363.9379865001,-4182.0130626515,17999.3210469702,56608.6276681507,55349.2710469762,38942.0566261974,56088.1787719430,37702.5698539348,22298.7402162663
6009271423,7170,1,0,1650.8522664527,46370.4477043003,-4179.5430201965,18003.7744240074,56618.1793101567,55348.9060160715,38946.4613324473,56094.0801049021,37705.6726166247,22297.6937943395
6009271423,7170,1,0,1668.4345883618,46369.3769469799,-4177.6083564016,18017.1953936031,56620.3816632816,55340.0235973907,38944.7821902858,56092.6564843738,37702.0344752746,22296.2701738113
6009271423,7170,1,0,1661.6206781410,46363.7676387445,-4187.4276877377,17999.8199225400,56611.3532322390,55348.3097989272,38940.8155211215,56086.2076050577,37700.4891777781,22297.1949187698
6009271423,7170,1,0,1651.1442911764,46365.4346132093,-4186.7584644125,17994.0524342459,56610.7691827915,55355.6469201114,38945.8042768189,56090.4541312489,37706.8528832165,22302.6217115528
6009271423,7170,1,0,1663.0442986692,46365.0087438205,-4174.6516060736,18017.0858843317,56618.2766517313,55347.0443584576,38948.4081639390,56093.6177324228,37709.2134164001,22303.5829596019
6009271423,7170,1,0,1664.5409253785,46357.6837903331,-4177.7056979762,18012.1579671184,56611.0490398184,55341.8000811269,38944.4414947747,56086.4387912973,37704.4680146392,22304.2643506239
6009271423,7170,1,0,1654.8676064042,46358.8397215313,-4183.0473168815,18001.2800461587,56607.7394262826,55348.9668545556,38945.1958919778,56085.3558662800,37705.6482812310,22306.8925731377
6009300215,7171,1,0,1660.9027840284,46359.7157957025,-4178.8981322648,18018.7285234028,56612.3631510753,55342.7856645695,38947.0575495917,56089.5780570776,37706.6703677641,22303.1814256067
6009300215,7171,1,0,1665.5386765179,46358.0244858441,-4179.9080511012,18024.4960116969,56613.1418836720,55341.5688948872,38946.5343386283,56089.6388955617,37704.6140270011,22305.4202818221
6009300215,7171,1,0,1654.0888738076,46361.3706024704,-4186.5394458697,18006.4878203989,56614.1274671146,55349.5265686095,38951.3649142670,56089.7484048331,37706.4391815245,22308.4013675437
6009300215,7171,1,0,1657.8486921258,46365.6171286616,-4181.3316716294,18016.5870087620,56621.5010913893,55347.4093893623,38955.5140988836,56093.5568939387,37709.0430686446,22308.7785661452
6009300215,7171,1,0,1673.7275364798,46362.7698876051,-4177.3771701620,18030.8110463480,56621.3307436338,55338.1376043832,38951.2310696019,56089.2373615666,37705.8307966833,22307.4766225852
6009300215,7171,1,0,1658.3597353924,46356.2723375016,-4187.8413894297,18009.9312785998,56608.0436187032,55341.8000811269,38943.1882220020,56083.5915502407,37700.9028794701,22305.0430832206
6009300215,7171,1,0,1643.0649404860,46356.7712130714,-4189.1068298993,18005.0520321738,56607.1067060478,55343.9537634645,38943.7601037526,56086.9254991702,37702.9713879300,22301.4536126578
6009300215,7171,1,0,1655.8045190596,46358.0609889346,-4183.9355587495,18025.1287319317,56613.8962808750,55336.7383192485,38944.9768734349,56090.4176281584,37702.8497109617,22301.3927741737
6009353794,7172,1,0,1660.7689393634,46357.9879827536,-4192.1852571955,18017.9862938966,56612.3388156817,55339.6707341829,38943.5167498162,56085.6965617911,37698.3476631372,22301.4779480515
6009353794,7172,1,0,1660.7446039697,46364.4977005539,-4198.4881241498,18011.1115451917,56616.1959755745,55346.5454828878,38950.5131754894,56090.1621065251,37701.8154567318,22303.5829596019
6009353794,7172,1,0,1672.5716052816,46368.1115065103,-4187.3911846473,18033.6826227982,56621.4645882989,55337.9429212340,38953.9809690839,56094.7371605305,37703.3972573188,22304.8240646778
6009353794,7172,1,0,1666.1957321464,46360.7622176293,-4187.1478307108,18031.7114559129,56615.1373859509,55334.6333076982,38948.1526423057,56089.4077093221,37697.1187257581,22302.0133267117
6009353794,7172,1,0,1648.7715902959,46363.0984154193,-4186.7706321093,18016.3436548255,56612.2901448944,55347.1903708195,38948.9070395087,56090.4784666425,37701.9858044873,22304.3008537144
6009353794,7172,1,0,1654.6972586487,46365.3981101188,-4175.0531400688,18031.2125803432,56618.2888194281,55345.1705331468,38951.1093926337,56094.3356265354,37706.5608584927,22302.9624070639
6009353794,7172,1,0,1673.3503378783,46362.9158999669,-4168.1662236670,18044.3658606088,56618.6295149391,55341.5810625841,38949.1260580516,56092.8633352198,37707.4734357544,22303.5342888146
6009353794,7172,1,0,1664.5530930753,46362.1128319766,-4178.9102999617,18021.2350689484,56613.6650946354,55348.5653205604,38948.5541763009,56088.8601629651,37708.2886714416,22307.8294857931
6009365642,7173,1,0,1655.6341713041,46363.9501541969,-4183.8017140845,18015.3215682924,56615.1008828605,55343.9780988582,38950.6470201544,56091.3180377233,37709.4567703366,22306.4180329616
6009365642,7173,1,0,1666.9744647431,46363.3661047494,-4182.1104042261,18032.0399837271,56616.5853418729,55335.1443509647,38950.5740139735,56090.7461559726,37705.9646413484,22304.9335739492
6009365642,7173,1,0,1667.8383712175,46360.8108884166,-4187.2086691949,18023.1088942591,56610.7813504883,55342.6761552981,38949.4667535626,56084.8083199230,37702.0223075778,22303.1327548194
6009365642,7173,1,0,1667.9357127921,46366.4323643488,-4184.1910803828,18022.5978509925,56615.9891247285,55355.5252431432,38956.0981483311,56090.2716157965,37708.0209821115,22306.0651697537
6009365642,7173,1,0,1682.4882781923,46370.7640644177,-4171.6826880488,18048.1621820175,56627.0738965343,55350.8406798663,38960.9408916666,56098.2414572155,37712.8637254470,22307.7929827026
6009365642,7173,1,0,1677.3656778298,46366.0795011409,-4176.6471083526,18043.2951032883,56620.9170419418,55349.1128669175,38954.6380247124,56091.1355222709,37711.7564650361,22307.3671133138
6009365642,7173,1,0,1660.9271194221,46368.0019972389,-4184.3735958352,18023.4374220733,56620.7466941863,55357.7884347522,38954.6015216219,56093.4108815768,37714.7497184546,22309.2896094118
6009365642,7173,1,0,1664.9911301609,46370.6180520559,-4183.4975216639,18038.6957138893,56627.0617288374,55349.6360778809,38954.7962047711,56096.5136442667,37716.6722145526,22305.4932880031
6009394295,7174,1,0,1675.0781508271,46367.0529168867,-4184.7264590430,18046.7872322765,56623.1680658541,55341.0578516207,38950.0751384038,56091.5248885693,37711.0020678331,22303.1692579099
6009394295,7174,1,0,1660.7202685761,46365.8726502949,-4189.0703268088,18023.9362976430,56613.7015977258,55347.0443584576,38951.2554049956,56088.4829643635,37707.5099388449,22304.7997292841
6009394295,7174,1,0,1655.0744572502,46368.0019972389,-4180.9544730279,18024.4716763033,56615.1130505573,55341.9217580951,38953.1413980031,56092.6564843738,37707.6437835100,22304.1548413525
6009394295,7174,1,0,1664.4800868944,46360.3363482405,-4178.3992566951,18032.9525609888,56610.7570150947,55331.3236941623,38947.3860774059,56086.0980957862,37699.0290541593,22297.9371482760
6009394295,7174,1,0,1659.1749710795,46356.0533189588,-4185.5781978206,18015.0782143559,56604.4298127468,55337.7360703880,38941.5942537182,56076.6194599612,37694.7946956649,22298.6185392981
6009394295,7174,1,0,1656.7292640181,46359.0709077709,-4186.8071351998,18009.8947755094,56610.2094687377,55340.4007959923,38941.5334152340,56078.7244715115,37699.1628988244,22299.1660856551
6009394295,7174,1,0,1671.9875558341,46363.2079246907,-4179.5673555901,18031.5046050669,56618.4469994868,55329.3525272770,38942.2999801339,56083.4942086661,37700.6108547463,22300.9669047849
6009394295,7174,1,0,1668.6292715110,46361.2732608958,-4185.9553964222,18021.7582799117,56612.0467909579,55332.7108116001,38940.4383225200,56080.6226322159,37698.0799738071,22303.3274379686
6009426575,7175,1,0,1654.5634139837,46364.7288867936,-4187.2208368917,18006.2322987657,56609.9539471044,55344.2579558851,38942.8475264909,56083.4090347884,37702.5698539348,22303.9723259002
6009426575,7175,1,0,1666.9257939558,46370.9709152637,-4173.3009917263,18031.0665679813,56621.2334020592,55343.7469126186,38950.5983493671,56093.5203908482,37710.1259936618,22305.5541264872
6009426575,7175,1,0,1678.8988076295,46370.8005675082,-4169.3829933493,18042.3095198457,56621.5619298735,55343.2967078361,38949.4789212594,56092.1576088041,37710.3085091142,22307.7686473089
6009426575,7175,1,0,1666.2809060241,46370.4598719972,-4177.8395426412,18024.4716763033,56617.1450559267,55350.8406798663,38950.0873061006,56090.8921683345,37710.8195523808,22307.9389950645
6009426575,7175,1,0,1665.8185335449,46373.7086470489,-4174.3230782594,18035.3130941725,56622.1581470178,55349.5022332158,38955.1369002821,56095.0170175575,37713.3626010167,22309.5938018324
6009426575,7175,1,0,1670.9289662105,46372.7960697872,-4169.8331981318,18046.4222013718,56624.6525248665,55340.3521252050,38951.7299451717,56092.8389998262,37710.9168939553,22309.4964602578
6009426575,7175,1,0,1657.6905120671,46370.8614059923,-4174.9923015847,18028.9858918246,56618.2279809440,55343.6130679535,38949.6979398022,56087.0715115321,37707.2909203021,22311.2486086003
6009426575,7175,1,0,1650.8644341495,46371.0195860510,-4175.6980280004,18025.7736198633,56618.6538503328,55342.3476274839,38950.6835232449,56088.6168090286,37708.4225161066,22310.3968698227
6009479257,7176,1,0,1665.4169995497,46368.2696865690,-4171.9503773789,18042.7718923250,56621.9877992623,55333.7328981333,38948.5420086041,56088.0327595811,37707.1692433339,22307.6591380375
6009479257,7176,1,0,1660.3309022777,46365.5562901775,-4179.1779892918,18026.9295510615,56614.2613117797,55337.0911824564,38945.9259537871,56083.8349041772,37705.4779334755,22306.0043312696
6009479257,7176,1,0,1650.2438816115,46369.3891146767,-4179.4456786219,18012.7055134755,56613.6650946354,55345.3165455087,38950.1359768879,56086.7551514147,37709.6271180921,22307.3306102233
6009479257,7176,1,0,1664.3219068357,46372.3093619143,-4170.2834029142,18034.2910076394,56623.2654074287,55334.3169475808,38953.2874103650,56089.1035169015,37709.1282425224,22307.3306102233
6009479257,7176,1,0,1672.3160836483,46368.7442267451,-4172.4127498582,18035.9944851946,56620.7223587927,55335.3268664171,38948.4446670295,56084.3094443533,37704.1273191281,22307.5252933725
6009479257,7176,1,0,1660.7932747570,46370.8735736891,-4180.5042682455,18016.6965180334,56617.1450559267,55348.1272834748,38950.4158339148,56084.7231460453,37707.7046219941,22308.8272369325
6009479257,7176,1,0,1662.6062615836,46375.4607953914,-4173.3374948168,18027.2459111789,56623.8372891793,55346.5698182815,38954.3581676854,56090.5879759139,37713.1922532612,22310.2751928545
6009479257,7176,1,0,1665.5386765179,46371.7739832540,-4170.1495582492,18033.5001073459,56620.5398433403,55338.5634737720,38951.6812743844,56088.3612873953,37710.0043166936,22309.8128203752
6009484448,7177,1,0,1652.5192409174,46371.9443310096,-4172.6317684010,18015.2972328988,56613.8597777845,55346.5941536751,38950.6835232449,56085.5018786419,37709.1525779160,22310.1413481894
6009484448,7177,1,0,1663.0199632756,46381.1431098077,-4160.8412701796,18025.8831291347,56625.3095804949,55350.5364874458,38959.2130787178,56095.0778560416,37716.6357114621,22313.0250923365
6009484448,7177,1,0,1685.0678299188,46381.1066067172,-4154.7209186777,18046.1788474354,56630.5295224320,55341.1430254985,38959.2860848987,56094.1044402957,37713.6059549532,22312.3923721017
6009484448,7177,1,0,1677.9010564901,46373.8789948044,-4163.2018033633,18032.1738283922,56622.5231779225,55348.3949728049,38957.9111351577,56090.9530068186,37711.5739495838,22312.5383844635
6009484448,7177,1,0,1664.6991054372,46376.3855403499,-4164.0535421409,18025.2990796872,56622.9125442208,55350.5851582331,38963.2649217598,56094.2382849608,37716.4045252225,22314.2783651092
6009484448,7177,1,0,1671.4278417803,46370.3260273321,-4158.2738861500,18042.1513397870,56623.2897428223,55338.0037597181,38960.2229975541,56092.6564843738,37712.5108622391,22308.6325537834
6009484448,7177,1,0,1673.4111763624,46366.0308303536,-4159.8435190401,18038.2090060164,56617.3032359854,55341.5688948872,38954.3825030791,56087.1445177130,37708.5928638622,22307.3062748297
6009484448,7177,1,0,1662.9956278820,46369.3039407990,-4161.5104935049,18023.8632914621,56617.7291053742,55350.6216613235,38956.2441606930,56090.0282618601,37713.4477748945,22312.0881796811
6009518623,7178,1,0,1667.2664894668,46370.0096672147,-4156.4730670202,18040.8007254396,56622.5961841034,55338.5391383783,38958.7628739353,56095.2482037971,37714.7010476673,22313.0494277301
6009518623,7178,1,0,1667.8505389143,46364.8992345491,-4157.3613088882,18045.5826302911,56618.2401486408,55334.7063138791,38954.8327078615,56093.7150739974,37711.7929681266,22314.1810235346
6009518623,7178,1,0,1654.9771156756,46365.6171286616,-4164.5889208011,18025.3842535650,56611.8156047183,55343.9902665550,38956.0008067565,56091.0260129995,37713.0949116866,22317.0282645912
6009518623,7178,1,0,1660.3187345809,46368.6225497769,-4160.8777732701,18031.1152387686,56619.4690860199,55340.0844358749,38959.5416065320,56092.8024967357,37715.7596372909,22318.1476926989
6009518623,7178,1,0,1675.6865356683,46367.0650845836,-4160.7195932114,18040.6060422905,56621.0265512132,55333.4652088032,38955.9278005756,56088.3734550921,37710.6978754125,22318.5735620877
6009518623,7178,1,0,1664.7964470117,46363.7919741382,-4175.8075372718,18016.1489716764,56612.0346232611,55336.8843316104,38952.6181870397,56080.4036136731,37705.8672997738,22317.3932954959
6009518623,7178,1,0,1652.5922470983,46366.5418736202,-4177.0486423478,18010.5761665315,56614.5776718971,55336.6774807644,38953.2874103650,56082.1070912283,37705.9768090452,22312.7695707032
6009518623,7178,1,0,1664.6747700435,46367.9533264516,-4163.3478157251,18034.8020509059,56621.5862652671,55326.6026277950,38953.9688013871,56085.6235556102,37705.3684242041,22309.9101619498
6009559314,7179,1,0,1664.6017638626,46366.1403396250,-4163.9440328695,18028.2558300152,56616.1108016968,55323.6823805575,38950.5740139735,56078.8096453893,37701.7302828540,22308.2431874850
6009559314,7179,1,0,1658.4570769670,46371.5671324081,-4168.1175528797,18019.0448835202,56618.6538503328,55334.3534506712,38956.2319929962,56085.1855185245,37706.3783430404,22310.4577083068
6009559314,7179,1,0,1667.2178186795,46373.4652931124,-4161.1332949034,18038.3185152878,56622.6935256780,55327.8072297805,38960.1499913731,56090.0891003442,37709.7731304540,22309.6181372260
6009559314,7179,1,0,1665.1249748260,46368.1845126913,-4162.7637662776,18034.4856907885,56616.3663233301,55326.9433233061,38954.3216645950,56085.0395061627,37706.8528832165,22310.1291804926
6009559314,7179,1,0,1644.6102379825,46365.5076193902,-4167.6673480973,18006.5973296704,56608.8345189967,55338.0767658991,38951.3284111765,56080.3671105826,37708.4833545907,22310.5428821846
6009559314,7179,1,0,1654.1497122917,46369.6446363100,-4158.0670353040,18018.1444739553,56617.1085528363,55338.1862751705,38953.7011120570,56086.4144559036,37713.2530917453,22312.4532105858
6009559314,7179,1,0,1674.7982938002,46369.1335930435,-4152.4333916749,18035.5199450185,56621.6106006608,55334.6089723045,38952.9223794603,56086.2076050577,37712.9732347184,22313.7551541458
6009559314,7179,1,0,1670.5517676090,46371.2264368970,-4157.9331906389,18023.4495897701,56620.2843217070,55343.3332109266,38954.2851615045,56086.6943129306,37715.5041156576,22316.6997367770
6009600223,7180,1,0,1662.1803921948,46374.4995473424,-4159.3446434704,18025.2504088999,56625.9544684265,55340.6076468382,38959.3225879892,56091.4397146915,37717.3536055747,22314.9475884345
6009600223,7180,1,0,1667.4003341319,46374.3657026773,-4158.7605940229,18043.8669850390,56629.2762496592,55331.5062096147,38959.7849604685,56092.1941118945,37715.7231342004,22311.2121055098
6009600223,7180,1,0,1663.8960374468,46371.3602815621,-4167.8985343369,18030.1174876291,56622.8517057367,55335.2781956298,38956.8890486246,56086.8524929893,37711.3549310410,22310.4090375195
6009600223,7180,1,0,1660.1362191286,46374.6333920074,-4165.6353427278,18017.7064368697,56623.0342211890,55343.4305525012,38956.8647132309,56089.4077093221,37717.0372454573,22312.9399184587
6009600223,7180,1,0,1674.7252876193,46375.9718386580,-4151.1192804181,18035.5321127153,56630.1158207400,55335.7405681091,38958.5195199989,56093.8002478752,37718.9840769489,22314.1810235346
6009600223,7180,1,0,1673.5085179370,46370.1556795766,-4152.7740871860,18028.9615564309,56621.3429113306,55329.5593781230,38953.6037704824,56087.4730455272,37714.5428676086,22311.0660931480
6009600223,7180,1,0,1652.0447007413,46367.2962708232,-4164.0778775345,18009.6027507856,56614.2369763860,55332.1267621526,38955.9886390597,56084.3581151406,37713.5937872564,22308.8029015389
6009600223,7180,1,0,1654.3565631377,46367.2354323391,-4163.8345235980,18024.1796515795,56618.6051795455,55319.5575313345,38958.6168615735,56085.0638415563,37711.7929681266,22307.0994239837
6009612459,7181,1,0,1666.1348936623,46361.4071055609,-4167.3996587672,18029.3509227293,56615.2103921319,55309.4096721842,38953.9809690839,56078.3229375164,37702.5455185412,22304.8727354651
6009612459,7181,1,0,1658.8951140526,46359.9834850326,-4175.4060032767,18007.9236086241,56609.0900406299,55320.4214378090,38953.1292303063,56074.3806037458,37697.9217937484,22305.0674186142
6009612459,7181,1,0,1660.3309022777,46365.9578241727,-4169.5655088017,18015.6014253193,56616.2811494523,55324.5462870320,38958.4100107275,56081.1336754825,37704.4315115487,22307.6348026439
6009612459,7181,1,0,1667.2056509827,46365.1790915760,-4169.3343225620,18029.5334381816,56620.5641787340,55318.3772647427,38955.8791297883,56080.4887875509,37702.1804876365,22305.7001388490
6009612459,7181,1,0,1659.6251758620,46364.6923837031,-4178.5939398443,18012.7785196564,56618.4956702741,55327.8072297805,38954.7962047711,56080.5374583382,37701.4990966144,22305.5784618808
6009612459,7181,1,0,1660.0145421603,46369.9731641242,-4174.3474136531,18007.8992732304,56623.7034445143,55332.9298301430,38958.0814829132,56086.8281575956,37706.5365230991,22306.7222253822
6009612459,7181,1,0,1679.1543292628,46373.1245976014,-4163.6641758425,18030.1296553259,56629.3492558401,55323.8040575258,38958.4830169084,56090.1377711315,37708.9578947668,22306.5032068394
6009612459,7181,1,0,1675.2728339763,46369.9853318211,-4168.5920930558,18022.5613479021,56620.6858557022,55326.2740999808,38955.3437511281,56083.9200780549,37707.4004295735,22306.8073992599
6009640320,7182,1,0,1657.2159718911,46370.6180520559,-4172.7656130661,18003.6892501297,56614.2613117797,55334.6089723045,38957.1080671674,56083.5307117566,37709.6271180921,22309.8858265561
6009640320,7182,1,0,1667.6436880683,46375.6676462374,-4163.0314556077,18024.4595086064,56625.7841206710,55331.3115264655,38962.7052077060,56090.4176281584,37714.6767122736,22313.0737631237
6009640320,7182,1,0,1677.4143486171,46371.8104863445,-4165.5745042437,18030.6406985925,56624.6525248665,55327.0406648807,38960.2473329477,56087.4365424368,37712.0119866694,22311.2242732067
6009640320,7182,1,0,1666.7797815939,46372.5405481539,-4171.7800296234,18012.5960042041,56621.2942405434,55337.9915920213,38961.7561273538,56087.9840887938,37714.0926628261,22312.1368504684
6009640320,7182,1,0,1667.3029925573,46376.9574221006,-4165.4528272755,18023.2914097114,56630.1036530432,55333.5260472873,38964.4086852612,56095.7714147605,37717.6577979952,22314.4487128647
6009640320,7182,1,0,1671.7928726849,46373.5504669902,-4161.6443381699,18034.5221938790,56628.3880077911,55323.8648960099,38959.8944697399,56093.5568939387,37712.6933776915,22312.4410428890
6009640320,7182,1,0,1660.2943991873,46374.1101810441,-4165.2581441263,18019.8236161169,56623.6182706365,55334.9375001188,38959.8214635589,56091.5978947502,37709.5784473048,22311.9786704097
6009640320,7182,1,0,1657.7878536417,46379.5369738271,-4159.9651960083,18023.0723911686,56632.2451676840,55338.1376043832,38963.5691141804,56096.3797996016,37715.4189417798,22312.2341920430
6009679129,7183,1,0,1673.0096423672,46379.5491415239,-4152.6159071273,18041.8714827601,56637.3190972592,55328.0627514138,38964.4573560485,56097.7790847363,37714.9809046942,22312.6600614318
6009679129,7183,1,0,1667.8748743080,46374.8280751566,-4161.4496550207,18029.3509227293,56629.5317712925,55330.3624461133,38961.0504009380,56092.9606767944,37713.7763027087,22312.6478937349
6009679129,7183,1,0,1648.4308947849,46373.2097714792,-4170.5632599411,18013.9587862482,56624.5673509887,55335.4972141726,38962.4618537695,56094.0922725989,37716.8790653986,22310.7619007274
6009679129,7183,1,0,1655.2934757930,46374.4508765551,-4163.0922940918,18031.9426421525,56632.5736954982,55331.1776818005,38965.6619580339,56099.3243822328,37721.4541194040,22309.8979942530
6009679129,7183,1,0,1666.2078998432,46373.3436161442,-4158.7484263261,18032.0521514239,56632.8778879188,55334.1344321284,38963.1067417011,56096.9273459587,37722.4883736340,22311.4432917495
6009679129,7183,1,0,1663.9082051437,46379.1476075288,-4157.1057872550,18017.1223874222,56634.0094837233,55343.9780988582,38967.4749448606,56101.2225429372,37728.5113835613,22313.9741726886
6009679129,7183,1,0,1669.9677181615,46381.7514946489,-4150.2553739436,18031.0544002845,56637.7206312543,55335.7649035027,38970.0058257997,56102.0377786243,37729.9836748769,22316.1400227231
6009679129,7183,1,0,1669.7973704060,46373.1611006919,-4154.8425956459,18035.7267958645,56629.8237960162,55324.8991502398,38963.2405863662,56093.4717200610,37722.8412368418,22314.7042344980
6009716421,7184,1,0,1648.0658638802,46367.7343079088,-4169.7601919508,18012.7785196564,56618.6295149391,55330.1799306610,38959.1765756273,56086.1711019672,37717.1832578192,22313.3901232411
6009716421,7184,1,0,1648.9906088387,46372.4918773666,-4169.4316641366,18017.6334306888,56627.4875982262,55331.3845326465,38964.5181945326,56093.7150739974,37721.3689455262,22313.3657878475
6009716421,7184,1,0,1673.8492134480,46375.4729630882,-4163.1653002728,18036.9435655468,56634.5205269899,55325.3858581127,38967.3045971050,56096.8786751714,37719.3247724600,22309.5329633483
6009716421,7184,1,0,1674.0317289004,46374.8037397630,-4170.4415829729,18016.4166610065,56629.6047774734,55331.3967003433,38966.2338397846,56091.4275469947,37716.8912330954,22308.7785661452
6009716421,7184,1,0,1662.4845846154,46378.4662165067,-4172.8994577311,18003.5554054646,56627.8891322214,55340.4616344764,38968.5943729683,56095.3942161590,37721.6122994627,22309.8736588593
6009716421,7184,1,0,1671.5373510517,46381.8853393139,-4165.9151997548,18027.2945819662,56635.3357626770,55334.1587675221,38972.7070544944,56100.1882887072,37726.1265149840,22313.4266263316
6009716421,7184,1,0,1673.6058595116,46378.0768502083,-4169.0788009287,18026.5888555504,56630.6998701875,55331.3845326465,38968.5578698778,56095.1995330098,37721.1012561961,22313.8646634172
6009716421,7184,1,0,1663.1416402438,46378.7460735336,-4171.8530358044,18010.6491727124,56628.4488462752,55336.2516113756,38967.8643111589,56094.9683467702,37722.5857152085,22313.4631294221
6009739941,7185,1,0,1669.3958364108,46379.5613092207,-4164.6862623756,18022.0503046355,56631.5881120556,55331.7130604607,38965.1022439801,56096.5866504476,37723.8998264654,22311.4432917495
6009739941,7185,1,0,1671.8902142595,46375.0227583058,-4161.8025182286,18021.7339445181,56627.0252257470,55327.9654098392,38962.9242262488,56091.0868514837,37724.6907267589,22313.3779555443
6009739941,7185,1,0,1653.8576875679,46371.0439214447,-4166.9616216815,17995.1840300504,56617.8021115552,55336.1542698010,38962.6322015250,56087.0350084416,37727.7448186615,22316.1521904200
6009739941,7185,1,0,1658.9802879304,46371.3724492589,-4161.2549718716,18003.8352624915,56620.5276756435,55334.7184815759,38965.7349642149,56090.6123113076,37730.0323456642,22319.2427854130
6009739941,7185,1,0,1678.9474784168,46367.3084385200,-4157.9818614262,18023.3279128019,56621.8782899909,55322.8428094767,38965.6376226403,56087.4365424368,37723.8146525877,22317.6366494324
6009739941,7185,1,0,1670.9898046946,46365.8483149013,-4166.2193921753,18010.2719741109,56616.9138696871,55327.1015033648,38964.7007099849,56083.7618979962,37717.5239533302,22317.2472831340
6009739941,7185,1,0,1660.1970576127,46372.2120203397,-4167.1563048307,18007.4247330543,56619.1283905089,55325.7265536238,38970.4925336726,56087.0593438353,37717.6699656921,22316.6754013833
6009739941,7185,1,0,1661.9857090456,46370.1070087893,-4169.2613163811,18022.9020434131,56621.1482281815,55309.0081381891,38967.9859881271,56085.9642511212,37710.8438877744,22309.3017771086
6009788493,7186,1,0,1656.8144378959,46361.7478010719,-4181.5263547786,18009.3715645460,56613.9692870559,55312.7922919010,38960.1986621604,56078.6027945433,37701.8519598222,22303.7046365701
6009788493,7186,1,0,1654.8797741010,46367.5152893660,-4183.6313663290,18000.5743197430,56617.8872854329,55327.2840188171,38965.5646164594,56084.6744752580,37708.7145408304,22308.3648644533
6009788493,7186,1,0,1673.9587227194,46377.0182605847,-4166.7182677451,18024.7393656334,56630.4321808574,55328.2817699566,38971.7944772327,56093.8002478752,37718.6433814379,22313.7673218427
6009788493,7186,1,0,1677.0128146220,46376.2030248976,-4162.0702075587,18027.5744389931,56628.4366785784,55327.7463912964,38969.2149255062,56091.1598576646,37721.3081070421,22316.0426811485
6009788493,7186,1,0,1657.7391828544,46375.7528201152,-4168.7259377209,18006.0984541006,56620.7466941863,55334.5846369109,38967.4262740733,56086.8524929893,37724.2283542796,22315.6654825470
6009788493,7186,1,0,1659.1506356859,46378.0646825115,-4164.0900452313,18017.4022444491,56624.9932203775,55327.1258387584,38968.6917145429,56089.6632309554,37725.6398071111,22313.4144586348
6009788493,7186,1,0,1673.6301949052,46374.5603858265,-4162.8732755490,18030.8475494385,56623.9224630571,55313.7048691627,38965.4307717943,56083.0926746710,37716.9034007922,22312.9764215492
6009788493,7186,1,0,1663.0199632756,46369.1092576498,-4177.0243069541,18010.2233033236,56612.8620266451,55318.5476124982,38963.9219773883,56075.1106655551,37710.7465461998,22312.0030058033
6009825416,7187,1,0,1656.2912269325,46368.8780714102,-4181.4776839913,18007.5464100225,56611.8277724151,55311.5998576123,38967.4141063764,56075.6095411249,37709.9921489968,22308.9245785071
6009825416,7187,1,0,1663.4701680580,46366.1890104123,-4183.2176646370,18023.8024529780,56613.3000637307,55296.9134475471,38966.0878274227,56073.3706849095,37703.0443941109,22304.0088289907
6009825416,7187,1,0,1655.2934757930,46360.7622176293,-4195.8842370297,18010.4179864728,56604.3689742626,55295.6480070775,38960.1499913731,56066.2769176617,37693.7482737382,22299.4094395916
6009825416,7187,1,0,1649.7450060418,46366.1038365346,-4197.5268761008,18003.2147099536,56606.6565012654,55303.3379914696,38962.3401768013,56068.5401092707,37694.2349816111,22296.8663909556
6009825416,7187,1,0,1668.0817251539,46372.6378897285,-4184.2640865638,18024.8367072079,56618.1063039757,55298.7994405546,38965.6862934276,56075.7555534867,37697.7392782961,22297.3409311317
6009825416,7187,1,0,1672.1822389833,46370.3990335131,-4184.2154157765,18019.7992807232,56618.0698008853,55300.3934088384,38963.6299526645,56075.6460442153,37696.9848810931,22296.9028940461
6009825416,7187,1,0,1659.4913311969,46369.1214253466,-4191.7958908972,17997.0091845739,56614.4073241416,55309.3731690937,38964.2140021120,56076.2544290565,37702.2048230301,22296.4161861731
6009825416,7187,1,0,1667.5828495842,46371.2264368970,-4184.7629621335,18017.7672753538,56621.5010913893,55306.7449465800,38969.0324100539,56082.9223269155,37706.7312062482,22296.9393971365
6009836327,7188,1,0,1680.6266205784,46366.6878859821,-4179.5551878933,18032.7335424460,56619.9071231055,55303.9220409171,38966.2581751783,56079.6005456828,37705.8794674706,22298.0831606379
6009836327,7188,1,0,1671.5495187485,46368.1601772976,-4181.7697087151,18019.9209576915,56614.4073241416,55318.6936248601,38967.8521434621,56079.7465580447,37710.5883661411,22306.0651697537
6009836327,7188,1,0,1666.5364276574,46374.0615102568,-4175.5276802449,18024.6663594524,56618.9702104502,55314.9338065418,38971.0644154233,56086.3049466322,37716.4410283130,22313.7429864490
6009836327,7188,1,0,1669.4688425918,46369.7663132783,-4173.3739979072,18034.2666722457,56618.0454654916,55301.8291970635,38967.4141063764,56082.5937991012,37713.1435824739,22314.9354207377
6009836327,7188,1,0,1655.6950097882,46363.5121171113,-4188.4619419677,18009.4324030301,56606.7173397495,55302.0117125159,38960.8070470016,56073.2246725476,37705.0885671771,22313.1711046983
6009836327,7188,1,0,1650.7305894844,46366.3350227742,-4188.6201220264,18003.1052006822,56607.9827802191,55303.7516931615,38962.5956984346,56074.8308085282,37706.0619829230,22312.2098566493
6009836327,7188,1,0,1668.9699670220,46367.6247986374,-4177.1459839223,18026.3211662203,56613.0080390069,55295.9887025885,38964.3600144739,56076.8749815945,37704.2003253091,22308.4865414215
6009836327,7188,1,0,1671.1723201470,46366.3228550774,-4177.3893378588,18020.8822057405,56607.8002647667,55299.9188686623,38963.3014248503,56074.0034051442,37703.8596297980,22309.0219200817
6009864647,7189,1,0,1656.4615746880,46367.5517924565,-4181.3073362358,18003.3850577091,56603.9552725707,55308.0225547464,38966.3676844497,56075.5000318535,37707.2179141212,22310.5793852750
6009864647,7189,1,0,1663.9933790214,46367.5761278501,-4175.1504816434,18017.7186045665,56612.0954617452,55304.4209164868,38965.9539827577,56079.2355147781,37712.0606574567,22309.8128203752
6009864647,7189,1,0,1672.0970651055,46363.0254092383,-4177.6205240984,18018.3634924981,56609.4672392315,55301.7926939731,38956.8647132309,56073.5897034523,37707.5342742386,22305.0674186142
6009864647,7189,1,0,1663.1416402438,46363.3904401430,-4186.8558059871,17996.5589797914,56605.8656009719,55313.5345214072,38956.1224837248,56069.9515621022,37707.1084048498,22305.0430832206
6009864647,7189,1,0,1667.9478804889,46368.0506680262,-4180.8084606660,18007.6559192939,56611.4505738136,55305.5890153818,38961.7561273538,56074.9646531933,37711.2089186791,22306.9899147123
6009864647,7189,1,0,1674.9686415557,46362.9280676638,-4179.8593803139,18022.5491802052,56606.7538428399,55290.7322575610,38959.3104202924,56070.0975744641,37706.1471568007,22305.7853127268
6009864647,7189,1,0,1657.6540089767,46355.5301079954,-4189.5326992881,18004.8938521151,56596.8980084134,55295.2829761728,38958.1423213974,56064.8167940429,37702.2048230301,22305.0187478270
6009864647,7189,1,0,1651.2903035383,46360.1173296977,-4188.1577495471,18006.2931372498,56604.3081357785,55301.6223462175,38961.6831211728,56070.1705806450,37707.3760941799,22305.4081141253
6009892138,7190,1,0,1665.1371425228,46360.6283729642,-4180.6381129105,18027.7569544454,56614.0666286305,55296.4875781583,38963.8976419946,56072.7379646747,37707.4004295735,22304.5685430445
6009892138,7190,1,0,1657.7635182481,46358.4138521425,-4185.6998747889,18017.5604245078,56612.0954617452,55300.5150858066,38961.6587857792,56071.0101517258,37705.8794674706,22303.3639410590
6009892138,7190,1,0,1640.2542025199,46360.2633420595,-4190.4087734593,18000.4283073811,56608.4816557888,55309.7138646048,38963.2770894566,56073.4193556967,37709.2012487033,22304.2765183208
6009892138,7190,1,0,1649.5138198021,46362.1128319766,-4182.1834104070,18017.3414059650,56611.6817600532,55302.5227557824,38964.9683993150,56076.7411369294,37710.0286520873,22303.4856180273
6009892138,7190,1,0,1663.8108635691,46358.6937091694,-4182.5971120990,18018.0714677744,56605.9751102433,55299.6511793322,38962.2184998330,56071.8740582002,37706.1593244976,22301.5266188388
6009892138,7190,1,0,1658.7004309035,46360.5675344801,-4187.6710416742,18000.7324998017,56603.6145770596,55310.0667278127,38962.5591953441,56070.9614809385,37706.0741506198,22301.3441033864
6009892138,7190,1,0,1661.7910258965,46363.3904401430,-4180.5042682455,18016.2098101605,56610.3189780091,55305.7106923500,38967.8034726748,56076.8506462008,37710.5883661411,22302.0011590149
6009892138,7190,1,0,1661.8396966838,46359.6184541279,-4179.5551878933,18027.4770974185,56610.9151951534,55300.3204026575,38966.8543923226,56075.9259012423,37709.8704720286,22302.2323452545
6009920411,7191,1,0,1644.8900950094,46359.8496403676,-4186.0162349063,18010.2719741109,56607.2162153192,55310.8697958030,38969.8841488315,56077.1305032277,37713.9831535547,22306.3085236902
6009920411,7191,1,0,1644.4033871365,46366.1768427155,-4181.5871932627,18017.0128781508,56615.1617213446,55315.6151975639,38976.0653388176,56085.8425741530,37721.3811132231,22311.0417577543
6009920411,7191,1,0,1663.2511495152,46363.6581294731,-4175.6980280004,18035.1427464170,56617.2667328950,55300.8071105304,38971.2834339661,56084.6379721675,37718.3148536237,22306.4180329616
6009920411,7191,1,0,1654.8311033138,46356.0898220493,-4182.8648014291,18016.1368039795,56606.5591596908,55304.9684628438,38964.7007099849,56075.7433857899,37713.3260979263,22302.6217115528
6009920411,7191,1,0,1643.3447975129,46358.1826659028,-4180.9058022406,18006.1592925847,56605.9751102433,55316.1627439209,38968.2171743668,56076.9601554722,37716.2463451638,22302.8650654893
6009920411,7191,1,0,1654.0888738076,46358.5720322012,-4171.0012970268,18022.1963169974,56611.0003690311,55306.9152943355,38968.3266836382,56078.6636330274,37716.4045252225,22301.8429789562
6009920411,7191,1,0,1661.8396966838,46357.4282686998,-4164.9052809185,18019.9939638724,56609.9417794075,55311.7702053679,38964.9562316182,56078.0795835799,37716.6235437653,22305.6149649713
6009920411,7191,1,0,1656.5589162626,46363.5486202017,-4164.4064053487,18007.6437515971,56612.0346232611,55321.0906611342,38968.0224912176,56080.6956383969,37722.9142430228,22309.6911434070
6009956323,7192,1,0,1665.6968565766,46366.3836935615,-4160.4762392749,18026.2238246458,56617.9846270075,55309.9937216317,38969.7868072569,56084.2242704755,37722.9872492037,22309.0097523849
6009956323,7192,1,0,1669.6513580441,46358.8518892281,-4169.3343225620,18027.1850726948,56611.7669339310,55294.9057775713,38964.4938591389,56074.7699700441,37715.0782462688,22304.7145554064
6009956323,7192,1,0,1647.7130006723,46351.9771405231,-4182.0008949547,18002.8131759584,56600.6213236412,55302.3889111174,38961.8899720188,56067.2868364980,37711.2819248600,22301.4536126578
6009956323,7192,1,0,1645.7905045743,46353.5954442006,-4179.5186848028,18007.5707454162,56605.6222470354,55303.2041468045,38966.0026535450,56071.2535056623,37715.8204757750,22300.3098491565
6009956323,7192,1,0,1664.4435838039,46352.9505562690,-4174.8097861323,18025.8952968315,56609.6984254711,55303.3623268632,38965.2360886451,56070.3774314910,37717.1224193350,22301.7334696848
6009956323,7192,1,0,1660.5864239110,46352.6220284547,-4178.7277845093,18012.0727932407,56604.2959680817,55312.1230685757,38964.1409959311,56068.9173078723,37717.1589224255,22307.5131256757
6009956323,7192,1,0,1654.1862153821,46357.8054673013,-4173.2158178485,18010.6735081060,56606.4374827225,55314.4470986689,38967.9981558239,56072.8353062492,37724.0945096146,22310.2995282481
6009956323,7192,1,0,1666.8771231685,46359.0222369836,-4161.7295120477,18031.1882449495,56609.1022083268,55304.7981150883,38968.7160499365,56076.4004414184,37725.4329562651,22311.0539254511
6009997641,7193,1,0,1668.3007436968,46357.1362439760,-4163.7250143266,18021.8191183959,56602.8601798566,55305.6376861691,38963.4596049090,56071.2535056623,37721.7218087341,22308.2310197882
6009997641,7193,1,0,1664.2489006547,46362.2101735512,-4163.3721511188,18008.9456951572,56604.6975020769,55315.0919866005,38966.0756597259,56073.1516663666,37723.2792739274,22307.6956411280
6009997641,7193,1,0,1680.4076020356,46365.0574146078,-4152.6889133082,18027.1364019075,56614.8331935304,55306.5259280372,38967.5236156478,56077.0818324404,37722.1233427293,22307.2697717392
6009997641,7193,1,0,1681.1376638450,46360.7622176293,-4155.2197942474,18024.9462164794,56609.9782824980,55300.4420796257,38960.8557177889,56071.1074933004,37713.6059549532,22306.5762130203
6009997641,7193,1,0,1657.8608598227,46359.0222369836,-4164.8566101312,18002.9835237139,56604.4419804436,55305.8445370151,38958.3491722434,56067.5180227376,37711.9511481853,22307.8903242772
6009997641,7193,1,0,1656.6684255340,46360.9082299912,-4164.1143806250,18011.4644083995,56609.6132515933,55301.5615077334,38959.7241219843,56070.5721146402,37712.9854024152,22306.4788714457
6009997641,7193,1,0,1668.1425636381,46357.3187594284,-4165.1486348549,18024.0944777017,56607.6664201017,55292.2653873607,38957.0472286833,56067.1043210456,37709.2620871874,22303.4612826336
6009997641,7193,1,0,1656.3033946293,46351.6851157994,-4175.1869847338,18008.2643041351,56599.3680508684,55302.4375819047,38956.2076576025,56064.4639308351,37710.1503290555,22304.4103629858
6010023614,7194,1,0,1650.0370307655,46353.7901273497,-4175.0653077656,18009.0673721254,56601.2297084823,55302.0968863936,38961.8047981411,56067.0799856520,37714.8227246355,22308.2188520914
6010023614,7194,1,0,1655.8653575437,46352.0136436136,-4172.2789051932,18022.4883417211,56603.1278691867,55288.1648735314,38962.3766798917,56065.7172036078,37713.3017625326,22311.0052546638
6010023614,7194,1,0,1645.2064551268,46345.5890996911,-4181.7575410182,18005.2953861103,56592.5054698603,55289.4059786073,38954.3216645950,56057.3214928000,37707.9601436274,22308.8637400230
6010023614,7194,1,0,1639.1591098058,46346.8058693734,-4181.6601994437,17995.4030485932,56591.4103771462,55294.0297034000,38955.3559188249,56059.1588150203,37710.2963414174,22305.2986048539
6010023614,7194,1,0,1657.1064626196,46348.8987132269,-4171.3663279314,18020.2008147184,56600.4996466729,55286.2545451302,38960.1256559795,56062.5657701307,37709.7731304540,22302.1958421640
6010023614,7194,1,0,1661.6815166251,46346.5746831337,-4172.6074330074,18022.1233108164,56597.6159025259,55291.2919716149,38963.8368035105,56062.2007392260,37706.6338646737,22302.6825500370
6010023614,7194,1,0,1645.6079891220,46350.2249921806,-4179.5916909838,18005.6117462277,56597.8105856751,55301.5615077334,38971.0644154233,56065.9483898475,37712.0241543662,22307.4766225852
6010023614,7194,1,0,1647.8590130342,46349.7991227918,-4175.6250218195,18018.4973371632,56600.9863545459,55289.1139538835,38972.6583837071,56069.0268171437,37712.5351976328,22306.2111821156
6010067436,7195,1,0,1659.7103497398,46344.3966654024,-4174.2744074721,18027.8664637169,56598.2607904575,55275.6808165910,38967.8886465525,56060.1565661597,37705.7942935929,22303.0232455480
6010067436,7195,1,0,1654.6485878614,46341.8049459791,-4182.9864783974,18010.0286201744,56592.0065942905,55284.1982043671,38965.6619580339,56055.1678104623,37703.3485865315,22302.0011590149
6010067436,7195,1,0,1653.5899982378,46345.1388949086,-4182.5727767054,18012.4986626295,56592.7974945840,55283.7966703719,38968.4118575159,56058.9276287806,37706.4513492213,22303.0354132448
6010067436,7195,1,0,1660.5742562142,46342.8878709964,-4180.2730820058,18024.8123718143,56593.9655934790,55275.9606736179,38965.6984611244,56057.8082006729,37703.7257851330,22300.6505446675
6010067436,7195,1,0,1647.7373360660,46338.9942080130,-4189.6908793468,18004.6870012692,56586.3851183583,55281.2414540391,38959.8457989526,56051.2619797822,37698.6275201642,22297.7911359141
6010067436,7195,1,0,1642.8580896400,46343.5205912312,-4187.2330045886,17998.7126621291,56590.7289861241,55291.4136485831,38962.0116489871,56055.3259905210,37701.6207735826,22299.2999303202
6010067436,7195,1,0,1661.5963427473,46343.5935974121,-4176.4889282939,18017.1345551190,56596.2409527849,55280.6452368948,38962.4740214663,56057.5283436460,37702.1804876365,22298.5942039044
6010067436,7195,1,0,1663.7013542977,46339.3957420082,-4181.3195039326,18007.5585777194,56590.0840981925,55277.1531079066,38958.7507062385,56051.5905075964,37697.3377443009,22298.7158808727
6010095230,7196,1,0,1644.5493994984,46337.7044321498,-4191.4186922957,17987.4940456583,56584.1097590524,55284.0035212179,38959.2982525955,56048.7554342366,37696.9362103058,22296.9880679238
6010095230,7196,1,0,1647.2262927994,46341.5494243459,-4185.3956823683,18008.2764718319,56591.2278616939,55279.3676287284,38964.1166605374,56055.9952138463,37700.3309977194,22297.9858190633
6010095230,7196,1,0,1654.2105507758,46338.1668046291,-4181.9035533801,18016.5505056715,56588.5996391801,55275.8633320434,38962.1454936521,56053.8171961150,37699.7226128782,22299.4581103789
6010095230,7196,1,0,1644.0140208382,46340.7341886587,-4183.0959876688,17999.2602084861,56587.6140557375,55288.5542398297,38964.3478467771,56056.1168908145,37703.1174002918,22304.1670090494
6010095230,7196,1,0,1650.0370307655,46346.6841924051,-4171.6705203520,18010.0164524776,56597.3725485894,55289.2721339422,38970.5898752472,56063.6486951479,37708.8605531923,22306.1625113283
6010095230,7196,1,0,1657.7756859449,46343.3137403852,-4164.8809455248,18022.3788324497,56597.4698901640,55281.3144602200,38968.2171743668,56062.6752794021,37707.6072804195,22306.6613868981
6010095230,7196,1,0,1643.9653500509,46338.7143509861,-4172.5952653106,18003.1173683790,56587.5288818597,55287.3496378442,38963.9706481755,56055.4841705797,37705.9159705611,22303.3396056654
6010095230,7196,1,0,1641.5561460799,46343.2407342042,-4170.8187815744,18001.0975307064,56593.7344072394,55289.6006617565,38966.8300569289,56060.8014540914,37710.8073846839,22300.4071907311
6010117994,7197,1,0,1658.6882632066,46342.3159892457,-4164.6132561947,18019.2030635789,56596.8250022324,55281.7281619120,38964.8467223468,56062.0060560768,37710.1868321460,22295.2967580654
6010117994,7197,1,0,1657.1064626196,46340.7463563555,-4172.5100914328,18007.5707454162,56592.6028114349,55284.9769369638,38960.1621590700,56058.0272192157,37707.4125972703,22295.4184350337
6010117994,7197,1,0,1644.1722008969,46346.5260123464,-4175.6858603036,17995.9749303439,56592.8826684618,55295.0639576300,38965.6862934276,56062.1520684387,37712.2431729090,22302.0619974990
6010117994,7197,1,0,1648.7472549023,46349.6531104299,-4167.2536464053,18014.5915064830,56598.7231629368,55287.3618055410,38969.5069502300,56066.4472654172,37713.5329487723,22303.4612826336
6010117994,7197,1,0,1652.8234333380,46347.6819435446,-4168.4095776035,18017.8889523220,56595.9854311516,55283.3586332863,38968.5700375746,56062.8821302481,37710.7343785030,22300.6505446675
6010117994,7197,1,0,1645.2551259141,46348.6675269873,-4173.8850411738,18002.5089835378,56591.4468802367,55290.3793943531,38970.4438628854,56061.5680189912,37712.1336636376,22299.2634272297
6010117994,7197,1,0,1650.0491984623,46351.4660972566,-4171.0864709045,18016.5261702779,56598.0661073084,55287.4226440252,38973.6926379371,56065.0723156762,37714.6888799704,22299.5311165598
6010117994,7197,1,0,1652.6165824920,46348.7648685619,-4173.7390288119,18027.1972403916,56598.7109952400,55284.7335830273,38972.5367067389,56063.3566704242,37708.8118824050,22300.2733460660
6010174523,7198,1,0,1635.3992914875,46348.2416575985,-4182.2077458007,18003.6527470392,56594.1967797187,55295.3924854442,38971.4902848121,56060.6554417295,37710.5031922634,22303.4612826336
6010174523,7198,1,0,1638.3560418155,46356.7833807682,-4171.9017065917,18005.2102122325,56601.7042486584,55300.5637565939,38977.5011270427,56071.8132197161,37717.7186364794,22306.2476852061
6010174523,7198,1,0,1661.9857090456,46358.9370631058,-4156.9719425899,18023.4860928606,56607.4230661652,55293.1171261383,38975.9558295461,56075.3661871884,37720.4807036582,22306.4667037489
6010174523,7198,1,0,1663.5675096326,46356.2358344111,-4159.1621280180,18007.7045900812,56601.6555778711,55298.4952481340,38972.6827191008,56070.8276362735,37719.9818280884,22305.4081141253
6010174523,7198,1,0,1655.2813080962,46356.0168158683,-4159.8800221306,17997.5567309309,56603.7119186342,55303.2406498950,38976.4182020254,56073.5288649682,37725.0557576636,22305.1890955825
6010174523,7198,1,0,1663.5553419358,46356.0776543524,-4154.6844155872,18019.3490759408,56609.0535375395,55291.2798039180,38980.0563433755,56076.1570874819,37726.8322413997,22305.6636357586
6010174523,7198,1,0,1662.9226217010,46350.4561784203,-4159.6610035878,18016.2706486446,56604.5271543213,55290.2455496881,38976.8075683238,56068.8443016913,37721.7218087341,22304.3495245017
6010174523,7198,1,0,1653.1519611522,46354.9582262447,-4161.9120275000,18004.9668582961,56604.9651914070,55299.6390116354,38980.1780203437,56071.9348966843,37725.1044284509,22308.0606720327
6010193482,7199,1,0,1659.9902067667,46359.3872678883,-4155.6821667267,18021.6122675499,56611.6452569628,55290.7079221674,38982.3073672877,56075.6217088217,37725.4572916587,22306.1990144188
6010193482,7199,1,0,1666.4512537797,46356.3331759857,-4156.5217378075,18027.9759729883,56612.6795111927,55287.2644639665,38981.5042992974,56073.9547343570,37721.8069826119,22305.4324495189
6010193482,7199,1,0,1649.3921428339,46355.0312324257,-4169.2613163811,18000.7324998017,56605.2450484339,55291.9246918497,38979.5939708962,56069.2458356865,37719.6654679710,22307.4279517979
6010193482,7199,1,0,1648.6012425404,46356.3940144698,-4168.7502731145,18002.0709464522,56607.8246001604,55286.9967746364,38979.7034801676,56067.9803952169,37719.4099463377,22307.7564796121
6010193482,7199,1,0,1666.7311108066,46353.3277548705,-4162.5812508253,18020.6023487136,56610.2946426154,55277.8223312319,38977.2091023189,56063.0038072163,37714.7375507577,22305.5054556999
6010193482,7199,1,0,1663.6283481167,46353.0235624499,-4167.1684725275,18009.8339370253,56605.0625329816,55284.0278566116,38974.0455011449,56057.5770144333,37710.9655647426,22305.7853127268
6010193482,7199,1,0,1654.4295693186,46356.8563869491,-4168.3852422098,18006.8163482132,56603.1157014899,55286.6439114285,38977.8174871601,56061.0813111183,37713.6789611341,22306.7343930790
6010193482,7199,1,0,1663.4458326644,46358.0731566314,-4162.2405553142,18023.6321052225,56606.7173397495,55278.2238652270,38978.6448905440,56063.1376518814,37712.9488993248,22307.5009579788
6010211738,7200,1,0,1663.3119879993,46354.8608846702,-4167.9472051242,18013.0462089865,56602.2396273186,55279.6961565426,38974.9945814971,56057.0903065604,37709.4324349429,22308.1458459105
6010211738,7200,1,0,1657.6418412799,46358.6085352916,-4168.7016023272,18001.6450770634,56606.9850290796,55290.6592513801,38978.2311888520,56061.4463420230,37711.5739495838,22309.2044355341
6010211738,7200,1,0,1670.2719105821,46361.5652856196,-4159.1621280180,18022.5856832957,56612.1563002293,55277.0314309384,38977.8539902505,56063.1376518814,37710.6857077157,22307.4157841011
6010211738,7200,1,0,1672.6932822498,46355.3719279367,-4161.8268536223,18024.0093038240,56605.6100793386,55272.4928800234,38973.1572592769,56055.8613691812,37706.0741506198,22306.6127161108
6010211738,7200,1,0,1655.7193451818,46356.2845051984,-4167.6308450068,18004.2854672740,56598.8691752987,55284.3320490321,38976.0045003334,56055.5328413670,37707.8384666591,22310.7010622433
6010211738,7200,1,0,1658.1893876369,46360.6283729642,-4163.2748095442,18015.9421208304,56603.9552725707,55286.8750976681,38980.1780203437,56061.9452175927,37715.3824386894,22313.5483032998
6010211738,7200,1,0,1671.9753881373,46357.3187594284,-4163.8831943853,18029.5942766657,56608.2261341555,55278.2725360143,38977.0265868666,56061.6410251721,37713.1557501708,22311.7109810796
6010211738,7200,1,0,1658.8829463558,46351.9528051295,-4171.8165327139,18005.6725847118,56600.4996466729,55278.7470761904,38971.7093033549,56056.2872385700,37708.7267085272,22310.6280560623
6010239455,7201,1,0,1651.4484835970,46349.7869550950,-4169.8453658286,17998.5301466767,56601.1323669077,55276.1796921608,38973.4614516974,56058.6721071473,37709.0430686446,22309.4112863800
6010239455,7201,1,0,1658.9681202336,46346.3191615005,-4162.9949525173,18013.5937553435,56602.1666211377,55265.5816282280,38973.4857870911,56059.1466473234,37707.2057464243,22306.4667037489
6010239455,7201,1,0,1654.9527802820,46346.1853168354,-4165.0512932803,18006.2566341593,56597.7254117973,55276.1310213735,38973.3884455165,56058.1245607903,37706.5973615832,22308.8515723262
6010239455,7201,1,0,1650.8279310590,46352.3300037310,-4166.6695969578,17999.0898607306,56599.4410570493,55288.4690659519,38977.0752576539,56062.0182237736,37713.3869364104,22310.0440066148
6010239455,7201,1,0,1669.7730350123,46358.2435043869,-4157.8723521548,18021.4175844007,56609.3212268696,55283.2734594085,38979.8373248327,56067.5788612217,37716.7817238240,22311.3581178717
6010239455,7201,1,0,1672.8514623085,46357.6472872426,-4159.7705128592,18018.6798526155,56608.8466866935,55281.1076093741,38978.9855860551,56065.4860173682,37714.0196566452,22310.4820437005
6010239455,7201,1,0,1651.9108560763,46356.1019897461,-4167.9837082147,17992.1421058447,56603.0670307026,55283.8575088560,38979.7764863485,56063.6973659352,37712.4865268455,22308.3405290596
6010239455,7201,1,0,1651.5823282620,46356.6008653158,-4162.8611078522,18002.9470206235,56606.7416751431,55277.3842941462,38982.0518456544,56067.5301904344,37714.8835631196,22306.1016728442
6010268395,7202,1,0,1662.6184292804,46352.0744820977,-4162.1918845269,18013.9831216419,56604.2838003849,55270.5217131381,38978.1703503679,56060.1200630693,37710.5518630506,22303.9114874161
6010268395,7202,1,0,1657.8365244290,46350.7360354472,-4168.9327885669,17999.7712517527,56599.6600755922,55280.9859324058,38976.4790405095,56057.0538034699,37710.8438877744,22305.6514680618
6010268395,7202,1,0,1661.5233365664,46357.5256102744,-4163.1896356664,18009.7122600570,56607.5934139207,55285.7556695604,38983.5971431510,56063.3201673337,37719.1909277949,22310.0683420085
6010268395,7202,1,0,1672.8514623085,46358.6328706853,-4158.4320662087,18026.1143153744,56611.0733752121,55279.3797964252,38982.3073672877,56064.4152600478,37721.4906224945,22310.4942113973
6010268395,7202,1,0,1661.6450135346,46358.5476968075,-4163.3356480283,18008.5076580716,56607.1675445319,55288.1405381377,38979.8129894390,56063.5026827860,37721.5636286754,22309.5207956514
6010268395,7202,1,0,1654.0036999298,46363.8406449255,-4160.9629471478,18001.4260585206,56612.0467909579,55293.7741817667,38983.8526647842,56071.3751826305,37728.4383773804,22308.5838829961
6010268395,7202,1,0,1670.3935875503,46364.6680483094,-4153.4433105113,18024.5081793937,56619.6272660786,55280.3532121710,38987.0892721391,56075.3418517948,37727.6353093901,22306.5883807171
6010268395,7202,1,0,1669.0673085966,46356.5156914381,-4159.7461774655,18019.8601192074,56613.2635606402,55279.4893056966,38983.2442799431,56069.0633202341,37720.1886789344,22306.5032068394
6010300465,7203,1,0,1652.5679117047,46355.1772447876,-4168.0567143956,18002.6793312934,56607.0458675637,55285.2567939907,38982.2465288036,56066.4472654172,37719.8114803329,22308.8029015389
6010300465,7203,1,0,1657.6783443703,46356.6738714968,-4165.5258334564,18017.4509152364,56610.0512886790,55278.9295916427,38982.9157521289,56070.5234438529,37718.9719092521,22306.8925731377
6010300465,7203,1,0,1666.0132166940,46352.2813329437,-4173.1184762739,18021.6366029435,56605.7439240036,55273.8921651580,38977.0144191697,56066.0822345125,37712.8758931438,22302.8528977925
6010300465,7203,1,0,1657.8365244290,46352.3543391246,-4185.5781978206,18000.5256489557,56602.8845152502,55283.3464655895,38975.2257677368,56062.0303914705,37712.7542161756,22302.6460469465
6010300465,7203,1,0,1660.0875483413,46357.4282686998,-4182.0130626515,18008.0452855923,56606.5469919939,55281.8620065771,38980.7499020944,56068.0290660042,37717.4752825429,22303.1205871226
6010300465,7203,1,0,1667.5463464937,46353.3155871736,-4177.2919962842,18022.2693231783,56604.8556821356,55266.0805037977,38978.9855860551,56063.4296766051,37714.4333583372,22304.4590337731
6010300465,7203,1,0,1651.6553344430,46348.0226390557,-4182.3172550721,18001.5720708825,56594.6348168043,55271.9331659696,38976.7832329301,56056.1777292986,37708.8970562827,22306.7708961695
6010300465,7203,1,0,1649.2339627752,46352.5003514865,-4176.7687853208,17998.8951775814,56598.9908522669,55275.6078104101,38979.9346664073,56059.4995105313,37713.4599425913,22309.6424726197
6010331519,7204,1,0,1671.0628108756,46351.2349110169,-4167.8133604591,18018.6676849187,56604.1377880230,55268.8304032797,38980.4700450675,56061.7992052308,37712.4743591487,22307.0629208932
6010331519,7204,1,0,1675.1633247049,46348.6188562000,-4172.0112158631,18009.6149184824,56599.7817525604,55273.4297926788,38980.1658526469,56059.7793675582,37710.4788568697,22304.7510584969
6010331519,7204,1,0,1663.4823357549,46351.8067927676,-4172.2910728900,17996.5833151851,56598.7596660273,55285.7191664699,38985.9455086378,56065.4738496714,37719.5437910028,22310.7740684242
6010331519,7204,1,0,1669.2254886553,46357.0267347046,-4162.3622322825,18020.1278085375,56607.0093644732,55284.2468751544,38988.1843648532,56072.2025860144,37724.8975776049,22312.3923721017
6010331519,7204,1,0,1673.6788656925,46355.8951389001,-4161.4739904144,18027.5622712963,56607.5082400430,55278.9904301269,38985.0085959824,56067.7978797645,37721.0404177120,22309.9101619498
