steady_timestamp,sequence,battery,flags,EEG-ch1,EEG-ch2,EEG-ch3,EEG-ch4,EEG-ch5,EEG-ch6,EEG-ch7,EEG-ch8,EEG-ch9,EEG-ch10
5985511799,6671,-2,0,904.1572155192,46414.3122513471,-4246.1611603021,17336.3762532691,57075.4656921565,56798.9912849456,37716.1246681956,56420.8679384759,37195.8339520466,22281.4377513841
5985511799,6671,-2,0,890.4807242902,46416.9769769513,-4249.2274199015,17321.1666322404,57071.6693707477,56813.6655273141,37718.0836673841,56423.3866517182,37196.6613554305,22281.5350929587
5985511799,6671,-2,0,895.5546538654,46424.9468183703,-4236.7555306579,17340.0265623159,57083.7640613897,56815.5880234121,37725.9074964412,56434.9824667905,37202.4288437246,22285.0637250373
5985511799,6671,-2,0,903.9868677637,46425.9932402971,-4235.3440778265,17348.2519253683,57085.5648805195,56815.1986571138,37726.1995211649,56436.9171305853,37201.4432602819,22285.8181222404
5985511799,6671,-2,0,895.5911569558,46428.4876181458,-4241.7199509617,17329.6353492292,57088.8014878744,56828.1329188365,37726.4428751014,56440.0442286688,37204.6433645464,22289.7361206173
5985511799,6671,-2,0,904.6317556953,46434.8026527969,-4233.1903954888,17336.2424086040,57099.6672411373,56826.0157395894,37729.5943085786,56448.1844178434,37210.9218961070,22288.0448107590
5985511799,6671,-2,0,920.9973079221,46434.5836342541,-4223.2007163972,17352.1455883516,57104.6803322284,56815.6366941994,37728.2436942312,56449.4741937066,37211.7006287037,22287.1444011941
5985511799,6671,-2,0,905.0576250841,46429.9112386741,-4230.4648314005,17333.1883167015,57094.4472992003,56822.0612381219,37725.3356146905,56442.4412649429,37210.4838590214,22286.8037056830
5985561088,6672,-2,0,888.2783711652,46435.2893606698,-4228.3233167596,17330.9494604860,57097.2458694696,56832.9148236880,37731.9061709749,56448.4886102639,37217.8453155993,22291.8411321677
5985561088,6672,-2,0,905.0819604777,46438.4529618438,-4218.2971345775,17357.4020333791,57101.6384080226,56826.4781120686,37732.4415496351,56450.5449510270,37220.1571779956,22289.7604560110
5985561088,6672,-2,0,912.5164232365,46433.3668645718,-4222.7140085243,17355.3335249192,57096.5766461443,56829.1063345824,37727.5623032091,56445.2276675154,37216.1418380440,22287.6554444606
5985561088,6672,-2,0,906.8706119107,46437.5282168852,-4228.5788383929,17346.4511062385,57097.2823725600,56837.0031698205,37733.5731454397,56448.1235793592,37218.1495080198,22290.5878593949
5985561088,6672,-2,0,913.7818637061,46440.5823087878,-4223.8699397224,17365.3475394045,57103.6947487857,56825.6385409878,37737.4059699389,56451.5061990760,37218.0278310516,22290.5635240013
5985561088,6672,-2,0,913.6601867379,46435.6543915745,-4226.8145223536,17363.4372110033,57099.7889181056,56818.0093950799,37732.7944128430,56447.9897346942,37212.0291565179,22289.8943006760
5985561088,6672,-2,0,901.5533283991,46437.5890553693,-4231.8154457478,17341.6813690839,57095.3963795525,56825.8453918338,37732.7944128430,56446.7121265278,37212.6132059654,22292.4981877962
5985561088,6672,-2,0,909.4866667276,46441.2393644162,-4220.4264815215,17354.4817861416,57101.5775695385,56822.7791322344,37736.6515727359,56451.7008822252,37216.1905088313,22291.0989026615
5985582330,6673,-2,0,923.7837104946,46435.7395654523,-4219.5504073503,17369.4723886275,57100.2391228880,56818.9341400384,37732.6484004811,56450.2407586064,37214.8277267872,22287.3025812528
5985582330,6673,-2,0,912.6381002048,46430.5682943025,-4230.5500052782,17346.6701247813,57091.6730643246,56824.7989699071,37728.4383773804,56446.4444371977,37214.0854972810,22286.2074885387
5985582330,6673,-2,0,902.1252101497,46431.5417100483,-4226.9118639282,17342.2045800473,57091.3567042072,56822.8278030217,37731.3464569211,56450.1799201223,37217.3707754232,22286.5968548370
5985582330,6673,-2,0,912.6502679016,46429.9964125518,-4215.8757629098,17362.9140000399,57094.9340070732,56811.6943604288,37732.3198726669,56452.0780808267,37213.3189323811,22286.9253826512
5985582330,6673,-2,0,910.8859518623,46426.4799481700,-4218.3944761521,17358.2294367631,57087.4995443144,56814.3225829425,37732.2346987891,56446.9798158579,37209.0602384931,22289.2372450476
5985582330,6673,-2,0,903.5244952844,46426.3582712018,-4222.5314930719,17350.8193093979,57086.2706069353,56812.2419067858,37733.1594437477,56444.1690778918,37208.8168845566,22288.4341770573
5985582330,6673,-2,0,912.2122308160,46421.4425216853,-4219.1002025678,17364.1794405095,57085.0416695561,56795.1462927496,37730.4217119625,56439.7643716419,37205.6776187763,22283.1898997266
5985582330,6673,-2,0,905.0332896904,46410.2482406082,-4228.4206583342,17354.8103139558,57074.5531148948,56789.4518106364,37722.1841812134,56427.5236686380,37195.9921321053,22277.0573805278
5985613526,6674,-2,0,880.6248898636,46408.2892414197,-4242.0363110791,17328.3699087596,57068.4936018769,56796.1318761922,37720.6632191105,56423.1311300849,37193.6072635280,22275.1713875203
5985613526,6674,-2,0,889.1057745492,46413.1076493616,-4236.6581890834,17342.6426171329,57074.9546488899,56791.6298283677,37724.1918511892,56429.3123200710,37194.5806792738,22275.1957229139
5985613526,6674,-2,0,901.4438191277,46411.5258487746,-4237.8749587656,17351.6102096914,57074.2124193837,56784.1953656089,37721.6001317659,56426.9152837969,37188.4724954687,22271.2777245369
5985613526,6674,-2,0,889.7141593903,46410.9174639335,-4247.1954145320,17331.4726714494,57068.3475895151,56793.8565168863,37720.6388837169,56424.0072042562,37189.4824143050,22269.5377438913
5985613526,6674,-2,0,884.5307205438,46415.9913935086,-4244.8105459547,17338.4812648194,57073.6527053299,56796.5820809747,37727.6839801774,56429.9207049121,37194.1913129755,22271.1803829624
5985613526,6674,-2,0,894.6420766036,46413.3631709949,-4237.5951017387,17359.6165542009,57074.7599657408,56791.2404620694,37728.3532035026,56428.3754074156,37192.3904938457,22273.1758852413
5985613526,6674,-2,0,896.1022002224,46413.2536617235,-4239.8582933478,17356.4894561174,57071.3408429335,56801.2179734642,37732.1738603050,56427.4384947602,37195.8096166529,22277.0330451342
5985613526,6674,-2,0,894.3257164862,46420.2500873966,-4238.4346728195,17355.8810712762,57074.3705994424,56807.5938465994,37738.4037210784,56432.4394181545,37201.5406018565,22281.1822297508
5985642820,6675,-2,0,908.1360523803,46423.4136885706,-4229.6617634102,17377.0893668386,57082.4621178297,56799.5266636058,37738.6349073180,56437.9148817248,37204.2053274607,22282.5571794918
5985642820,6675,-2,0,904.5222464239,46420.2257520030,-4232.8010291905,17369.5210594148,57077.9965730957,56799.8065206327,37735.9458463201,56435.2501561206,37201.9664712453,22283.1290612425
5985642820,6675,-2,0,885.9908441625,46422.4524405216,-4234.4801713520,17353.7760597259,57076.3782694182,56807.8493682327,37735.7146600805,56436.0897272014,37203.9741412211,22284.4675078930
5985642820,6675,-2,0,896.6010757921,46428.3537734807,-4221.6919219911,17373.0253560998,57085.7717313655,56801.0354580119,37738.6470750148,56440.0928994561,37208.0746550504,22283.3237443917
5985642820,6675,-2,0,913.7696960093,46423.7908871721,-4221.2417172087,17376.6148266625,57080.4787832475,56792.7614241723,37732.8552513271,56429.3974939487,37202.7695392356,22282.2043162839
5985642820,6675,-2,0,909.0364619452,46421.8318879836,-4233.7744449363,17352.0482467770,57072.4116002539,56798.8209371901,37730.3730411752,56423.2406393563,37201.0660616804,22284.0659738979
5985642820,6675,-2,0,908.9877911579,46423.5718686293,-4237.3395801054,17352.0482467770,57072.7522957650,56794.1607093069,37733.1472760509,56424.0437073466,37200.9200493185,22284.7108618295
5985642820,6675,-2,0,913.9522114616,46419.5321932841,-4238.9457160861,17363.2911986414,57073.3241775156,56779.9853425082,37731.2612830433,56422.3158943978,37197.5739326922,22280.0506339463
5985697216,6676,-2,0,901.6871730641,46416.1374058705,-4248.5216934857,17345.1248272848,57066.2790810552,56785.0714397801,37728.2923650185,56417.8746850574,37192.5851769948,22276.4003248994
5985697216,6676,-2,0,893.9120147943,46419.3983486190,-4245.4189307959,17342.1802446536,57070.3065887036,56790.2062078394,37731.7114878257,56421.0382862314,37196.1503121640,22279.1137212909
5985697216,6676,-2,0,908.5254186786,46419.5443609809,-4231.8154457478,17360.5534668563,57073.7378792076,56787.4684760543,37731.6019785543,56423.6786764420,37196.8195354892,22282.8248688219
5985697216,6676,-2,0,905.1184635682,46417.7313741543,-4233.6284325744,17348.7873040285,57070.2214148258,56795.0367834781,37727.5866386028,56420.6489199330,37196.9533801543,22288.6045248128
5985697216,6676,-2,0,887.7551602018,46418.4979390541,-4236.0863073327,17333.1883167015,57069.1628252022,56805.2576488094,37730.7259043831,56423.5448317769,37201.4675956756,22291.4274304757
5985697216,6676,-2,0,900.8476019833,46420.5907829077,-4225.9384481823,17352.9608240387,57077.1326666212,56794.4649017275,37732.0886864273,56428.3389043251,37203.7794580719,22288.4220093605
5985697216,6676,-2,0,912.8571187476,46415.9792258118,-4226.8510254441,17355.8810712762,57071.6572030509,56785.7041600149,37728.3653711994,56424.0193719530,37197.6956096605,22283.3237443917
5985697216,6676,-2,0,902.0643716656,46417.0864862227,-4232.0466319875,17340.9756426681,57067.8365462485,56792.8831011405,37729.4604639135,56423.4353225055,37198.7907023745,22287.2782458591
5985728339,6677,-2,0,903.8651907954,46420.3717643649,-4223.5535796050,17356.9761639903,57073.9934008409,56792.3355547835,37735.8485047455,56427.8886995427,37203.2197440181,22291.2084119329
5985728339,6677,-2,0,908.2090585612,46415.7967103594,-4219.6112458344,17370.5918167352,57072.6306187967,56786.2882094624,37735.9336786233,56425.8931972637,37199.7641181204,22290.9163872092
5985728339,6677,-2,0,896.5280696112,46413.4240094790,-4226.1087959379,17353.1798425815,57066.1452363901,56791.8975176978,37734.6925735474,56423.7638503197,37197.6834419636,22289.1277357762
5985728339,6677,-2,0,899.7768446629,46418.5587775383,-4220.1952952819,17354.6521338971,57074.9181457995,56796.3143916445,37739.0729444036,56431.0888038071,37202.9642223848,22290.1498223093
5985728339,6677,-2,0,915.6678567137,46419.6660379491,-4211.2277027234,17371.5895678747,57080.9411557268,56790.9727727393,37737.5641499976,56435.9193794458,37204.2661659449,22285.6112713944
5985728339,6677,-2,0,907.2478105122,46420.7124598759,-4216.8248432620,17359.3001940835,57079.7730568318,56801.2666442515,37735.2887906917,56435.6151870253,37206.5415252507,22288.4463447541
5985728339,6677,-2,0,888.1566941970,46425.5673709083,-4221.5215742356,17347.8868944636,57083.1435088518,56803.8340282811,37738.9756028290,56439.8252101260,37211.7006287037,22289.5779405586
5985728339,6677,-2,0,897.3433052983,46425.5430355146,-4216.8978494429,17365.5422225537,57088.6798109062,56791.5203190963,37738.1116963546,56440.7742904782,37210.0336542389,22290.0403130379
5985739855,6678,-2,0,908.1482200771,46420.3474289712,-4217.5427373745,17364.5079683237,57085.6743897909,56791.9948592724,37734.1450271903,56435.2258207269,37204.4851844877,22289.5779405586
5985739855,6678,-2,0,899.9228570248,46422.2577573724,-4222.7261762211,17348.9089809967,57083.0218318835,56803.1039664718,37736.3717157089,56435.4448392697,37205.7992957445,22288.7262017810
5985739855,6678,-2,0,903.1107935924,46426.6137928350,-4214.9266825576,17366.4791352090,57086.6356378400,56797.7866829601,37741.7741730983,56440.7256196909,37210.5933682928,22287.7284506416
5985739855,6678,-2,0,905.7633514998,46426.2244265367,-4210.2786223712,17375.7752555817,57084.8348187102,56796.0467023144,37740.7764219588,56440.3849241799,37209.4617724882,22287.9596368812
5985739855,6678,-2,0,889.7749978745,46427.7818917300,-4218.9420225091,17357.6210519219,57081.9145714726,56804.1747237922,37742.9666073870,56439.0099744389,37210.5812005960,22290.2106607934
5985739855,6678,-2,0,892.9751021389,46435.8855778141,-4216.0461106653,17368.7544945149,57092.5491384959,56805.0994687507,37750.0968777252,56448.7076288067,37215.9228195012,22293.5324420261
5985739855,6678,-2,0,913.1734788650,46436.3844533839,-4210.5219763077,17389.1597220870,57097.8664220075,56797.6528382951,37751.2771443170,56449.7905538240,37213.7691371636,22294.9317271607
5985739855,6678,-2,0,907.5641706296,46432.8923243957,-4218.7716747536,17371.1393630922,57089.3855373219,56797.9205276252,37746.1423762578,56443.1713267523,37208.2815058964,22291.4882689598
5985770208,6679,-2,0,893.4131392245,46431.4687038674,-4221.0592017563,17360.1641005579,57087.4995443144,56798.9912849456,37744.4997371867,56444.0108978331,37209.4252693978,22287.7406183384
5985770208,6679,-2,0,898.9616089758,46428.5849597204,-4215.2917134623,17376.9433544768,57085.7595636687,56783.7451608265,37738.7930873767,56440.9689736274,37205.6167802922,22280.2574847923
5985770208,6679,-2,0,897.8056777776,46422.8904776072,-4223.3223933654,17368.9370099673,57078.4589455749,56786.4463895211,37733.7921639825,56433.9603802573,37201.5162664629,22277.7144361563
5985770208,6679,-2,0,883.5208017075,46423.6570425071,-4230.5865083687,17354.5791277162,57075.7698845771,56795.6573360161,37736.4203864962,56433.1329768734,37207.0525685173,22281.7541115015
5985770208,6679,-2,0,888.4730543144,46426.5042835636,-4223.9551136002,17370.7256614002,57083.5207074533,56792.5789087199,37741.0684466826,56437.7445339693,37212.4063551194,22285.4652590325
5985770208,6679,-2,0,891.1012768282,46424.7399675243,-4217.3723896190,17373.0253560998,57084.2264338690,56794.3067216688,37741.7985084920,56437.5376831233,37212.9173983860,22287.4242582210
5985770208,6679,-2,0,877.2057670564,46426.7963082874,-4216.5936570223,17350.4664461900,57081.6712175362,56803.0552956845,37742.2122101839,56437.7445339693,37215.5942916870,22290.8190456346
5985770208,6679,-2,0,891.4906431265,46434.1212617748,-4203.8054076614,17361.1010132133,57091.6122258405,56804.0773822176,37747.7363445416,56446.8459711928,37222.5785496634,22291.0137287838
5985799972,6680,-2,0,915.2541550217,46435.1190129143,-4194.9594920711,17374.7896721391,57096.6739877189,56801.0354580119,37747.9796984780,56449.4985291002,37223.2599406855,22293.7149574784
5985799972,6680,-2,0,904.0355385509,46431.5052069579,-4205.6305621848,17354.4939538384,57088.0957614587,56806.8151140027,37743.9643585264,56444.8626366107,37219.9624948464,22295.1142426131
5985799972,6680,-2,0,888.7529113413,46432.9653305766,-4210.5584793981,17351.8657313247,57087.7307305540,56804.0165437335,37747.0306181258,56445.4466860582,37221.8728232476,22295.1264103099
5985799972,6680,-2,0,897.4649822666,46429.0716675933,-4208.6968217842,17370.7256614002,57087.8767429159,56792.7370887786,37745.0107804532,56441.3826753193,37220.8507367145,22292.7902125199
5985799972,6680,-2,0,898.8034289171,46422.7931360326,-4217.9686067633,17360.0910943770,57077.5463683132,56793.0656165928,37739.3893045210,56432.3785796704,37214.0368264937,22291.0867349647
5985799972,6680,-2,0,894.0336917625,46421.9048941646,-4222.7991824020,17350.5637877646,57074.5287795011,56798.0787076839,37740.3627202669,56432.7557782719,37214.0854972810,22290.9772256933
5985799972,6680,-2,0,905.6538422284,46424.2897627419,-4215.5594027924,17372.4778097427,57079.1160012034,56789.9141831157,37743.3194705948,56434.4105850398,37213.8056402540,22293.3985973611
5985799972,6680,-2,0,900.3122233231,46420.2500873966,-4220.4751523088,17372.3804681681,57075.5630337311,56786.4463895211,37738.8417581640,56428.1442211760,37209.4252693978,22294.2990069259
5985862277,6681,-2,0,877.5951333547,46421.4181862917,-4228.9438692976,17355.5768788557,57072.5089418285,56802.5685878115,37742.8327627219,56429.5678417043,37213.9516526159,22296.9515648334
5985862277,6681,-2,0,883.9953418836,46424.6182905561,-4218.6743331790,17372.6481574983,57082.3404408615,56800.9381164373,37747.4564875146,56439.5696884927,37221.8971586413,22298.2291729998
5985862277,6681,-2,0,902.2955579053,46421.8440556804,-4216.7518370810,17381.8226009028,57082.3282731646,56788.8920965826,37745.9476931086,56439.6548623705,37219.7191409100,22296.6473724128
5985862277,6681,-2,0,892.1720341486,46415.6993687849,-4228.5788383929,17357.6818904060,57072.1560786206,56791.9583561819,37741.9931916411,56433.2911569321,37214.4140250952,22295.4671058209
5985862277,6681,-2,0,884.4698820597,46414.5677729803,-4230.7325207306,17353.7152212418,57070.0267316766,56785.6311538340,37740.6790803843,56432.1960642180,37211.3842685863,22296.5500308382
5985862277,6681,-2,0,889.0084329746,46410.1143959431,-4228.1286336105,17367.2943708962,57065.6950316077,56773.1470968937,37734.9115920902,56427.0247930683,37205.5194387176,22297.5234465840
5985862277,6681,-2,0,882.3770382061,46408.5934338403,-4231.9614581097,17352.8148116769,57056.9586252888,56776.3472011581,37730.8475813513,56418.8602685001,37201.0295585900,22298.7280485695
5985862277,6681,-2,0,878.8484061275,46413.2414940266,-4228.7613538453,17346.0374045465,57057.3844946776,56784.8889243278,37735.2279522076,56420.1865474538,37206.4563513730,22297.2557572539
5985868495,6682,-2,0,894.7759212687,46414.0080589265,-4214.9388502544,17370.4214689797,57064.9893051919,56780.6180627430,37739.7300000321,56422.3402297914,37210.2040019944,22296.6108693223
5985868495,6682,-2,0,890.9065936790,46408.7516138990,-4216.8735140492,17369.1803639037,57059.4651708343,56781.3116214619,37736.9679328533,56418.8115977128,37207.7339595394,22298.3630176648
5985868495,6682,-2,0,867.6054542631,46408.0337197864,-4224.3688152922,17349.9919060139,57051.6900125645,56785.7163277118,37734.6925735474,56418.5439083827,37209.5834494565,22303.4734503304
5985868495,6682,-2,0,875.4536187139,46408.5690984466,-4219.7694258931,17362.4029567733,57053.6368440561,56776.1525180089,37734.1450271903,56420.5272429648,37209.8876418771,22303.4977857241
5985868495,6682,-2,0,892.5492327501,46404.3834107395,-4221.2903879960,17364.5444714142,57053.5151670879,56773.5851339793,37726.7592352188,56417.9963620256,37205.1665755097,22299.9569859486
5985868495,6682,-2,0,887.7064894146,46405.7461927837,-4228.8586954198,17344.5772809277,57050.4732428822,56780.5572242588,37726.6010551601,56414.6624130961,37207.0160654268,22298.1318314252
5985868495,6682,-2,0,884.8470806612,46409.6398557670,-4225.6342557618,17352.6809670118,57056.1190542080,56777.2111076325,37731.9791771559,56418.3370575367,37208.7195429820,22295.4184350337
5985868495,6682,-2,0,887.9741787447,46404.2617337713,-4221.7770958689,17366.8806692042,57055.2186446431,56767.8541487757,37730.5190535371,56415.4654810865,37205.4707679303,22294.0556529895
5985894933,6683,-2,0,875.7456434376,46398.8227732914,-4229.6739311070,17353.1920102784,57047.6990080065,56774.0475064586,37728.4870481677,56409.9170113352,37201.7231173089,22296.4405215668
5985894933,6683,-2,0,874.6870538140,46402.8016101525,-4228.2381428819,17353.7517243322,57050.5219136695,56779.2066099115,37732.0886864273,56412.8615939664,37206.7362083999,22297.2314218603
5985894933,6683,-2,0,893.4374746182,46401.3049834433,-4221.0592017563,17373.7797533028,57054.1357196259,56768.2313473772,37730.4217119625,56414.0418605582,37205.4586002335,22292.9970633659
5985894933,6683,-2,0,890.4198858061,46397.8858606361,-4230.3553221291,17363.1573539764,57049.0982931412,56773.8893263999,37728.9737560406,56410.8782593842,37204.4121783067,22291.4152627789
5985894933,6683,-2,0,875.0399170219,46403.6533489302,-4241.4765970252,17350.7341355201,57049.7310133760,56787.1399482401,37735.3496291758,56417.3514740940,37212.8200568114,22293.2525849992
5985894933,6683,-2,0,884.2265281232,46408.7029431117,-4231.0610485448,17373.0253560998,57059.6598539835,56779.2309453051,37738.8539258608,56424.4695767354,37217.0787506994,22294.4693546815
5985894933,6683,-2,0,892.2572080263,46407.7538627595,-4223.9551136002,17374.8018398359,57057.7981963696,56770.5067066831,37733.8651701634,56420.2595536347,37210.9218961070,22291.9019706518
5985894933,6683,-2,0,881.5374671253,46408.5690984466,-4225.1597155857,17353.3745257307,57054.0627134449,56776.2741949772,37731.8818355813,56415.8183442943,37210.1553312072,22292.6320324612
5985924064,6684,-2,0,887.5604770527,46414.0932328042,-4215.1457011004,17363.7414034239,57059.6233508930,56776.3715365517,37737.6736592690,56423.1432977817,37214.5965405475,22296.2215030240
5985924064,6684,-2,0,892.9020959580,46412.0855628285,-4211.1911996329,17376.3471373324,57058.7229413281,56768.5963782819,37735.4469707504,56420.4177336934,37210.1553312072,22296.0511552685
5985924064,6684,-2,0,876.1228420391,46410.6376069065,-4217.0925325921,17362.5246337416,57054.7927752543,56777.5274677499,37737.1869513961,56417.5461572432,37209.0967415836,22296.7325462905
5985924064,6684,-2,0,874.3463583030,46413.2171586330,-4217.2385449539,17369.9712641972,57061.6188531720,56780.3260380192,37744.9256065755,56423.8976949848,37216.0079933790,22296.8785586524
5985924064,6684,-2,0,898.3897272251,46412.4992645204,-4213.0893603373,17389.4760822044,57066.4372611139,56770.4337005022,37749.0747911921,56429.1176369218,37218.4415327436,22295.4671058209
5985924064,6684,-2,0,900.2027140517,46409.9683835813,-4219.2218795361,17374.1326165107,57059.8545371327,56772.1250103605,37748.2352201113,56426.5745882858,37217.2734338486,22296.0754906621
5985924064,6684,-2,0,884.6645652088,46409.4086695274,-4226.5468330235,17357.9617474330,57055.4863339732,56773.5242954952,37748.0405369621,56426.4042405303,37219.5366254576,22294.4815223783
5985924064,6684,-2,0,892.8899282611,46410.8201223589,-4221.1078725436,17374.4489766280,57060.8036174848,56765.2867647461,37747.0427858227,56426.1608865938,37218.2103465039,22292.7658771263
5985970031,6685,-2,0,900.1053724771,46408.9706324418,-4226.6928453854,17371.1880338795,57059.0271337487,56763.6197902813,37740.9102666239,56421.3789817424,37213.5014478335,22290.0646484316
5985970031,6685,-2,0,893.1941206817,46413.0589785743,-4233.8352834204,17353.7760597259,57058.2970719393,56774.6437236029,37741.8106761888,56421.9873665836,37214.2315096428,22289.8943006760
5985970031,6685,-2,0,903.1351289860,46417.6827033670,-4225.8289389109,17371.2975431509,57068.3962603024,56770.8352344973,37747.8336861161,56428.3145689315,37217.0665830026,22290.3810085490
5985970031,6685,-2,0,909.1581389134,46415.2491640024,-4222.8965239766,17382.0781225360,57067.1794906201,56765.9681557681,37747.7485122384,56427.6453456062,37215.2535961760,22291.0867349647
5985970031,6685,-2,0,890.4320535029,46412.0247243443,-4231.7546072637,17359.6287218977,57057.5183393426,56773.7433140380,37746.8359349767,56424.7859368528,37214.2315096428,22288.5436863287
5985970031,6685,-2,0,889.9453456300,46414.0445620169,-4229.3819063832,17362.3299505924,57060.5724312452,56775.8483255884,37748.0648723558,56428.1077180855,37217.6384647533,22287.2052396782
5985970031,6685,-2,0,909.4501636372,46415.3465055770,-4219.9032705582,17383.4044014897,57065.7437023950,56773.1349291968,37748.4664063509,56429.6530155820,37220.0355010274,22287.9596368812
5985970031,6685,-2,0,903.6948430399,46415.5898595135,-4225.3422310380,17370.5431459479,57060.6697728198,56779.8880009336,37747.1157920036,56426.5380851953,37221.1670968319,22292.3765108279
5985994008,6686,-2,0,888.9962652778,46420.6394536950,-4226.2304729061,17359.8355727437,57062.4827596464,56782.5283911442,37750.0847100284,56430.5169220564,37226.2410264071,22295.8929752098
5985994008,6686,-2,0,897.9760255331,46422.1725834947,-4217.0195264111,17373.3052131267,57066.1695717838,56770.4458681990,37748.5759156223,56431.3929962277,37224.9999213311,22293.4716035420
5985994008,6686,-2,0,902.3320609957,46418.0964050590,-4219.9032705582,17362.1352674432,57061.5945177783,56766.2966835824,37742.8936012060,56424.2140551022,37216.3973596773,22293.8731375371
5985994008,6686,-2,0,897.7813423840,46421.2843416266,-4223.4684057273,17348.1789191873,57062.4462565559,56772.5873828398,37744.7674265168,56425.0171230925,37214.3288512174,22294.9925656449
5985994008,6686,-2,0,912.8449510508,46422.7931360326,-4216.9100171397,17362.3421182892,57068.6639496325,56764.0699950638,37744.6700849422,56426.0513773224,37212.1508334861,22293.4716035420
5985994008,6686,-2,0,918.8192901908,46415.0788162469,-4223.6509211796,17361.7093980544,57063.5900200573,56760.6630399533,37740.1923725113,56419.6146657031,37206.0791527715,22291.7194551995
5985994008,6686,-2,0,905.0576250841,46414.2514128629,-4234.6383514107,17342.1802446536,57057.3966623744,56776.0430087375,37741.5794899492,56419.9310258205,37210.7758837451,22291.7924613804
5985994008,6686,-2,0,908.0873815930,46416.4294305942,-4230.3431544322,17352.5106192563,57061.5215115974,56770.2146819593,37745.4609852357,56424.4695767354,37214.8398944840,22291.7559582900
5986019947,6687,-2,0,923.8323812819,46413.9107173519,-4221.5824127197,17370.3971335860,57062.2515734068,56764.7513860858,37745.5948299007,56424.7859368528,37214.7060498189,22293.7514605689
5986019947,6687,-2,0,913.6236836474,46412.6087737918,-4224.6365046223,17353.2528487625,57055.6810171224,56772.8307367763,37743.5019860472,56420.5029075712,37212.2846781512,22297.4869434936
5986019947,6687,-2,0,899.8255154502,46418.9846469271,-4219.8302643772,17350.5272846741,57059.9275433136,56778.5008834958,37748.8436049524,56427.4384947602,37219.3906130958,22301.6726312007
5986019947,6687,-2,0,905.2523082332,46420.4326028490,-4209.2565358381,17368.9126745736,57066.7657889281,56769.0830861548,37748.6002510160,56430.9062883548,37220.6195504749,22300.8817309072
5986019947,6687,-2,0,902.7700980814,46418.3762620859,-4214.3913038974,17359.0325047534,57061.5701823847,56770.3363589276,37743.9278554360,56424.8832784274,37217.9304894770,22299.5919550439
5986019947,6687,-2,0,898.0003609268,46420.3109258808,-4216.6058247191,17347.4366896811,57062.2029026195,56779.3769576670,37746.0572023800,56426.5502528922,37222.6150527538,22300.1273337041
5986019947,6687,-2,0,910.3505732021,46421.0044845997,-4208.8671695398,17360.1397651643,57065.1109821602,56769.2899370008,37746.3492271037,56428.2172273569,37223.0895929299,22297.7181297332
5986019947,6687,-2,0,907.8683630502,46411.5988549555,-4215.9731044844,17349.4686950505,57054.5615890147,56761.9041450293,37738.7687519831,56419.4199825539,37215.5091178093,22296.5500308382
5986047439,6688,-2,0,887.1832784512,46409.6155203734,-4223.3832318495,17323.8921963287,57047.4678217669,56769.1195892453,37740.1680371177,56417.7286726955,37216.0323287726,22298.8740609314
5986047439,6688,-2,0,887.4266323876,46409.4938434052,-4217.2628803476,17340.2090777683,57048.1735481826,56760.3466798359,37742.1757070935,56416.0373628371,37215.8741487139,22299.0809117774
5986047439,6688,-2,0,899.5334907265,46404.5050877078,-4215.0361918290,17357.5358780442,57046.2023812973,56755.9784766765,37737.4546407262,56409.5641481273,37209.3035924296,22295.5279443051
5986047439,6688,-2,0,896.5159019144,46410.0292220654,-4216.5328185382,17351.3546880581,57049.7796841633,56778.5860573735,37741.3483037095,56412.8007554822,37216.7623905820,22300.5410353961
5986047439,6688,-2,0,901.9548623942,46424.2897627419,-4204.9613388596,17365.6638995219,57064.9893051919,56790.6320772282,37754.1852238577,56429.0567984377,37232.8115826915,22308.8394046294
5986047439,6688,-2,0,914.1225592172,46425.4456939400,-4197.3808637389,17386.1786363654,57070.1727440385,56773.8163202189,37755.4871674178,56434.9702990936,37234.5880664276,22311.3824532654
5986047439,6688,-2,0,904.3275632747,46414.4095929216,-4210.1326100093,17367.4282155612,57056.8247806237,56765.6396279539,37744.8282650009,56424.2992289799,37223.4911269251,22307.9633304581
5986047439,6688,-2,0,894.9949398115,46412.3654198554,-4216.8735140492,17355.9054066699,57051.3493170534,56764.9095661445,37741.3361360127,56417.8625173606,37218.2346818976,22303.2179286972
5986091336,6689,-2,0,909.9247038132,46407.1819810088,-4215.2065395845,17375.0695291660,57052.3957389802,56750.1501498983,37739.1337828877,56417.0107785830,37213.8299756477,22298.1683345156
5986091336,6689,-2,0,907.3451520868,46398.0075376043,-4227.6905965248,17366.2966197567,57041.1892902063,56747.4124181131,37734.8507536061,56407.2644534278,37205.2517493875,22293.7879636594
5986091336,6689,-2,0,887.3536262067,46396.4987431983,-4238.9457160861,17348.7751363316,57035.6408204550,56755.8811351019,37739.4136399147,56406.8264163422,37206.3346744048,22293.3012557865
5986091336,6689,-2,0,895.8588462859,46399.5893381913,-4233.5310909999,17368.3529605198,57042.1505382553,56747.7166105337,37746.5925810402,56411.3406318635,37209.6442879406,22294.2381684418
5986091336,6689,-2,0,908.0752138962,46392.4955709435,-4237.4612570737,17378.0992856749,57036.9305963182,56735.8166030409,37743.2221290203,56403.8696660142,37202.8182100229,22288.7383694779
5986091336,6689,-2,0,895.8588462859,46387.7623368794,-4250.6875435202,17355.8324004889,57028.9120841119,56743.2875688902,37740.8372604430,56396.6785571918,37198.2553237143,22285.7451160594
5986091336,6689,-2,0,892.9264313516,46390.9502734470,-4243.4599316074,17361.0766778196,57032.1121883763,56743.3362396775,37745.0959543310,56401.2901142877,37202.3193344532,22286.7793702894
5986091336,6689,-2,0,897.3554729951,46390.8894349629,-4231.4139117527,17373.1592007648,57034.1563614426,56737.2523912660,37741.8715146729,56402.8597471779,37200.5306830202,22289.1764065635
5986111446,6690,-2,0,884.3360373946,46391.5708259850,-4231.4382471463,17354.7251400781,57032.5867285524,56749.1158956684,37740.5452357192,56403.1517719016,37201.2120740423,22292.7415417326
5986111446,6690,-2,0,881.3914547634,46398.6889286264,-4226.2548082997,17351.0626633344,57036.8575901373,56755.5526072877,37743.1004520520,56409.8440051543,37207.7704626299,22292.3643431311
5986111446,6690,-2,0,903.9260292795,46401.9133682845,-4213.2840434865,17375.9334356404,57045.2046301578,56746.1348099467,37745.2784697833,56414.9909409104,37210.3621820531,22291.4761012630
5986111446,6690,-2,0,903.8286877050,46399.0296241374,-4220.7306739421,17364.9703408030,57039.9603528271,56746.9987164212,37740.7155834747,56409.4424711591,37207.7947980235,22290.6243624854
5986111446,6690,-2,0,883.0219261377,46400.1368845483,-4231.0123777575,17346.7187955686,57037.0036024992,56756.4651845494,37742.5042349077,56410.7079116287,37210.2648404786,22293.0092310627
5986111446,6690,-2,0,888.1080234097,46402.0715483432,-4223.7604304510,17366.5156382995,57045.5939964562,56752.1334844805,37745.7773453531,56417.3271387004,37212.1386657893,22295.6861243638
5986111446,6690,-2,0,897.9638578363,46400.7574370863,-4221.3268910864,17372.9523499188,57045.6791703339,56748.3128276780,37743.5263214408,56416.3780583482,37209.7416295152,22296.0511552685
5986111446,6690,-2,0,890.0670225982,46401.6213435607,-4227.3377333170,17356.0879221222,57042.8197615805,56757.3534264175,37746.0085315927,56418.1180389939,37212.6010382686,22292.9727279722
5986154183,6691,-2,0,894.9827721147,46406.7926147105,-4223.1520456099,17365.4692163727,57050.5827521536,56753.4840988278,37751.0581257742,56426.0635450192,37216.2635150123,22291.8898029550
5986154183,6691,-2,0,902.5389118417,46403.2518149350,-4223.4197349400,17374.5584858995,57050.9112799678,56746.8892071498,37747.1522950941,56424.4817444323,37214.4140250952,22291.3057535075
5986154183,6691,-2,0,889.9940164173,46400.3680707880,-4234.0299665696,17359.4218710517,57044.0973697469,56758.7648792489,37748.5150771382,56421.1477955028,37214.0368264937,22292.8875540945
5986154183,6691,-2,0,891.9165125153,46405.4298326663,-4228.2138074882,17368.0000973119,57051.9211988041,56764.3011813034,37754.9152856671,56428.3754074156,37222.7732328125,22298.5820362076
5986154183,6691,-2,0,914.2685715790,46403.6898520206,-4219.7329228026,17386.3124810304,57055.8391971811,56753.8491297325,37753.8810314371,56428.5700905648,37222.3838665142,22297.4261050094
5986154183,6691,-2,0,915.5340120486,46399.9422013992,-4226.0479574537,17371.4557232096,57050.0108704029,56759.7747980853,37750.6687594759,56423.0459562072,37221.3131091938,22300.2611783692
5986154183,6691,-2,0,902.4172348735,46401.9255359813,-4232.3629921049,17352.2550976230,57048.4655729064,56761.2227540072,37753.3091496865,56424.8711107306,37223.4667915315,22303.3031025749
5986154183,6691,-2,0,905.2401405364,46401.5605050766,-4227.0578762901,17367.1361908375,57049.9135288283,56746.2564869150,37752.1897215788,56425.3699863003,37219.9868302401,22300.7965570294
5986170200,6692,-2,0,902.5875826290,46396.8759417998,-4228.6640122707,17366.9780107788,57043.5133202994,56742.7400225331,37747.6876737543,56419.3713117666,37214.3288512174,22299.7623027994
5986170200,6692,-2,0,885.4189624118,46393.2986389338,-4238.6780267560,17351.0383279407,57033.8400013252,56746.7553624847,37744.5605756708,56413.2022894774,37211.8953118528,22298.1196637284
5986170200,6692,-2,0,887.1832784512,46391.8141799214,-4235.4292517042,17363.3033663382,57034.9594294329,56743.0077118632,37745.9355254118,56413.9688543772,37214.1463357651,22296.7812170778
5986170200,6692,-2,0,893.1941206817,46386.5942379844,-4230.4404960068,17366.8563338105,57031.2726172956,56739.9171168702,37742.5650733918,56409.6249866115,37212.6497090559,22293.8122990530
5986170200,6692,-2,0,872.5577068700,46386.3995548352,-4234.6261837139,17346.7674663559,57027.0869295885,56749.9554667491,37745.4488175388,56409.5519804305,37214.0124911000,22292.7537094294
5986170200,6692,-2,0,867.6419573535,46394.3207254670,-4227.0457085932,17357.5967165283,57038.3542168465,56751.0627271600,37753.5281682293,56418.6169145636,37220.7047243526,22293.2769203928
5986170200,6692,-2,0,887.2562846321,46395.0872903668,-4221.1808787246,17383.7329293040,57044.2190467152,56741.5719236381,37752.8102741167,56420.7584292044,37217.8939863866,22289.9186360697
5986170200,6692,-2,0,890.0426872046,46393.7001729290,-4227.5324164661,17374.1082811170,57039.8508435557,56748.9455479128,37750.3767347521,56417.9963620256,37218.4293650468,22290.6608655759
5986208906,6693,-2,0,886.4167135513,46395.7078429048,-4232.6063460413,17365.4692163727,57041.9193520156,56751.3425841870,37753.6498451975,56419.8215165491,37222.6515558443,22290.5026855172
5986208906,6693,-2,0,898.7304227361,46396.4257370173,-4226.9483670186,17381.4454023012,57044.5475745294,56735.8896092218,37753.4673297452,56418.0937036002,37219.5852962449,22289.0912326857
5986208906,6693,-2,0,901.5776637927,46393.2986389338,-4234.6870221980,17370.9081768526,57037.0401055896,56732.2149647813,37750.4497409331,56412.7642523918,37213.0877461415,22286.5116809593
5986208906,6693,-2,0,893.4253069213,46396.0728738095,-4247.2805884098,17356.3069406650,57033.6088150856,56737.7877699262,37750.9729518965,56411.2067871984,37212.2116719702,22286.0736438736
5986208906,6693,-2,0,902.4050671767,46396.4865755014,-4247.0250667765,17374.1447842075,57038.0500244259,56728.1144509520,37753.0049572659,56412.5087307585,37212.0048211242,22281.6689376237
5986208906,6693,-2,0,903.9381969764,46389.5144852219,-4253.9484862688,17378.4156457923,57032.3920454033,56723.7949185798,37749.1356296762,56406.0111806550,37205.4464325367,22278.2741502101
5986208906,6693,-2,0,885.6258132578,46388.8817649871,-4262.3563647734,17359.6408895945,57026.8070725615,56736.2911432170,37752.3113985470,56403.5654735936,37208.2815058964,22278.4444979657
5986208906,6693,-2,0,888.1810295907,46393.5054897798,-4252.9629028261,17369.3385439624,57034.5700631346,56735.9139446155,37757.7138559364,56411.9490167046,37214.5600374571,22276.1448032661
5986238727,6694,-2,0,906.4690779155,46393.2743035402,-4244.0926518422,17390.4738333439,57037.4416395848,56730.7913442530,37757.3609927285,56412.9102647536,37214.8155590903,22273.4435745714
5986238727,6694,-2,0,900.9206081643,46393.9921976527,-4246.3801788449,17379.0848691176,57034.1806968362,56744.0419660932,37756.7526078874,56412.7399169981,37217.1152537899,22278.1646409387
5986238727,6694,-2,0,895.3599707162,46400.5749216339,-4241.7929571426,17377.8680994353,57039.6196573161,56753.5571050087,37762.6417731497,56420.8070999917,37226.5817219181,22286.4265070815
5986238727,6694,-2,0,902.3928994798,46401.8768651940,-4234.0543019632,17396.0466384888,57043.2943017566,56744.3948293011,37763.3353318686,56423.1554654786,37226.6547280991,22291.3665919916
5986238727,6694,-2,0,893.5226484959,46398.9079471692,-4241.8294602331,17385.3390652846,57036.3465468707,56744.8815371740,37759.4903396725,56417.4731510623,37221.5686308271,22291.7316228963
5986238727,6694,-2,0,886.2828688863,46401.1103002942,-4246.2828372703,17373.8770948774,57035.3122926408,56749.3349142112,37762.8607916925,56418.4952375954,37223.9778347980,22293.9096406276
5986238727,6694,-2,0,903.5609983748,46402.3879084606,-4238.1913188830,17392.7126895593,57040.5565699715,56740.6106755891,37763.5178473209,56420.6489199330,37224.0751763726,22292.8753863977
5986238727,6694,-2,0,909.6205113927,46397.7276805774,-4238.2886604576,17389.4639145076,57036.2127022057,56737.9824530754,37759.0766379805,56415.3924749055,37219.8651532719,22290.2958346712
5986270745,6695,-2,0,889.4464700602,46396.8881094966,-4246.1124895148,17362.6706461034,57030.2383630656,56745.5750958929,37756.2537323176,56413.2874633552,37220.7777305336,22287.7284506416
5986270745,6695,-2,0,889.0084329746,46400.1490522451,-4240.6735290349,17372.8793437379,57032.2947038287,56736.8265218772,37755.9373722002,56416.2077105927,37221.3861153747,22286.3048301133
5986270745,6695,-2,0,899.7646769661,46396.3648985332,-4237.1692323499,17383.7085939103,57031.0049279655,56729.1487051819,37749.8535237887,56411.6204888904,37217.1274214867,22284.0659738979
5986270745,6695,-2,0,887.5483093559,46396.1337122936,-4242.4013419838,17365.5908933409,57026.2960292950,56738.8220241562,37745.8746869277,56406.9602610072,37215.8254779266,22288.0934815462
5986270745,6695,-2,0,876.6703883961,46398.1535499662,-4240.8803798809,17365.2623655267,57029.1067672611,56739.0288750021,37748.1257108399,56409.1017756481,37220.2910226607,22289.5657728618
5986270745,6695,-2,0,884.2143604264,46395.8416875698,-4240.0286411033,17377.6855839830,57028.7295686596,56725.7904208588,37747.4321521210,56407.7389936039,37217.5654585723,22285.5991036975
5986270745,6695,-2,0,881.8659949395,46392.2278816134,-4251.9164808993,17357.4142010759,57019.0805850790,56726.5326503650,37741.9566885507,56400.6330586593,37211.0800761657,22282.3138255553
5986270745,6695,-2,0,883.9953418836,46398.1535499662,-4254.0214924497,17348.6777947571,57023.3879497543,56733.4195667668,37747.4929906051,56405.8530005963,37214.4505281857,22282.8613719124
5986293577,6696,-2,0,904.6682587857,46401.9620390718,-4245.0417321944,17370.7986675812,57035.0202679170,56726.5934888491,37748.8314372556,56411.2797933794,37215.2535961760,22284.8082034041
5986293577,6696,-2,0,906.9801211821,46397.3139788854,-4247.4752715589,17367.6228987104,57029.9220029482,56726.3623026095,37747.8215184193,56407.9580121467,37212.2725104543,22285.8424576340
5986293577,6696,-2,0,889.8236686617,46398.4090715995,-4252.6587104055,17348.8968132999,57029.2892827134,56740.6471786796,37751.8368583709,56411.1094456239,37217.3464400295,22289.7604560110
5986293577,6696,-2,0,894.2892133958,46400.2220584261,-4246.7452097496,17361.6363918735,57033.4384673300,56732.9936973780,37754.5745901561,56413.8715128027,37222.4325373015,22290.4905178204
5986293577,6696,-2,0,908.7444372214,46393.9313591686,-4244.9078875293,17371.9911018698,57028.6078916913,56726.1067809762,37751.2406412266,56408.9922663767,37218.2711849881,22287.7041152479
5986293577,6696,-2,0,902.0643716656,46393.0187819069,-4247.4996069526,17358.6066353646,57023.9841668986,56737.7634345326,37752.6277586644,56408.4447200196,37218.5875451055,22288.1543200304
5986293577,6696,-2,0,901.7601792451,46399.4919966167,-4237.7532817974,17371.4070524223,57032.1486914668,56736.3033109138,37758.6507685917,56416.5727414974,37223.1139283236,22288.4341770573
5986293577,6696,-2,0,907.9413692311,46399.9543690960,-4231.9492904129,17389.6951007472,57035.4218019122,56727.6885815632,37759.0401348901,56416.1590398054,37220.6438858685,22288.9817234143
5986339212,6697,-2,0,894.5812381195,46397.5938359123,-4243.4842670010,17372.1492819285,57028.6322270850,56733.6994237937,37757.1663095793,56412.2410414284,37217.6506324501,22286.0493084800
5986339212,6697,-2,0,889.1179422460,46403.9088705634,-4243.3260869423,17370.1294442559,57032.2216976478,56740.2456446844,37761.3885003769,56416.1468721086,37224.4158718836,22286.5116809593
5986339212,6697,-2,0,907.2113074217,46407.2428194929,-4233.4702525157,17393.2724036131,57037.1982856483,56730.1099532309,37763.4083380495,56418.1423743875,37225.3771199327,22289.3832574095
5986339212,6697,-2,0,905.6173391379,46403.2883180255,-4241.1724046047,17386.5558349669,57030.3478723370,56729.3677237247,37756.8499494619,56410.9025947779,37221.0454198637,22286.7428671989
5986339212,6697,-2,0,884.9079191453,46402.2540637955,-4252.4518595595,17365.6882349155,57022.4023663116,56733.7359268842,37756.3389061954,56405.9868452614,37218.7700605578,22284.6986941326
5986339212,6697,-2,0,887.6943217177,46402.1932253114,-4245.6257816419,17380.5814958268,57029.2041088357,56728.4064756757,37757.4461666063,56410.9025947779,37219.7313086068,22286.1223146609
5986339212,6697,-2,0,894.9706044179,46398.7497671105,-4241.4035908443,17386.5801703605,57027.9265006693,56727.0801967220,37756.5457570414,56409.5519804305,37218.2590172912,22289.5049343777
5986339212,6697,-2,0,890.9430967695,46399.1756364993,-4247.2805884098,17370.2997920114,57022.9620803655,56731.9229400575,37757.2636511539,56409.3329618877,37220.8994075018,22291.9141383486
5986363663,6698,-2,0,902.9769489273,46403.4099949937,-4244.9930614071,17382.1754641106,57028.0968484248,56729.9031023849,37765.3795049348,56417.1932940353,37223.3086114728,22294.0313175958
5986363663,6698,-2,0,915.5583474423,46397.6790097901,-4245.8448001847,17393.1872297354,57024.5195455588,56718.5263058555,37760.7557801421,56412.9102647536,37217.3099369390,22290.6365301822
5986363663,6698,-2,0,902.2833902084,46393.3108066307,-4257.3554413792,17371.8572572048,57016.7808903794,56722.5659812007,37759.2591534329,56407.4348011833,37214.9250683618,22288.5801894192
5986363663,6698,-2,0,896.6740819731,46397.0949603426,-4258.6087141519,17370.9811830335,57020.3216901549,56722.0306025405,37763.0919779321,56409.8075020638,37215.8376456235,22284.4310048025
5986363663,6698,-2,0,912.4920878429,46396.8516064061,-4254.9097343178,17391.0335473977,57024.7628994953,56710.4226197714,37762.9216301766,56411.4988119222,37212.5401997845,22280.1844786113
5986363663,6698,-2,0,910.0342130847,46393.8096822004,-4263.4514574875,17381.7495947218,57018.2531816950,56718.5993120364,37760.5610969929,56403.4924674127,37209.9119772707,22280.8902050271
5986363663,6698,-2,0,891.8556740312,46397.3748173695,-4269.0364303292,17367.0388492629,57016.1116670542,56726.3623026095,37763.2258225972,56406.0841868360,37215.1684222982,22285.9519669054
5986363663,6698,-2,0,894.2527103053,46398.9444502597,-4260.1540116485,17381.0682036997,57016.9634058318,56713.3306993121,37762.3984192132,56407.5808135452,37216.3121857996,22289.3589220158
5986392508,6699,-2,0,897.6231623253,46393.6393344449,-4260.4338686754,17378.8293474843,57011.5974515329,56706.6506337563,37754.4042424005,56401.1684373195,37209.2914247327,22288.5436863287
5986392508,6699,-2,0,892.1720341486,46393.6149990512,-4266.2743631504,17366.4426321186,57008.3365087843,56713.5253824613,37752.1410507915,56397.8223206932,37208.5491952265,22284.9907188564
5986392508,6699,-2,0,904.3032278810,46398.2387238439,-4259.0954220249,17384.5968357784,57016.2090086288,56710.5807998301,37755.3533227527,56403.1639395985,37211.5424486450,22282.3989994331
5986392508,6699,-2,0,910.5330886544,46394.9899487922,-4255.6762992176,17395.1948997112,57015.8926485114,56705.4095286803,37753.5525036229,56401.5699713147,37209.5469463660,22280.9145404207
5986392508,6699,-2,0,885.1269376881,46392.4712355499,-4265.0089226808,17370.4336366765,57006.5113542609,56712.7344821678,37751.4839951630,56397.3721159108,37207.7947980235,22278.3471563911
5986392508,6699,-2,0,879.7488156924,46397.2531404013,-4261.2856074530,17375.4710631612,57014.5298664672,56715.6303940116,37757.4948373936,56404.1860261316,37211.5789517354,22281.3404098095
5986392508,6699,-2,0,900.2513848390,46397.8250221520,-4252.7317165865,17402.1913253844,57021.0152488738,56708.8651545781,37757.8842036919,56406.5465593152,37211.4937778577,22283.0803904552
5986392508,6699,-2,0,899.8255154502,46395.3549796969,-4256.0778332128,17389.7802746250,57013.5807861150,56715.3992077720,37757.3366573349,56403.1396042048,37210.5690328991,22288.2029908177
5986445197,6700,-2,0,891.1621153123,46400.2220584261,-4254.7272188654,17379.0361983303,57016.3550209906,56720.3271249853,37763.2744933845,56408.6880739561,37216.1661734377,22290.9407226028
5986445197,6700,-2,0,899.3874783646,46399.7840213405,-4246.2706695735,17391.3377398183,57018.4478648442,56710.5564644365,37762.1794006704,56411.3649672571,37215.5456208997,22288.9573880207
5986445197,6700,-2,0,894.3135487894,46394.9412780049,-4248.4243519111,17380.7153404919,57011.5122776551,56711.1405138840,37754.8544471830,56403.4072935349,37212.0169888211,22284.8690418882
5986445197,6700,-2,0,880.7343991350,46396.9124448902,-4247.5482777399,17366.1384396980,57013.9093139292,56723.1743660419,37754.9031179703,56405.3784604202,37218.3198557753,22285.8546253308
5986445197,6700,-2,0,891.4054692487,46399.7718536436,-4239.1160638416,17382.1754641106,57021.5019567467,56716.3969589115,37756.0468814716,56410.9877686556,37219.5366254576,22285.9641346022
5986445197,6700,-2,0,902.3198932989,46393.2378004497,-4241.8781310204,17388.1254678570,57017.4136106142,56710.2522720159,37752.9319510850,56407.7146582103,37215.0832484205,22284.3093278343
5986445197,6700,-2,0,885.1512730817,46391.1084535057,-4253.6686292418,17366.2479489694,57008.5433596303,56720.2176157139,37752.5182493930,56406.0841868360,37215.4726147188,22285.5504329103
5986445197,6700,-2,0,882.2310258442,46394.2598869828,-4250.0791586791,17372.9523499188,57015.4667791226,56719.2928707553,37757.7016882395,56413.2631279615,37220.1450102988,22288.6288602065
5986474476,6701,-2,0,896.0535294351,46391.8506830119,-4246.9277252019,17387.7726046492,57018.4843679347,56713.7322333072,37758.4925885330,56412.5330661521,37220.8750721082,22288.4585124509
5986474476,6701,-2,0,890.3712150188,46389.8065099456,-4254.1188340243,17369.5940655957,57012.4370226136,56724.5128126924,37759.5025073693,56406.6439008898,37218.9404083133,22288.1421523335
5986474476,6701,-2,0,884.1778573359,46394.7100917653,-4250.4320218869,17367.4768863485,57014.0066555038,56728.8201773677,37765.7323681427,56410.3672161177,37224.0386732821,22287.5094320987
5986474476,6701,-2,0,894.0093563688,46393.1282911783,-4242.4500127711,17389.3665729330,57013.1184136357,56715.9345864322,37765.5985234776,56408.9800986798,37223.1260960204,22283.7861168709
5986474476,6701,-2,0,891.8313386375,46387.5189829429,-4248.2540041556,17378.3669750050,57004.4063427105,56714.3771212389,37759.9283767581,56402.6650640287,37216.4947012519,22281.9974654380
5986474476,6701,-2,0,886.5262228227,46390.9381057502,-4254.0093247529,17364.0334281476,57004.8930505834,56724.3911357241,37761.8022020689,56404.5510570363,37219.1837622498,22281.7541115015
5986474476,6701,-2,0,902.2347194211,46394.0895392273,-4247.0737375638,17384.0736248150,57016.9025673477,56719.6579016600,37762.2524068513,56411.1824518048,37223.0530898395,22280.0141308558
5986474476,6701,-2,0,906.5664194901,46390.8650995692,-4247.3049238034,17387.2372259890,57013.7633015673,56720.5583112249,37758.8211163473,56408.4447200196,37223.0530898395,22279.2719013496
5986493748,6702,1,0,882.0485103919,46390.1472054567,-4253.2184244594,17367.5133894390,57010.8308866330,56732.2271324781,37760.8531217167,56411.1094456239,37226.8615789451,22281.0605527826
5986493748,6702,1,0,879.8339895701,46393.5784959608,-4239.3107469908,17383.0637059787,57018.5087033283,56730.6209964975,37767.3020010328,56417.0959524607,37236.9851027017,22285.1975697024
5986493748,6702,1,0,894.7394181782,46392.6415833054,-4229.3089002023,17400.0984815308,57021.8913230451,56724.4519742083,37766.3285852870,56415.4533133896,37237.8611768730,22289.4197604999
5986493748,6702,1,0,893.2671268626,46395.3671473937,-4232.9957123396,17386.0204563067,57016.8295611667,56735.2568889870,37765.9148835950,56408.7732478339,37237.7394999048,22293.4472681483
5986493748,6702,1,0,891.3081276741,46400.4897477562,-4234.6261837139,17389.6342622631,57019.3482744091,56732.5678279892,37766.5719392235,56408.5298938974,37237.7638352984,22295.0899072194
5986493748,6702,1,0,898.9616089758,46402.2175607050,-4229.9416204371,17411.4387749698,57024.5438809525,56726.5813211523,37766.3529206807,56409.3329618877,37233.6389860754,22295.7956336352
5986493748,6702,1,0,888.2175326811,46403.4464980842,-4232.8131968873,17400.9745557021,57019.3726098027,56734.2348024539,37766.7179515853,56408.3717138387,37233.5416445009,22296.0754906621
5986493748,6702,1,0,881.5131317317,46409.6276880702,-4229.4670802610,17390.1574732265,57022.9499126687,56740.4889986209,37770.5751114782,56414.9666055167,37239.6984990933,22297.3896019190
5986519203,6703,1,0,901.6263345800,46411.7083642269,-4217.3358865285,17402.0818161130,57029.8489967673,56733.6142499159,37771.4755210431,56419.7241749745,37241.7305044627,22296.5621985350
5986519203,6703,1,0,905.8606930744,46404.9187893997,-4222.8478531893,17391.7149384198,57021.1369258421,56731.3632260037,37764.9536355460,56415.2586302405,37238.2383754745,22296.9393971365
5986519203,6703,1,0,883.5573047979,46402.0107098591,-4236.6460213865,17369.2412023878,57013.0940782421,56734.8675226887,37763.3596672622,56413.4578111107,37238.3113816554,22298.6185392981
5986519203,6703,1,0,881.9146657268,46401.8525298004,-4232.1804766525,17384.9740343799,57020.9057396024,56728.5889911281,37767.2776656392,56419.0062808619,37241.1099519247,22295.9781490875
5986519203,6703,1,0,896.1143679192,46398.9931210470,-4227.1065470773,17399.6969475357,57023.6799744780,56725.0481913526,37768.6404476834,56418.7264238350,37237.9585184476,22293.8001313562
5986519203,6703,1,0,896.2482125843,46403.3978272969,-4229.2967325055,17388.8433619696,57024.7628994953,56741.5719236381,37772.1934151557,56421.7196772535,37242.5822432403,22296.5987016255
5986519203,6703,1,0,900.2513848390,46411.6110226524,-4216.5571539319,17400.4513447387,57034.5457277409,56742.0707992079,37778.7153006528,56430.7237729024,37249.6881781849,22301.2224264182
5986519203,6703,1,0,909.3041512753,46408.5934338403,-4208.8915049334,17416.5005368481,57032.8909209730,56725.2063714113,37775.5516994788,56427.2924823984,37244.7480932748,22300.4923646088
5986557681,6704,1,0,896.1265356160,46402.7042685780,-4218.7473393600,17400.1836554086,57022.6213848545,56727.2627121744,37771.6702041923,56420.0892058792,37240.3190516312,22300.3098491565
5986557681,6704,1,0,887.0007629988,46403.9332059571,-4224.1376290525,17395.6329367968,57020.2243485803,56728.7593388836,37771.3538440749,56419.8580196395,37241.6209951913,22300.8208924230
5986557681,6704,1,0,901.0179497389,46401.2198095656,-4222.6775054338,17414.0183266963,57022.9620803655,56716.7133190289,37770.8306331115,56418.3248898399,37239.5281513377,22299.3364334106
5986557681,6704,1,0,901.7115084578,46394.9047749145,-4234.1394758410,17402.7997102255,57014.0553262911,56717.6015608969,37766.6936161917,56409.6493220051,37232.6290672391,22296.6717078064
5986557681,6704,1,0,884.1900250327,46390.9746088406,-4245.1634091626,17381.2993899394,57006.8520497719,56725.4253899541,37765.9635543823,56408.1891983863,37233.0914397184,22296.4040184763
5986557681,6704,1,0,889.1179422460,46392.7510925768,-4238.1913188830,17396.4238370903,57010.4901911220,56721.0693544915,37769.5286895515,56410.1725329685,37236.9242642176,22296.7568816842
5986557681,6704,1,0,896.7957589413,46388.7844234125,-4237.1448969563,17402.6902009541,57009.0665705937,56715.9954249163,37767.5453549693,56404.3928769776,37232.2275332440,22292.9483925786
5986557681,6704,1,0,890.2738734442,46392.5929125181,-4239.9556349224,17391.5445906643,57008.4338503589,56721.1058575819,37771.2930055908,56406.4127146502,37233.3347936549,22293.3377588769
5986582574,6705,1,0,893.4496423150,46396.5717493792,-4234.7478606821,17402.3373377462,57016.8782319540,56711.0310046126,37772.8017999968,56412.3627183966,37233.3712967453,22290.7825425441
5986582574,6705,1,0,903.6948430399,46392.7754279704,-4232.3021536207,17412.7528862267,57016.7322195921,56704.4361129345,37769.5651926419,56410.1847006653,37228.5042180162,22290.0646484316
5986582574,6705,1,0,890.0426872046,46389.3441374664,-4244.2508319009,17386.6410088446,57008.9327259286,56715.4235431656,37767.4236780011,56405.2446157552,37225.1581013898,22290.4053439426
5986582574,6705,1,0,885.9543410721,46395.2941412128,-4243.5816085756,17385.3025621941,57014.5785372545,56718.9156721538,37772.5219429699,56409.7466635797,37231.2784528918,22294.1408268672
5986582574,6705,1,0,902.6849242036,46397.1923019172,-4233.9691280855,17407.8614721038,57018.6547156902,56707.7700618640,37770.2952544513,56409.3694649782,37229.8670000603,22294.2503361387
5986582574,6705,1,0,903.4271537098,46397.8250221520,-4235.0033823154,17401.9966422352,57015.5884560908,56708.2567697369,37768.6769507738,56405.4271312075,37226.9102497323,22292.8388833072
5986582574,6705,1,0,890.5537304711,46401.9620390718,-4239.7244486827,17390.2548148011,57017.2554305555,56712.7344821678,37772.5462783635,56408.9314278925,37229.3802921874,22290.8433810282
5986582574,6705,1,0,898.9494412790,46403.1423056636,-4233.2390662761,17410.3923530430,57024.6533902239,56708.6339683384,37777.2916801245,56417.4123125781,37232.2640363344,22290.2958346712
5986611395,6706,1,0,904.2545570938,46401.6335112575,-4235.0763884964,17415.0282455326,57024.6777256175,56712.0165880552,37777.4498601832,56419.1766286175,37231.1202728331,22291.7802936836
5986611395,6706,1,0,897.5501561443,46403.0692994827,-4239.2864115971,17405.1602434092,57021.6601368054,56722.7484966530,37780.6986352349,56418.8115977128,37232.4343840900,22295.6982920606
5986611395,6706,1,0,906.7489349425,46403.6898520206,-4230.6351791560,17421.6353049074,57026.7097309870,56716.2996173369,37783.4850378074,56422.1698820359,37235.4763082957,22294.8100501925
5986611395,6706,1,0,917.1523157261,46399.9787044896,-4226.2548082997,17429.6538171137,57024.9575826445,56708.2689374337,37779.3358531907,56418.7629269255,37232.0450177916,22294.9195594639
5986611395,6706,1,0,898.4505657092,46396.1823830809,-4234.1151404474,17404.7222063235,57016.3063502033,56711.5298801823,37775.7707180216,56411.2554579857,37229.3316214001,22294.6153670433
5986611395,6706,1,0,890.9917675568,46397.9223637265,-4234.6870221980,17404.5153554775,57018.6790510838,56708.9989992431,37777.2916801245,56413.4091403234,37230.4023787205,22293.7392928721
5986611395,6706,1,0,908.5619217691,46396.1458799904,-4232.5820106477,17420.1386781982,57021.4654536563,56702.2824305969,37773.5805325935,56414.4920653406,37227.6646469354,22291.4639335662
5986611395,6706,1,0,906.9801211821,46395.2211350319,-4242.1458203505,17406.6568701184,57016.5618718366,56713.1116807693,37771.6702041923,56411.3406318635,37227.9688393559,22291.8898029550
5986668785,6707,1,0,899.3509752741,46401.2684803529,-4241.8051248395,17399.7577860198,57020.3216901549,56722.0549379341,37777.6567110292,56418.1667097812,37236.3767178606,22293.9339760213
5986668785,6707,1,0,908.0265431089,46401.1954741719,-4233.5067556062,17419.0192500905,57022.5118755830,56708.9624961526,37777.8392264815,56419.4443179476,37236.8025872494,22291.4395981726
5986668785,6707,1,0,903.1594643797,46392.1062046452,-4238.2643250640,17413.8236435471,57013.7754692642,56705.1540070471,37773.4953587157,56408.4568877164,37230.1103539968,22285.7816191499
5986668785,6707,1,0,894.4960642418,46393.6758375353,-4243.6302793629,17401.6316113305,57013.0210720612,56716.0075926131,37776.5494506183,56409.0896079512,37232.4222163931,22289.0182265048
5986668785,6707,1,0,912.6624355984,46398.2143884503,-4236.1593135136,17420.3820321347,57022.0616708006,56713.9512518501,37780.5282874794,56414.2608791010,37235.1356127847,22293.3499265738
5986668785,6707,1,0,926.3754299179,46396.4744078046,-4231.9006196256,17423.8498257292,57021.1490935389,56708.5731298543,37775.6612087502,56411.8151720396,37233.9553461928,22295.0047333417
5986668785,6707,1,0,903.1351289860,46395.3063089096,-4237.5585986482,17399.5752705674,57014.1648355625,56720.2541188043,37775.2718424519,56410.8174209001,37237.1554504573,22296.2701738113
5986668785,6707,1,0,892.8169220802,46396.4014016237,-4232.0101288970,17402.7388717414,57013.8484754451,56713.7930717914,37775.6733764470,56414.3825560692,37239.5524867314,22291.7437905931
5986677555,6708,1,0,903.3176444384,46393.8096822004,-4224.1984675367,17420.6010506775,57014.3716864085,56706.1517581865,37773.8482219236,56411.1094456239,37236.1333639241,22289.0182265048
5986677555,6708,1,0,899.3144721836,46391.6803352564,-4227.9582858549,17411.2562595174,57009.3950984079,56714.1337673024,37774.2010851315,56409.2721234036,37234.4298863689,22292.1574922851
5986677555,6708,1,0,895.7006662272,46396.9611156775,-4227.1308824710,17412.3878553220,57016.7443872890,56718.8913367602,37779.0803315575,56414.1392021328,37239.2847974013,22296.1728322367
5986677555,6708,1,0,901.2248005848,46395.9511968412,-4223.4440703336,17430.5177235882,57020.4190317295,56710.8241537666,37778.1677542957,56413.6038234726,37237.8003383889,22291.7194551995
5986677555,6708,1,0,891.8800094248,46394.2598869828,-4230.8785330925,17420.3941998315,57014.8583942814,56717.1756915081,37776.9631523103,56411.7056627682,37237.9220153571,22291.1719088425
5986677555,6708,1,0,882.3405351156,46400.1490522451,-4233.6527679681,17407.6667889547,57018.3261878760,56728.7715065804,37783.7162240470,56417.5704926368,37243.5678266830,22295.1872487940
5986677555,6708,1,0,905.3618175046,46408.2405706324,-4221.2173818150,17433.1459461019,57032.0026791049,56723.9287632449,37792.1727733389,56428.1077180855,37250.7467678085,22299.8718120709
5986677555,6708,1,0,917.9918868069,46406.2450683534,-4221.7649281721,17438.8404282151,57031.0901018432,56718.2951196158,37791.9172517057,56426.5989236795,37249.0797933437,22297.7424651268
5986705637,6709,1,0,900.6650865310,46405.9895467202,-4233.2025631856,17421.2824416996,57026.7827371679,56727.5790722918,37790.4571280869,56426.5989236795,37250.1505506642,22297.6329558554
5986705637,6709,1,0,900.8841050738,46411.7205319238,-4226.7536838695,17434.0706910605,57034.2537030172,56726.5204826682,37795.8352500827,56432.0743872498,37254.3362383713,22300.9547370881
5986705637,6709,1,0,911.1171381019,46409.6641911607,-4223.8577720256,17441.3226383669,57034.5335600441,56714.4257920262,37791.1263514122,56428.5579228679,37249.3596503707,22299.8839797677
5986705637,6709,1,0,901.9061916069,46407.1576456152,-4231.7911103542,17418.1553436161,57025.4686259110,56721.0206837042,37786.8068190400,56421.2208016837,37246.5124093141,22297.8641420951
5986705637,6709,1,0,895.5059830781,46408.4352537816,-4232.6306814350,17413.7019665789,57026.5028801410,56724.1477817877,37790.5909727520,56425.3943216940,37249.4813273389,22295.5644473955
5986705637,6709,1,0,907.7710214756,46408.8854585640,-4226.4494914489,17432.2942073243,57029.4717981658,56715.1315184419,37789.8244078521,56427.4628301539,37247.8021851773,22297.5112788872
5986705637,6709,1,0,900.7380927119,46404.2982368618,-4236.4148351469,17420.6010506775,57020.2851870644,56717.9057533175,37788.0965949033,56422.0238696740,37244.1762115241,22297.3165957380
5986705637,6709,1,0,896.9296036063,46410.9296316303,-4234.6140160171,17418.4352006430,57027.1964388599,56732.9936973780,37795.9569270509,56428.4119105061,37252.4867484542,22302.7190531274
5986737586,6710,1,0,915.2176519312,46416.3442567165,-4219.5869104408,17443.8291839125,57038.5488999957,56729.9761085659,37801.1038628070,56435.9193794458,37259.5561803083,22303.3639410590
5986737586,6710,1,0,922.2384129981,46413.5943572345,-4218.6013269981,17441.3591414574,57033.2681195745,56730.1342886246,37798.4391372028,56432.8531198464,37258.9599631640,22301.0885817531
5986737586,6710,1,0,906.6029225806,46414.0932328042,-4224.6973431064,17420.4672060124,57029.1432703515,56737.8486084103,37797.4413860633,56433.8143678955,37262.8171230569,22300.2611783692
5986737586,6710,1,0,907.4181582677,46414.5312698899,-4217.5670727682,17430.0066803216,57033.4993058142,56728.6133265217,37797.6847399997,56435.9315471427,37264.5571037025,22297.6329558554
5986737586,6710,1,0,914.6214347869,46410.1995698209,-4213.6977451785,17436.3825534568,57031.0657664496,56723.7705831862,37793.1096859943,56432.7071074846,37260.8946269588,22293.5324420261
5986737586,6710,1,0,904.5830849080,46409.8467066130,-4221.6189158102,17418.7028899731,57028.0238422438,56734.3929825126,37793.2191952657,56430.5290897533,37262.4885952426,22293.6176159039
5986737586,6710,1,0,906.9436180916,46414.8597977041,-4217.6644143427,17421.9881681153,57034.2293676235,56733.1275420430,37801.2863782593,56439.1559868007,37268.0735680844,22292.7902125199
5986737586,6710,1,0,920.2185753255,46413.1684878457,-4210.9843487869,17435.0562745031,57034.9229263424,56723.4663907656,37802.1016139465,56438.5841050501,37266.9541399767,22294.3233423196
5986795235,6711,1,0,909.8760330260,46409.9440481876,-4216.1799553303,17420.6010506775,57030.1896922783,56733.9549454270,37802.9898558145,56438.0973971771,37267.2096616099,22298.6793777822
5986795235,6711,1,0,899.7890123597,46413.8377111710,-4218.4309792426,17418.2648528875,57034.7769139806,56737.7634345326,37806.9686926756,56443.4390160824,37272.3809327597,22299.6406258312
5986795235,6711,1,0,916.1302291929,46414.5312698899,-4214.2696269291,17440.0450302005,57040.6904146365,56724.7318312352,37806.6401648614,56446.3227602295,37270.7869644759,22295.2237518845
5986795235,6711,1,0,920.7417862888,46409.0314709259,-4222.4219838005,17433.5718154907,57035.1176094916,56721.0085160074,37802.1137816433,56441.9423893732,37265.3236686024,22290.0038099474
5986795235,6711,1,0,904.7534326635,46408.2770737229,-4233.3850786380,17414.5172022660,57032.3555423128,56728.6011588249,37805.1070350617,56442.6237803953,37268.1952450526,22288.9087172334
5986795235,6711,1,0,902.7822657782,46408.9341293513,-4226.2183052093,17428.5952274901,57037.2104533452,56725.5957377096,37806.8956864947,56446.8459711928,37270.4827720553,22289.8821329792
5986795235,6711,1,0,906.0918793140,46408.3622476006,-4222.5314930719,17432.2455365370,57037.2347887388,56726.9220166633,37807.1147050375,56445.4831891487,37267.9397234193,22291.9628091359
5986795235,6711,1,0,899.9106893280,46412.9129662124,-4231.0488808480,17414.4198606914,57035.5069757899,56736.2789755202,37810.0836230623,56444.6071149774,37269.1564931016,22294.8100501925
5986807542,6712,1,0,911.1658088892,46419.7633795237,-4253.6929646355,17426.7335698762,57044.8030961627,56730.8643504339,37815.3765711803,56451.4331928951,37273.6828763197,22296.1241614494
5986807542,6712,1,0,925.9252251354,46417.6462002765,-4298.2267350074,17441.2739675796,57041.8706812283,56719.0738522125,37810.8988587495,56448.4642748703,37269.7892133364,22294.9195594639
5986807542,6712,1,0,910.6912687131,46412.4384260363,-4352.2999796886,17418.5933807017,57028.5592209040,56726.5448180618,37805.0948673649,56440.1659056370,37265.6765318102,22295.5279443051
5986807542,6712,1,0,903.6948430399,46417.5853617924,-4374.0923246985,17415.8678166133,57032.6232316429,56731.8255984830,37809.7915983386,56443.5728607475,37272.4296035470,22299.6892966185
5986807542,6712,1,0,918.6367747385,46418.3275912986,-4377.0125719360,17434.7399143857,57038.4515584211,56719.9255909901,37810.1931323337,56443.8527177744,37271.2128338647,22299.5919550439
5986807542,6712,1,0,916.1667322834,46412.4262583395,-4384.9580779614,17422.5235467755,57032.6840701270,56720.1202741393,37807.6379160009,56439.1924898912,37266.3700905291,22296.8177201683
5986807542,6712,1,0,901.0787882230,46410.1874021241,-4391.1149325538,17406.6203670279,57028.4375439358,56724.0626079099,37806.7131710424,56437.0509752504,37268.2074127494,22292.7293740358
5986807542,6712,1,0,904.0720416414,46407.3279933707,-4386.5642139420,17421.5744664233,57028.8390779310,56714.2919473611,37806.1899600790,56439.3993407372,37265.8225441721,22291.4761012630
5986834688,6713,1,0,903.9625323700,46401.9985421622,-4391.9058328473,17421.8908265407,57023.6313036908,56709.1206762114,37802.2111232179,56434.1915664970,37262.4520921522,22291.6464490185
5986834688,6713,1,0,896.9904420905,46401.0981325973,-4400.4718914106,17402.5563562890,57017.4987844920,56711.5420478791,37801.3593844403,56430.2979035136,37260.8459561715,22290.5513563045
5986834688,6713,1,0,914.3659131536,46404.6024292823,-4393.7918258548,17414.8944008675,57023.9354961113,56703.0368277999,37804.3283024651,56434.4592558271,37262.5250983331,22288.1178169399
5986834688,6713,1,0,930.9869870138,46399.5284997072,-4392.1248513901,17425.6263094653,57022.1711800720,56694.7992970507,37800.9821858388,56427.3654885793,37256.4655853153,22285.4287559420
5986834688,6713,1,0,913.1978142586,46395.4644889683,-4402.0780273912,17406.7785470866,57012.8750596993,56705.0931685630,37798.3174602345,56422.4862421533,37254.2753998871,22288.5558540255
5986834688,6713,1,0,905.0697927809,46399.7718536436,-4400.1433635964,17410.8425578255,57016.1116670542,56710.6781414047,37804.4378117365,56427.9130349363,37259.3858325528,22292.1574922851
5986834688,6713,1,0,920.9243017412,46399.6015058881,-4397.2231163589,17431.0044314611,57019.2509328345,56698.7294631246,37806.7375064360,56428.1198857823,37255.3218218139,22291.9871445296
5986834688,6713,1,0,923.7958781914,46399.1878041961,-4407.3466401156,17418.0945051319,57014.6515434354,56704.1319205139,37804.2796316778,56423.7638503197,37253.5575057746,22293.1430757278
5986864274,6714,1,0,920.7782893793,46405.7583604805,-4411.3741477640,17411.4144395761,57018.7155541743,56712.1260973266,37807.2242143089,56426.9031161000,37258.5340937752,22292.8267156104
5986864274,6714,1,0,928.9671493412,46407.8877074245,-4407.6751679298,17429.7146555979,57021.3681120817,56703.2923494332,37805.0096934871,56426.8544453127,37259.2641555846,22290.4783501235
5986864274,6714,1,0,921.1068171935,46402.8137778494,-4414.3430657888,17425.6749802526,57013.8241400515,56704.6551314773,37798.6338203519,56420.6367522362,37256.3682437407,22290.5756916981
5986864274,6714,1,0,907.5398352360,46403.9818767444,-4419.6238462099,17413.2760971901,57011.8408054693,56716.6159774543,37799.9479316088,56420.3812306029,37260.8946269588,22293.6297836007
5986864274,6714,1,0,918.8192901908,46406.8291178009,-4415.2191399600,17434.5330635397,57019.8471499788,56709.0476700304,37804.7663395507,56425.1996385448,37265.1654885437,22295.3454288527
5986864274,6714,1,0,926.0103990132,46400.5627539371,-4418.2610641658,17443.0261159221,57017.6812999443,56697.2206687185,37801.8217569195,56419.6268333999,37258.0960566896,22293.5446097229
5986864274,6714,1,0,906.6880964583,46395.2698058191,-4430.6477795315,17421.4527894551,57011.1472467504,56704.1197528171,37801.1038628070,56415.2221271500,37256.4169145280,22292.0601507105
5986864274,6714,1,0,904.7777680571,46397.8250221520,-4428.2629109542,17426.5997252112,57015.3085990639,56705.3243548026,37804.7906749443,56420.7827645981,37262.4277567585,22291.1962442361
5986913770,6715,1,0,923.6498658295,46399.1999718930,-4422.6536027188,17441.5903276970,57017.4744490983,56698.0845751929,37802.8073403622,56423.5569994737,37261.5030118000,22289.7361206173
5986913770,6715,1,0,918.2352407433,46398.2387238439,-4430.3192517173,17423.3144470690,57009.9426447649,56701.2360086701,37800.1182793643,56418.1302066907,37257.9013735404,22287.8866307003
5986913770,6715,1,0,907.2113074217,46400.8669463577,-4430.9884750426,17416.0381643689,57011.8164700757,56701.9417350858,37799.3638821613,56417.7530080892,37258.5219260784,22285.4774267293
5986913770,6715,1,0,917.5295143276,46402.6312623970,-4424.0285524598,17433.9855171827,57016.8538965604,56693.2661672511,37799.7654161565,56420.2595536347,37256.5629268899,22284.0294708074
5986913770,6715,1,0,911.9445414859,46397.4964943377,-4432.3390893899,17426.2103589128,57009.3950984079,56694.0083967573,37796.7113242539,56414.7962577612,37252.7179346938,22281.7662791983
5986913770,6715,1,0,902.3685640862,46402.0472129495,-4436.7316279430,17415.9894935816,57010.6118680902,56703.7912250029,37801.7974215259,56418.4709022017,37258.2420690514,22288.6045248128
5986913770,6715,1,0,920.0482275699,46406.1477267789,-4426.1457317070,17435.9080132807,57019.9079884629,56697.3788487772,37803.5495698684,56423.5569994737,37260.4444221764,22291.6342813217
5986913770,6715,1,0,930.0014035711,46401.4023250179,-4429.0903143382,17434.1315295446,57016.7200518953,56690.5162677691,37797.5752307283,56418.3857283240,37254.3119029776,22291.6464490185
5986936618,6716,1,0,914.6701055742,46401.0129587196,-4442.1827561197,17409.5527819622,57010.6727065743,56697.1354948408,37797.6604046061,56414.3095498883,37253.3263195350,22291.9263060455
5986936618,6716,1,0,913.0152988063,46403.6046781429,-4438.1552484713,17418.4230329462,57013.8241400515,56693.6920366399,37801.2377074720,56417.2176294290,37254.7256046696,22291.7316228963
5986936618,6716,1,0,923.7958781914,46401.0981325973,-4432.0105615757,17435.2996284396,57014.2500094403,56691.2950003657,37801.6879122545,56415.3803072087,37252.9369532366,22290.1498223093
5986936618,6716,1,0,916.0207199215,46402.6921008811,-4436.2084169796,17422.7912361056,57011.1229113568,56703.3045171300,37802.7221664844,56414.3582206756,37254.7986108505,22292.3521754343
5986936618,6716,1,0,908.4037417104,46408.3865829943,-4432.6676172041,17421.8543234502,57017.4987844920,56705.3608578931,37806.2994693504,56421.9995342804,37259.3736648560,22295.0412364321
5986936618,6716,1,0,916.3857508262,46409.1044771068,-4424.8072850565,17437.1369506598,57021.7209752896,56695.6023650411,37805.2408797268,56424.6520921878,37260.4687575700,22294.1408268672
5986936618,6716,1,0,905.6660099252,46405.7340250869,-4430.9398042553,17421.6474726042,57014.9070650687,56699.7028788704,37801.3350490466,56419.4808210380,37257.7188580880,22294.3355100164
5986936618,6716,1,0,893.9606855815,46409.7493650384,-4434.3467593657,17411.6821289063,57016.9755735286,56703.3166848268,37802.5153156384,56421.5128264075,37259.7021926702,22294.1651622609
5986951411,6717,1,0,910.4722501703,46411.6718611365,-4427.2529921179,17434.5695666302,57022.2685216466,56691.7452051482,37802.7830049686,56422.4132359724,37257.0374670660,22293.2160819087
5986951411,6717,1,0,919.9265506017,46405.9408759329,-4430.6356118347,17434.4722250556,57015.2964313670,56688.6667778520,37798.0254355108,56413.3848049297,37248.6417562581,22290.8555487251
5986951411,6717,1,0,908.3307355294,46405.3811618790,-4438.0092361094,17414.7848915961,57008.8718874445,56696.2594206695,37797.3805475792,56408.9557632862,37247.6926759059,22291.8532998645
5986951411,6717,1,0,910.9589580432,46410.2239052145,-4429.9298854190,17429.6294817201,57014.8218911909,56692.4509315639,37803.5860729589,56416.4023937418,37251.3064818623,22294.2138330482
5986951411,6717,1,0,916.8846263960,46407.9850489991,-4426.3039117657,17437.9278509533,57012.4248549168,56688.1679022822,37803.3913898097,56414.3217175851,37249.5908366103,22293.3985973611
5986951411,6717,1,0,907.4059905709,46407.2306517961,-4430.2827486268,17417.1697601734,57009.9061416745,56698.1819167675,37802.9898558145,56411.5231473158,37251.0266248354,22293.3499265738
5986951411,6717,1,0,913.7331929188,46413.3023325107,-4421.6558515794,17422.8520745897,57017.5596229761,56701.3333502447,37804.8393457316,56417.6434988178,37256.9644608850,22294.8222178893
5986951411,6717,1,0,930.2447575076,46412.8764631219,-4414.5864197252,17438.8282605182,57017.0242443159,56690.5527708595,37801.3837198339,56414.8570962453,37255.6868527186,22292.2791692533
5986983126,6718,1,0,917.4930112371,46408.9097939577,-4425.3426637167,17420.8809077044,57007.4117638258,56692.7672916813,37798.0741062981,56410.2577068462,37252.5962577256,22292.4616847057
5986983126,6718,1,0,900.4460679882,46407.8633720309,-4432.5946110232,17410.8060547350,57005.7569570578,56691.3436711530,37799.0718574375,56409.8440051543,37252.7301023906,22288.9330526270
5986983126,6718,1,0,914.8282856329,46406.4275838058,-4429.5040160302,17433.8030017304,57012.9602335770,56683.0087988293,37801.8339246164,56414.7232515803,37251.3429849528,22288.7262017810
5986983126,6718,1,0,919.5493520002,46402.2783991892,-4434.4441009403,17430.9800960674,57008.9083905350,56686.7564494508,37800.1061116675,56411.8030043428,37249.6638427913,22290.0524807347
5986983126,6718,1,0,911.0806350114,46404.9187893997,-4439.4206889409,17418.7150576699,57007.8863040019,56700.7249654035,37804.6324948856,56414.1513698296,37256.2222313788,22293.9461437181
5986983126,6718,1,0,921.6056927633,46408.5082599625,-4433.6045298595,17436.2243733981,57011.9989855280,56692.0615652656,37807.8569345437,56419.4078148571,37261.2596578635,22293.7149574784
5986983126,6718,1,0,928.8333046761,46407.0116332533,-4433.1056542898,17443.4398176141,57009.4924399825,56690.9543048547,37807.1147050375,56417.5583249400,37259.0938078290,22292.5833616739
5986983126,6718,1,0,919.0261410368,46411.0269732049,-4436.5004417034,17429.3131216027,57007.5091054004,56704.5212868123,37806.3603078345,56416.7309215561,37263.4376755948,22295.2845903686
5987040043,6719,1,0,919.9873890858,46418.6074483256,-4429.2849974873,17441.4078122447,57018.2166786045,56701.1873378828,37810.1201261528,56422.5349129406,37268.9618099524,22296.2458384176
5987040043,6719,1,0,925.0369832673,46413.7403695964,-4428.8469604017,17450.2172247445,57016.0264931764,56685.6005182526,37801.3715521371,56417.1811263385,37261.8437073110,22294.2625038355
5987040043,6719,1,0,905.6781776220,46402.1445545241,-4448.0597536851,17421.7569818756,57000.3666673653,56687.0363064777,37794.7888281559,56405.8530005963,37254.9567909092,22291.6707844122
5987040043,6719,1,0,892.4883942660,46397.8250221520,-4453.4500433777,17409.3702665099,56994.9642099759,56686.1358969128,37795.3607099066,56404.1981938284,37254.3484060681,22290.8312133314
5987040043,6719,1,0,907.3938228741,46394.4667378288,-4443.1561718655,17428.0355134363,56994.9033714918,56673.0312874345,37794.6914865813,56402.0566791876,37250.7589355053,22288.9330526270
5987040043,6719,1,0,907.2599782090,46389.7335037647,-4444.7866432398,17418.5325422176,56987.6879272758,56673.7613492439,37790.6639789329,56395.5226259937,37247.1086264584,22287.8136245193
5987040043,6719,1,0,898.8399320075,46393.1526265720,-4448.5099584676,17406.0849883677,56991.5329194718,56686.5130955143,37794.9348405178,56397.6033021504,37251.1483018037,22291.5004366567
5987040043,6719,1,0,908.9756234611,46399.5041643135,-4441.6473774595,17425.1274338956,57003.1652376346,56682.4734201691,37801.4323906212,56406.9237579168,37256.4290822248,22292.4738524025
5987070160,6720,1,0,910.7034364099,46398.1778853598,-4446.3319407363,17426.3442035779,57000.1598165193,56676.6450933909,37802.2111232179,56406.4857208311,37252.5962577256,22289.8699652824
5987070160,6720,1,0,899.0832859440,46397.5816682155,-4453.9854220379,17406.4013484851,56992.0439627384,56681.1471412154,37801.0916951102,56402.0445114908,37247.6075020282,22289.6144436491
5987070160,6720,1,0,916.0572230120,46403.1909764509,-4445.7722266824,17421.5501310297,56999.6974440400,56677.2534782321,37800.6536580245,56407.1914472469,37247.3154773044,22289.4927666809
5987070160,6720,1,0,936.9126553665,46402.2540637955,-4442.0489114546,17435.5794854665,57000.8047044509,56669.5513261431,37795.9325916572,56405.5001373885,37242.9229387513,22287.1200658004
5987070160,6720,1,0,927.6043672970,46401.0251264164,-4454.2409436712,17418.6542191858,56994.5018374966,56677.5089998653,37794.7766604591,56402.2756977304,37242.0225291864,22284.3701663184
5987070160,6720,1,0,921.8733820934,46403.8358643825,-4457.9642588990,17421.9029942375,56998.1643142403,56680.2954024378,37802.0164400687,56406.3275407724,37248.0942099011,22288.1056492431
5987070160,6720,1,0,932.1672536056,46402.3757407637,-4452.3914537541,17443.8170162156,57000.2449903971,56674.5887526278,37804.3769732524,56406.5708947089,37248.7512655295,22288.1543200304
5987070160,6720,1,0,925.9982313164,46400.4775800594,-4454.3261175490,17434.3748834810,56996.0227995995,56684.6392702036,37805.7154199029,56403.2126103858,37249.1527995247,22290.9407226028
5987081454,6721,1,0,913.2343173491,46404.4442492236,-4450.9313301354,17426.1860235192,57000.5491828176,56691.6843666641,37810.0471199718,56409.2477880099,37255.7476912027,22292.5833616739
5987081454,6721,1,0,922.1775745140,46407.6443534881,-4438.8974779775,17448.1973870719,57007.0832360116,56684.1282269370,37811.4707405001,56413.9566866804,37258.8017831053,22292.6563678549
5987081454,6721,1,0,915.5340120486,46401.1954741719,-4445.7600589856,17443.3181406459,57001.4130892921,56679.5166698411,37806.7618418296,56408.2135337800,37254.4700830363,22289.7482883142
5987081454,6721,1,0,900.4217325945,46401.7551882258,-4454.7276515441,17426.2955327906,56998.3346619959,56684.8461210496,37805.7519229933,56405.6826528408,37252.9612886303,22292.0601507105
5987081454,6721,1,0,909.7300206641,46403.2883180255,-4451.6370565511,17441.8823524208,57001.8997971650,56672.6540888330,37803.8537622890,56406.0841868360,37249.7976874563,22289.0425618984
5987081454,6721,1,0,920.5836062301,46399.2486426802,-4453.4865464682,17447.9905362259,56998.3833327832,56665.4021415265,37795.7014054176,56401.1562696227,37241.8035106436,22286.3413332037
5987081454,6721,1,0,904.7656003603,46395.0142841859,-4467.0900315162,17423.2779439785,56989.8781127039,56676.0610439434,37790.1164325759,56394.6830549129,37239.1387850394,22283.5062598440
5987081454,6721,1,0,898.5722426774,46397.4599912473,-4467.9174349002,17428.1571904045,56993.4797509635,56676.0123731561,37794.0100955592,56401.6551451924,37244.5534101256,22284.6621910422
5987116371,6722,1,0,905.4104882919,46393.1647942688,-4467.4550624209,17445.3501460153,56994.6721852522,56666.4607311501,37793.5963938672,56400.8277418085,37243.2027957783,22285.3314143674
5987116371,6722,1,0,898.9251058853,46388.4558955983,-4471.5434085534,17433.1094430115,56989.7077649484,56672.8244365885,37796.1394425032,56396.3013585903,37241.9860260960,22286.9132149544
5987116371,6722,1,0,897.5988269316,46391.8750184055,-4468.9395214333,17430.6759036469,56992.0926335257,56678.9691234841,37803.4400605970,56401.6673128893,37249.0676256469,22289.1520711698
5987116371,6722,1,0,911.2874858574,46391.3883105326,-4460.8358353492,17448.4042379179,56995.0858869441,56668.2250471894,37801.8339246164,56401.7159836765,37249.4204888548,22286.3413332037
5987116371,6722,1,0,905.4591590792,46388.2125416618,-4462.7461637504,17434.5817343270,56984.9015247033,56670.7802635223,37793.9249216814,56393.2837697782,37246.1230430158,22286.0614761768
5987116371,6722,1,0,896.5524050048,46395.7321782984,-4455.9809243169,17421.7083110884,56985.9722820238,56681.6460167851,37796.5288088016,56398.1873515979,37250.9536186545,22292.0114799232
5987116371,6722,1,0,915.7165275010,46403.5925104460,-4445.5410404428,17445.1067920789,56999.2715746512,56673.0312874345,37799.4247206454,56404.4050446744,37252.8761147525,22294.0434852927
5987116371,6722,1,0,932.6174583880,46402.0837160400,-4449.0331694310,17454.7192725690,56999.7461148273,56667.1177867786,37795.4215483907,56401.4726297401,37248.2158868693,22292.9362248818
5987152446,6723,1,0,918.7341163131,46400.9764556291,-4463.0625238678,17435.7254978284,56997.2639046754,56676.1583855180,37796.1029394128,56401.6794805861,37247.8751913583,22291.3057535075
5987152446,6723,1,0,911.2631504638,46402.3514053701,-4463.9142626454,17440.2397133497,56998.0669726658,56670.9262758841,37799.7775838533,56403.8088275301,37250.0288736959,22287.6189413702
5987152446,6723,1,0,912.8936218380,46396.5474139856,-4461.4077170999,17445.9341954628,56995.7794456630,56662.7739190128,37796.9425104935,56399.4041212802,37248.3132284439,22284.5283463771
5987152446,6723,1,0,900.7502604088,46394.8317687335,-4468.7205028905,17428.5708920965,56989.5374171929,56674.0047031803,37797.5752307283,56397.3964513044,37251.6106742829,22286.6090225338
5987152446,6723,1,0,896.9539390000,46398.6280901423,-4467.3212177559,17428.9602583948,56993.7839433841,56679.9425392299,37800.2156209389,56401.1441019259,37256.9766285818,22287.8257922161
5987152446,6723,1,0,913.6723544347,46399.4798289199,-4460.1057735399,17453.5390059772,57000.0624749447,56674.6009203247,37803.5130667779,56403.9426721951,37260.6756084160,22291.4639335662
5987152446,6723,1,0,908.7201018278,46394.2112161956,-4470.9228560155,17443.4276499173,56991.0948823862,56674.4549079628,37800.6536580245,56399.8421583658,37257.0131316723,22290.6730332727
5987152446,6723,1,0,893.4739777086,46392.9822788164,-4478.0774617473,17431.0652699452,56989.4644110119,56677.8375276796,37801.5053968021,56400.7060648402,37258.7409446212,22292.3156723438
5987175166,6724,1,0,907.5763383264,46394.0652038337,-4470.0832849347,17449.6453429938,56995.7672779662,56671.3886483634,37800.2764594230,56404.1860261316,37258.9842985576,22293.2890880896
5987175166,6724,1,0,917.0914772420,46388.0178585127,-4475.0598729353,17443.8778546998,56991.9344534670,56667.3854761087,37793.7424062291,56398.3576993534,37252.0487113685,22290.2228284903
5987175166,6724,1,0,903.1229612892,46388.4680632951,-4483.7232730732,17420.8444046139,56989.0142062295,56674.3332309946,37792.5013011532,56398.9782518914,37252.5719223319,22290.4053439426
5987175166,6724,1,0,902.4659056608,46394.6979240685,-4473.8796063434,17433.3893000384,56999.6974440400,56673.9925354835,37798.6946588360,56407.7998320880,37258.8139508021,22290.0281453411
5987175166,6724,1,0,904.9116127222,46394.2112161956,-4471.2757192233,17441.8580170271,57000.6465243922,56667.1786252627,37796.5531441952,56408.8949248021,37258.2055659610,22290.4783501235
5987175166,6724,1,0,897.0999513619,46396.0728738095,-4479.0022067059,17428.4127120378,56999.2107361671,56679.6383468094,37798.6216526551,56406.9115902199,37260.5417637510,22290.4053439426
5987175166,6724,1,0,904.6074203016,46406.3910807153,-4471.6407501280,17440.1302040783,57008.7867135668,56686.6956109667,37806.9200218883,56415.0152763040,37270.3367596934,22294.3355100164
5987175166,6724,1,0,918.5394331639,46408.3622476006,-4462.5271452076,17459.5376805109,57011.5487807456,56677.2778136257,37808.0029469056,56415.4411456928,37268.6576175319,22291.6951198058
5987227677,6725,1,0,904.1328801255,46403.9332059571,-4472.1882964850,17441.8093462399,57003.0557283632,56679.8573653522,37805.3138859077,56411.4744765285,37267.0758169449,22291.8411321677
5987227677,6725,1,0,885.8935025879,46403.5195042651,-4478.2478095029,17433.7664986399,57000.1111457320,56682.2787370199,37806.4454817123,56411.4258057413,37268.5359405636,22292.0844861042
5987227677,6725,1,0,899.2658013964,46402.4000761574,-4471.8232655804,17454.9747942023,57005.6109446960,56675.3918206182,37805.7884260838,56413.6524942598,37268.0857357812,22290.6365301822
5987227677,6725,1,0,913.9522114616,46398.2022207535,-4476.1184625589,17455.4493343784,57001.5712693508,56675.8420254006,37804.1822901032,56411.5474827095,37266.2119104705,22287.8501276098
5987227677,6725,1,0,910.5087532607,46401.4388281084,-4484.4655025794,17445.1554628662,57002.1188157078,56687.8637098617,37809.6577536735,56414.7962577612,37270.1907473316,22288.3855062700
5987227677,6725,1,0,918.8192901908,46406.4275838058,-4477.9314493855,17464.4777654210,57009.5532784666,56680.9402903694,37815.5955897231,56421.2938078647,37272.9406468135,22290.7825425441
5987227677,6725,1,0,922.2749160885,46406.3059068376,-4475.7047608669,17473.0438239843,57008.5676950240,56676.3895717576,37813.3202304172,56418.5195729890,37269.7162071555,22292.7415417326
5987227677,6725,1,0,907.9535369279,46406.3059068376,-4481.8859508529,17454.3299062707,57002.8732129108,56683.0696373134,37811.2152188668,56414.1635375264,37268.1952450526,22290.7825425441
5987258774,6726,1,0,915.6800244105,46410.7592838748,-4476.5199965540,17465.0861502621,57010.6970419680,56680.6239302520,37816.5081669848,56416.8404308275,37270.1420765443,22287.0713950131
5987258774,6726,1,0,936.9491584570,46411.1486501731,-4469.7912602109,17483.9339126409,57012.1815009804,56675.5256652832,37816.8123594054,56417.8016788765,37268.0735680844,22284.5648494676
5987258774,6726,1,0,927.0446532431,46409.1409801973,-4478.7345173758,17466.8626339983,57007.3752607353,56682.6924387119,37816.2404776547,56415.0396116977,37266.0658981086,22284.5283463771
5987258774,6726,1,0,915.0716395694,46412.8764631219,-4477.5664184808,17456.8729549067,57011.4757745646,56685.6248536462,37821.8011151028,56421.9265280995,37271.4561878011,22286.8402087735
5987258774,6726,1,0,928.8941431602,46413.6308603250,-4467.8444287192,17473.4940287668,57017.0607474064,56674.1993863295,37822.0931398266,56425.1996385448,37271.8942248868,22284.9663834627
5987258774,6726,1,0,935.1605070240,46412.6696122760,-4471.5190731598,17466.2177460667,57012.0354886185,56674.4184048723,37819.4527496160,56418.3370575367,37269.1078223143,22286.7793702894
5987258774,6726,1,0,929.1009940062,46416.1739089610,-4476.4469903731,17452.4439132631,57009.3950984079,56681.4635013328,37820.8520347506,56416.8891016148,37270.6287844172,22286.7550348957
5987258774,6726,1,0,934.6251283638,46417.5123556115,-4470.7038374726,17474.0172397302,57011.5366130488,56673.6275045788,37822.6041830931,56419.0792870429,37272.0037341582,22285.2949112770
5987274394,6727,1,0,932.1915889992,46413.2901648139,-4474.5731650623,17476.4507790948,57005.9881432975,56671.2304683047,37820.6330162078,56414.9057670326,37269.2903377667,22285.1732343087
5987274394,6727,1,0,918.0162222005,46410.8444577525,-4485.0373843301,17454.0743846374,56998.2859912086,56683.0209665261,37821.1440594744,56410.2577068462,37269.3633439476,22284.7108618295
5987274394,6727,1,0,937.6548848727,46418.1815789367,-4478.4789957425,17470.6832908007,57009.5897815571,56681.1836443059,37828.2864975094,56420.5150752680,37277.6860485745,22285.0272219469
5987274394,6727,1,0,960.1894593888,46416.5024367752,-4477.9557847791,17488.0952649543,57011.9868178312,56671.7415115713,37829.5641056758,56422.8269376643,37278.7689735917,22281.4864221714
5987274394,6727,1,0,944.3836212158,46411.3555010191,-4489.8922953624,17467.2398325998,57001.6077724412,56677.3143167162,37824.1738159833,56415.0761147881,37275.6540432051,22282.1921485871
5987274394,6727,1,0,931.0234901042,46413.3996740853,-4488.4078363500,17463.5773558561,57000.7316982700,56680.4049117092,37825.1228963355,56415.3681395119,37277.6252100904,22288.4098416636
5987274394,6727,1,0,938.3727789853,46410.7227807843,-4478.2234741092,17478.5679583420,57000.0503072479,56671.6320022999,37820.9493763252,56413.2509602647,37275.4106892686,22292.3643431311
5987274394,6727,1,0,933.1893401387,46407.3279933707,-4481.4965845546,17464.1979083941,56993.7596079904,56676.0488762466,37817.6032596989,56408.3960492323,37271.1763307742,22293.9826468086
5987304309,6728,1,0,923.7593751009,46408.2892414197,-4483.6867699827,17454.2325646961,56994.4531667093,56678.7987757286,37818.8078616844,56411.0242717461,37273.3056777182,22293.6906220848
5987304309,6728,1,0,935.2213455081,46406.9386270723,-4481.2410629213,17474.2119228793,56996.5703459565,56666.4485634533,37818.7713585939,56411.1824518048,37272.0889080359,22293.0579018500
5987304309,6728,1,0,932.0090735469,46400.3437353943,-4489.4055874895,17470.0992413532,56988.0286227868,56663.6013223967,37813.0525410871,56401.6673128893,37265.9807242308,22290.7460394537
5987304309,6728,1,0,916.7386140341,46400.7817724799,-4495.0635665122,17449.5358337224,56984.0132828353,56673.7491815471,37814.5126647059,56400.4140401165,37267.6111956051,22291.0258964806
5987304309,6728,1,0,929.1253293999,46404.9674601870,-4483.6137638018,17464.1005668195,56994.6965206458,56669.4053137813,37819.3189049509,56407.9093413594,37274.3155965545,22290.9893933901
5987304309,6728,1,0,942.0474234258,46400.1612199420,-4481.0098766817,17471.0483217054,56993.8569495650,56662.0316895066,37813.5392489600,56404.5875601268,37270.7747967791,22289.0060588080
5987304309,6728,1,0,926.7647962162,46396.1215445968,-4490.5615186877,17447.8080207736,56985.3517294858,56668.0912025244,37809.6090828862,56400.8277418085,37267.1488231258,22290.6365301822
5987304309,6728,1,0,916.2884092516,46396.5474139856,-4486.7651972789,17451.6773483633,56987.9191135154,56667.9086870720,37810.7163432971,56405.4879696917,37269.2294992825,22293.1430757278
5987335300,6729,1,0,923.9662259469,46394.2842223765,-4484.2343163398,17471.2551725514,56989.2575601659,56663.7108316681,37808.6843379277,56406.3397084693,37267.7572079670,22295.1264103099
5987335300,6729,1,0,917.5295143276,46390.8894349629,-4492.0459777001,17459.4768420268,56982.8208485466,56669.2471337226,37805.6789168124,56402.3000331240,37266.9784753703,22296.9272294397
5987335300,6729,1,0,917.0793095451,46400.3559030911,-4484.9522104523,17459.8175375378,56991.6059256528,56677.0222919924,37814.4518262218,56409.6493220051,37275.4106892686,22299.0687440805
5987335300,6729,1,0,935.7567241684,46403.7141874143,-4472.9548613849,17477.7527226548,57001.1088968715,56668.1155379180,37819.2702341636,56414.5772392184,37276.8829805842,22298.7280485695
5987335300,6729,1,0,930.5489499281,46396.9124448902,-4481.8981185497,17462.8837971372,56990.5230006355,56661.9221802352,37814.4274908281,56405.1716095743,37267.6598663924,22294.1408268672
5987335300,6729,1,0,911.0928027083,46395.0751226700,-4493.0802319300,17440.7020858290,56984.3783137399,56666.2903833946,37813.9894537425,56403.1517719016,37264.3502528565,22291.5247720503
5987335300,6729,1,0,921.4961834919,46395.4401535747,-4487.9941346580,17455.3398251070,56989.9876219753,56657.9190079804,37815.4374096644,56406.1571930169,37264.6544452771,22282.3989994331
5987335300,6729,1,0,935.1970101145,46393.1526265720,-4486.8503711567,17460.6327732249,56989.0142062295,56658.8194175453,37812.5171624269,56404.1981938284,37262.2817443966,22280.5251741224
5987356476,6730,1,0,921.4110096141,46391.9236891928,-4495.3799266296,17440.2032102592,56982.6139977006,56668.1520410085,37810.1687969401,56403.3099519603,37263.0848123870,22281.5594283523
5987356476,6730,1,0,916.2032353739,46396.4744078046,-4492.1068161842,17449.9008646271,56988.6735107184,56666.0348617613,37813.8069382901,56408.0553537213,37267.5016863337,22280.4765033351
5987356476,6730,1,0,918.8314578876,46395.8781906603,-4491.9973069128,17462.3727538706,56988.5883368407,56656.5440582394,37811.0692065050,56405.5853112662,37263.8027064995,22279.9289569781
5987356476,6730,1,0,909.8273622387,46395.2454704255,-4502.2303399409,17445.7638477073,56984.0741213194,56660.2187026799,37810.6068340257,56402.0566791876,37261.8558750078,22280.2574847923
5987356476,6730,1,0,910.4844178671,46399.4433258294,-4502.7657186011,17446.7250957563,56988.9290323517,56666.1808741232,37814.3666523440,56405.9990129582,37265.5061840547,22281.6202668364
5987356476,6730,1,0,927.8963920207,46400.1368845483,-4494.0658153727,17467.4588511426,56993.5527571444,56660.0240195308,37816.4959992880,56406.6073977994,37266.9176368862,22283.9929677169
5987356476,6730,1,0,922.8467978392,46399.3459842548,-4500.4173531143,17459.2699911808,56989.5009141024,56666.3633895755,37816.7028501340,56405.5001373885,37268.9861453461,22288.3125000891
5987356476,6730,1,0,908.0265431089,46402.8989517271,-4503.4106065327,17445.9706985533,56988.3084798137,56671.0844559428,37819.4405819192,56406.5343916184,37272.4052681533,22294.1773299577
5987384782,6731,1,0,926.4971068861,46405.6245158155,-4492.2163254556,17463.5286850688,56994.5383405871,56660.6080689783,37821.7037735282,56408.7245770466,37273.4881931706,22299.0809117774
5987384782,6731,1,0,939.9545795723,46401.5970081671,-4492.1919900620,17464.4899331178,56987.7731011535,56659.3304608119,37817.4694150338,56400.6817294466,37267.4408478496,22301.1250848436
5987384782,6731,1,0,930.0622420552,46403.8723674730,-4498.2149999893,17447.8080207736,56984.6216676764,56669.5878292336,37818.1264706623,56400.0976799991,37267.6111956051,22303.7168042669
5987384782,6731,1,0,931.6805457327,46409.1044771068,-4491.7904560668,17461.7522013327,56991.8979503765,56667.8843516784,37821.5334257727,56407.4348011833,37270.8478029600,22304.4590337731
5987384782,6731,1,0,938.1294250488,46409.3599987401,-4484.5506764571,17475.7572203759,56995.0007130664,56663.1876207047,37822.6650215772,56409.1382787385,37270.1299088474,22307.3427779201
5987384782,6731,1,0,926.1320759814,46409.2748248624,-4487.1302281836,17456.2524023687,56990.4256590609,56674.1263801486,37824.9403808831,56408.6272354720,37270.7626290822,22310.2873605513
5987384782,6731,1,0,927.4461872383,46413.1806555425,-4481.0950505594,17461.4236735184,56997.3247431596,56673.7126784566,37827.9214666047,56412.6304077267,37276.9073159778,22308.3770321501
5987384782,6731,1,0,945.6977324727,46411.4771779873,-4473.1373768372,17481.3178578239,57001.3400831111,56667.6166623483,37828.2134913285,56413.4578111107,37280.2777679978,22305.6636357586
5987430235,6732,1,0,936.5597921587,46408.4717568720,-4479.9877901485,17468.2740868298,56994.7451914331,56673.6396722756,37825.6096042084,56410.6957439319,37281.4336991959,22305.4081141253
5987430235,6732,1,0,920.1212337509,46412.7669538505,-4480.8516966230,17460.2677423203,56995.5239240298,56678.9934588777,37829.0165593188,56413.7620035313,37286.6779765266,22306.9047408345
5987430235,6732,1,0,928.9306462507,46412.6452768823,-4469.3897262158,17479.5900448751,57000.8047044509,56667.7748424070,37827.8849635143,56417.7043373019,37284.9744989714,22302.9380716702
5987430235,6732,1,0,933.4570294688,46409.9318804908,-4471.4095638884,17477.8987350167,56996.4486689883,56670.1962140748,37824.8187039149,56413.8593451058,37280.3751095724,22302.5000345846
5987430235,6732,1,0,924.0757352183,46412.3167490681,-4478.4424926520,17460.6449409218,56995.9011226313,56678.6770987603,37826.8628769811,56414.7719223676,37282.1637610053,22306.1381759347
5987430235,6732,1,0,933.9680727354,46416.3564244133,-4476.3739841921,17469.4665211184,57000.1111457320,56670.9871143682,37827.3982556414,56416.5240707101,37284.7554804286,22306.2233498124
5987430235,6732,1,0,940.0640888437,46408.9949678354,-4480.9733735912,17465.8162120715,56989.3914048310,56664.3922226902,37819.9881282762,56407.1671118532,37280.3021033914,22303.5951272987
5987430235,6732,1,0,924.0879029152,46404.0427152285,-4489.1987366435,17442.0283647827,56980.6671662089,56670.2448848620,37816.9218686768,56400.9372510799,37277.5278685158,22302.6947177338
5987460165,6733,1,0,926.9594793654,46405.1986464267,-4482.7011865401,17450.8864480698,56983.5144072655,56668.8577674242,37821.1562271712,56404.7092370950,37279.9127370931,22299.7379674058
5987460165,6733,1,0,941.5850509465,46402.5947593066,-4474.6218358496,17470.1235767468,56986.7510146204,56660.3890504355,37820.7668608729,56406.4248823470,37277.8928994205,22296.7447139874
5987460165,6733,1,0,929.1983355808,46402.7164362748,-4481.3262367991,17456.0577192195,56982.8816870307,56671.4129837571,37822.4338353376,56407.4469688801,37276.7856390096,22297.1584156793
5987460165,6733,1,0,921.4475127046,46412.2072397967,-4480.3041502659,17455.7900298894,56993.2120616334,56675.0146220166,37831.2310801406,56416.0860336244,37284.0010832256,22299.5432842566
5987460165,6733,1,0,931.7535519136,46414.6286114644,-4476.6051704318,17476.4507790948,56998.1886496340,56659.9510133498,37833.0318992704,56418.7750946223,37281.0199975040,22296.5500308382
5987460165,6733,1,0,928.0059012921,46407.4618380357,-4490.9873880765,17468.6269500376,56990.3769882737,56661.5936524209,37825.9989705067,56409.1991172226,37273.2813423246,22293.9826468086
5987460165,6733,1,0,915.9477137406,46405.8922051456,-4501.8896444298,17452.2979009012,56984.2566367717,56666.2052095168,37825.4757595433,56406.1450253201,37274.8631429116,22293.9218083244
5987460165,6733,1,0,926.9594793654,46405.1864787298,-4490.9022141987,17469.5638626930,56987.6149210948,56655.5341394031,37826.0111382035,56407.2036149437,37275.0334906671,22292.7537094294
5987506453,6734,1,0,929.0644909157,46400.3194000007,-4487.3492467264,17471.6323711529,56983.5509103560,56654.0375126939,37821.7767797092,56404.5632247331,37271.0181507155,22291.1110703583
5987506453,6734,1,0,905.8241899839,46397.9223637265,-4493.8346291331,17450.1807216540,56976.2016214749,56663.6743285777,37822.1053075234,56402.9205856620,37272.5634482120,22289.7117852237
5987506453,6734,1,0,908.2455616517,46397.6790097901,-4492.8125425999,17459.8297052346,56981.7987620135,56658.2353680978,37823.5167603548,56406.0233483519,37274.2425903736,22291.7559582900
5987506453,6734,1,0,928.4804414682,46393.2012973593,-4493.9076353140,17470.2574214119,56982.3584760673,56651.6039733293,37821.0832209903,56403.9305044983,37271.4561878011,22293.1674111214
5987506453,6734,1,0,924.2339152770,46393.0917880878,-4500.9405640777,17452.2979009012,56976.2746276559,56660.3647150418,37819.8177805207,56400.4262078133,37270.1907473316,22297.3530988285
5987506453,6734,1,0,919.2208241860,46400.3802384848,-4495.1244049963,17453.7945276105,56981.7014204389,56660.4133858291,37824.6361884626,56405.0499326060,37275.8365586574,22298.5698685108
5987506453,6734,1,0,928.8089692825,46401.8646974972,-4486.7773649757,17469.3813472406,56984.6825061605,56650.5453837057,37822.6528538804,56403.8331629237,37272.4417712438,22295.2359195813
5987506453,6734,1,0,926.7647962162,46399.9056983087,-4488.9188796166,17455.3519928038,56981.0808679009,56657.4566355011,37817.8709490290,56401.0589280481,37269.0348161334,22290.3080023680
5987520077,6735,1,0,921.0216433158,46405.5636773314,-4486.6556880075,17447.8323561672,56986.8848592855,56670.4760711017,37822.9570463010,56408.8219186211,37274.8631429116,22289.8577975856
5987520077,6735,1,0,935.8905688334,46409.9197127940,-4473.9039417371,17471.4498557005,56998.1399788467,56664.4530611743,37829.0287270156,56417.3028033067,37278.2214272347,22291.1354057520
5987520077,6735,1,0,933.7247187989,46408.6907754148,-4472.8453521135,17470.9144770403,56996.8136998930,56667.7140039229,37830.9025523264,56417.5826603337,37280.8983205357,22293.9218083244
5987520077,6735,1,0,912.3825785715,46408.0580551801,-4478.0774617473,17452.7846087741,56994.9277068854,56675.7690192197,37833.1049054513,56419.6390010967,37284.9014927905,22294.2990069259
5987520077,6735,1,0,915.7286951978,46407.1454779183,-4477.0918783047,17465.4511811668,56998.1156434530,56662.5549004699,37834.6136998574,56420.8192676886,37283.4778722622,22290.6121947886
5987520077,6735,1,0,930.1839190234,46401.3779896243,-4478.3086479870,17476.7428038185,56994.9033714918,56659.1722807532,37832.3870113388,56416.1712075022,37279.1948429805,22288.6531956001
5987520077,6735,1,0,925.1464925387,46405.4785034536,-4480.6691811706,17465.3295041986,56992.1899751003,56673.0921259186,37836.5970344395,56416.5362384069,37283.2345183257,22297.1097448920
5987520077,6735,1,0,921.8612143966,46413.0589785743,-4472.1152903041,17471.4985264878,56995.9862965090,56672.6297534393,37841.9143179511,56423.2771424468,37289.1480189817,22301.2589295087
5987548890,6736,1,0,929.2226709744,46414.0445620169,-4464.9606845722,17485.7712348611,56995.8402841472,56662.0681925970,37837.6677917599,56421.2694724710,37288.4544602628,22300.4315261247
5987548890,6736,1,0,922.9684748074,46410.0413897622,-4472.3951473310,17468.9919809423,56984.5973322828,56663.3823038539,37833.2874209037,56411.7299981618,37283.4413691717,22297.8276390046
5987548890,6736,1,0,918.7462840099,46411.1851532636,-4473.6605878006,17462.5552693230,56986.0087851142,56667.4584822896,37833.7741287766,56410.6835762351,37283.6238846241,22296.2093353271
5987548890,6736,1,0,934.8563146035,46408.8854585640,-4470.0224464506,17482.6563044745,56988.4423244788,56653.8671649384,37829.8682980964,56410.1238621812,37281.2876868341,22292.8267156104
5987548890,6736,1,0,930.7923038646,46401.1833064751,-4479.8539454835,17472.6544576860,56980.0466136710,56654.4633820827,37826.1206474749,56404.7700755791,37274.9848198798,22289.5657728618
5987548890,6736,1,0,910.6060948353,46401.0737972037,-4485.7066076553,17455.6318498307,56975.3863857878,56660.4133858291,37827.6294418810,56405.2081126647,37276.0434095034,22289.6996175269
5987548890,6736,1,0,919.8900475112,46403.8236966857,-4474.0499540990,17476.9131515740,56985.3030586985,56655.5463070999,37835.3315939699,56411.2554579857,37278.3187688093,22289.9794745538
5987548890,6736,1,0,934.0897497036,46399.6988474627,-4472.8818552039,17483.1308446506,56985.0232016716,56647.0654224143,37833.6646195052,56407.7024905134,37272.9041437231,22288.8600464461
5987581407,6737,1,0,924.2825860643,46398.4334069931,-4483.8084469509,17464.4047592401,56980.1196198519,56658.2110327042,37837.1202454029,56406.7534101612,37273.1353299627,22292.7050386421
5987581407,6737,1,0,924.7084554531,46400.8426109641,-4480.0121255422,17474.4796122095,56982.9790286053,56651.9446688403,37841.9508210416,56410.4523899954,37276.7248005255,22294.1043237768
5987581407,6737,1,0,930.9748193169,46397.2166373108,-4475.6074192923,17485.8685764357,56980.9226878422,56643.4394487611,37837.9476487869,56408.2622045673,37273.6950440166,22292.2670015565
5987581407,6737,1,0,921.0946494967,46396.9367802839,-4483.2730682907,17464.5629392988,56975.3377150005,56649.1947693584,37832.9588930894,56404.3442061903,37272.1497465200,22291.8167967741
5987581407,6737,1,0,923.1144871693,46401.1711387783,-4484.1248070683,17461.1559841883,56979.1462041061,56649.4867940821,37834.8448860970,56404.6483986109,37276.0799125939,22289.5049343777
5987581407,6737,1,0,938.7378098900,46397.7885190615,-4482.4334972100,17479.7360572370,56976.9560186779,56637.5867865893,37832.2409989769,56400.0733446054,37271.5048585884,22284.9907188564
5987581407,6737,1,0,931.0356578011,46389.7213360679,-4491.7661206732,17471.3281787323,56966.6621471657,56638.0126559781,37829.6492795536,56391.0084104724,37264.9951407882,22284.0659738979
5987581407,6737,1,0,915.8625398628,46392.7145894863,-4495.6232805660,17460.4502577726,56962.9753350284,56647.9171611920,37833.4821040528,56393.4906206242,37268.8157975906,22285.6721098785
5987628053,6738,1,0,926.5701130670,46395.3306443033,-4484.9765458460,17478.3367721023,56967.9032522417,56638.2073391272,37834.0904888940,56396.7880664633,37270.4949397521,22288.6045248128
5987628053,6738,1,0,935.4890348382,46391.5951613786,-4485.9742969854,17476.1587543710,56962.2939440063,56634.0216514202,37827.5564357001,56389.2562621298,37265.0438115755,22288.3246677859
5987628053,6738,1,0,925.1221571451,46391.7776768310,-4491.9486361255,17455.1329742610,56959.9577462163,56640.2880152840,37825.5122626338,56386.3968533765,37264.8004576390,22289.5657728618
5987628053,6738,1,0,926.9473116685,46392.2765524007,-4486.4245017679,17463.9910575481,56964.8856634296,56633.5957820313,37827.6172741842,56390.0593301202,37266.5039351942,22288.3125000891
5987628053,6738,1,0,930.4272729599,46387.8840138476,-4484.1248070683,17473.1168301653,56963.6932291409,56630.9675595176,37825.7312811766,56386.3116794987,37263.5350171694,22283.2385705139
5987628053,6738,1,0,916.3370800389,46386.5212318035,-4491.7174498859,17454.6827694785,56958.0230824215,56642.0766667169,37825.5609334211,56384.7542143054,37264.9343023040,22281.6080991396
5987628053,6738,1,0,919.7075320589,46391.9845276770,-4485.0252166332,17458.9414633666,56965.6035575421,56642.7215546486,37830.3550059693,56391.6411307071,37270.5436105394,22283.4575890567
5987628053,6738,1,0,941.5972186434,46394.4058993447,-4476.6051704318,17475.1731709284,56972.7216601836,56633.2915896108,37829.9413042774,56395.3401105413,37270.3245919966,22286.7185318053
5987656587,6739,1,0,930.0622420552,46389.9890253980,-4488.3348301691,17453.7945276105,56965.3723713025,56641.4317787853,37825.8651258417,56391.3491059834,37268.7184560160,22286.6576933211
5987656587,6739,1,0,908.2820647422,46389.9890253980,-4496.0126468644,17445.2528044407,56964.4962971313,56644.7657277148,37828.6271930205,56393.0647512354,37272.3079265787,22283.9808000201
5987656587,6739,1,0,914.3537454568,46390.1350377599,-4487.7142776311,17470.4156014706,56970.5436424523,56638.6575439097,37834.5650290701,56399.0147549819,37272.8676406326,22283.7861168709
5987656587,6739,1,0,923.6133627391,46391.3031366549,-4484.8792042714,17475.1975063220,56972.8190017582,56647.0532547175,37836.2928420189,56400.9737541703,37272.8433052390,22285.7086129690
5987656587,6739,1,0,924.7449585436,46397.8371898488,-4483.2609005939,17463.6138589466,56975.4472242719,56658.7829144548,37839.8458094912,56404.6727340045,37278.5134519584,22288.4585124509
5987656587,6739,1,0,940.3317781738,46404.4199138300,-4473.0522029595,17480.3201066845,56983.3197241163,56653.9280034225,37844.7372236141,56411.4379734381,37285.1448467270,22291.0258964806
5987656587,6739,1,0,945.8680802282,46399.8205244309,-4472.2734703628,17482.3764474475,56978.4769807808,56646.1406774558,37842.3523550368,56405.0864356965,37281.9204070689,22290.7095363632
5987656587,6739,1,0,925.7305419863,46396.7907679220,-4482.7741927210,17460.2069038361,56970.9938472347,56654.1226865717,37839.6389586452,56402.6893994224,37280.5089542374,22289.4927666809
5987679445,6740,1,0,925.1586602356,46399.2364749834,-4478.8440266472,17470.0870736564,56976.7126647415,56653.1857739163,37842.5713735796,56407.8119997848,37284.6338034604,22288.8722141429
5987679445,6740,1,0,941.7188956116,46396.2432215650,-4473.7214262847,17488.2899481035,56979.5842411917,56643.3786102770,37840.1865050023,56407.0941056723,37281.7013885261,22286.5360163529
5987679445,6740,1,0,936.0000781048,46393.3473097211,-4483.9666270096,17470.5859492261,56973.5855666580,56653.6603140924,37840.4906974228,56403.9061691047,37280.2777679978,22286.6698610180
5987679445,6740,1,0,925.2073310229,46400.4410769689,-4484.3559933080,17468.1280744679,56977.2723787953,56663.2484591889,37847.1099244945,56410.9877686556,37288.9168327421,22291.2692504170
5987679445,6740,1,0,931.3885210089,46403.2396472382,-4476.5321642508,17489.4337116049,56982.7843454561,56650.0951789233,37848.4727065387,56413.5186495948,37290.4986333290,22294.4815223783
5987679445,6740,1,0,924.0879029152,46399.5284997072,-4483.8571177382,17481.2326839462,56974.2426222864,56647.2722732603,37843.9098202301,56404.4050446744,37284.0497540129,22294.0678206863
5987679445,6740,1,0,913.2829881364,46400.6844309054,-4490.6588602623,17467.8968882282,56971.9185921933,56654.4755497795,37844.8832359759,56403.3221196572,37284.5486295826,22294.3598454101
5987679445,6740,1,0,927.8842243239,46404.7484416442,-4482.1779755767,17487.6937309592,56981.7622589230,56649.3772848107,37847.9981663626,56409.3451295845,37287.0308397345,22294.1651622609
5987767841,6741,1,0,935.3916932637,46402.2418960987,-4480.3041502659,17488.9835068224,56981.5797434707,56652.1150165959,37846.9639121327,56408.5298938974,37284.6581388540,22294.6518701338
5987767841,6741,1,0,920.5349354429,46401.3293188370,-4486.2176509219,17468.1524098615,56976.8221740129,56660.9000937020,37846.1365087487,56408.0918568118,37285.6437222967,22293.6784543880
5987767841,6741,1,0,928.2005844413,46405.7218573901,-4479.2942314296,17478.6531322197,56983.7455935051,56651.2632778183,37848.0103340594,56413.7741712281,37289.1601866785,22294.0191498990
5987767841,6741,1,0,944.9676706633,46402.5825916097,-4476.8241889746,17493.6072316151,56983.5387426592,56639.8621458952,37844.5547081617,56410.0630236971,37283.2953568099,22291.4882689598
5987767841,6741,1,0,937.0830031221,46401.4388281084,-4484.4046640953,17476.3291021265,56978.3553038126,56650.8739115199,37844.7007205236,56406.8750871295,37281.4945376801,22291.3665919916
5987767841,6741,1,0,926.7891316098,46407.1941487056,-4484.7453596063,17475.8180588600,56982.7356746688,56654.8892514715,37849.8719916733,56411.6934950714,37285.4247037539,22289.6631144364
5987767841,6741,1,0,934.3087682464,46408.4960922657,-4479.2455606423,17492.9866790771,56985.0597047620,56646.5787145414,37850.0423394289,56414.2000406169,37284.2809402525,22288.9452203239
5987767841,6741,1,0,933.0311600800,46407.4131672484,-4484.6115149413,17482.1330935111,56981.0808679009,56649.2069370552,37848.3997003578,56410.6349054478,37283.2953568099,22290.9042195123
5987774093,6742,1,0,931.7778873073,46410.8687931462,-4484.4655025794,17475.0271585665,56984.3783137399,56657.7364925281,37853.9360024122,56414.9057670326,37288.5396341406,22292.3643431311
5987774093,6742,1,0,946.7563220963,46412.1950720999,-4474.5366619719,17497.2088698747,56990.4256590609,56649.3529494171,37856.8440819529,56417.5583249400,37290.9975088988,22293.8122990530
5987774093,6742,1,0,948.0339302627,46405.3933295758,-4482.7985281146,17493.9479271262,56982.6139977006,56646.2745221209,37854.6417288279,56411.7665012523,37287.7730692407,22293.7027897816
5987774093,6742,1,0,933.5178679529,46405.1134725489,-4493.9076353140,17469.8558874167,56976.2259568686,56653.1857739163,37855.3961260310,56411.3893026508,37290.5351364195,22294.5666962561
5987774093,6742,1,0,941.1713492546,46407.3401610675,-4487.0815573963,17480.5634606209,56981.0078617200,56648.7445645759,37859.7399937967,56414.9544378199,37291.7397384050,22291.2935858107
5987774093,6742,1,0,954.5923188503,46404.6876031601,-4479.3550699138,17489.9082517809,56981.2633833533,56640.2271767999,37856.9292558306,56411.4623088317,37287.8825785121,22287.3390843432
5987774093,6742,1,0,939.8450703009,46401.0616295069,-4487.6169360565,17468.9554778518,56971.8942567996,56646.6273853287,37852.6827296394,56403.9791752856,37283.7698969860,22286.2804947196
5987774093,6742,1,0,931.7900550041,46402.4365792479,-4488.0063023549,17470.3182598960,56974.5711501007,56643.7314734849,37853.7899900503,56406.7534101612,37286.1791009569,22287.7527860352
5987778836,6743,1,0,936.6936368237,46399.1999718930,-4487.5439298756,17486.4526258832,56975.1917026386,56635.8711413372,37850.5777180891,56406.9602610072,37284.4026172208,22289.9673068570
5987778836,6743,1,0,927.6043672970,46395.9511968412,-4496.4141808595,17476.5724560630,56967.9275876353,56643.7314734849,37848.1441787245,56402.9084179652,37283.3926983844,22291.1354057520
5987778836,6743,1,0,922.8346301424,46400.8912817513,-4495.3799266296,17473.7373827033,56972.7094924867,56651.6526441166,37853.4371268425,56407.3131242151,37289.6590622483,22291.3179212043
5987778836,6743,1,0,942.7531498415,46404.2982368618,-4482.2996525449,17495.9555971019,56980.4359799693,56646.9802485366,37856.4060448673,56411.7786689491,37292.2994524588,22289.5292697714
5987778836,6743,1,0,948.7153212848,46402.6312623970,-4482.0319632148,17491.6725678203,56977.0533602525,56648.4282044585,37855.0432628231,56408.4933908069,37290.5594718132,22288.1056492431
5987778836,6743,1,0,934.8198115130,46405.2351495171,-4491.4740959494,17478.5922937356,56974.5954854943,56655.0230961366,37858.6327333858,56408.2987076578,37291.2408628352,22289.6874498301
5987778836,6743,1,0,940.0154180564,46406.6222669550,-4487.2154020614,17496.4058018844,56979.6937504631,56645.5444603115,37859.4601367698,56410.2090360590,37290.5594718132,22288.7748725683
5987778836,6743,1,0,945.5760555045,46403.5803427492,-4483.3095713812,17505.6289160762,56976.4084723209,56641.8576481741,37856.9779266179,56407.5808135452,37285.6315545999,22287.2295750718
5987797828,6744,1,0,934.9658238749,46404.9796278839,-4485.2320674792,17485.7712348611,56971.0303503252,56650.8374084295,37857.4159637036,56405.2932865425,37284.1835986779,22289.6752821332
5987797828,6744,1,0,939.6503871517,46409.1531478941,-4476.7876858841,17492.0862695123,56975.9704352353,56648.0510058570,37860.3848817284,56408.5177262006,37288.1381001454,22292.9848956691
5987797828,6744,1,0,949.0803521895,46407.3036579770,-4472.8331844167,17504.1809601543,56975.8122551766,56639.9351520761,37855.3596229405,56406.6560685867,37285.3882006634,22293.2525849992
5987797828,6744,1,0,938.1415927457,46404.8701186124,-4480.3649887501,17484.3841174233,56970.1664438507,56650.3872036470,37851.6119723190,56403.5654735936,37285.9479147173,22295.4549381241
5987797828,6744,1,0,938.2754374107,46411.6961965301,-4475.8872763192,17485.8929118294,56976.0921122035,56657.3349585329,37856.6372311069,56409.8561728511,37291.5937260431,22298.4725269362
5987797828,6744,1,0,957.7437523274,46413.6430280218,-4464.9120137849,17506.5293256411,56981.8352651039,56645.3984479496,37856.7832434688,56410.8417562937,37290.4012917545,22296.1849999335
5987797828,6744,1,0,955.4683930215,46408.0215520896,-4475.7534316542,17493.8019147643,56972.7094924867,56642.1861759883,37851.7944877714,56402.5433870605,37283.9402447415,22292.2061630724
5987797828,6744,1,0,939.3340270343,46405.8678697519,-4488.7485318611,17478.0325796818,56965.7982406913,56643.6584673039,37852.7070650331,56398.6983948645,37284.0862571034,22289.3589220158
5987853315,6745,1,0,944.8338259983,46402.7529393653,-4486.8625388535,17496.8681743637,56970.3732946967,56632.7562109506,37853.4249591456,56400.7912387180,37283.3683629908,22288.5801894192
5987853315,6745,1,0,951.7572454905,46397.5208297314,-4487.2884082423,17498.9123474299,56968.6698171415,56631.7949629015,37848.8742405339,56395.1089243017,37277.6252100904,22290.7582071505
5987853315,6745,1,0,941.8527402766,46397.3261465822,-4489.8314568783,17482.9969999855,56964.9830050042,56640.2636798903,37847.8034832134,56393.8313161353,37279.2921845551,22293.3864296642
5987853315,6745,1,0,946.6346451281,46401.0737972037,-4479.3672376106,17493.0596852581,56970.3732946967,56635.2019180120,37849.9693332479,56400.2436923610,37282.6991396655,22295.0534041290
5987853315,6745,1,0,949.0925198863,46394.5519117066,-4478.5641696203,17498.2917948920,56965.4697128771,56624.5186802014,37844.1410064697,56396.3378616808,37275.2525092099,22292.0358153169
5987853315,6745,1,0,933.3475201974,46393.1039557847,-4490.5493509909,17476.6454622439,56958.2786040547,56633.2794219140,37844.2140126507,56392.1765093674,37273.6828763197,22290.9042195123
5987853315,6745,1,0,932.3010982706,46400.6114247244,-4491.1577358320,17485.3818685628,56967.5747244275,56638.1221652495,37850.2491902748,56399.2702766151,37278.4891165648,22292.0358153169
5987853315,6745,1,0,952.7549966300,46403.7506905047,-4481.8737831561,17511.0800442529,56975.9460998416,56632.9752294934,37852.5975557617,56403.1274365080,37280.6427989025,22294.4571869846
5987874225,6746,1,0,950.9298421066,46401.3901573211,-4484.1856455525,17499.8735954789,56970.2516177285,56640.3975245554,37851.1617675366,56401.6794805861,37280.4846188438,22295.3575965495
5987874225,6746,1,0,940.6359705944,46402.8502809398,-4483.5650930145,17487.4138739322,56969.0105126526,56643.2082625215,37855.1041013072,56404.0886845570,37284.3661141303,22294.9682302512
5987874225,6746,1,0,951.0271836811,46404.7971124315,-4472.1639610914,17505.2882205651,56974.6441562816,56636.9540663545,37859.5209752539,56407.8485028753,37285.4125360571,22291.8411321677
5987874225,6746,1,0,954.9816851486,46405.0526340648,-4471.2757192233,17503.7915938559,56973.5490635675,56639.7404689269,37857.7444915178,56405.9746775646,37283.3926983844,22295.1872487940
5987874225,6746,1,0,944.0064226143,46407.7538627595,-4473.0035321722,17488.2534450130,56973.8654236849,56648.9149123314,37859.0586027747,56406.7047393739,37285.2056852111,22299.7014643153
5987874225,6746,1,0,952.1587794857,46412.3167490681,-4466.6884975211,17503.1832090148,56978.1119498761,56637.4042711369,37857.7931623051,56411.3284641667,37285.0353374555,22300.7722216358
5987874225,6746,1,0,958.1087832321,46405.0769694584,-4470.1076203283,17505.7992638317,56972.1254430392,56626.9400518692,37849.6529731305,56403.2126103858,37279.2435137678,22296.6352047160
5987874225,6746,1,0,941.7432310052,46401.8038590131,-4479.5740884566,17485.3453654723,56963.1700181776,56638.9374009366,37849.3366130131,56398.0900100233,37280.7766435675,22295.3697642464
5987890451,6747,1,0,942.2542742718,46407.7903658500,-4472.5289919961,17497.2818760556,56970.3002885158,56644.2425167514,37857.4646344908,56406.8750871295,37290.0970993339,22295.0290687353
5987890451,6747,1,0,956.6729950070,46407.4618380357,-4463.4275547725,17518.2346499848,56973.5855666580,56633.8878067551,37857.7079884273,56407.0941056723,37287.1525167027,22290.4661824267
5987890451,6747,1,0,948.9465075244,46406.1355590820,-4469.9251048760,17501.8812654547,56968.8401648970,56641.6264619345,37856.6615665005,56402.2513623367,37285.2665236952,22291.2692504170
5987890451,6747,1,0,943.2641931081,46412.2194074935,-4473.1860476245,17494.6658212387,56971.4197166235,56645.2037648004,37861.1271112346,56408.5420615942,37286.3007779251,22290.3810085490
5987890451,6747,1,0,956.1132809531,46412.7182830632,-4471.4704023725,17511.1652181306,56974.9483487022,56630.0184791654,37859.9468446427,56408.6637385624,37282.6383011814,22284.4675078930
5987890451,6747,1,0,953.8257539504,46404.8579509156,-4482.0684663053,17500.3968064423,56965.6765637231,56626.7818718105,37853.9725055027,56401.2536111973,37274.8023044275,22281.4012482936
5987890451,6747,1,0,942.8626591130,46407.8390366372,-4486.3636632838,17488.9591714288,56964.4476263440,56638.9739040271,37857.6228145495,56401.2049404100,37277.8685640268,22288.2151585145
5987890451,6747,1,0,956.6851627038,46411.2094886572,-4474.7313451210,17511.3599012798,56969.5215559191,56635.3235949802,37860.4335525156,56405.6583174472,37282.3219410640,22296.6230370191
5987918751,6748,1,0,963.3287251691,46408.5569307498,-4473.5267431356,17516.1418061312,56966.9176687990,56633.1577449457,37857.8053300019,56402.0688468844,37281.5918792547,22299.8961474645
5987918751,6748,1,0,945.5273847172,46403.9453736539,-4482.8837019924,17494.5441442705,56961.1380128081,56638.0734944622,37856.6128957132,56399.6353075198,37281.4215314991,22298.2900114839
5987918751,6748,1,0,945.0528445411,46408.1188936642,-4479.1603867646,17505.8114315285,56969.6310651905,56635.7372966722,37862.4412224914,56405.0134295156,37284.9136604873,22293.9461437181
5987918751,6748,1,0,959.2890498239,46403.0449640890,-4480.0972994200,17516.5068370359,56970.9451764474,56627.0860642311,37858.9734288969,56403.3951258381,37280.4846188438,22290.9285549060
5987918751,6748,1,0,951.8910901556,46400.9156171450,-4493.7007844680,17497.9754347746,56965.1046819724,56634.5448623835,37857.8540007892,56401.1075988354,37277.4670300317,22291.1110703583
5987918751,6748,1,0,944.2984473381,46405.6610189059,-4492.1676546683,17497.6590746572,56969.8987545206,56639.5579534746,37862.2587070391,56406.8750871295,37282.6748042719,22292.6320324612
5987918751,6748,1,0,953.0956921410,46406.0990559916,-4481.1558890435,17516.0809676471,56971.5535612886,56629.6777836544,37863.5241475087,56408.0918568118,37282.9911643893,22293.0457341532
5987918751,6748,1,0,948.3989611674,46402.5582562161,-4482.0076278212,17505.2882205651,56963.4742105981,56634.5691977772,37859.8129999777,56402.5190516669,37279.1583398901,22291.4030950821
5987977598,6749,1,0,944.2132734603,46408.3257445102,-4480.1094671168,17498.8150058553,56969.0348480462,56642.3808591375,37867.5151520666,56408.7854155307,37285.3760329666,22295.2724226718
5987977598,6749,1,0,957.1353674863,46410.2847436987,-4470.0589495410,17520.3396615351,56978.5378192649,56635.8468059436,37868.4277293283,56413.0927802060,37287.7974046344,22297.7059620364
5987977598,6749,1,0,959.8974346651,46406.6587700454,-4470.0711172378,17522.2378222395,56976.5666523796,56637.3799357433,37868.0018599395,56411.9003459173,37286.8726596758,22298.0953283347
5987977598,6749,1,0,943.4588762573,46407.8147012436,-4477.1770521824,17502.7330042323,56974.3642992547,56649.3286140234,37870.6544178469,56411.7543335555,37291.0826827765,22299.7623027994
5987977598,6749,1,0,952.6333196618,46416.9283061640,-4469.1463722793,17520.5586800779,56987.0673747378,56647.1262608985,37877.6630112169,56421.8900250090,37299.5148966748,22304.3251891081
5987977598,6749,1,0,970.1791384805,46417.5366910051,-4464.8755106945,17533.1400785929,56990.2553113054,56641.3952756949,37877.8455266693,56421.5614971948,37298.1156115402,22303.9479905065
5987977598,6749,1,0,962.3796448170,46415.1639901247,-4474.2081341576,17511.5180813385,56982.8330162434,56642.5877099835,37876.5435831092,56418.0328651161,37295.6942398724,22301.6847988975
5987977598,6749,1,0,955.8942624103,46414.0688974106,-4477.6515923585,17507.9651138662,56982.7843454561,56635.7129612785,37875.4728257888,56418.6047468668,37293.6500668062,22297.6937943395
