steady_timestamp,sequence,battery,flags,EEG-ch1,EEG-ch2,EEG-ch3,EEG-ch4,EEG-ch5,EEG-ch6,EEG-ch7,EEG-ch8,EEG-ch9,EEG-ch10
2505924750,13119,-2,0,39598.3943605237,39342.1426654326,27797.5900998839,50304.9333104828,51692.0385806013,39028.3134289753,51535.4768255805,56767.5742917488,57901.6401387374,11631.3447469867
2505924750,13119,-2,0,39619.5053145116,39351.0250841133,27800.5955209992,50307.4885268156,51710.0224365056,39022.9109715859,51536.7787691406,56770.8474021941,57914.4283880983,11632.6953613341
2505924750,13119,-2,0,39616.9622658756,39344.7830556432,27796.4341686857,50299.4943500029,51693.7542258534,39021.0006431847,51530.3177221276,56765.7126341349,57895.4346133577,11631.5150947422
2505924750,13119,-2,0,39601.2416015803,39344.6127078876,27798.7825341726,50299.6768654552,51688.5951224004,39028.6054536990,51532.1915474383,56769.3142723944,57891.9911551568,11629.4100831919
2505924750,13119,-2,0,39615.7941669806,39351.1102579911,27798.8798757471,50304.8481366050,51709.1220269407,39028.4716090340,51537.2411416199,56777.6004739309,57911.0092652911,11621.8539434648
2505924750,13119,-2,0,39614.8207512347,39347.9101537267,27796.6653549254,50304.6412857590,51704.8755007495,39028.5202798213,51536.8152722310,56778.4278773148,57905.9840065032,11619.4082364034
2505924750,13119,-2,0,39592.2010028409,39343.3107643276,27800.5711856055,50308.2307563218,51688.7167993687,39032.7303029220,51538.9081160846,56779.0971006401,57894.6680484579,11622.3893221250
2505924750,13119,-2,0,39610.6472312245,39353.8601574731,27805.1584073078,50315.1906789045,51711.7137463640,39037.7798971035,51544.8459521342,56784.8767566310,57913.6861585921,11620.4668260270
2505969683,13120,-2,0,39636.4184130954,39356.5613861678,27804.4648485889,50314.9473249680,51725.7552684977,39039.6902255047,51541.9622079872,56783.4774714963,57915.1706176045,11620.3086459683
2505969683,13120,-2,0,39620.9167673430,39353.3612819033,27806.8253817725,50314.1442569777,51706.4573013365,39046.6866511779,51543.4223316059,56782.3823787823,57899.1092577983,11625.6867679640
2505969683,13120,-2,0,39611.3894607307,39360.0413474591,27813.4446088442,50320.4836270225,51712.4194727798,39051.2373697897,51550.2970803109,56789.2936305777,57913.1751153256,11628.2906550842
2505969683,13120,-2,0,39628.4242362828,39363.3387932981,27809.3562627117,50319.0600064942,51726.6556780626,39043.4378761262,51549.2749937777,56790.2305432331,57924.7344273074,11623.1680547217
2505969683,13120,-2,0,39629.6531736619,39362.5722283983,27810.3175107607,50317.1861811835,51717.5785762327,39041.3815353631,51550.2970803109,56787.8700100494,57910.4982220245,11629.0937230745
2505969683,13120,-2,0,39622.3038847808,39359.6276457672,27811.5586158367,50315.9572438043,51712.2612927211,39041.8439078424,51550.0537263744,56787.5901530225,57909.4031293105,11630.0549711235
2505969683,13120,-2,0,39640.8109516485,39360.6984030876,27809.4049334990,50316.0059145916,51726.6070072753,39037.4878723798,51549.9807201935,56787.9430162304,57928.0440408432,11628.3271581746
2505969683,13120,-2,0,39628.6797579160,39349.2851034677,27803.9294699287,50306.9531481554,51706.8344999380,39035.1760099834,51541.5485062952,56779.9123363272,57913.1142768415,11630.1401450012
2505994627,13121,-2,0,39597.9441557413,39344.0529938338,27806.7402078948,50303.5826961354,51687.7433836228,39044.7276519894,51541.5241709015,56779.0484298528,57903.4044547768,11633.7174478672
2505994627,13121,-2,0,39616.5485641836,39355.7704858743,27810.3905169417,50310.5547864150,51711.7137463640,39048.6699857600,51547.9608825209,56787.1642836337,57926.0972093515,11631.1865669280
2505994627,13121,-2,0,39638.6329339172,39357.0359263439,27805.9006368140,50307.6467068743,51719.0265321546,39039.3982007810,51544.3470765645,56787.0426066655,57921.2788014097,11629.4222508887
2505994627,13121,-2,0,39615.7333284964,39348.0926691790,27803.6374452049,50303.9355593433,51696.0174174624,39036.6361336022,51539.9058672241,56782.5892296283,57901.5793002533,11631.0648899598
2505994627,13121,-2,0,39606.6075558792,39347.5694582156,27804.4891839825,50305.9919001064,51702.6488122309,39037.9015740717,51542.4732512537,56785.3756322007,57913.4063015652,11630.8945422043
2505994627,13121,-2,0,39622.3768909618,39349.1634264994,27804.5743578603,50305.8702231381,51715.3762231077,39036.1615934261,51542.1447234395,56787.2859606019,57924.4180671900,11626.9400407368
2505994627,13121,-2,0,39614.1758633031,39345.3427696970,27804.7812087063,50302.1590756071,51699.0715093650,39038.1205926146,51539.4434947448,56784.6090673009,57906.4342112857,11630.4686728155
2505994627,13121,-2,0,39612.8739197430,39349.8813206120,27807.3729281296,50306.3812664047,51703.4518802212,39036.0277487610,51541.5120032047,56784.0371855502,57910.9727622006,11635.0193914272
2506027161,13122,-2,0,39637.2093133889,39354.3468653460,27805.5842766966,50306.7828003998,51720.5839973479,39032.5234520760,51540.1978919478,56782.1755279363,57921.6925031016,11633.7904540481
2506027161,13122,-2,0,39626.1975477642,39345.9876576286,27805.0245626427,50303.0959882625,51705.0215131114,39034.0687495725,51535.7445149106,56777.1624368452,57903.0029207816,11637.1365706744
2506027161,13122,-2,0,39600.4020304995,39345.6712975112,27811.1084110542,50308.0239054758,51693.4256980391,39041.8317401456,51540.3925750970,56778.5738896767,57897.3692771526,11637.8422970902
2506027161,13122,-2,0,39623.0582819838,39359.5546395862,27814.0894967758,50314.9959957553,51718.6858366436,39038.5099589129,51546.3912496307,56787.2859606019,57917.0322752184,11631.8922933437
2506027161,13122,-2,0,39640.0078836582,39359.3964595275,27808.8573871420,50309.0581597057,51715.5952416505,39029.9804034400,51542.1812265300,56783.6113161614,57906.6288944348,11626.8913699495
2506027161,13122,-2,0,39617.1082782374,39350.3436930913,27805.8154629362,50304.7629627272,51693.4987042201,39024.7361261093,51539.8936995273,56779.7176531781,57888.6450385305,11624.6646814309
2506027161,13122,-2,0,39608.5787227645,39351.4874565926,27803.2845819971,50305.6877076858,51704.4617990575,39024.3589275078,51539.6746809844,56779.9488394177,57898.0628358715,11617.9846158751
2506027161,13122,-2,0,39613.6891554302,39349.7718113406,27799.0502235027,50302.0739017294,51711.1662000070,39023.0691516446,51537.7886879769,56780.8614166794,57899.1335931919,11613.8110958649
2506083546,13123,-2,0,39595.1090823816,39343.3959382054,27797.2007335856,50298.5696050444,51692.0750836918,39028.9704846037,51533.0189508223,56775.0087545076,57879.8356260307,11615.6240826915
2506083546,13123,-2,0,39601.8378187246,39353.7384805048,27804.5256870730,50307.0383220331,51706.3842951556,39039.1305114509,51539.4313270480,56782.5527265378,57894.8870670007,11619.1162116797
2506083546,13123,-2,0,39634.8731155989,39362.1463590095,27807.5797789756,50311.5160344640,51728.3469879210,39032.9371537680,51542.5584251315,56787.1642836337,57912.9074259955,11619.0310378019
2506083546,13123,-2,0,39625.8446845563,39353.6776420207,27807.5554435819,50308.8391411629,51712.2734604179,39031.0024899731,51541.4389970238,56785.2539552325,57897.9533266001,11621.5375833474
2506083546,13123,-2,0,39603.0545884069,39351.7916490132,27811.9723175286,50311.8080591877,51700.8114900107,39036.4779535435,51545.6855232150,56785.5338122594,57897.6734695731,11620.4059875429
2506083546,13123,-2,0,39621.0749474017,39358.4473791753,27812.1548329810,50314.5822940634,51720.1946310496,39037.3905308052,51549.0924783254,56788.8799288857,57916.5455673455,11615.6849211756
2506083546,13123,-2,0,39633.4981658579,39354.5415484952,27808.6748716896,50310.6886310800,51715.8385955870,39032.3896074110,51545.1744799484,56784.1831979121,57905.5703048112,11620.4059875429
2506083546,13123,-2,0,39611.5233053957,39349.3216065581,27808.4558531468,50307.9022285076,51697.1368455701,39034.9204883501,51541.7188540507,56779.8028270558,57890.9569009269,11625.1635570007
2506088001,13124,-2,0,39618.0208554991,39358.9097516546,27813.4811119347,50314.1564246745,51714.0864472445,39038.4126173383,51547.9365471272,56785.9718493450,57911.1796130466,11628.9355430158
2506088001,13124,-2,0,39623.7153376123,39359.5911426767,27812.7267147317,50311.5282021608,51717.0066944820,39030.3576020415,51546.6346035672,56784.6942411786,57912.2138672766,11630.7241944487
2506088001,13124,-2,0,39601.2294338835,39357.3036156740,27814.9412355534,50310.1897555103,51699.8380742648,39033.6185447901,51544.8094490437,56780.0461809923,57894.0353282231,11634.8855467622
2506088001,13124,-2,0,39606.3033634587,39362.8399177284,27815.7199681501,50313.4385305620,51713.7214163398,39037.9867479495,51545.4421692785,56783.8911731883,57903.8789949528,11630.5781820869
2506088001,13124,-2,0,39636.5644254573,39366.5510652594,27814.6735462233,50313.6453814080,51732.4718371440,39036.6239659053,51543.4831700900,56785.3147937166,57913.3576307779,11627.9134564826
2506088001,13124,-2,0,39624.6400825708,39358.6055592340,27814.3936891964,50311.0414942879,51713.2955469510,39033.7158863647,51539.4191593512,56783.3922976186,57897.4057802430,11630.6511882678
2506088001,13124,-2,0,39600.9982476439,39356.0746782949,27815.2697633677,50311.4430282830,51705.7880780112,39037.8529032845,51540.1005503732,56782.8082481711,57899.4499533093,11631.7462809819
2506088001,13124,-2,0,39621.2939659445,39362.3288744618,27813.9921552012,50314.9716603617,51723.9787847615,39043.1215160088,51544.1402257185,56788.3445502255,57920.3662241479,11630.8823745074
2506112115,13125,-2,0,39629.7870183269,39357.8511620310,27812.3373484333,50313.3533566842,51718.5763273722,39042.4401249867,51541.5363385984,56784.0250178534,57904.5360505813,11633.8269571386
2506112115,13125,-2,0,39616.8649243010,39358.1066836643,27815.5496203946,50318.1717646261,51706.0679350382,39039.6658901111,51544.6634366818,56784.0493532470,57896.6148799495,11636.9540552221
2506112115,13125,-2,0,39629.2881427572,39363.5699795378,27813.5297827220,50322.5764708760,51720.5353265607,39036.4171150593,51547.3646653765,56787.6874945971,57914.0268541032,11629.0815553776
2506112115,13125,-2,0,39633.0114579850,39362.7669115475,27812.7753855189,50319.4372050957,51714.8773475380,39032.9736568585,51543.8968717820,56785.3512968071,57908.7947444693,11625.5285879053
2506112115,13125,-2,0,39607.0090898744,39359.3234533466,27814.1868383504,50317.2591873644,51697.8912427732,39037.8894063749,51540.5142520652,56780.1435225669,57893.8163096803,11623.6669302914
2506112115,13125,-2,0,39617.8748431373,39371.5763240473,27819.6014634366,50324.9978425438,51723.6015861600,39047.7939115888,51546.6832743545,56787.4076375702,57912.4207181226,11625.5529232990
2506112115,13125,-2,0,39648.4887683438,39376.5407443510,27820.0760036127,50328.2466175955,51744.4570185146,39044.5573042339,51549.5913538951,56792.7735918691,57922.3008879428,11625.6867679640
2506112115,13125,-2,0,39633.3764888897,39368.9602692304,27818.0439982433,50324.0122591011,51719.3063891815,39038.2787726733,51548.8369566921,56790.9606050425,57903.0394238721,11627.4997547907
2506153776,13126,-2,0,39614.6504034792,39368.8142568685,27819.0295816859,50326.7134877958,51711.1783677038,39040.9556659743,51553.1443213674,56793.4306474975,57906.7384037062,11627.5484255780
2506153776,13126,-2,0,39631.7581852123,39373.4623170548,27818.4698676321,50330.1082752094,51726.5705041848,39038.4126173383,51555.1398236464,56797.6650059919,57922.0940370968,11623.0828808439
2506153776,13126,-2,0,39631.9407006646,39371.2599639299,27820.5262083952,50327.3218726370,51720.2433018369,39041.4788769377,51555.2858360083,56795.3044728082,57909.3666262200,11625.2487308784
2506153776,13126,-2,0,39615.5629807409,39370.3352189713,27821.8159842584,50325.3142026612,51717.2257130248,39044.5208011434,51554.7991281354,56792.2625486025,57904.3535351289,11624.9810415483
2506153776,13126,-2,0,39631.0402910997,39374.5817451625,27819.5162895589,50324.7909916978,51739.6021074822,39037.1350091719,51553.7770416022,56792.0313623629,57917.8475109056,11619.7976027017
2506153776,13126,-2,0,39627.1101250259,39364.6285691614,27812.8118886094,50317.1861811835,51729.4420806350,39027.4373548040,51548.3989196065,56786.7505819417,57904.7672368209,11617.3640633372
2506153776,13126,-2,0,39598.8810683967,39358.4473791753,27814.7343847074,50316.6994733105,51705.9340903731,39033.8497310297,51546.6346035672,56785.9231785578,57890.2511745112,11623.6669302914
2506153776,13126,-2,0,39613.1902798604,39367.2811270688,27817.3626072212,50324.2921161281,51721.8129347271,39038.1692634018,51553.8013769959,56790.8997665583,57911.0092652911,11625.1148862134
2506176292,13127,-2,0,39636.8929532715,39366.0156865992,27812.0818268000,50320.3741177511,51723.2122198617,39028.5081121244,51550.4187572791,56788.0160224113,57910.7294082642,11623.6182595041
2506176292,13127,-2,0,39615.4899745600,39357.8633297278,27810.1958337925,50314.1685923714,51697.1976840542,39029.3598509020,51544.3227411708,56781.1656091000,57890.8230562618,11628.1568104191
2506176292,13127,-2,0,39599.3677762696,39358.5690561436,27812.1183298905,50316.1032561662,51697.8182365922,39033.0831661299,51544.9189583151,56781.7131554570,57899.2431024633,11627.9864626636
2506176292,13127,-2,0,39610.7810758895,39362.1950297968,27812.5807023698,50318.0865907484,51716.3253034599,39036.2224319102,51546.1600633911,56785.1079428706,57915.0367729395,11624.0319611961
2506176292,13127,-2,0,39604.5998859034,39358.5812238404,27813.0552425459,50315.6165482933,51703.7439049450,39036.9038229323,51544.5782628041,56782.3823787823,57900.6302199011,11628.3758289619
2506176292,13127,-2,0,39598.7472237316,39361.8908373762,27816.4013591722,50319.5467143671,51704.0724327592,39040.4324550109,51548.5327642715,56785.7771661959,57904.0128396179,11632.2329888548
2506176292,13127,-2,0,39620.4178917733,39366.5388975626,27814.3085153186,50321.6273905238,51723.0905428935,39033.7523894551,51549.8833786189,56787.6388238098,57920.4027272384,11626.3438235925
2506176292,13127,-2,0,39615.3804652886,39356.6708954392,27807.5919466724,50315.0933373299,51709.0246853661,39030.8078068240,51544.5904305009,56783.3314591345,57905.2904477843,11624.7620230055
2506204606,13128,-2,0,39587.0297316911,39352.1080091306,27808.6870393864,50315.2515173886,51691.1381710364,39036.1007549420,51542.7531082806,56780.9587582540,57894.3030175532,11626.5993452258
2506204606,13128,-2,0,39601.8256510278,39363.3387932981,27812.8605593967,50320.8243225335,51716.3131357631,39036.8551521450,51547.1943176210,56788.0890285922,57914.5744004602,11625.7232710545
2506204606,13128,-2,0,39627.1587958132,39366.9525992546,27813.6149565997,50319.3641989148,51727.3614044783,39036.8064813577,51545.3691630976,56789.2327920936,57914.2823757365,11630.0428034267
2506204606,13128,-2,0,39615.0154343839,39364.2270351662,27817.1192532847,50319.4007020052,51713.6849132493,39039.7510639888,51545.3934984912,56788.7095811302,57897.8803204191,11635.0558945177
2506204606,13128,-2,0,39611.5354730925,39368.9724369272,27820.6357176666,50322.2722784554,51724.7818527519,39041.7465662678,51547.4133361638,56791.4229775217,57910.7902467483,11629.7021079156
2506204606,13128,-2,0,39627.0006157545,39373.6570002040,27821.3292763855,50324.8031593946,51740.7823740740,39041.1625168203,51547.0118021687,56793.3089705293,57917.5433184850,11624.2144766485
2506204606,13128,-2,0,39617.1934521152,39369.8485110984,27823.9453312024,50322.1992722745,51726.4853303071,39041.1868522139,51546.1357279974,56789.2692951841,57897.1380909129,11629.1667292554
2506204606,13128,-2,0,39613.5066399778,39375.2509684878,27828.9584222935,50327.5287234830,51731.4740860045,39048.2076132808,51549.8225401348,56793.1629581674,57901.8713249771,11633.6079385958
2506236337,13129,-2,0,39640.5554300152,39383.6466792956,27830.4550490027,50332.9433485692,51753.0717478652,39047.1368559604,51554.4584326243,56798.1638815616,57922.1670432777,11632.8657090896
2506236337,13129,-2,0,39632.8046071390,39375.0441176418,27827.0480938923,50328.2831206860,51738.7503687046,39044.4842980530,51551.3191668440,56794.2823862751,57910.7050728705,11632.3668335198
2506236337,13129,-2,0,39604.1740165146,39370.0431942476,27827.5348017652,50327.8085805099,51724.7210142677,39045.6037261607,51551.8545455042,56791.0579466170,57906.8600806745,11631.7219455882
2506236337,13129,-2,0,39620.6734134066,39376.7840982875,27827.0359261954,50330.3029583586,51746.1848314634,39045.6037261607,51556.1862455732,56795.9128576494,57925.9390292928,11627.6214317589
2506236337,13129,-2,0,39637.5865119904,39372.3915597344,27820.7817300284,50321.8707444603,51744.5056893018,39036.9646614164,51549.6156892888,56791.5811575804,57916.6429089201,11624.7985260960
2506236337,13129,-2,0,39621.5129844873,39365.6749910882,27818.2873521797,50320.3984531447,51721.3992330351,39038.0354187368,51548.0217210050,56788.6609103429,57898.7685622872,11629.6656048251
2506236337,13129,-2,0,39618.3858864038,39366.9404315577,27817.1192532847,50322.3939554237,51726.6800134562,39036.1372580324,51550.1510679490,56789.7438353602,57911.7028240100,11625.1392216070
2506236337,13129,-2,0,39628.0957084685,39364.3487121345,27816.4500299595,50320.9338318049,51730.8291980729,39037.0011645068,51550.0537263744,56787.9065131399,57919.1616221625,11623.4114086582
2506275125,13130,-2,0,39611.3164545497,39358.7637392927,27820.4288668206,50320.8486579272,51711.8475910291,39042.5496342581,51548.6666089366,56784.2562040930,57904.5725536718,11629.9332941553
2506275125,13130,-2,0,39614.4435526332,39365.7114941786,27826.2085228115,50325.4602150231,51722.9810336221,39050.4099664057,51555.3588421892,56789.9506862062,57916.9105982502,11633.1212307229
2506275125,13130,-2,0,39642.3684168419,39370.9436038125,27823.6411387818,50324.5841408518,51739.4317597267,39044.9831736227,51553.6553646340,56791.3013005535,57930.5019156014,11630.0428034267
2506275125,13130,-2,0,39626.5017401847,39361.6353157429,27818.4820353289,50315.6773867774,51714.8773475380,39038.7898159398,51546.8414544132,56785.9596816482,57911.2039484403,11630.2253188790
2506275125,13130,-2,0,39595.0604115943,39357.0724294343,27821.2684379014,50315.7868960488,51699.0106708809,39037.4513692893,51546.0627218165,56785.0836074770,57906.1056834714,11629.4709216760
2506275125,13130,-2,0,39611.7301562417,39364.8475877042,27819.1390909573,50320.8851610176,51717.7610916850,39033.4360293377,51548.1799010637,56789.2692951841,57924.0773716789,11625.0905508197
2506275125,13130,-2,0,39624.9686103850,39362.2923713714,27811.5586158367,50317.5633797850,51714.5731551174,39029.5667017480,51542.1082203490,56784.5360611199,57913.7835001667,11626.1978112306
2506275125,13130,-2,0,39608.7125674296,39358.2891991166,27811.0719079637,50316.9184918534,51695.2143494721,39032.8884829807,51539.5165009257,56781.1169383127,57902.9420822975,11630.6268528742
2506320145,13131,-2,0,39615.6846577091,39362.1098559190,27812.9822363649,50319.1208449783,51705.6664010430,39034.3607742963,51539.4921655321,56782.6135650219,57920.6582488717,11626.7453575876
2506320145,13131,-2,0,39618.9212650640,39359.4572980116,27810.6095354845,50313.4750336525,51702.1377689644,39031.4283593619,51534.0167019618,56778.6955666449,57921.2179629255,11624.8106937928
2506320145,13131,-2,0,39587.3460918085,39352.8380709399,27811.7167958954,50307.8292223266,51680.8686349179,39036.4901212403,51530.9991131497,56773.6581401602,57903.6843118037,11629.6899402188
2506320145,13131,-2,0,39587.7719611973,39361.8908373762,27816.4621976563,50311.3456867084,51696.2364360052,39043.5960561849,51534.0045342649,56778.0993495006,57918.8452620451,11630.9918837789
2506320145,13131,-2,0,39614.3462110586,39366.0035189024,27815.7078004533,50308.0482408694,51714.3419688778,39038.5342943065,51531.1937962989,56778.4765481021,57930.4410771173,11628.2663196905
2506320145,13131,-2,0,39601.9959987833,39356.2085229599,27813.8826459298,50300.4799334456,51693.7177227629,39031.0633284573,51525.2316248556,56770.8595698910,57911.5933147386,11630.3104927568
2506320145,13131,-2,0,39575.5312581934,39352.6190523971,27814.3936891964,50298.8859651618,51680.3940947418,39029.7127141099,51523.0901102148,56767.1362546631,57908.5392228360,11628.8625368348
2506320145,13131,-2,0,39587.1027378721,39355.6001381188,27810.8163863305,50299.1901575823,51694.3139399072,39026.3300943931,51522.8467562783,56766.3453543696,57921.1449567446,11621.8417757680
2506330255,13132,-2,0,39597.7129695017,39352.8989094241,27806.3265062028,50297.8882140223,51687.8528928942,39029.5058632639,51519.3181241997,56764.5810383303,57910.1331911198,11623.1072162376
2506330255,13132,-2,0,39595.9973242496,39358.8489131705,27815.9024836024,50308.8756442534,51686.0642414613,39045.6889000384,51528.9671077802,56773.2322707714,57910.4982220245,11630.9310452947
2506330255,13132,-2,0,39618.5684018562,39369.7146664334,27822.0350028012,50317.8554045087,51708.9151760947,39041.7709016614,51536.1947196931,56783.5748130709,57931.2198097140,11627.2320654606
2506330255,13132,-2,0,39622.8027603506,39365.4559725453,27818.6767184781,50314.8986541807,51706.6033136984,39033.2535138854,51532.8851061572,56781.6158138824,57921.2909691065,11623.4357440518
2506330255,13132,-2,0,39594.7927222642,39360.1995275178,27817.1922594657,50314.0834184936,51690.2255937747,39038.9844990890,51533.4204848174,56778.7442374322,57904.7915722146,11626.7696929813
2506330255,13132,-2,0,39601.3632785485,39367.5366487021,27817.0949178911,50318.9139941323,51708.0756050140,39040.4567904046,51538.5430851799,56780.0948517796,57920.2688825733,11625.1027185165
2506330255,13132,-2,0,39629.5193289968,39368.0355242718,27812.0574914064,50314.7161387284,51722.4213195682,39036.6361336022,51534.3330620792,56776.6878966691,57928.5672518066,11625.9057865069
2506330255,13132,-2,0,39613.4823045842,39356.7804047106,27814.1138321695,50307.0748251236,51697.6113857462,39038.3396111574,51529.0157785675,56772.5143766589,57908.7582413788,11632.3546658230
2506364990,13133,-2,0,39592.2618413250,39354.5293807983,27816.6690485023,50307.3060113632,51690.1404198969,39037.8164001940,51526.6430776871,56770.5918805609,57911.9948487337,11632.4033366103
2506364990,13133,-2,0,39603.3952839180,39357.4252926422,27812.0209883159,50306.0770739841,51704.2914513020,39033.3386877631,51525.7305004254,56771.9181595145,57926.2188863198,11627.8161149081
2506364990,13133,-2,0,39600.2560181377,39352.7042262749,27805.6572828775,50300.9423059248,51690.8096432222,39034.8474821692,51521.9950175007,56764.2038397288,57909.8533340929,11628.8138660475
2506364990,13133,-2,0,39593.5881202787,39358.2891991166,27811.6924605017,50306.2960925269,51685.4680243169,39044.6789812021,51525.4019726111,56762.9018961688,57907.1521053982,11630.1644803949
2506364990,13133,-2,0,39615.4899745600,39365.6141526040,27814.2476768345,50311.3213513148,51704.2306128179,39041.5640508155,51529.6363311055,56765.7734726190,57921.7290061921,11626.0396311719
2506364990,13133,-2,0,39615.0276020807,39355.7339827838,27809.8064674941,50305.5173599303,51692.5739592615,39032.0610795967,51523.7836689337,56760.7847169216,57912.4937243035,11627.4997547907
2506364990,13133,-2,0,39583.1482364046,39348.0439983917,27808.4071823595,50302.0617340325,51673.8600415478,39029.9439003495,51521.9706821071,56758.4850222220,57898.4400344730,11633.2915784784
2506364990,13133,-2,0,39594.1965051198,39356.3910384123,27810.2931753671,50306.7341296126,51695.7497281323,39035.2003453771,51525.7548358190,56763.0965793179,57916.8862628566,11633.4497585371
2506393775,13134,-2,0,39622.2795493872,39362.3167067650,27810.3296784575,50306.4299371920,51710.9593491610,39038.1692634018,51524.9152647382,56765.1285846874,57924.1868809503,11633.3645846593
2506393775,13134,-2,0,39608.3475365249,39360.9539247209,27814.0043228981,50305.0914905415,51691.7587235744,39040.2742749522,51523.4916442099,56764.8000568731,57907.8578318139,11637.5259369728
2506393775,13134,-2,0,39596.0216596433,39365.2369540025,27817.0219117102,50307.9265639012,51694.0949213644,39040.0065856221,51524.6232400145,56767.2335962377,57914.2093695555,11635.9563040826
2506393775,13134,-2,0,39607.0577606617,39366.4050528975,27810.6460385749,50306.2595894365,51703.3788740403,39033.4116939441,51521.8855082293,56766.2115097046,57920.9989443827,11634.6178574321
2506393775,13134,-2,0,39599.2460993014,39359.0314286228,27809.3319273181,50303.2906714117,51688.4856131290,39031.4770301492,51519.8900059503,56760.5291952883,57900.8735738376,11639.8256316723
2506393775,13134,-2,0,39592.5416983519,39360.1995275178,27811.3274295970,50307.2086697886,51690.2620968652,39034.8353144724,51522.7007439164,56759.4341025742,57901.2264370454,11640.6165319658
2506393775,13134,-2,0,39615.6968254060,39364.4703891027,27810.1471630052,50306.3812664047,51716.8728498169,39032.3896074110,51522.3235453149,56761.8068034547,57918.4072249594,11636.6741981952
2506393775,13134,-2,0,39615.1127759585,39357.4861311263,27808.0421514548,50301.1613244676,51709.2923746963,39030.6252913716,51518.4785531189,56758.8987239140,57907.8213287235,11638.3290049631
2506440233,13135,-2,0,39589.0374016669,39353.3369465097,27812.5198638857,50304.1910809766,51691.1138356428,39040.1160948935,51519.6709874075,56761.8311388483,57899.3647794315,11641.0545690514
2506440233,13135,-2,0,39602.0811726611,39363.7768303838,27819.2120971383,50313.6453814080,51706.4938044270,39045.4090430115,51525.8400096968,56770.9204083751,57925.2941413612,11637.4529307918
2506440233,13135,-2,0,39621.6224937587,39366.1982020515,27819.0417493828,50310.5426187181,51708.8665053075,39036.8186490545,51525.1099478874,56770.0808372943,57925.9390292928,11633.9851371973
2506440233,13135,-2,0,39602.2150173261,39360.8687508431,27817.7519735195,50306.5759495539,51685.0543226250,39035.4436993135,51521.8125020484,56767.6838010202,57907.8213287235,11635.2140745764
2506440233,13135,-2,0,39595.0604115943,39365.6993264818,27817.9466566687,50310.5547864150,51693.8272320343,39035.8817363991,51526.7404192617,56770.5553774704,57919.5388207640,11631.8679579501
2506440233,13135,-2,0,39607.2767792045,39368.2180397242,27813.7366335680,50310.7859726546,51706.3477920651,39032.0245765063,51526.1198667237,56772.7090598080,57925.1116259089,11630.8337037202
2506440233,13135,-2,0,39591.5196118188,39360.5402230289,27809.2832565308,50305.9067262286,51691.2841833983,39038.0597541304,51522.6642408260,56768.5112044041,57905.5338017208,11636.1753226254
2506440233,13135,-2,0,39587.2730856276,39367.3541332497,27816.0484959643,50310.1167493293,51697.8304042890,39042.2211064439,51526.5214007188,56771.8573210304,57912.3598796384,11640.5556934817
2506458697,13136,-2,0,39614.1515279095,39373.0607830597,27817.4112780085,50310.8224757451,51714.7556705697,39034.0687495725,51525.1099478874,56771.7113086686,57925.5983337818,11636.7228689825
2506458697,13136,-2,0,39611.0000944323,39364.0931905012,27814.5518692551,50306.9896512458,51694.3504429977,39029.2503416306,51522.5182284641,56765.9073172840,57908.3323719900,11635.5060993002
2506458697,13136,-2,0,39582.1626529619,39357.8633297278,27816.6203777150,50305.9310616222,51674.8699603842,39033.2656815822,51523.3091287576,56762.4881944768,57901.5062940724,11635.3479192415
2506458697,13136,-2,0,39593.4056048263,39366.0035189024,27818.8957370209,50308.4619425614,51696.9056593305,39033.1561723108,51526.8985993204,56768.8762353088,57923.0431174490,11631.0892253534
2506458697,13136,-2,0,39610.9270882514,39366.3685498071,27814.7952231916,50304.8724719986,51701.9187504216,39028.5811183054,51524.3068798971,56766.6860498807,57919.4049760989,11630.8945422043
2506458697,13136,-2,0,39596.5205352130,39362.3288744618,27814.5275338615,50303.1446590498,51687.7798867133,39031.9394026285,51522.4695576768,56764.1673366383,57904.9010814860,11638.0613156330
2506458697,13136,-2,0,39598.5890436729,39365.8696742373,27817.2652656466,50306.4542725856,51698.8524908222,39031.2458439096,51524.2217060193,56765.7978080126,57917.5433184850,11636.6741981952
2506458697,13136,-2,0,39607.6174747155,39361.6353157429,27815.0264094312,50301.5263553723,51700.3977883187,39023.5071887302,51519.5128073488,56762.2083374498,57915.2071206950,11634.1189818623
2506486415,13137,-2,0,39584.5596892361,39350.1368422453,27811.3882680811,50294.4325881246,51675.2958297729,39018.1777375218,51513.7453190548,56754.1898252435,57889.8496405160,11636.8080428602
2506486415,13137,-2,0,39585.3140864391,39354.6145546761,27811.1570818415,50298.3505865015,51683.7037082776,39018.8469608470,51516.2396969035,56756.8058800605,57893.6702973184,11638.3898434472
2506486415,13137,-2,0,39616.6824088486,39359.9318381877,27807.3850958264,50299.2023252791,51700.8966638884,39015.7928689445,51515.3027842481,56758.2781713760,57904.5360505813,11635.9076332953
2506486415,13137,-2,0,39605.3664508033,39347.2165950078,27801.1065642657,50288.8597829796,51680.8321318274,39013.2741557021,51508.3793647558,56750.4908454094,57884.9825617868,11631.6246040136
2506486415,13137,-2,0,39572.6961848337,39341.8019699215,27798.9893850186,50288.6164290432,51667.0461313270,39020.6721153705,51509.2067681398,56748.2276538003,57883.9239721632,11627.5849286684
2506486415,13137,-2,0,39584.3528383901,39348.4820354773,27799.0015527154,50295.1748176308,51688.1084145275,39020.8911339133,51516.0328460575,56753.7152850674,57904.5603859749,11622.9977069662
2506486415,13137,-2,0,39596.4840321225,39347.5207874283,27797.2372366761,50293.6903586184,51687.5730358673,39019.2849979326,51514.6457286196,56754.1046513658,57896.6027122527,11622.7543530297
2506486415,13137,-2,0,39585.6791173438,39346.7542225285,27802.5910232781,50295.0166375721,51675.4175067412,39024.2980890237,51516.0206783606,56755.4552657131,57884.4106800361,11625.2365631816
2506515038,13138,-2,0,39597.6399633207,39352.5947170035,27805.2070780951,50298.6182758316,51695.5185418927,39020.3800906467,51519.1721118378,56759.0082331854,57901.8226541898,11622.8516946043
2506515038,13138,-2,0,39606.6562266665,39350.1246745484,27802.6640294591,50295.8562086528,51698.9741677904,39014.9898009541,51517.6876528254,56757.8644696841,57903.9520011338,11626.1856435338
2506515038,13138,-2,0,39580.6295231622,39344.8803972177,27807.5919466724,50293.6781909215,51677.8267107121,39019.9420535611,51514.5605547419,56752.9122170771,57889.2534233717,11635.0072237304
2506515038,13138,-2,0,39583.4889319156,39352.3878661575,27812.3495161301,50298.9346359490,51690.7731401317,39022.4729345003,51518.2595345761,56757.0857370874,57903.6478087132,11633.0238891483
2506515038,13138,-2,0,39613.7013231270,39357.3401187644,27808.6870393864,50299.5551884870,51705.6907364367,39017.9708866758,51516.1545230257,56756.8910539382,57912.8100844209,11625.8327803259
2506515038,13138,-2,0,39601.3511108517,39350.2585192135,27803.9659730191,50294.0188864326,51686.1494153390,39016.3769183920,51511.4334566584,56749.9189636587,57890.3363483889,11627.1833946733
2506515038,13138,-2,0,39581.6029389081,39349.2972711645,27805.2070780951,50297.9003817191,51675.9893884919,39021.4265125735,51516.0936845416,56750.7098639522,57888.6328708337,11631.3934177740
2506515038,13138,-2,0,39595.7174672227,39354.8457409157,27803.7956252636,50300.9058028344,51693.7055550661,39019.4310102945,51517.3226219207,56753.9951420944,57905.4242924494,11628.7895306539
2506562592,13139,-2,0,39598.7107206411,39351.4752888958,27801.3012474149,50296.3550842226,51685.6018689820,39015.3669995557,51514.7674055879,56748.8603740351,57894.3516883405,11629.0937230745
2506562592,13139,-2,0,39582.2234914461,39347.6059613061,27803.0777311511,50295.1018114498,51676.4274255775,39018.6157746074,51512.8814125803,56747.5705981718,57887.8054674497,11628.5948475047
2506562592,13139,-2,0,39597.0315784796,39352.9597479082,27804.2823331365,50296.5497673717,51697.8425719859,39016.7419492967,51515.5461381845,56752.8270431994,57907.4684655156,11621.9999558267
2506562592,13139,-2,0,39601.4849555168,39346.9732410713,27802.1773215862,50291.2811546474,51694.2287660295,39012.2033983817,51511.8471583504,56751.7562858789,57905.1201000288,11621.4524094697
2506562592,13139,-2,0,39569.8976145644,39340.2566724250,27808.5410270246,50289.1761430970,51673.2394890099,39021.1466555466,51509.4866251667,56750.3935038348,57893.9866574358,11629.8237848838
2506562592,13139,-2,0,39575.9449598854,39350.4166992722,27815.3306018518,50296.5741027654,51689.7632212954,39024.4684367792,51515.2054426735,56755.6864519528,57910.2913711785,11630.1766480917
2506562592,13139,-2,0,39608.8099090042,39356.9872555566,27811.9601498318,50298.2045741397,51705.7029041335,39022.0105620210,51515.8746659988,56756.9032216350,57918.5532373213,11627.7309410303
2506562592,13139,-2,0,39602.4827066563,39351.4387858053,27808.4801885404,50297.0486429415,51687.2201726594,39024.9064738648,51515.9841752702,56751.8049566662,57898.5373760476,11630.2253188790
2506585413,13140,-2,0,39587.5772780481,39350.9520779324,27811.1814172351,50299.3118345506,51680.0655669275,39027.3521809263,51518.0648514269,56753.5206019183,57901.4819586787,11630.3834989377
2506585413,13140,-2,0,39601.8621541183,39352.6920585781,27810.7312124527,50300.7354550788,51695.2873556530,39023.8357165444,51520.9485955739,56756.2583337034,57914.7447482157,11627.6457671525
2506585413,13140,-2,0,39598.1266711936,39348.0439983917,27808.5653624182,50296.4402581003,51687.0741602976,39022.3025867447,51518.8314163267,56752.8148755025,57895.6536319005,11628.6435182920
2506585413,13140,-2,0,39589.0617370605,39348.9322402598,27811.3517649907,50297.8273755382,51682.4747708985,39025.8920573075,51520.5835646692,56753.0460617422,57890.0808267556,11629.9332941553
2506585413,13140,-2,0,39608.8950828819,39358.1675221484,27810.9258956019,50299.0806483109,51704.9850100209,39028.1795843102,51523.6863273591,56758.6066991903,57911.4229669831,11629.9819649425
2506585413,13140,-2,0,39609.1871076057,39354.4198715269,27808.8208840515,50296.9269659733,51699.1688509396,39027.4373548040,51523.5403149972,56759.4827733615,57906.2881989238,11632.3181627326
2506585413,13140,-2,0,39575.3365750443,39348.3603585091,27813.8218074457,50300.1392379345,51678.8853003357,39036.6117982085,51526.7404192617,56759.4949410583,57896.4201968004,11634.8003728844
2506585413,13140,-2,0,39582.6615285317,39358.7759069895,27822.4487044932,50308.9973212216,51700.1544343822,39038.2544372796,51534.4669067442,56766.6617144870,57918.1152002357,11631.5759332264
2506601191,13141,-2,0,39606.4615435174,39358.9705901387,27817.9588243655,50306.2352540428,51711.3487154593,39024.1277412682,51529.6484988023,56762.8532253815,57916.9349336439,11629.4952570696
2506601191,13141,-2,0,39586.4456822436,39347.4234458537,27809.5144427704,50293.9945510389,51686.3684338818,39016.0848936682,51522.1531975594,56751.5129319425,57896.6878861305,11629.0572199840
2506601191,13141,-2,0,39575.6651028585,39346.0241607191,27807.5189404914,50293.1428122613,51686.4779431532,39015.8293720349,51521.1311110263,56752.3403353264,57903.1489331435,11628.6191828984
2506601191,13141,-2,0,39587.3704272022,39345.2089250320,27802.1529861925,50289.3221554589,51694.9709955357,39013.2984910958,51518.3203730602,56749.4930942699,57911.9096748560,11625.8206126291
2506601191,13141,-2,0,39578.0864745263,39340.0984923663,27801.7271168037,50286.0003742263,51676.4882640616,39020.6964507641,51513.7818221452,56744.2974877265,57892.2466767901,11630.5903497837
2506601191,13141,-2,0,39574.0954699683,39345.7078006017,27810.3296784575,50293.1671476550,51677.6685306534,39028.8609753323,51518.3203730602,56747.8139521083,57894.2421790691,11634.9098821558
2506601191,13141,-2,0,39600.4020304995,39357.0237586470,27813.6514596902,50298.5574373475,51703.7560726418,39026.8046345692,51520.3645461264,56753.1069002263,57914.6717420348,11631.5272624391
2506601191,13141,-2,0,39600.7183906169,39350.1003391548,27809.7456290100,50292.6317689948,51695.2265171689,39019.0294762994,51514.3780392895,56747.9112936829,57900.2773566933,11628.6800213825
2506638744,13142,-2,0,39567.0747089015,39343.4811120831,27808.9790641102,50288.6529321337,51671.7915330879,39019.9177181674,51511.8958291377,56742.9712087728,57886.9537286721,11630.8337037202
2506638744,13142,-2,0,39573.8399483351,39348.1900107536,27807.2877542518,50292.0355518504,51689.1670041511,39021.1953263338,51514.6092255292,56746.7553624847,57902.6013867864,11626.4289974702
2506638744,13142,-2,0,39595.0482438974,39348.1778430568,27804.9758918554,50289.0909692193,51695.2386848658,39020.1732398007,51515.7043182432,56746.8162009688,57903.7816533783,11627.6822702430
2506638744,13142,-2,0,39581.7854543604,39342.4103547627,27807.0322326185,50287.5335040259,51674.7969542032,39018.9077993311,51516.6533985954,56746.4755054578,57886.6252008579,11632.2816596421
2506638744,13142,-2,0,39578.9260456070,39345.5617882398,27810.7068770590,50291.5488439775,51682.7302925318,39022.2417482606,51520.4253846105,56751.0262240696,57899.6446364585,11631.5759332264
2506638744,13142,-2,0,39592.5416983519,39345.3184343034,27809.7821321005,50291.5488439775,51692.2210960537,39018.5184330328,51519.8169997694,56754.2628314245,57911.0579360784,11633.7539509577
2506638744,13142,-2,0,39575.6042643744,39336.4968541067,27808.2368346040,50286.2193927691,51673.9330477288,39016.5107630570,51515.5704735782,56749.2375726366,57889.9104790001,11637.4285953982
2506638744,13142,-2,0,39570.2869808628,39341.6437898628,27812.9092301840,50289.3586585494,51677.7050337439,39020.1367367103,51518.4055469379,56750.7220316490,57894.3881914310,11638.4506819313
2506686328,13143,-2,0,39600.9739122502,39350.8669040546,27812.7632178221,50292.8994583249,51704.2427805147,39018.8104577565,51520.0360183122,56753.0217263485,57908.8799183471,11635.5182669970
2506686328,13143,-2,0,39599.1609254236,39345.7929744795,27810.3661815480,50287.7646902656,51690.7853078286,39013.9677144210,51516.4465477494,56750.4056715316,57894.6072099738,11633.1820692070
2506686328,13143,-2,0,39565.1765481971,39339.4901075252,27812.9457332745,50285.5380017470,51673.0448058607,39016.3769183920,51515.4609643068,56748.3493307685,57887.4891073323,11632.4520073976
2506686328,13143,-2,0,39570.1409685009,39346.5352039857,27812.5928700666,50289.2856523685,51689.1426687575,39009.9767098631,51517.3469573143,56752.0969813900,57904.4752120972,11628.7773629571
2506686328,13143,-2,0,39587.2487502339,39347.2165950078,27809.5996166482,50289.0666338256,51690.8704817063,39004.9757864689,51513.9521699007,56751.1357333410,57899.0240839205,11627.5605932748
2506686328,13143,-2,0,39571.6375952101,39341.3274297454,27808.2611699976,50287.3874916641,51675.2349912888,39008.7356047872,51511.6281398076,56747.4975919909,57882.0744822461,11629.4587539792
2506686328,13143,-2,0,39576.3586615774,39345.2697635161,27810.4513554258,50291.0378007110,51689.8727305668,39013.7365281814,51514.4145423800,56749.6634420254,57896.9555754606,11627.9621272699
2506686328,13143,-2,0,39589.8161342636,39346.4621978047,27808.9425610197,50290.4050804762,51698.2927767683,39008.0420460682,51515.1446041894,56750.6368577712,57901.1412631677,11629.1302261649
2506703681,13144,-2,0,39568.3279816743,39339.9889830949,27810.4391877289,50287.6916840846,51677.4738475043,39008.6747663030,51516.1545230257,56748.1059768321,57883.9604752537,11635.5669377843
2506703681,13144,-2,0,39563.4974060355,39344.5762047972,27812.4711930984,50292.8386198408,51683.7645467617,39015.8537074286,51521.2527879945,56752.8148755025,57894.4003591278,11633.9851371973
2506703681,13144,-2,0,39597.3236032033,39352.3026922797,27809.6239520418,50294.8219544229,51706.7128229698,39010.9379579121,51522.2018683467,56755.7472904369,57908.3810427773,11629.9697972457
2506703681,13144,-2,0,39595.9364857655,39345.5617882398,27808.6383685991,50290.8796206523,51690.7853078286,39010.1957284059,51518.1743606983,56751.2087395219,57891.3219318316,11632.4398397008
2506703681,13144,-2,0,39570.7736887357,39344.3815216480,27813.2012549078,50293.4348369851,51677.5833567757,39015.4400057366,51519.9995152217,56750.7828701331,57887.4526042419,11633.0117214515
2506703681,13144,-2,0,39581.2379080034,39352.2661891893,27815.0020740375,50295.2356561149,51694.9831632325,39011.5098396628,51521.9706821071,56754.5548561482,57905.4242924494,11630.0671388203
2506703681,13144,-2,0,39589.5727803271,39347.1679242205,27809.2467534403,50289.6750186668,51691.6248789093,39006.8617794764,51516.4465477494,56749.3227465144,57892.6968815726,11627.2442331574
2506703681,13144,-2,0,39577.2834065359,39343.9799876528,27808.6140332055,50286.9859576689,51678.8244618516,39013.8703728464,51516.5195539304,56746.7796978784,57881.3200850431,11631.5759332264
2506737649,13145,-2,0,39586.9688932070,39352.4852077321,27810.6825416654,50292.3519119678,51696.3824483671,39014.4909253844,51519.0991056568,56752.6323600502,57901.0560892899,11631.8436225565
2506737649,13145,-2,0,39595.2672624402,39350.9034071451,27806.8253817725,50290.9282914396,51699.6677265093,39010.4999208265,51516.8359140478,56753.7882912484,57902.1025112167,11633.0603922388
2506737649,13145,-2,0,39570.1531361977,39346.6447132571,27811.2179203256,50291.4028316156,51678.5202694310,39014.1137267829,51517.8945036714,56752.9122170771,57888.4503553814,11640.0568179119
2506737649,13145,-2,0,39567.6465906522,39354.1156791064,27817.8736504878,50297.2554937875,51690.2864322588,39020.3435875562,51520.6809062438,56756.0271474638,57903.6721441069,11640.8720535991
2506737649,13145,-2,0,39597.8103110762,39362.8885885157,27818.2508490893,50298.2897480174,51713.1860376796,39020.1489044071,51521.5204773246,56759.0325685791,57918.4558957467,11638.8278805328
2506737649,13145,-2,0,39592.7850522884,39356.8899139820,27819.8448173731,50295.8805440465,51698.7551492476,39023.2881701874,51519.2937888060,56756.4165137621,57905.3999570557,11642.2835064305
2506737649,13145,-2,0,39573.8277806382,39357.5348019136,27824.5172129531,50297.6691954795,51693.6325488851,39023.6775364857,51522.1653652562,56759.6409534202,57906.6775652221,11643.6219530811
2506737649,13145,-2,0,39587.4799364736,39363.0102654839,27821.5847980188,50300.6381135043,51709.5722317232,39021.3170033021,51524.2582091098,56762.5733683545,57920.9016028081,11639.2050791343
2506790018,13146,-2,0,39586.0441482485,39355.2716103045,27813.6879627807,50291.1594776792,51698.2806090715,39014.2719068416,51516.6412308986,56754.7373716006,57900.7640645662,11637.0757321903
2506790018,13146,-2,0,39573.8034452446,39353.2639403288,27814.3936891964,50291.4149993125,51686.9281479357,39017.2894956537,51516.0571814511,56752.5593538693,57890.1660006334,11637.8544647870
2506790018,13146,-2,0,39594.4885298436,39360.4915522416,27817.8614827909,50298.2532449270,51706.0679350382,39018.0438928567,51520.5105584883,56757.1465755715,57908.3688750805,11635.5426023906
2506790018,13146,-2,0,39603.8576563972,39357.0237586470,27816.2796822040,50295.1383145403,51704.4739667544,39018.2142406122,51519.3059565028,56757.1587432683,57905.2174416034,11635.6277762684
2506790018,13146,-2,0,39575.2514011665,39353.7141451112,27821.7794811679,50296.5619350686,51685.4801920138,39027.7172118309,51522.2383714372,56759.1299101536,57890.6405408095,11640.9207243864
2506790018,13146,-2,0,39577.2347357487,39363.1319424522,27827.9485034572,50303.8868885560,51704.0359296687,39029.1164969656,51529.0401139612,56765.3597709270,57908.0403472663,11638.9252221074
2506790018,13146,-2,0,39604.3321965733,39368.5222321447,27824.0791758675,50304.3005902480,51723.2243875585,39017.0096386268,51529.3199709881,56766.5643729125,57914.7934190030,11636.4065088651
2506790018,13146,-2,0,39598.0536650127,39361.8543342858,27821.3536117791,50302.6944542673,51708.5014744028,39014.9046270764,51528.7480892374,56765.0190754159,57896.0916689862,11642.6120342448
2506821159,13147,-2,0,39580.1549829862,39358.6298946277,27819.3946125906,50300.8449643502,51697.5870503526,39013.8582051496,51527.3244687092,56762.0623250880,57894.6680484579,11640.6773704499
2506821159,13147,-2,0,39590.1568297746,39357.9120005151,27814.5153661646,50298.3019157143,51704.9850100209,39006.8009409923,51524.0026874765,56760.3588475328,57906.2638635301,11633.7904540481
2506821159,13147,-2,0,39580.9458832796,39347.2287627046,27806.3630092933,50288.3000689258,51684.3242608156,39005.3043142831,51516.7507401700,56752.2673291455,57887.3065918800,11628.8625368348
2506821159,13147,-2,0,39571.8322783593,39348.7253894138,27808.9182256261,50291.5123408870,51677.9483876804,39015.6833596731,51519.0747702632,56753.1799064072,57884.8365494249,11627.4632517002
2506821159,13147,-2,0,39598.0658327095,39361.0147632050,27810.9502309955,50298.6547789221,51704.1454389401,39014.4300869003,51526.8742639267,56758.2416682856,57903.6356410164,11624.3969921008
2506821159,13147,-2,0,39606.8509098157,39358.5690561436,27806.7402078948,50295.0288052689,51700.2882790473,39004.2213892658,51524.1000290511,56754.9320547497,57892.6847138757,11626.0517988687
2506821159,13147,-2,0,39571.0048749753,39345.3427696970,27804.2458300461,50289.9670433905,51670.9397943103,39002.6639240725,51518.5393916030,56748.2884922844,57873.5205913796,11628.2419842969
2506821159,13147,-2,0,39573.2315634939,39349.2972711645,27806.5941955329,50293.3618308041,51683.8253852458,39007.5675058921,51521.0824402390,56752.6688631407,57889.7401312446,11626.5750098321
2506826057,13148,-2,0,39599.2826023918,39350.7817301769,27806.3265062028,50290.5024220507,51696.2729390957,39007.0199595351,51519.5249750456,56751.3669195806,57894.4855330055,11625.1027185165
2506826057,13148,-2,0,39589.7796311731,39346.9732410713,27804.8420471904,50287.3996593609,51681.1971627321,39008.8572817554,51517.4808019794,56749.8702928714,57877.9739684168,11627.8404503017
2506826057,13148,-2,0,39583.2577456760,39349.7109728565,27806.4360154742,50293.7998678898,51685.0786580186,39011.1691441517,51522.7615824005,56756.0028120701,57888.2191691417,11627.8526179985
2506826057,13148,-2,0,39599.2095962109,39356.1841875663,27806.8375494694,50296.0508918020,51702.5271352627,39012.7144416483,51525.1707863715,56761.7581326674,57902.7108960578,11629.6412694315
2506826057,13148,-2,0,39587.4434333831,39353.9696667445,27811.3274295970,50293.5078431660,51689.7632212954,39016.8757939617,51523.4308057258,56760.1033258995,57889.9834851810,11635.3479192415
2506826057,13148,-2,0,39578.1716484040,39357.7659881532,27821.7794811679,50297.4501769366,51689.3251842098,39020.5504384022,51526.1928729046,56761.3322632786,57890.8473916555,11639.4240976772
2506826057,13148,-2,0,39605.3786185001,39363.1927809363,27819.5892957398,50297.4258415430,51709.7304117819,39010.8162809439,51524.9517678287,56760.4318537137,57906.6653975253,11636.6255274079
2506826057,13148,-2,0,39611.7666593322,39357.7538204564,27814.1503352599,50292.0598872441,51701.3955394582,39007.3728227430,51521.4718065373,56755.8933027987,57893.6824650152,11636.9297198284
2506883332,13149,-2,0,39583.6106088839,39351.2197672625,27813.9191490203,50292.6317689948,51679.3963436023,39011.4733365723,51521.7759989579,56754.7738746910,57880.3101662068,11638.6453650805
2506883332,13149,-2,0,39587.0175639943,39357.4739634295,27815.9268189961,50296.9147982764,51696.6136346067,39016.4864276634,51527.4826487679,56760.9063938898,57899.3647794315,11633.9973048941
2506883332,13149,-2,0,39605.1230968668,39359.8709997036,27816.8515639546,50295.0774760562,51705.0701838987,39014.6126023526,51526.4240591443,56761.9163127261,57899.5351271871,11628.6921890793
2506883332,13149,-2,0,39592.6147045328,39354.4928777079,27817.1192532847,50291.9260425790,51688.4369423417,39015.7563658540,51524.2338737161,56757.6089480508,57879.5679367006,11627.4145809129
2506883332,13149,-2,0,39598.5525405824,39362.8277500316,27820.6600530602,50301.8792185802,51701.5415518200,39020.4165937372,51534.1870497173,56766.3818574601,57896.2011782576,11628.7773629571
2506883332,13149,-2,0,39615.1857821394,39367.1837854942,27816.5960423214,50303.1203236561,51715.4370615918,39013.1159756434,51535.5254963678,56769.7158063896,57906.1178511683,11625.8206126291
2506883332,13149,-2,0,39595.4741132862,39360.9174216304,27813.6271242966,50298.6061081348,51695.8105666164,39012.5562615896,51533.3231432429,56765.2745970492,57889.0709079193,11628.5461767174
2506883332,13149,-2,0,39585.0220617153,39364.6650722519,27818.0074951528,50300.6624488979,51696.3581129735,39018.5549361233,51534.6372544997,56767.6959687170,57893.2322602328,11631.0040514757
2506908297,13150,3,0,39616.6945765455,39371.8683487710,27818.7983954463,50303.1324913530,51718.0287810151,39019.6500288373,51536.1947196931,56773.0619230159,57912.2260349734,11628.9598784094
2506908297,13150,3,0,39623.5206544631,39366.7457484086,27818.1048367274,50302.6701188737,51709.1706977280,39017.0339740204,51533.5786648761,56771.7234763654,57903.5869702291,11633.2672430847
2506908297,13150,3,0,39597.3722739906,39360.1143536401,27818.7740600527,50303.7652115877,51690.5784569826,39019.2849979326,51534.4912421379,56769.7036386928,57893.2687633232,11638.4750173250
2506908297,13150,3,0,39606.4250404269,39364.8354200074,27817.6911350354,50309.0216566153,51708.2702881631,39019.6135257469,51538.1658865784,56773.9745002776,57910.0845203325,11638.1464895107
2506908297,13150,3,0,39619.1646190005,39365.5168110295,27816.3040175976,50303.2906714117,51710.8985106769,39018.2142406122,51535.2699747345,56773.2201030746,57904.2926966448,11639.1807437407
2506908297,13150,3,0,39602.3975327785,39362.8034146379,27825.0039208260,50301.2221629518,51698.7308138539,39028.5811183054,51535.5498317615,56773.1105938032,57892.6725461789,11641.3952645625
2506908297,13150,3,0,39607.2889469013,39369.7755049175,27831.0999369343,50306.2474217396,51715.5952416505,39030.1750865892,51541.9500402903,56779.1822745179,57911.7028240100,11635.3965900288
2506908297,13150,3,0,39619.0186066386,39368.5952383257,27825.1134300974,50304.8359689082,51721.1437114018,39020.4652645245,51539.7111840749,56778.3062003466,57917.2999645486,11629.5317601601
2506922131,13151,3,0,39592.0184873885,39358.4960499626,27820.2341836714,50300.1027348440,51696.7718146654,39019.2484948422,51535.6471733360,56774.4977112410,57896.7608923114,11631.7584486787
2506922131,13151,3,0,39591.6047856965,39369.6173248588,27824.2860267134,50310.7373018673,51706.4938044270,39024.4197659919,51544.8581198310,56782.3702110855,57906.4828820730,11633.5349324148
2506922131,13151,3,0,39631.2836450362,39383.6588469925,27825.5271317894,50318.1352615356,51732.2771539948,39021.5238541481,51549.9320494062,56790.4738971695,57923.9556947107,11630.9067099011
2506922131,13151,3,0,39629.6410059651,39378.7065943855,27821.5969657156,50312.0757485178,51715.6195770442,39016.2674091206,51545.8437032737,56785.7771661959,57904.0858457988,11628.7286921698
2506922131,13151,3,0,39599.3312731791,39371.9413549520,27822.0228351044,50309.3136813390,51699.2053540300,39012.6901062546,51543.0938037917,56782.7474096870,57894.7167192452,11628.0959719350
2506922131,13151,3,0,39601.3754462454,39371.5641563505,27818.4333645416,50305.4565214461,51712.2004542369,39005.3894881608,51540.3682397033,56781.5184723079,57908.5513905329,11622.9490361789
2506922131,13151,3,0,39604.5390474193,39364.2878736503,27815.7443035437,50300.4312626583,51711.0080199483,39010.3295730710,51535.8053533947,56776.4445427327,57901.5914679501,11623.8494457438
2506922131,13151,3,0,39593.0284062248,39363.4361348727,27822.8624061852,50302.8404666292,51703.6465633704,39021.3900094830,51536.0365396344,56775.2886115345,57892.1128321251,11632.6588582436
2506951612,13152,3,0,39606.7170651506,39370.1405358222,27826.2206905083,50307.9143962044,51722.3118102968,39022.2539159574,51539.8085256495,56778.3427034371,57914.0876925873,11636.6498628015
2506951612,13152,3,0,39615.0641051712,39366.8065868927,27820.4897053047,50300.5164365360,51719.8174324481,39012.5562615896,51531.9360258051,56775.1669345663,57913.6253201080,11635.7981240239
2506951612,13152,3,0,39581.0310571574,39355.0647594586,27816.7055515928,50291.7191917330,51687.5000296864,39005.9248668211,51527.4218102837,56768.8518999152,57890.9325655332,11635.7981240239
2506951612,13152,3,0,39572.1608061735,39358.6542300213,27815.8781482088,50292.5830982075,51689.6902151145,39010.3782438582,51526.9229347140,56769.7158063896,57897.3449417589,11634.3866711925
2506951612,13152,3,0,39605.3177800160,39368.5222321447,27817.9831597592,50296.0508918020,51712.2004542369,39016.2430737269,51530.1473743721,56773.2809415587,57909.1476076772,11635.9928071731
2506951612,13152,3,0,39606.4858789110,39368.8385922621,27821.3901148696,50294.7489482420,51704.6686499035,39019.4066749009,51531.1694609052,56774.1083449427,57895.9334889275,11643.2569221764
2506951612,13152,3,0,39590.3636806206,39372.3672243408,27828.4108759364,50300.5529396265,51705.2040285637,39024.9673123490,51536.2677258740,56778.5130511926,57901.2507724391,11645.1550828808
2506951612,13152,3,0,39600.0369995948,39375.2022977005,27827.8633295794,50302.1104048198,51722.3604810841,39020.6356122800,51535.4524901869,56781.2142798873,57916.8984305534,11639.6066131295
2506985113,13153,3,0,39596.3258520638,39364.4947244963,27822.5947168551,50294.4325881246,51707.0778538745,39017.9100481917,51530.0743681911,56776.1525180089,57903.0759269625,11640.3853457262
2506985113,13153,3,0,39582.4790130793,39361.1364401732,27825.0039208260,50295.9657179242,51691.0408294618,39023.7018718794,51529.5024864405,56774.1326803363,57894.8992346975,11644.6075365237
2506985113,13153,3,0,39603.7603148227,39369.7511695238,27826.0381750560,50301.1126536803,51707.5158909601,39020.8424631260,51533.1527954873,56779.1701068210,57912.8222521177,11644.6197042205
2506985113,13153,3,0,39613.9081739730,39363.4239671759,27821.1224255395,50294.5542650928,51702.7948245928,39009.5630081711,51528.8697662057,56771.3584454607,57905.1201000288,11645.2767598490
2506985113,13153,3,0,39581.8219574509,39354.0305052286,27820.3071898523,50290.4659189603,51675.9163823109,39010.4877531297,51524.5745692272,56764.2281751225,57884.0334814346,11648.9392365927
2506985113,13153,3,0,39578.3298284627,39361.7569927112,27822.2296859504,50294.2379049754,51687.0133218134,39014.0650559956,51528.7602569343,56767.0389130886,57896.3715260131,11646.9802374042
2506985113,13153,3,0,39609.1262691216,39368.4370582670,27820.5870468793,50295.8927117433,51705.2040285637,39011.4733365723,51529.3564740786,56770.1538434752,57904.7672368209,11642.0523201909
2506985113,13153,3,0,39605.7679847984,39363.9228427457,27818.0561659401,50292.0233841536,51687.5121973832,39005.8518606401,51524.8909293446,56763.5224487067,57882.1109853366,11639.8377993691
2507034022,13154,3,0,39593.3082632518,39361.8908373762,27817.7033027322,50292.9481291122,51681.3553427908,39007.9447044937,51524.8179231636,56761.2957601881,57882.3300038794,11635.1775714859
2507034022,13154,3,0,39603.1640976783,39362.0490174349,27813.9191490203,50289.8697018160,51691.6005435157,39001.3254774220,51521.8733405325,56761.3322632786,57892.1006644282,11633.7052801704
2507034022,13154,3,0,39586.9445578134,39349.3459419518,27807.2147480709,50279.4054825482,51671.9010423593,38996.6287464483,51511.4821274457,56749.9067959618,57870.0406300882,11636.6498628015
2507034022,13154,3,0,39566.8678580555,39347.2044273109,27807.2269157677,50279.3081409736,51661.6923447249,39000.7414279745,51510.8859103014,56748.1668153162,57863.3970676229,11635.3357515446
2507034022,13154,3,0,39593.3569340390,39356.5735538646,27807.6162820660,50284.2603935806,51685.8330552216,39003.0167872804,51516.1180199352,56752.4498445978,57884.0578168283,11631.1013930503
2507034022,13154,3,0,39610.0266786865,39354.5902192825,27807.7622944279,50286.0490450135,51688.6559608845,39000.7779310649,51517.6876528254,56752.8757139867,57879.1177319182,11632.6831936372
2507034022,13154,3,0,39583.8174597299,39347.7033028807,27811.6681251081,50288.7502737082,51668.8104473663,39002.9681164931,51520.0725214027,56751.6467766075,57864.2853094910,11635.8467948112
2507034022,13154,3,0,39583.9634720917,39353.8114866858,27815.0629125217,50296.2699103448,51685.6627074661,39003.3574827914,51525.3046310365,56758.0104820459,57881.4417620113,11636.1996580191
2507045039,13155,3,0,39602.4827066563,39353.3734496002,27810.3540138512,50291.2689869506,51698.1589321033,38998.8189318765,51521.0094340580,56755.3457564417,57884.6783693662,11635.7616209334
2507045039,13155,3,0,39591.2154193982,39345.9754899318,27807.3850958264,50283.8101887981,51680.9294734020,38997.7116714656,51516.3370384780,56751.3669195806,57866.0496255303,11637.9761417552
2507045039,13155,3,0,39581.5055973335,39345.1359188510,27807.3972635232,50281.2549724653,51681.4891874558,38999.2691366589,51516.1180199352,56753.5814404024,57871.0870520150,11635.3844223319
2507045039,13155,3,0,39591.2154193982,39346.3770239270,27804.8055440999,50278.5050729833,51694.8736539611,38996.7504234166,51513.8791637198,56755.1875763830,57885.1650772392,11630.7485298424
2507045039,13155,3,0,39573.2193957971,39341.7167960438,27805.2314134887,50277.8845204454,51681.7812121796,38997.6630006783,51510.8129041204,56753.5084342214,57870.1623070565,11635.7981240239
2507045039,13155,3,0,39562.7065057421,39345.8173098731,27810.6947093622,50284.7349337567,51684.1417453632,39006.4724131781,51518.1743606983,56757.4142649016,57873.7031068319,11640.9328920832
2507045039,13155,3,0,39592.1523320536,39353.7141451112,27812.3251807365,50290.2590681143,51709.5357286327,39004.8297741070,51520.4983907915,56761.5391141246,57894.1813405850,11638.2803341758
2507045039,13155,3,0,39600.4872043773,39350.4410346658,27812.3860192206,50287.6795163878,51702.6123091405,39002.8951103121,51519.7804966789,56759.1055747600,57884.3011707647,11639.2780853153
2507078590,13156,3,0,39569.4595774788,39342.3981870659,27815.8781482088,50284.0535427346,51676.8411272695,39007.7013505572,51516.4465477494,56754.5670238450,57871.5980952816,11640.1054886992
2507078590,13156,3,0,39572.4041601099,39350.7817301769,27820.4653699110,50286.4992497960,51690.5297861953,39011.7775289929,51520.8390863025,56759.3124256060,57895.1790917244,11637.0878998871
2507078590,13156,3,0,39591.8724750266,39355.9651690234,27816.9124024387,50285.5014986565,51698.0129197414,39009.0641326014,51521.3379618723,56762.2935113276,57899.8271519108,11637.6476139410
2507078590,13156,3,0,39583.1604041014,39355.4419580601,27817.4842841894,50285.3676539915,51682.7424602286,39014.0893913893,51521.4231357500,56761.6486233960,57885.6761205057,11637.5016015791
2507078590,13156,3,0,39585.6182788597,39360.1143536401,27820.3315252460,50290.3320742952,51690.2255937747,39019.2363271454,51522.9562655497,56764.0943304574,57897.9411589033,11635.1654037891
2507078590,13156,3,0,39603.1640976783,39360.7714092685,27818.9322401114,50292.7047751757,51700.1544343822,39014.4057515066,51522.7615824005,56764.2038397288,57909.3179554327,11635.4330931192
2507078590,13156,3,0,39580.0211383211,39350.6113824214,27816.9610732260,50291.0134653173,51675.0646435333,39007.4214935303,51517.7363236127,56755.5282718941,57888.6572062273,11637.1487383713
2507078590,13156,3,0,39563.9354431212,39350.4775377563,27816.4743653531,50289.7845279382,51668.3724102807,39009.5021696870,51518.4055469379,56752.8757139867,57888.1461629608,11631.4785916518
2507110230,13157,3,0,39592.4321890805,39356.2693614440,27813.7974720521,50289.2248138843,51690.0795814128,39006.7766055987,51517.8945036714,56753.5571050087,57903.7086471973,11624.7620230055
2507110230,13157,3,0,39595.9364857655,39350.5262085436,27808.3463438754,50281.2306370717,51677.6563629566,39001.1186265760,51512.8205740962,56748.6170200986,57889.0100694352,11626.0517988687
2507110230,13157,3,0,39567.5370813808,39342.9213980293,27806.8132140757,50276.4000614330,51654.5620743867,39002.1407131091,51509.4987928635,56742.2776500539,57876.8423726123,11627.9012887858
2507110230,13157,3,0,39569.0337080900,39347.5816259124,27808.1273253326,50279.0891224308,51665.9753740066,39006.6062578431,51509.3406128048,56744.2488169392,57894.7653900325,11625.5285879053
2507110230,13157,3,0,39582.2843299302,39349.8569852183,27807.9083067898,50279.2594701863,51671.0371358849,39008.6991016967,51510.6425563649,56743.9811276091,57892.0154905505,11628.2663196905
2507110230,13157,3,0,39574.7890286872,39350.1976807294,27810.6338708781,50282.6542575999,51660.7432643727,39012.2642368658,51512.8449094899,56743.2754011934,57880.6873648083,11633.6809447767
2507110230,13157,3,0,39586.9202224197,39356.2085229599,27813.2377579982,50290.6119313221,51679.3233374213,39014.4665899908,51517.5173050699,56748.6656908859,57899.2309347665,11631.8922933437
2507110230,13157,3,0,39604.1740165146,39355.3081133950,27808.2003315135,50291.6826886426,51688.1449176180,39008.4679154570,51515.1811072799,56749.1037279715,57905.3147831780,11626.9522084336
2507153982,13158,3,0,39577.5389281692,39345.4644466653,27807.0322326185,50287.5821748132,51663.5661700356,39008.3462384888,51512.1026799837,56745.4777543183,57887.3430949705,11629.4222508887
2507153982,13158,3,0,39562.4996548961,39350.2098484262,27812.0574914064,50291.1351422855,51668.3602425839,39016.4742599665,51517.5294727667,56748.9942187001,57897.8559850255,11631.0892253534
2507153982,13158,3,0,39590.5218606793,39358.6177269309,27812.7997209126,50291.8895394886,51692.5739592615,39012.5684292864,51517.6998205222,56752.4133415074,57911.3742961958,11630.1888157885
2507153982,13158,3,0,39590.1203266841,39350.2706869103,27807.6406174597,50285.0756292677,51677.3521705360,39004.8784448943,51510.5330470935,56745.1370588073,57892.1371675187,11631.7219455882
2507153982,13158,3,0,39569.3622359042,39345.9268191445,27809.7212936164,50284.2603935806,51664.6612627497,39005.6085067037,51509.5474636508,56743.3119042838,57884.2646676743,11635.3965900288
2507153982,13158,3,0,39576.8088663598,39349.2120972867,27811.6802928049,50286.1220511945,51677.5833567757,39001.0699557887,51509.1459296557,56745.7454436484,57902.6257221801,11631.7097778914
2507153982,13158,3,0,39577.7457790152,39344.3571862544,27806.1804938409,50279.7461780593,51670.7207757675,38996.1785416659,51503.0985843347,56740.6715140732,57893.0254093868,11629.6899402188
2507153982,13158,3,0,39566.6245041190,39344.1016646211,27805.8641337235,50282.5082452381,51657.7986817416,39004.1483830849,51503.9746585059,56740.8661972224,57882.6950347841,11635.1532360923
2507172696,13159,3,0,39584.8517139598,39355.0282563681,27811.2179203256,50288.1905596544,51678.6541140961,39010.8162809439,51510.7520656363,56747.0230518148,57905.3391185716,11634.1433172560
2507172696,13159,3,0,39603.7238117322,39357.9485036056,27811.7532989858,50286.3654051309,51685.5410304979,39002.6152532852,51509.6326375286,56747.8382875020,57907.4684655156,11631.1865669280
2507172696,13159,3,0,39574.2171469366,39349.0660849248,27810.5000262131,50279.7826811497,51660.4147365585,39000.9969496078,51506.2378501150,56740.8175264351,57885.7734620803,11631.0162191725
2507172696,13159,3,0,39565.1887158939,39354.0061698350,27812.0331560127,50284.1752197028,51669.0781366964,39007.5310028017,51510.3383639443,56743.8959537313,57896.7608923114,11632.0261380088
2507172696,13159,3,0,39595.9121503719,39359.6154780703,27807.7014559438,50285.4771632629,51690.2255937747,39005.1339665276,51510.9832518759,56743.9689599123,57908.7947444693,11631.6124363168
2507172696,13159,3,0,39596.8612307241,39354.9552501871,27805.4504320315,50283.1774685633,51676.0867300664,39003.0897934613,51507.8318183988,56739.8684460829,57892.2466767901,11636.8323782539
2507172696,13159,3,0,39576.6385186043,39350.5748793309,27806.2900031123,50282.5204129349,51664.7707720211,39006.7279348114,51506.8827380466,56737.4105713247,57889.1317464034,11635.8467948112
2507172696,13159,3,0,39586.3118375786,39353.7749835953,27809.4657719831,50287.0832992435,51679.7978775974,39005.8153575496,51508.8539049319,56742.1803084793,57908.2228627186,11635.4939316033
2507202692,13160,3,0,39579.6926105069,39346.5838747730,27807.0200649217,50278.5780791643,51667.0704667206,38997.8090130402,51502.3563548285,56735.5610814076,57892.4170245456,11634.8125405813
2507202692,13160,3,0,39562.1711270818,39345.7808067826,27809.2710888339,50277.3978125724,51655.1461238342,39002.8099364344,51503.0499135474,56733.0058650748,57881.3687558304,11634.9707206400
2507202692,13160,3,0,39583.2212425855,39357.5226342168,27810.1228276115,50282.5082452381,51678.9826419103,39003.5034951533,51507.4059490100,56736.4736586693,57901.8591572802,11632.8778767864
2507202692,13160,3,0,39598.2970189492,39353.5803004462,27803.7347867795,50278.6632530420,51679.9803930498,38995.8500138517,51504.1085031710,56735.3542305616,57899.0605870110,11632.0626410993
2507202692,13160,3,0,39571.5889244228,39344.9534033987,27805.3774258506,50277.1787940296,51656.4602350910,39000.4737386444,51504.8507326772,56730.3898102579,57882.6463639968,11638.4628496281
2507202692,13160,3,0,39565.2617220749,39351.4144504117,27809.6969582227,50283.0071208078,51669.5405091757,39003.2723089136,51509.0972588684,56734.2469701507,57896.0673335925,11638.9738928947
2507202692,13160,3,0,39589.7066249922,39356.6830631360,27807.6892882470,50283.2991455316,51689.9092336573,39002.4205701360,51508.2941908781,56736.4006524884,57902.3093620627,11634.2528265274
2507202692,13160,3,0,39583.8782982140,39354.4198715269,27807.1417418899,50278.9796131594,51679.0678157881,38997.2127958958,51504.9237388581,56731.4727352751,57883.4859350776,11635.6886147525
2507233831,13161,3,0,39571.6984336942,39355.7218150870,27806.3265062028,50280.6830907146,51678.5932756120,39001.0942911823,51506.4812040515,56732.1662939940,57889.3385972494,11635.2749130605
2507233831,13161,3,0,39587.5164395640,39358.2283606325,27803.6496129017,50284.4185736393,51689.2156749384,38999.7193414414,51508.3063585749,56736.3763170947,57907.3467885474,11632.7561998182
2507233831,13161,3,0,39578.9625486975,39347.5207874283,27800.0358069453,50279.4419856387,51665.6468461924,38997.6143298910,51505.7511422421,56732.2271324781,57892.5387015139,11635.1410683955
2507233831,13161,3,0,39560.1634571061,39344.0529938338,27804.8055440999,50279.7096749688,51650.4858959510,39001.8121852949,51507.0044150148,56731.7160892115,57885.4936050534,11636.3578380778
2507233831,13161,3,0,39583.0022240427,39354.9795855808,27807.6284497628,50282.5934191158,51675.8312084332,39001.9947007472,51508.4888740272,56735.6097521949,57902.6865606642,11632.8535413928
2507233831,13161,3,0,39597.6521310175,39356.1355167790,27805.7911275426,50278.0913712913,51678.2282447073,39000.2425524047,51507.6006321592,56735.5367460140,57896.2376813480,11633.9851371973
2507233831,13161,3,0,39571.9539553275,39352.9354125145,27809.3927658022,50279.2959732768,51661.6315062408,39005.1583019212,51510.4843763062,56734.7823488109,57886.3210084373,11640.8477182054
2507233831,13161,3,0,39571.1630550340,39358.1675221484,27810.0376537338,50284.9417846027,51676.4760963648,39005.8883637306,51513.1856050009,56738.7368502784,57902.6257221801,11638.7183712614
2507274643,13162,3,0,39593.2352570708,39359.7979935227,27804.6351963444,50282.0215373652,51687.2323403563,38999.0866212066,51511.5916367171,56737.6174221707,57905.0470938478,11632.9995537546
2507274643,13162,3,0,39584.4015091774,39353.6533066271,27802.3963401290,50280.4884075655,51668.1898948284,38999.4759875049,51510.7764010300,56733.5169083413,57884.1429907060,11634.9342175495
2507274643,13162,3,0,39581.3230818812,39358.2526960262,27806.8375494694,50286.1342188913,51670.8424527358,39008.5652570316,51515.4122935195,56738.6516764006,57894.9479054848,11638.1829926012
2507274643,13162,3,0,39597.6521310175,39363.4848056600,27807.5676112787,50288.3974105004,51688.3639361608,39005.9857053052,51516.4100446590,56743.1172211346,57909.4639677946,11638.9738928947
2507274643,13162,3,0,39579.1207287562,39354.1156791064,27805.8154629362,50281.9728665779,51672.1322285990,39004.4160724150,51512.9300833676,56736.0234538869,57892.5873723012,11639.4362653740
2507274643,13162,3,0,39559.4577306903,39353.8844928667,27812.3860192206,50281.6443387636,51670.0637201391,39012.2520691690,51514.6335609228,56737.1793850851,57892.2710121838,11640.4096811198
2507274643,13162,3,0,39585.2410802581,39362.6939053665,27816.8028931673,50283.8831949791,51696.9786655114,39010.4147469487,51515.4122935195,56740.9513711002,57911.0822714720,11637.3190861268
2507274643,13162,3,0,39594.6102068118,39357.0724294343,27810.1228276115,50278.7970977071,51687.6460420482,39000.4980740380,51511.0927611474,56736.5710002439,57897.9168235096,11635.9684717794
2507297418,13163,3,0,39566.3203116985,39346.6812163475,27802.6518617623,50276.7285892472,51661.2421399425,38994.9617719836,51508.2576877876,56730.4628164388,57881.9163021874,11637.2460799458
2507297418,13163,3,0,39561.5140714534,39347.3382719760,27795.5580945145,50275.8403473791,51670.3922479533,38991.0072705161,51505.6294652739,56731.8012630893,57896.8338984924,11630.2861573631
2507297418,13163,3,0,39572.7570233178,39347.5694582156,27791.8834500740,50271.0827779213,51678.1795739200,38991.7738354160,51502.3198517380,56732.0202816321,57897.5882956954,11627.2442331574
2507297418,13163,3,0,39565.2130512876,39347.8736506362,27798.1254785441,50272.6159077210,51669.0659689996,39007.9082014032,51505.7511422421,56734.1982993634,57883.4372642903,11634.7517020971
2507297418,13163,3,0,39577.4294188978,39361.1729432637,27809.0642379880,50285.1851385391,51687.0984956912,39018.2994144900,51517.6268143413,56742.9590410759,57900.8005676566,11636.6741981952
2507297418,13163,3,0,39604.1253457273,39368.8629276558,27811.8628082572,50291.7191917330,51701.7970734533,39011.2543180295,51522.6520731291,56747.5584304750,57911.8975071592,11635.5304346938
2507297418,13163,3,0,39583.0752302237,39357.9363359088,27807.5432758851,50287.5456717228,51675.8068730395,39006.7522702050,51519.1477764441,56739.0897134863,57891.2002548633,11636.4795150460
2507297418,13163,3,0,39566.5393302413,39359.0314286228,27808.9303933229,50288.9449568574,51674.7847865064,39008.1150522492,51520.0360183122,56739.1870550608,57894.9600731816,11636.6255274079
2507331226,13164,3,0,39591.7021272711,39365.0179354597,27807.8353006088,50287.7525225688,51698.9376646999,39002.9559487963,51518.0040129428,56740.7566879510,57909.7924956088,11634.4353419797
2507331226,13164,3,0,39598.8445653062,39359.8953350973,27803.9173022318,50282.4109036635,51692.0629159950,39000.1695462238,51515.7164859401,56735.6462552854,57897.2110970939,11639.1807437407
2507331226,13164,3,0,39574.1563084524,39352.4852077321,27803.0655634542,50279.3689794578,51668.9807951218,39002.6152532852,51513.7696544484,56731.4727352751,57887.2335856991,11642.4416864892
2507331226,13164,3,0,39579.5587658418,39357.3887895517,27805.5356059093,50284.6010890916,51679.8708837784,39005.0244572562,51516.3005353876,56735.0135350506,57907.0304284300,11641.3222583815
2507331226,13164,3,0,39591.2154193982,39357.6443111850,27804.6473640412,50284.9904553900,51677.8267107121,39005.1948050117,51516.4100446590,56734.3443117253,57902.0660081262,11640.6043642690
2507331226,13164,3,0,39578.2203191913,39356.5613861678,27807.2269157677,50288.0080442020,51662.3007295660,39007.0807980192,51516.4222123558,56732.7746788352,57885.4449342661,11643.9991516826
2507331226,13164,3,0,39584.5353538424,39360.5523907257,27808.0056483644,50287.8255287497,51675.0038050492,39008.6260955157,51517.0184295001,56736.4858263661,57896.7122215241,11642.8918912717
2507331226,13164,3,0,39599.7693102647,39357.2306094930,27805.9128045108,50281.8998603969,51683.1683296174,39001.3133097252,51512.6502263407,56732.4948218082,57901.7739834025,11640.7503766309
2507386475,13165,3,0,39571.6497629069,39344.5397017067,27807.0322326185,50275.5848257458,51654.9636083818,39001.1916327569,51506.8827380466,56728.5524880376,57881.8919667938,11643.0500713304
2507386475,13165,3,0,39556.1846202450,39348.3481908123,27809.6604551323,50281.2793078590,51656.1803780641,39013.0429694625,51512.3825370106,56732.5069895050,57892.9889062963,11640.3853457262
2507386475,13165,3,0,39590.1933328651,39363.0589362712,27814.2598445313,50289.0422984320,51686.5752847278,39017.5206818933,51518.7097393585,56742.4601655062,57917.4338092136,11636.5890243174
2507386475,13165,3,0,39595.3281009244,39360.0413474591,27812.1670006778,50282.2405559080,51675.2593266825,39009.1249710855,51515.3757904290,56737.8607761071,57901.1412631677,11637.8422970902
2507386475,13165,3,0,39570.8101918261,39353.7506482017,27809.6604551323,50275.1224532665,51660.9501152187,39003.9902030262,51510.5817178808,56731.3510583069,57889.6184542764,11638.2438310853
2507386475,13165,3,0,39573.4019112494,39352.3756984607,27803.9903084128,50272.2995476036,51671.8767069657,38999.7315091382,51507.3694459195,56728.2726310107,57900.9100769280,11635.9441363858
2507386475,13165,3,0,39571.3090673959,39345.9389868413,27800.1939870040,50265.4369665955,51664.6490950529,38996.7504234166,51500.3973556400,56719.6822370537,57889.8861436065,11634.0459756814
2507386475,13165,3,0,39554.1526148755,39344.0529938338,27803.7347867795,50266.1183576176,51651.2159577604,39005.8518606401,51500.4338587305,56716.8593313907,57877.6454406026,11636.0293102635
2507389929,13166,3,0,39572.3919924131,39355.6731442997,27810.3053430639,50273.8448451001,51672.4607564132,39007.5796735890,51505.4104467310,56722.5781488975,57897.5761279986,11632.3059950357
2507389929,13166,3,0,39594.5006975404,39354.5172131015,27809.0399025943,50272.7375846893,51679.5666913578,38999.6463352604,51505.7146391516,56725.7052469810,57900.4233690551,11629.3249093141
2507389929,13166,3,0,39571.3455704863,39345.0020741860,27806.2413323250,50270.6082377452,51654.4403974184,38997.8455161306,51502.6483795522,56723.5150615529,57881.0158926225,11633.7417832608
2507389929,13166,3,0,39562.7795119230,39350.7208916928,27809.8429705846,50277.2152971201,51662.1182141137,39006.0343760925,51509.2432712303,56729.4285622088,57892.5508692107,11637.4650984887
2507389929,13166,3,0,39591.0450716427,39360.0656828528,27811.6437897144,50281.3401463431,51685.6262043756,39004.6715940483,51513.3316173628,56732.8841881066,57907.5779747870,11637.8909678775
2507389929,13166,3,0,39586.9080547229,39353.5681327493,27812.1548329810,50275.0007762983,51671.5238437578,38997.8576838274,51509.9976684333,56724.7196635384,57888.5963677432,11642.3565126115
2507389929,13166,3,0,39565.4929083145,39344.6492109781,27810.6947093622,50270.3405484151,51659.0032837270,38995.8500138517,51505.7024714548,56718.8913367602,57884.5931954885,11641.4682707434
2507389929,13166,3,0,39573.5479236113,39343.8826460783,27804.7082025253,50268.3328784393,51669.2363167551,38992.8689281300,51502.0399947111,56718.2342811317,57898.6955561063,11636.6255274079
2507432654,13167,3,0,39565.7484299478,39338.1151577842,27800.3399993659,50263.1007688055,51656.7035890275,38988.5858988484,51498.3775179674,56713.5983886422,57886.4913561929,11638.1221541171
2507432654,13167,3,0,39547.1318538087,39339.9524800045,27803.6496129017,50266.5077239159,51644.2803705713,38997.1276220181,51502.2711809507,56713.5010470676,57879.6044397911,11642.6363696384
2507432654,13167,3,0,39572.0512969021,39353.8358220794,27809.5752812545,50274.4897330318,51671.2804898214,38998.3808947908,51506.6758872006,56720.7651620709,57899.7176426394,11643.9869839858
2507432654,13167,3,0,39591.1424132173,39351.1345933847,27806.5698601392,50270.9976040436,51676.5369348489,38992.1388663207,51505.1062543105,56718.4654673714,57892.8428939344,11640.0811533056
2507432654,13167,3,0,39565.2008835908,39339.1250766205,27805.1705750046,50267.8705059601,51652.3962243522,38993.7815053918,51502.4415287062,56713.1725192534,57870.5760087485,11638.7670420487
2507432654,13167,3,0,39559.9566062601,39345.1237511542,27809.9403121592,50275.4631487776,51663.7243500943,39002.5544148011,51510.6425563649,56720.5096404376,57886.0533191072,11637.2460799458
2507432654,13167,3,0,39585.9224712802,39352.5703816098,27813.7609689616,50278.8944392817,51680.3454239545,39000.7657633681,51514.0616791721,56724.5128126924,57897.5152895144,11636.2726642000
2507432654,13167,3,0,39582.0653113874,39349.4189481327,27812.9822363649,50277.0084462741,51665.4886661337,38998.0888700671,51510.3018608539,56721.0206837042,57878.4485085929,11639.6552839168
2507461684,13168,3,0,39573.4749174304,39351.0737549006,27814.7952231916,50278.6997561325,51662.9821205881,38995.8743492453,51511.4699597489,56719.9742617774,57882.2448300017,11638.9373898042
2507461684,13168,3,0,39590.0594882000,39354.8700763094,27811.0110694796,50278.7484269198,51678.6176110056,38989.1821159927,51511.2387735092,56722.0671056310,57899.9123257886,11634.9098821558
2507461684,13168,3,0,39577.0887233868,39344.5031986162,27804.8055440999,50271.9345166989,51663.6026731261,38986.2131979679,51506.6880548974,56717.1026853272,57883.6441151363,11636.4916827428
2507461684,13168,3,0,39558.1922902207,39345.5131174525,27808.5531947214,50276.7285892472,51656.3020550323,38995.1807905264,51510.3870347316,56719.3780446331,57878.3389993215,11641.1762460197
2507461684,13168,3,0,39584.8273785662,39357.7659881532,27810.8528894209,50283.3843194093,51683.1439942237,38996.5435725706,51515.8381629083,56727.8345939250,57899.1457608887,11638.6210296868
2507461684,13168,3,0,39601.7039740596,39359.2261117720,27811.4491065652,50282.4352390571,51685.6262043756,38997.5413237100,51515.1324364926,56727.3478860521,57896.4688675877,11638.4020111440
2507461684,13168,3,0,39578.3419961595,39354.5293807983,27815.4279434263,50282.7881022650,51667.3138206571,38998.7459256955,51516.4708831431,56729.7935931135,57882.7923763587,11640.2880041516
2507461684,13168,3,0,39577.3685804137,39361.9151727699,27818.9930785955,50289.4438324271,51681.0876534607,39004.0267061167,51522.0680236816,56737.6904283516,57900.3746982678,11638.6940358678
2507510024,13169,3,0,39594.1234989389,39364.0080166234,27818.2265136956,50288.9084537669,51692.0142452077,39004.1483830849,51520.5470615788,56738.9802042149,57905.0835969383,11636.8567136475
2507510024,13169,3,0,39583.6227765807,39357.5834727009,27818.3481906639,50285.3919893851,51675.9772207950,39007.7500213445,51517.3591250112,56732.5191572019,57887.9149767211,11639.1807437407
2507510024,13169,3,0,39583.5741057934,39363.0589362712,27821.5604626251,50288.8719506765,51681.4526843654,39012.4467523182,51520.4983907915,56735.2568889870,57895.7144703846,11640.4461842103
2507510024,13169,3,0,39607.5079654441,39365.9548481151,27819.5649603461,50288.3000689258,51694.5207907532,39004.9879541657,51520.1211921900,56737.6539252611,57909.3179554327,11637.6962847283
2507510024,13169,3,0,39590.1324943810,39355.1012625490,27816.7298869864,50280.5735814432,51670.8424527358,38995.3876413724,51515.6191443655,56729.9517731722,57890.2390068143,11639.5944454327
2507510024,13169,3,0,39563.3027228864,39354.3955361333,27817.1192532847,50280.0868735703,51659.8306871110,38999.6463352604,51517.1766095588,56729.7935931135,57886.2480022564,11639.0347313788
2507510024,13169,3,0,39585.2045771677,39358.6542300213,27814.3815214996,50282.4717421476,51680.5522748005,38998.2713855194,51518.9044225077,56733.7115914905,57902.9299146007,11631.9652995247
2507510024,13169,3,0,39601.6431355755,39355.4176226664,27811.4612742621,50283.0801269888,51678.6906171866,38996.8355972943,51519.3302918965,56734.1617962730,57893.7919742866,11636.2969995937
2507517446,13170,3,0,39580.1306475925,39349.4676189200,27810.8528894209,50285.3189832042,51658.7477620937,38996.3123863309,51519.1477764441,56732.5556602923,57877.8766268422,11640.2271656675
2507517446,13170,3,0,39580.4591754067,39354.6388900697,27811.7532989858,50289.3951616399,51673.2029859194,38994.9131011963,51522.6885762196,56737.3497328406,57893.8649804676,11638.4020111440
2507517446,13170,3,0,39588.6115322781,39352.8867417272,27807.6771205501,50280.9872831352,51677.0358104186,38992.0536924429,51515.9841752702,56733.3465605858,57891.6747950394,11636.8445459507
2507517446,13170,3,0,39572.5015016845,39347.2287627046,27808.3098407849,50273.0782802003,51658.1880480399,38998.1618762480,51510.9710841791,56728.6376619153,57875.0172180888,11639.7161224009
2507517446,13170,3,0,39574.8376994745,39354.6267223729,27814.4180245900,50274.9399378142,51669.2241490583,39001.0821234855,51512.4190401010,56730.2559655928,57888.1218275671,11638.3046695694
2507517446,13170,3,0,39593.5029464009,39357.7051496691,27813.9434844140,50274.8060931491,51684.3850992997,38993.7328346045,51510.1680161888,56728.8566804582,57898.5373760476,11637.2095768554
2507517446,13170,3,0,39569.9219499581,39345.4887820589,27806.9470587408,50266.9822640920,51658.7599297906,38987.9045078263,51503.3906090584,56721.7507455136,57876.4286709203,11640.6165319658
2507517446,13170,3,0,39547.4847170166,39340.4635232710,27805.7059536648,50266.5685624000,51649.3786355401,38989.9608485894,51502.0764978016,56718.4898027650,57875.2484043285,11639.2294145280
2507544623,13171,3,0,39572.3068185354,39345.4766143621,27801.9461353465,50268.4058846203,51666.6567650287,38985.8238316696,51502.7457211268,56719.9742617774,57891.5531180712,11634.0581433782
2507544623,13171,3,0,39582.4060068984,39342.0209884644,27800.9362165102,50266.0088483462,51658.8451036683,38987.5394769216,51499.9958216448,56717.5893932001,57878.2903285342,11632.4763427912
2507544623,13171,3,0,39563.8502692434,39338.5896979603,27803.7226190827,50266.2522022826,51641.9928435686,38989.6201530783,51499.3509337132,56716.2752819432,57867.8017738728,11633.3645846593
2507544623,13171,3,0,39570.6520117674,39342.1791685231,27804.3918424079,50268.7587478281,51654.8419314136,38987.9045078263,51503.0499135474,56721.3735469121,57884.1186553124,11631.9044610406
2507544623,13171,3,0,39574.9593764428,39339.2589212856,27802.2259923735,50266.3860469477,51655.8883533404,38990.0825255576,51503.6704660854,56720.9233421296,57882.8653825396,11634.0824787719
2507544623,13171,3,0,39558.7155011841,39335.5356060577,27806.1074876600,50266.4955562191,51643.0514331922,38993.3678036998,51505.1305897041,56722.2982918706,57870.1744747533,11639.0590667725
2507544623,13171,3,0,39569.7272668089,39343.7122983227,27808.1638284231,50270.7664178039,51657.9325264066,38987.5029738311,51509.3892835921,56724.9021789907,57884.5201893075,11636.8445459507
2507544623,13171,3,0,39592.8215553788,39345.6469621176,27802.7127002464,50269.9390144200,51669.6986892344,38976.5398789937,51506.5298748387,56725.3888868636,57886.1749960755,11633.5349324148
2507632434,13172,3,0,39572.1364707798,39334.5135195246,27799.0745588963,50265.6559851383,51646.5070590899,38975.2744385241,51501.1395851462,56718.1126041635,57863.0320367182,11634.6665282194
2507632434,13172,3,0,39557.5230668955,39338.1638285715,27802.1408184957,50275.2076271443,51649.2326231782,38984.0960187207,51508.5740479050,56724.1234463940,57869.7607730613,11634.4353419797
2507632434,13172,3,0,39587.4799364736,39350.3193576976,27804.8785502809,50280.9994508320,51676.5734379394,38987.8193339485,51515.0594303116,56731.2780521259,57887.6472873910,11629.8967910648
2507632434,13172,3,0,39589.3780971779,39346.8880671935,27804.1606561683,50275.3658072030,51666.7054358160,38983.6944847255,51511.4212889616,56726.8490104824,57871.5129214038,11631.8071194660
2507632434,13172,3,0,39569.9219499581,39344.8195587336,27807.5432758851,50274.8304285428,51654.6107451740,38985.2762853125,51513.4289589374,56729.8057608103,57870.8558657754,11633.4740939307
2507632434,13172,3,0,39578.9017102134,39351.2197672625,27807.2025803740,50277.4343156629,51669.8812046867,38986.1645271806,51518.2838699697,56735.8531061314,57894.4246945214,11631.5029270454
2507632434,13172,3,0,39579.0598902721,39349.0295818344,27803.9659730191,50274.3923914572,51664.3570703291,38979.9346664073,51516.2640322971,56736.2181370360,57888.3286784131,11633.6566093831
2507632434,13172,3,0,39555.1868691055,39345.2089250320,27802.5180170972,50271.0827779213,51645.0226000775,38985.5561423394,51513.9765052944,56731.6430830306,57872.4741694528,11634.4110065861
2507641186,13173,3,0,39570.7736887357,39352.9597479082,27807.8839713961,50276.3027198584,51667.9465408919,38987.5029738311,51517.6268143413,56736.6561741217,57888.0123182957,11628.4001643556
2507641186,13173,3,0,39592.5416983519,39352.6312200940,27804.7690410095,50273.2607956526,51676.8411272695,38976.0896742112,51514.0616791721,56734.9648642633,57887.4647719387,11623.0342100566
2507641186,13173,3,0,39565.5537467986,39341.4734421073,27803.4914328430,50268.5153938917,51650.7170821906,38977.5254624363,51509.9733330396,56728.2482956170,57865.8306069875,11625.6015940863
2507641186,13173,3,0,39550.0886041367,39345.1724219415,27804.8177117967,50273.1026155939,51653.5278201567,38981.6746470529,51512.5285493725,56729.1730405756,57875.5282613554,11628.2663196905
2507641186,13173,3,0,39574.5335070540,39353.1665987542,27804.0024761096,50276.0958690124,51672.9109611957,38981.6381439625,51513.8426606293,56731.1442074609,57888.7423801051,11629.8237848838
2507641186,13173,3,0,39574.1563084524,39348.1778430568,27801.1674027499,50270.6325731389,51657.8838556193,38977.2821084999,51507.8561537924,56725.3037129859,57871.4034121324,11634.2893296179
2507641186,13173,3,0,39559.2630475412,39344.9899064892,27802.5666878845,50267.9070090505,51647.1519470215,38976.6980590523,51505.7024714548,56722.4808073229,57866.3173148604,11633.8269571386
2507641186,13173,3,0,39570.7736887357,39348.2386815409,27802.2016569798,50267.2377857253,51658.6747559128,38973.6074640593,51505.5564590929,56723.7705831862,57879.7869552434,11627.1955623701
2507648622,13174,3,0,39565.9674484906,39343.3229320244,27802.9925572733,50263.4049612261,51645.9230096424,38974.5443767147,51501.6871315032,56721.7629132104,57868.4588295013,11627.5362578811
2507648622,13174,3,0,39545.6717301899,39343.0795780880,27810.3540138512,50265.8385005906,51636.6998954506,38983.3172861240,51504.9359065549,56723.3568814942,57862.8373535691,11630.6146851773
2507648622,13174,3,0,39568.0602923442,39354.4320392238,27813.5784535093,50274.9521055110,51664.9289520798,38987.5273092248,51510.4113701253,56730.3289717737,57886.0533191072,11630.8215360233
2507648622,13174,3,0,39590.2906744397,39355.4297903632,27812.2035037683,50276.0471982251,51675.6243575872,38984.9477574983,51510.2896931570,56730.8643504339,57889.1074110098,11634.6421928257
2507648622,13174,3,0,39566.7948518746,39345.9754899318,27809.8429705846,50274.4532299413,51656.3385581228,38982.3682057718,51510.7520656363,56728.6741650058,57870.6490149294,11641.2127491101
2507648622,13174,3,0,39555.2842106801,39349.5041220105,27808.9060579293,50278.9796131594,51662.0817110232,38987.8071662517,51515.3636227322,56732.2271324781,57880.3223339036,11639.8377993691
2507648622,13174,3,0,39571.5889244228,39354.8335732189,27806.9470587408,50279.0282839467,51675.9650530982,38984.3272049603,51515.4244612163,56733.1032066494,57889.1074110098,11635.5426023906
2507648622,13174,3,0,39562.1711270818,39349.8204821279,27804.4891839825,50270.7055793198,51657.7986817416,38980.0685110723,51509.9611653428,56726.7029981205,57867.2055567285,11635.3479192415
2507666128,13175,3,0,39551.2323676380,39351.2197672625,27806.0588168727,50269.5253127280,51652.9681061029,38982.2465288036,51509.1215942620,56726.2771287317,57867.8626123569,11636.4795150460
2507666128,13175,3,0,39568.9241988186,39355.4906288474,27805.6329474839,50270.6447408357,51667.7031869554,38981.2974484514,51509.2919420176,56730.4993195293,57883.2912519284,11634.0581433782
2507666128,13175,3,0,39561.5627422407,39347.4112781569,27803.4305943589,50267.3837980872,51652.4205597458,38983.8161616938,51504.8994034645,56726.0337747952,57869.0063758583,11636.7350366793
2507666128,13175,3,0,39540.1962666196,39345.6956329049,27806.7645432884,50267.9313444442,51638.0748451916,38985.0207636792,51504.1450062615,56723.3568814942,57862.7156766008,11637.9031355743
2507666128,13175,3,0,39561.2585498201,39351.0007487197,27806.9348910439,50268.1625306838,51657.3484769591,38978.8882444805,51502.0034916206,56723.0161859831,57878.6066886516,11629.7629463997
2507666128,13175,3,0,39580.2279891671,39348.6888863233,27802.6883648527,50265.3882958082,51657.0929553258,38972.5123713453,51497.6231207644,56719.8525848092,57875.0537211793,11626.1126373529
2507666128,13175,3,0,39555.2477075896,39339.1250766205,27802.8952156987,50264.2323646100,51633.5849650639,38970.6872168218,51496.1021586615,56718.1977780413,57859.8562678474,11625.6380971768
2507666128,13175,3,0,39548.0444310704,39343.2499258435,27803.4427620558,50269.4401388502,51645.9838481265,38974.7633952575,51503.3176028775,56725.9729363111,57875.3579135999,11623.1802224185
2507704958,13176,3,0,39560.8448481281,39345.6104590271,27800.6320240897,50269.4036357598,51658.8694390620,38972.8530668563,51503.6217952981,56730.2437978960,57883.0235625983,11622.2554774600
2507704958,13176,3,0,39551.9015909633,39343.5176151736,27800.5225148182,50270.7055793198,51647.2492885961,38977.6958101918,51503.5001183298,56727.2992152648,57867.3272336967,11626.3803266830
2507704958,13176,3,0,39555.7344154625,39351.2684380498,27803.5766067208,50278.4077314087,51654.7445898390,38980.2996973119,51510.0098361301,56729.0270282137,57873.9099576779,11628.7165244730
2507704958,13176,3,0,39581.0067217638,39355.1621010331,27801.7271168037,50279.4784887292,51673.0204704671,38973.2302654578,51512.6258909470,56731.5944122433,57884.7513755472,11629.7629463997
2507704958,13176,3,0,39570.4329932246,39349.0174141375,27803.5522713272,50274.6722484841,51654.4769005089,38974.9337430130,51509.2067681398,56727.5304015045,57867.3028983031,11639.2415822248
2507704958,13176,3,0,39546.0732641851,39347.0462472522,27810.8163863305,50274.3437206699,51646.8599222977,38974.9702461035,51509.1824327462,56726.2771287317,57864.5651665179,11643.0622390272
2507704958,13176,3,0,39563.2297167054,39352.6677231844,27808.3706792690,50272.5063984496,51667.0704667206,38966.8300569289,51506.7488933816,56725.7295823747,57879.8112906371,11635.3235838478
2507704958,13176,3,0,39571.6010921196,39348.0683337854,27802.2259923735,50264.5243893338,51662.2155556883,38962.2184998330,51500.3973556400,56718.4898027650,57866.4633272223,11632.8048706055
2507745446,13177,3,0,39551.0498521857,39341.4612744105,27801.4837628673,50262.1516884533,51640.3867075879,38968.0589943081,51500.2756786718,56715.2410277133,57852.5313143600,11633.1455661165
2507745446,13177,3,0,39557.7055823478,39349.0782526217,27804.0389792001,50272.4942307528,51657.3241415655,38975.6881402160,51508.8295695383,56725.6930792842,57872.8757034480,11628.6191828984
2507745446,13177,3,0,39569.3865712979,39351.8038167100,27802.5301847940,50273.6136588605,51663.4688284611,38973.3032716387,51509.3649481985,56728.8080096709,57873.2529020495,11626.6236806194
2507745446,13177,3,0,39555.3937199515,39348.7618925043,27803.8807991414,50273.6014911637,51647.1884501120,38971.3199370566,51508.7443956605,56726.9585197538,57853.7480840423,11634.0459756814
2507745446,13177,3,0,39557.4743961082,39350.9642456292,27804.6473640412,50276.6920861567,51656.3020550323,38975.4691216732,51510.2166869761,56728.4916495535,57863.9932847672,11630.0428034267
2507745446,13177,3,0,39581.9923052064,39353.3369465097,27803.4792651462,50277.3856448756,51673.5071783400,38972.3298558929,51511.0440903601,56731.2902198228,57879.2759119769,11626.6115129226
2507745446,13177,3,0,39566.3203116985,39346.2310115651,27802.6396940654,50271.4113057355,51651.8730133888,38970.1518381616,51508.9512465065,56726.8003396951,57862.9590305373,11629.9454618521
2507745446,13177,3,0,39542.2039365954,39344.5762047972,27806.1561584473,50271.1071133150,51643.1609424636,38967.2559263177,51509.4866251667,56727.2018736902,57862.3384779993,11631.6611071041
2507776309,13178,3,0,39563.1445428277,39352.7285616685,27805.6086120902,50274.6600807873,51663.6878470039,38968.7890561174,51512.3703693138,56730.8278473435,57879.7139490625,11629.6899402188
2507776309,13178,3,0,39572.3554893226,39349.1390911058,27802.9682218797,50269.2576233979,51654.5864097803,38965.4916102784,51508.4645386336,56725.8999301302,57868.3249848362,11631.5881009232
2507776309,13178,3,0,39551.0376844889,39340.0741569727,27801.5324336545,50264.9745941162,51636.0063367317,38967.5601187383,51505.2887697628,56723.0040182863,57857.8851009621,11633.9121310164
2507776309,13178,3,0,39559.2752152380,39344.5153663131,27800.6076886960,50267.5906489331,51651.2889639413,38967.2802617114,51507.5762967655,56725.1333652303,57873.6544360447,11630.8702068106
2507776309,13178,3,0,39563.4852383387,39341.0840758090,27795.6311006954,50263.2711165610,51651.7391687237,38957.6434458276,51504.1085031710,56722.4564719293,57867.2420598190,11626.9278730400
2507776309,13178,3,0,39541.2426885464,39336.2413324735,27794.1831447735,50259.0245903698,51636.7850693283,38959.4320972606,51499.8741446766,56718.8061628824,57849.1730300369,11629.8967910648
2507776309,13178,3,0,39555.3693845578,39346.6690486507,27800.7050302706,50266.8240840333,51656.4480673942,38965.9053119704,51505.7511422421,56726.0337747952,57863.2632229579,11631.5515978327
2507776309,13178,3,0,39584.5231861456,39348.0439983917,27800.5955209992,50267.6149843268,51666.9974605397,38963.5204433931,51507.0652534990,56725.8634270397,57871.5737598879,11627.9742949668
2507803020,13179,3,0,39566.5758333317,39336.9835619797,27800.8753780261,50266.6659039746,51639.6688134754,38965.7714673053,51505.1549250978,56722.4199688388,57851.3997185555,11630.5781820869
2507803020,13179,3,0,39550.8064982492,39339.6726229775,27806.4846862615,50276.8259308218,51637.6368081059,38974.6903890766,51514.6700640133,56728.1996248297,57862.1316271533,11633.8512925322
2507803020,13179,3,0,39573.1585573130,39348.3846939028,27806.5576924424,50279.1621286118,51660.4390719521,38970.9184030614,51516.3613738717,56731.0468658863,57880.0789799672,11632.5006781849
2507803020,13179,3,0,39574.4239977825,39346.4987008952,27804.5986932539,50273.2729633495,51652.7734229537,38972.1351727437,51512.2000215582,56728.7228357931,57866.4754949191,11633.6201062926
2507803020,13179,3,0,39557.4013899273,39347.0340795554,27808.9303933229,50274.9886086015,51646.8112515104,38973.9968303577,51514.5970578324,56727.3600537489,57860.0266156030,11635.3965900288
2507803020,13179,3,0,39567.8047707109,39350.8425686610,27809.2102503498,50274.9399378142,51662.7265989549,38969.1905901126,51516.1301876321,56732.2393001749,57875.6377706268,11627.2077300669
2507803020,13179,3,0,39564.8966911702,39344.2841800734,27803.6374452049,50267.8705059601,51654.4647328121,38966.8665600194,51510.1436807952,56729.3433883311,57867.2298921221,11627.2807362479
2507803020,13179,3,0,39543.5667186396,39340.4391878774,27804.5743578603,50266.8605871238,51635.0815917731,38977.5863009204,51509.7543144968,56728.6498296122,57855.6219093531,11631.1257284439
2507826607,13180,3,0,39561.2950529106,39352.6555554876,27807.8596360025,50274.7939254523,51653.1262861616,38981.1392683927,51513.0882634263,56733.8089330651,57874.2263177953,11632.1356472802
2507826607,13180,3,0,39592.0184873885,39358.0823482706,27807.9204744866,50275.1954594475,51663.6270085198,38971.2712662693,51512.2486923455,56735.3177274711,57877.2317389106,11633.9729695005
2507826607,13180,3,0,39572.8908679829,39347.3139365823,27806.4238477774,50269.6348219994,51638.3425345217,38966.2703428751,51508.7687310542,56728.1144509520,57855.3907231134,11638.8522159265
2507826607,13180,3,0,39554.6514904453,39344.8195587336,27804.3553393175,50267.7366612950,51633.1104248878,38961.7196242633,51504.3761925011,56721.3978823057,57855.4028908102,11637.0027260094
2507826607,13180,3,0,39568.7781864567,39345.5252851494,27798.2958262996,50263.9038367958,51647.2249532024,38956.2806637835,51500.1661694003,56717.1026853272,57860.8905220774,11631.9652995247
2507826607,13180,3,0,39562.4388164120,39336.8132142241,27794.1101385926,50254.4130332739,51635.3492811032,38955.3559188249,51491.9286386512,56707.4415340498,57836.7498115807,11633.9364664100
2507826607,13180,3,0,39548.2999527037,39332.9195512408,27795.8987900255,50251.4076121586,51631.4069473326,38960.6610346397,51489.7506209199,56705.9327396437,57835.3991972333,11633.7904540481
2507826607,13180,3,0,39566.4419886667,39339.1250766205,27797.3954167347,50254.9119088436,51651.7635041174,38959.6997865907,51494.8367181919,56711.4082032141,57856.4493127370,11631.5272624391
2507866578,13181,3,0,39560.1147863188,39330.3399995143,27791.9564562549,50248.3778556497,51640.3380368006,38954.8935463456,51490.7605397562,56706.5654598785,57846.0459319534,11628.1203073286
2507866578,13181,3,0,39540.0867573482,39330.5225149667,27798.9772173217,50253.9384930978,51631.7354751468,38967.8399757652,51497.5257791898,56712.7588175614,57842.5659706620,11635.4330931192
2507866578,13181,3,0,39561.1855436392,39344.1746708020,27805.7302890585,50263.6604828593,51661.6436739376,38973.1937623673,51504.5830433471,56722.5903165943,57867.5827553300,11637.5502723664
2507866578,13181,3,0,39584.2554968155,39347.3261042792,27803.8564637477,50260.8132418028,51670.0637201391,38967.1220816527,51503.3541059680,56723.8070862766,57870.9653750468,11635.8711302049
2507866578,13181,3,0,39562.7065057421,39339.4292690411,27803.0412280606,50257.7104791129,51646.8234192073,38965.9539827577,51500.9935727843,56720.3392926821,57852.4218050886,11636.0901487477
2507866578,13181,3,0,39553.0331867678,39342.2278393103,27801.5567690482,50262.5653901453,51651.1916223667,38969.7624718633,51505.5077883056,56725.8390916461,57865.1127128750,11635.8224594176
2507866578,13181,3,0,39572.5866755623,39349.5162897073,27801.0335580848,50269.6591573930,51668.3237394934,38973.7534764212,51508.5862156018,56731.9107723607,57877.6211052089,11637.8666324838
2507866578,13181,3,0,39568.2063047060,39346.5230362888,27802.6396940654,50268.4910584980,51654.0266957264,38971.8066449295,51507.7709799147,56728.4551464630,57861.9856147915,11643.5611145970
2507887662,13182,3,0,39562.1346239914,39346.6082101666,27806.8983879535,50269.0872756424,51650.7535852811,38975.0797553749,51509.3649481985,56728.3091341011,57865.4169052955,11646.0433247488
2507887662,13182,3,0,39581.4325911526,39348.6767186265,27806.5941955329,50268.0651891092,51665.7928585542,38971.5389555994,51507.3937813132,56728.6741650058,57883.3277550189,11640.2880041516
2507887662,13182,3,0,39570.5790055865,39338.6140333539,27802.7857064273,50260.8010741059,51644.2803705713,38966.1243305132,51499.3631014100,56720.9720129169,57866.6823457651,11638.5966942932
2507887662,13182,3,0,39543.1408492508,39339.6361198871,27805.5234382125,50264.1471907323,51625.6637944322,38974.1306750227,51499.7281323147,56722.9188444086,57859.8684355443,11640.2271656675
2507887662,13182,3,0,39561.5749099375,39352.1201768274,27806.8253817725,50271.0706102245,51647.3222947770,38976.0410034239,51504.3031863201,56726.7029981205,57882.0866499430,11636.8932167380
2507887662,13182,3,0,39580.0819768052,39351.6456366513,27803.0168926669,50267.8461705664,51648.6485737307,38972.8652345531,51502.0156593174,56723.9652663353,57876.8910433996,11634.9707206400
2507887662,13182,3,0,39557.6082407732,39346.4378624111,27803.3454204812,50266.1183576176,51625.0554095910,38977.8783256442,51500.2878463686,56718.8183305792,57861.1338760139,11637.8179616965
2507887662,13182,3,0,39553.2522053106,39350.0395006707,27806.3873446869,50271.0706102245,51634.2420206923,38975.8584879716,51504.9967450391,56722.1887825992,57877.0857265487,11639.6066131295
2507918778,13183,3,0,39566.4176532731,39350.2341838198,27806.0588168727,50270.0850267818,51641.9563404781,38971.6484648708,51502.8552303982,56718.4654673714,57880.2249923291,11640.1541594865
2507918778,13183,3,0,39554.5054780834,39346.3283531397,27809.3927658022,50267.1526118475,51626.7832225399,38976.1870157858,51500.3000140654,56714.6204751753,57862.7765150850,11643.4029345383
2507918778,13183,3,0,39555.0165213500,39352.3513630670,27812.3008453429,50269.8416728454,51634.2906914796,38975.6151340351,51502.8430627014,56715.4235431656,57871.8901200053,11642.4538541861
2507918778,13183,3,0,39574.7768609904,39352.9597479082,27805.7302890585,50265.2301157495,51650.2182066209,38968.6673791492,51499.4482752878,56711.4447063045,57882.5125193318,11632.7683675150
2507918778,13183,3,0,39561.1125374582,39341.6072867724,27798.1133108473,50259.8884968442,51629.9346560170,38965.8931442736,51492.4883527051,56704.9228208074,57862.2168010311,11631.7341132851
2507918778,13183,3,0,39532.7618038608,39338.2124993588,27796.6531872285,50259.3652858808,51617.1464066561,38968.5943729683,51491.2715830228,56701.8808966017,57853.6872455582,11631.5394301359
2507918778,13183,3,0,39552.9358451932,39347.9223214235,27795.7527776637,50261.6406451867,51641.5183033925,38966.9639015940,51490.4441796388,56707.1981801133,57868.7995250123,11629.7021079156
2507918778,13183,3,0,39566.2838086080,39344.5762047972,27790.7153511790,50256.3355293719,51640.6178938276,38963.3135925471,51485.2607407922,56702.5379522301,57857.2037099400,11628.9842138031
2507980565,13184,3,0,39545.8664133391,39338.7235426253,27792.8933689103,50254.0236669756,51621.2590881823,38968.5578698778,51483.4477539656,56699.8975620196,57843.5758894983,11632.1234795834
2507980565,13184,3,0,39546.2557796374,39342.0453238580,27794.7306911305,50258.7690687365,51631.7111397532,38968.3145159413,51486.7817028951,56702.7082999857,57863.0198690214,11630.5538466932
2507980565,13184,3,0,39553.1670314329,39339.4536044347,27792.1389717072,50254.4860394548,51632.1735122324,38961.0260655444,51482.2674873738,56699.4108541466,57864.7476819703,11631.3204115931
2507980565,13184,3,0,39530.4499414644,39329.7316146732,27788.2939795112,50248.0249924419,51609.1278944498,38962.2428352267,51475.8186080576,56691.0029756420,57848.0414342324,11631.1378961407
2507980565,13184,3,0,39530.9609847310,39333.8807992898,27790.5693388171,50250.0326624176,51618.1319900988,38966.9030631099,51476.9745392558,56690.9664725515,57862.3628133930,11630.7850329329
2507980565,13184,3,0,39559.6645815363,39340.1714985473,27791.7252700153,50252.3080217235,51636.9067462966,38967.6696280097,51479.9921280679,56694.7749616571,57877.8887945390,11630.7120267519
2507980565,13184,3,0,39545.1120161361,39335.1097366689,27792.5770087929,50252.0768354839,51618.8863873018,38970.6872168218,51480.4666682440,56692.8646332559,57866.4754949191,11637.6841170315
2507980565,13184,3,0,39520.2047407395,39335.8397984783,27795.7649453605,50254.8145672691,51610.5150118876,38976.6128851746,51484.0318034131,56696.0769052172,57867.8869477506,11640.7503766309
2507990389,13185,3,0,39541.5590486638,39341.7654668311,27795.5337591208,50257.7104791129,51633.9986667559,38974.1185073259,51486.0029702984,56699.8002204450,57885.7734620803,11641.0545690514
2507990389,13185,3,0,39552.7168266504,39339.0885735300,27792.1146363136,50253.4152821344,51631.5286243008,38970.8453968805,51482.1093073151,56697.0868240535,57873.0582189003,11640.8233828118
2507990389,13185,3,0,39541.4373716956,39338.8817226840,27797.0182181332,50257.3089451178,51621.7092929647,38977.6106363141,51484.8470391003,56698.9728170610,57863.9324462831,11644.1208286508
2507990389,13185,3,0,39553.1791991297,39347.5086197315,27800.3765024564,50263.7213213435,51643.1974455540,38977.4159531649,51490.3468380642,56706.2612674580,57882.5976932095,11639.3632591930
2507990389,13185,3,0,39557.3283837463,39344.3571862544,27797.6266029744,50259.0489257634,51642.7229053779,38969.1784224158,51486.6600259269,56704.3874421472,57878.0348069009,11634.9463852463
2507990389,13185,3,0,39536.5337898759,39340.0498215790,27799.8289560993,50257.1142619686,51627.4524458651,38977.4889593458,51486.2463242349,56702.7813061666,57860.5133234759,11639.4119299803
2507990389,13185,3,0,39549.1638591781,39352.8502386368,27806.8253817725,50265.7289913192,51645.3267924980,38985.6048131267,51493.7051223874,56708.1472604655,57879.1664027055,11641.0180659610
2507990389,13185,3,0,39579.8751259592,39358.7515715959,27807.2634188582,50268.8439217059,51661.7166801186,38982.6602304956,51495.1652460061,56712.7466498646,57887.4526042419,11641.4317676529
2508066778,13186,3,0,39562.9620273753,39349.8569852183,27802.7492033368,50264.5487247274,51636.5295476951,38970.9914092424,51492.2084956781,56707.5145402307,57868.6535126504,11642.7580466066
2508066778,13186,3,0,39540.3909497688,39347.2165950078,27801.1674027499,50266.2522022826,51630.1050037725,38973.4614516974,51494.9218920697,56708.6339683384,57872.6810202988,11643.2569221764
2508066778,13186,3,0,39561.3437236979,39355.6974796933,27804.2214946524,50269.9390144200,51651.0334423080,38973.9968303577,51500.8353927256,56713.7078979136,57891.9059812791,11643.6219530811
2508066778,13186,3,0,39565.9674484906,39351.5726304704,27802.3841724322,50265.8871713779,51643.5868118524,38971.4537817217,51498.7912196594,56710.4956259523,57880.4318431750,11646.9315666169
2508066778,13186,3,0,39552.8628390123,39348.7862278979,27805.3530904570,50267.4324688744,51635.2032687414,38982.6967335861,51501.6019576255,56710.7633152824,57876.3800001330,11647.2235913407
2508066778,13186,3,0,39565.5537467986,39356.0381752044,27807.1295741931,50271.0827779213,51655.2069623183,38977.1969346221,51504.4248632884,56714.5353012976,57895.9578243211,11641.3344260784
2508066778,13186,3,0,39559.4455629935,39346.7542225285,27796.9938827396,50261.8596637295,51643.3434579159,38967.4627771637,51495.9196432091,56706.9913292673,57881.9406375811,11633.9242987132
2508066778,13186,3,0,39533.5162010638,39341.8141376184,27795.2539020939,50258.6717271619,51624.6052048086,38970.6263783377,51493.2427499081,56703.5965418537,57865.6967623225,11636.0171425667
2508096790,13187,3,0,39547.2048599896,39351.3536119276,27798.2349878155,50262.2125269374,51642.3700421701,38974.8485691353,51494.6420350427,56707.0886708419,57881.0280603194,11633.4862616276
2508096790,13187,3,0,39578.1594807072,39355.5149642410,27796.0691377810,50262.9669241404,51659.1979668762,38970.1031673743,51493.6077808128,56708.4271174924,57883.8509659823,11634.4110065861
2508096790,13187,3,0,39556.0872786704,39344.6857140686,27791.8226115898,50255.7879830149,51634.7773993526,38966.2703428751,51487.4995970077,56700.7249654035,57858.0311133240,11638.3290049631
2508096790,13187,3,0,39538.4076151866,39342.8727272420,27788.0506255747,50256.7127279734,51627.6836321048,38967.0490754718,51486.7451998046,56697.6708735010,57862.5939996326,11636.1996580191
2508096790,13187,3,0,39554.5906519612,39345.0872480637,27783.2443853297,50257.4671251765,51637.1866033235,38961.8413012315,51484.4090020146,56696.3080914568,57871.9266230958,11630.6511882678
2508096790,13187,3,0,39551.9259263569,39340.5000263615,27782.1979634029,50251.8578169411,51620.7237095221,38957.8867997641,51479.3959109236,56690.6744478278,57854.8188413627,11630.7363621456
2508096790,13187,3,0,39539.9042418959,39339.6239521902,27784.4733227088,50251.4076121586,51615.1630720740,38960.0161467081,51480.6126806059,56689.7983736565,57853.1275315044,11632.2451565516
2508096790,13187,3,0,39556.9146820543,39345.6104590271,27784.3516457406,50252.9407419583,51636.8337401156,38957.6799489181,51482.6811890658,56694.6046139016,57873.1312250813,11631.8801256469
2508102598,13188,3,0,39548.1174372513,39335.8154630847,27778.6693313242,50244.2408387299,51626.6372101780,38951.1945665115,51476.2323097496,56688.3990885219,57860.2578018426,11630.5660143900
2508102598,13188,3,0,39518.9271325731,39331.3377506538,27782.5143235203,50244.3746833950,51614.0436439663,38962.2063321362,51476.6460114416,56689.0196410599,57851.4240539491,11632.5250135785
2508102598,13188,3,0,39536.9231561742,39343.4811120831,27788.4399918731,50253.9993315819,51639.7174842627,38969.7989749537,51484.8227037066,56698.5104445817,57874.9320442111,11632.8170383023
2508102598,13188,3,0,39562.7551765293,39345.7808067826,27786.3228126259,50256.4693740370,51647.5899841071,38967.0490754718,51483.6181017211,56699.2161709975,57875.9054599569,11632.7561998182
2508102598,13188,3,0,39546.9128352659,39340.3783493933,27786.7121789242,50254.3035240025,51626.3208500606,38967.4506094669,51483.4234185720,56696.6122838774,57859.0045290698,11637.9761417552
2508102598,13188,3,0,39534.6112937779,39343.3107643276,27787.3570668558,50257.6009698415,51627.8783152539,38963.6907911486,51485.7839517556,56700.5181145575,57867.4124075745,11636.2239934127
2508102598,13188,3,0,39546.7303198135,39346.5473716825,27785.4345707578,50257.2724420273,51639.7539873531,38961.1964132999,51488.4243419662,56700.9804870368,57876.4530063139,11634.3380004052
2508102598,13188,3,0,39534.9398215921,39343.1890873594,27784.9843659753,50253.9628284915,51627.4037750779,38963.4596049090,51487.3170815553,56698.7416308214,57859.6494170015,11639.5336069486
2508111791,13189,3,0,39529.4278549313,39346.4743655016,27790.3868233647,50257.1142619686,51629.8373144424,38970.6872168218,51491.9408063480,56699.9949035941,57861.9977824883,11642.2591710369
2508111791,13189,3,0,39551.3662123031,39350.3923638785,27788.2331410271,50258.8907457047,51646.9207607819,38964.1409959311,51493.1089052430,56702.1364182350,57879.4827628228,11638.5723588995
2508111791,13189,3,0,39541.4008686051,39336.1561585957,27780.0564487621,50248.2318432878,51623.2667581581,38954.8570432552,51484.4698404988,56694.6046139016,57859.0410321603,11637.3434215204
2508111791,13189,3,0,39512.4904209538,39329.6707761891,27780.7135043905,50248.4630295275,51606.8281997503,38960.7827116079,51483.2165677260,56694.9331417158,57852.1419480617,11640.0689856088
2508111791,13189,3,0,39529.6590411709,39338.9790642586,27783.9257763518,50255.3742813229,51632.2343507166,38962.1819967426,51488.2174911202,56701.6132072716,57874.2263177953,11637.3312538236
2508111791,13189,3,0,39548.5433066402,39342.2035039167,27781.7112555300,50252.9407419583,51639.6566457786,38957.4852657689,51485.9542995112,56700.8953131590,57870.0041269978,11638.6331973837
2508111791,13189,3,0,39529.8780597138,39337.7866299700,27782.7090066695,50251.7969784570,51623.7169629405,38962.0116489871,51486.2706596285,56701.1386670955,57855.1960399643,11643.7071269588
2508111791,13189,3,0,39524.3660930530,39342.0209884644,27785.7387631784,50256.2746908878,51633.8161513035,38965.0292377991,51489.8114594040,56703.7060511251,57868.9577050710,11641.4804384402
2508145705,13190,3,0,39536.1444235776,39343.3107643276,27783.4999069629,50256.7248956703,51643.0270977985,38962.0238166839,51489.5316023771,56702.5136168365,57873.3259082304,11640.4340165135
2508145705,13190,3,0,39520.9226348521,39340.7920510852,27784.1326271977,50255.0944242960,51626.2113407892,38967.2194232273,51490.1643226119,56700.0314066846,57856.2546295878,11643.7679654429
2508145705,13190,3,0,39522.3584230772,39348.9200725630,27790.1921402156,50259.8884968442,51636.6633923601,38967.6331249193,51495.7127923631,56704.8984854138,57862.0829563660,11644.7900519761
2508145705,13190,3,0,39550.8795044302,39353.3977849938,27790.1313017315,50256.8830757290,51655.7301732817,38962.0359843807,51493.0237313653,56704.8619823233,57872.4254986655,11635.4452608160
2508145705,13190,3,0,39539.6000494753,39343.5419505672,27786.4444895941,50247.2462598452,51635.6048027365,38959.1279048400,51485.0782253399,56697.0989917503,57853.1883699885,11634.8247082781
2508145705,13190,3,0,39511.4074959365,39340.6217033297,27789.7662708268,50250.3733579287,51620.9305603680,38966.6353737798,51486.5748520491,56697.7925504692,57851.5092278269,11640.1784948802
2508145705,13190,3,0,39529.4643580218,39351.5117919863,27791.0682143868,50258.3918701350,51644.4142152363,38967.7304664938,51492.0016448322,56705.4947025581,57876.8910433996,11640.1054886992
2508145705,13190,3,0,39545.1606869234,39351.1710964752,27786.6756758337,50257.1020942718,51648.5268967625,38964.9440639214,51490.5415212134,56704.3266036631,57870.1744747533,11639.3510914962
2508175435,13191,3,0,39531.6423757531,39346.6812163475,27788.9997059269,50257.1020942718,51634.8139024430,38965.8444734863,51493.0237313653,56705.1418393502,57858.5786596810,11640.8842212959
2508175435,13191,3,0,39539.3201924484,39351.7186428322,27793.0393812721,50263.0520980182,51650.1817035304,38966.6353737798,51500.8962312097,56712.3329481726,57879.2515765832,11640.1906625770
2508175435,13191,3,0,39545.6960655836,39349.6623020692,27791.5670899566,50261.9205022137,51652.0311934475,38964.3600144739,51499.9958216448,56713.5497178549,57882.5368547254,11638.6331973837
2508175435,13191,3,0,39523.2710003389,39343.1890873594,27791.4819160788,50258.5865532842,51628.6813832443,38963.1067417011,51496.9417297423,56707.1251739324,57862.8981920532,11639.1077375598
2508175435,13191,3,0,39524.7067885640,39348.0683337854,27791.0925497805,50262.4193777834,51637.6003050155,38962.8998908551,51500.3730202463,56708.2202666465,57869.9189531200,11636.5281858333
2508175435,13191,3,0,39553.2522053106,39352.1201768274,27787.7829362446,50261.0444280424,51651.8730133888,38960.2960037350,51497.0634067105,56707.7092233799,57878.8987133753,11630.2983250599
2508175435,13191,3,0,39543.1408492508,39341.9723176771,27785.0452044595,50255.2769397483,51628.2555138555,38956.7795393532,51492.1841602845,56700.5667853448,57859.5764108205,11633.1212307229
2508175435,13191,3,0,39520.1439022554,39338.9668965618,27786.3106449290,50254.9727473278,51616.9638912038,38958.0693152164,51490.7727074530,56699.7880527482,57858.3474734414,11633.8877956227
2508210791,13192,3,0,39538.1885966438,39344.9290680050,27785.2398876086,50257.5522990542,51635.5561319492,38956.7552039595,51492.2815018591,56704.0832497267,57876.1488138934,11631.2960761994
2508210791,13192,3,0,39547.1440215055,39344.4058570417,27782.3683111584,50253.4396175281,51629.2654326918,38955.6357758518,51488.4000065726,56700.7736361908,57863.7012600435,11630.4808405123
2508210791,13192,3,0,39531.6180403594,39345.1724219415,27784.1447948946,50255.6906414403,51619.8598030476,38957.5826073435,51491.0403967831,56699.3135125721,57854.5876551231,11634.4110065861
2508210791,13192,3,0,39539.5270432944,39349.4554512232,27786.0307879021,50258.7325656460,51634.6557223843,38953.5672673919,51491.2837507196,56700.3477668020,57870.3204871152,11634.2771619210
2508210791,13192,3,0,39541.0236700036,39344.9655710955,27786.9798682543,50254.0358346724,51629.8738175329,38949.8439521641,51488.3878388757,56698.3035937358,57867.1933890317,11636.4308442587
2508210791,13192,3,0,39511.3588251492,39336.9957296765,27788.0262901811,50248.4995326179,51606.2684856964,38955.6357758518,51486.8668767729,56692.4630992607,57852.2392896363,11638.5236881123
2508210791,13192,3,0,39518.5621016684,39345.2454281224,27790.3381525774,50254.3886978803,51624.0819938452,38963.2040832757,51491.4054276878,56699.2283386943,57870.9167042595,11638.5236881123
2508210791,13192,3,0,39550.1616103176,39349.8691529152,27785.9699494180,50252.4175309949,51641.6643157543,38952.3018269223,51489.9453040691,56700.7371331003,57877.3534158788,11633.9851371973
2508241610,13193,3,0,39535.2440140127,39338.8695549872,27781.0298645079,50244.7883850870,51618.2780024606,38945.2810658555,51482.7420275499,56691.4166773340,57852.0811095776,11633.1820692070
2508241610,13193,3,0,39515.3498297072,39340.0133184886,27784.3759811342,50248.6698803735,51615.7592892183,38956.3049991771,51485.1268961272,56695.9552282489,57855.8165925022,11633.4984293244
2508241610,13193,3,0,39536.6798022378,39353.7628158985,27792.7838596389,50259.9493353283,51642.4917191383,38964.8345546500,51495.2990906712,56706.6141306658,57877.7549498740,11635.7129501462
2508241610,13193,3,0,39541.8267379939,39353.6654743239,27792.8203627293,50259.8641614506,51638.5737207613,38960.4176807032,51494.8245504951,56706.2612674580,57864.8815266353,11637.7571232124
2508241610,13193,3,0,39530.9609847310,39352.4487046416,27792.7716919420,50259.9493353283,51631.1635933961,38957.7286197054,51496.1386617520,56705.9570750374,57859.9779448157,11639.7282900977
2508241610,13193,3,0,39547.7402386498,39354.2860268619,27791.5549222597,50258.8542426143,51646.0446866106,38952.7398640080,51496.0169847837,56704.9106531106,57876.2218200743,11632.1599826739
2508241610,13193,3,0,39547.2778661706,39343.0187396038,27785.4710738483,50248.6942157671,51634.7773993526,38945.9016183935,51487.2319076776,56698.7903016087,57867.2663952126,11629.1302261649
2508241610,13193,3,0,39516.1285623038,39336.1196555052,27786.4931603814,50245.2994283535,51615.6984507342,38955.1369002821,51483.6789402053,56697.0746563566,57852.9693514457,11635.6764470557
2508264993,13194,3,0,39529.2818425694,39348.6158801424,27793.2218967245,50254.5833810294,51638.6223915486,38966.5623675988,51490.0061425532,56707.1495093260,57874.2749885826,11639.7769608850
2508264993,13194,3,0,39560.8570158250,39356.8655785883,27794.5725110718,50257.4792928733,51656.7279244211,38961.2572517840,51494.6420350427,56711.3351970331,57884.8000463345,11640.3610103325
2508264993,13194,3,0,39544.9416683806,39350.3436930913,27794.6333495559,50253.7194745550,51635.8481566730,38957.1932410452,51491.6609493211,56706.8818199959,57863.8959431927,11641.1519106260
2508264993,13194,3,0,39530.6689600072,39350.9764133260,27798.8068695662,50257.3576159050,51638.1600190693,38960.0161467081,51495.8101339377,56708.6948068225,57871.5980952816,11639.4362653740
2508264993,13194,3,0,39547.0710153246,39355.1012625490,27799.5004282851,50260.4603785949,51655.0609499564,38960.9408916666,51498.9007289308,56713.0873453756,57883.8509659823,11634.8855467622
2508264993,13194,3,0,39543.0435076762,39351.8646551941,27796.7505288031,50258.0146715335,51642.4430483510,38959.6632835002,51496.0534878742,56710.9823338253,57866.6701780683,11636.4551796524
2508264993,13194,3,0,39537.0691685361,39356.1233490821,27798.9528819281,50261.7258190645,51639.8148258373,38965.4916102784,51499.2657598354,56711.6515571505,57866.7431842492,11639.3875945867
2508264993,13194,3,0,39563.0958720404,39364.6407368582,27801.5324336545,50267.2256180285,51661.1569660647,38966.7205476575,51505.2400989755,56716.1292695814,57885.0799033614,11636.0049748699
2508331769,13195,3,0,39561.4288975756,39358.6663977181,27802.7978741241,50263.1616072896,51651.2767962445,38966.2095043910,51499.6307907401,56713.1238484661,57874.3723301572,11638.5723588995
2508331769,13195,3,0,39529.7442150487,39351.8524874973,27805.9371399045,50260.4117078076,51632.5020400467,38969.4947825332,51499.1075797768,56710.8363214634,57863.5917507721,11641.3952645625
2508331769,13195,3,0,39541.0723407909,39358.9097516546,27806.4116800805,50265.2422834463,51651.5931563619,38968.4361929096,51501.6384607159,56715.7885740703,57883.0965687793,11638.3290049631
2508331769,13195,3,0,39566.2959763048,39360.2847013956,27801.2160735372,50261.7501544581,51659.6238362650,38963.1919155789,51499.0954120799,56712.3937866567,57880.7725386861,11635.6034408747
2508331769,13195,3,0,39552.7411620441,39355.4176226664,27802.9317187892,50257.6861437193,51640.7152354022,38967.1099139559,51497.1729159819,56710.5442967396,57863.5552476816,11641.9184755259
2508331769,13195,3,0,39544.3332835394,39358.7272362023,27803.0047249701,50260.0101738125,51643.2947871286,38967.0855785622,51499.1927536545,56711.8340726029,57876.5625155853,11643.6706238684
2508331769,13195,3,0,39555.2598752864,39359.5181364957,27800.4251732437,50258.0511746240,51652.3475535649,38966.5745352957,51499.1440828672,56712.9535007106,57887.8054674497,11642.9770651494
2508331769,13195,3,0,39544.3941220235,39353.4586234779,27800.5711856055,50255.8244861054,51636.4322061205,38969.5677887141,51498.9250643244,56710.9458307348,57871.6954368562,11646.3231817758
2508340557,13196,3,0,39542.0335888399,39358.8975839578,27805.7424567553,50262.6018932357,51641.2141109719,38972.8043960690,51504.8020618899,56713.7078979136,57874.4210009445,11646.3231817758
2508340557,13196,3,0,39570.5546701929,39366.5510652594,27803.6739482954,50267.8583382632,51661.4489907884,38966.3433490560,51508.1481785162,56717.9179210143,57890.8108885650,11639.9959794278
2508340557,13196,3,0,39565.7484299478,39357.6321434882,27799.5369313756,50259.4139566681,51643.5503087619,38957.3757564975,51502.7578888236,56710.6294706174,57873.6909391351,11638.6697004741
2508340557,13196,3,0,39529.4765257186,39349.3702773454,27800.5468502119,50255.8731568927,51622.2203362313,38963.0337355202,51499.6794615274,56705.8719011596,57862.3263103025,11637.8057939997
2508340557,13196,3,0,39539.1133416024,39356.6952308328,27804.0998176842,50260.4238755044,51642.8202469525,38967.0490754718,51502.3928579189,56709.9967503826,57884.3376738552,11638.7670420487
2508340557,13196,3,0,39554.7731674135,39355.9773367203,27798.9285465344,50256.7613987607,51644.6940722632,38960.6853700334,51501.0422435716,56708.9381607590,57879.9451353021,11640.2758364548
2508340557,13196,3,0,39540.6708067957,39350.5383762404,27796.0569700842,50252.6122141441,51624.6538755959,38957.5947750403,51498.3531825737,56705.5555410422,57864.4678249433,11644.2546733159
