steady_timestamp,sequence,battery,flags,EEG-ch1,EEG-ch2,EEG-ch3,EEG-ch4,EEG-ch5,EEG-ch6,EEG-ch7,EEG-ch8,EEG-ch9,EEG-ch10
4092775190,26434,-2,0,-7859.5047442366,44846.7600373443,14154.0611615905,33232.7664260271,54337.3445406962,16019.8314570267,48597.4890861066,60860.5076459595,63459.4303457654,15842.9374806148
4092775190,26434,-2,0,-7858.0446206178,44851.8948054035,14152.5767025781,33238.2297219006,54344.7303326677,16022.1311517263,48618.1863384024,60866.4698174028,63461.3771772570,15847.8897332217
4092775190,26434,-2,0,-7858.7625147304,44851.9678115845,14153.6352922017,33241.0647952603,54344.5234818217,16031.8531414878,48610.2043292866,60866.6766682488,63462.4357668806,15844.3854365367
4092775190,26434,-2,0,-7852.0094429936,44854.3648478586,14157.9548245738,33242.6952666346,54346.8718473086,16034.9680718745,48602.3805002294,60869.2318845816,63466.1834175021,15843.8500578765
4092775190,26434,-2,0,-7848.2861277658,44856.5672009835,14157.4559490041,33240.6389258715,54351.7267583409,16025.1487405384,48619.9871575322,60871.9939517604,63466.9013116146,15845.0059890747
4092775190,26434,-2,0,-7856.1707953071,44848.4026764154,14155.1319189109,33232.8881029953,54343.9637677679,16019.8314570267,48612.1511607782,60866.0196126203,63462.1559098537,15842.8036359498
4092775190,26434,-2,0,-7862.0356251757,44842.0633063706,14154.3045155269,33227.8263411169,54335.0448459967,16021.6687792470,48590.3223126779,60860.1669504485,63459.4668488558,15840.0050656805
4092775190,26434,-2,0,-7861.4759111219,44844.3995041606,14152.6497087590,33229.1647877675,54337.3323729994,16019.7584508458,48605.0452258336,60863.2940485320,63459.3573395844,15840.2849227074
4092806375,26435,-2,0,-7855.1243733803,44849.4734337358,14154.2923478301,33232.6447490588,54343.3188798363,16026.1951624651,48615.2539234681,60867.2850530899,63460.0630660001,15842.6941266783
4092806375,26435,-2,0,-7849.2352081180,44851.7487930417,14162.1161768872,33233.7155063792,54347.3828905751,16034.1528361873,48596.6860181163,60864.9975260872,63464.0053997708,15841.4773569961
4092806375,26435,-2,0,-7844.8061664745,44855.3382636044,14169.2586149223,33238.5339143211,54352.5419940281,16036.2578477377,48599.3507437205,60871.0083683177,63471.5250364074,15842.2682572895
4092806375,26435,-2,0,-7846.6069856043,44854.7785495506,14166.5695539244,33234.9809468488,54352.2986400916,16028.9693973408,48611.6522852085,60870.9353621368,63470.2960990282,15843.7527163019
4092806375,26435,-2,0,-7854.6863362947,44848.8285458042,14164.7322317042,33229.4568124912,54343.9394323742,16029.3952667296,48593.9726217248,60862.2841296957,63465.4655233895,15846.3931065125
4092806375,26435,-2,0,-7859.0058686668,44853.0507366017,14168.9300871081,33231.2211285305,54346.3486363452,16037.8883191120,48589.5070769907,60863.6834148303,63468.3492675366,15850.5057880387
4092806375,26435,-2,0,-7860.3929861046,44859.9011499130,14173.4443026294,33237.3293123357,54353.4424035930,16038.3020208040,48612.5283593798,60870.2174680242,63470.3204344219,15854.9104942886
4092806375,26435,-2,0,-7857.4970742608,44860.6433794192,14175.5371464830,33240.3834042382,54350.5464917491,16037.3042696645,48606.6513618143,60869.3535615498,63470.4299436933,15858.6338095164
4092847409,26436,-2,0,-7854.7593424756,44857.3337658834,14172.7264085169,33240.2008887859,54344.2801278853,16032.0356569402,48590.2858095874,60867.1390407280,63468.4952798984,15853.7423953936
4092847409,26436,-2,0,-7853.5304050965,44856.1778346852,14165.6691443595,33236.8912752500,54346.8475119149,16026.1708270715,48604.5220148703,60867.5892455105,63466.3537652576,15847.6707146789
4092847409,26436,-2,0,-7855.6354166469,44853.1967489636,14159.2567681339,33232.6204136652,54345.6429099294,16022.7030334770,48606.3958401810,60864.0362780382,63460.6714508413,15840.6864567026
4092847409,26436,-2,0,-7857.8499374687,44849.8993031246,14161.7146428921,33228.4468936549,54338.6343165594,16025.4894360494,48586.0271156994,60858.0497712013,63458.8706317115,15836.5251043891
4092847409,26436,-2,0,-7856.9495279038,44851.7609607385,14164.0873437726,33232.4622336065,54340.4716387797,16026.8157150031,48595.9681240037,60862.0651111529,63460.4889353889,15841.0149845168
4092847409,26436,-2,0,-7853.0923680109,44852.3936809733,14162.5298785792,33234.7497606092,54343.4040537140,16030.3808501722,48609.2309135407,60865.0583645713,63459.7102027923,15848.5589565470
4092847409,26436,-2,0,-7848.6754940642,44854.7055433696,14170.3050368491,33238.1810511133,54344.2192894012,16045.1889372058,48594.8486958960,60865.7762586839,63464.3947660691,15856.0299223963
4092847409,26436,-2,0,-7845.2928743474,44861.7506398301,14176.7174130748,33243.3036514757,54349.0620327367,16041.2831065256,48597.3187383511,60872.9795352030,63470.3326021187,15859.2543620544
4092866349,26437,-2,0,-7844.9400111395,44865.3887811802,14177.3379656127,33245.9805447768,54354.0872915246,16032.4371909353,48619.4761142656,60874.7438512424,63473.0216631166,15862.0651000205
4092866349,26437,-2,0,-7851.8147598445,44855.0949096680,14171.5948127123,33239.3004792210,54338.9628443737,16022.5813565087,48602.1128108993,60863.5860732557,63466.2320882894,15854.4237864157
4092866349,26437,-2,0,-7858.7260116399,44846.7722050411,14168.8449132303,33234.5429097632,54323.7897264354,16023.6521138291,48586.8545190833,60856.8573369126,63463.4335180201,15847.6463792853
4092866349,26437,-2,0,-7863.1428855866,44847.5509376377,14168.3703730542,33234.8836052742,54327.7563955997,16026.4871871889,48604.4733440830,60858.9866838567,63463.9080581962,15847.9870747963
4092866349,26437,-2,0,-7860.8188554934,44848.5851918677,14171.1324402330,33235.3094746631,54332.2462757274,16037.8274806279,48608.0263115553,60861.9677695783,63468.0815782065,15855.1051774378
4092866349,26437,-2,0,-7855.9396090674,44850.3616756038,14174.8557554609,33235.2486361789,54337.4662176644,16039.6039643640,48593.3033983995,60860.3859689913,63471.1235024122,15856.9059965675
4092866349,26437,-2,0,-7855.4529011945,44848.5121856868,14171.7529927710,33237.3414800325,54341.4693899192,16030.4781917468,48604.1083131783,60864.0119426445,63470.0527450918,15854.1439293887
4092866349,26437,-2,0,-7856.7548447546,44847.1494036426,14168.3338699638,33237.0859583992,54342.3819671809,16029.7481299374,48614.0979922699,60863.9511041604,63467.6435411208,15850.9073220338
4092926393,26438,-2,0,-7857.8499374687,44849.5464399167,14172.3857130058,33237.2684738515,54336.2251125885,16038.1438407453,48598.5476757302,60862.1016142433,63467.7530503922,15847.2813483806
4092926393,26438,-2,0,-7854.7106716883,44858.9155664704,14177.1676178572,33242.5127511822,54339.9849309068,16039.1415918847,48606.6391941175,60867.9056056279,63471.5493718010,15849.3620245373
4092926393,26438,-2,0,-7853.0802003141,44864.6952224613,14178.3478844491,33243.6321792899,54346.2634624674,16037.6084620851,48625.4382857089,60870.9840329241,63473.0338308134,15853.8275692713
4092926393,26438,-2,0,-7858.7746824272,44858.6843802307,14178.0071889380,33236.6114182231,54340.4229679924,16034.9437364808,48605.0330581368,60863.4765639843,63467.6800442113,15849.0821675104
4092926393,26438,-2,0,-7856.5844969991,44856.8713934041,14180.6962499359,33235.1026238171,54338.0746025056,16038.3750269849,48592.5003304092,60863.2575454415,63468.7873046222,15845.0424921652
4092926393,26438,-2,0,-7848.1766184944,44859.3171004655,14185.0887884890,33236.7087597977,54346.1661208928,16036.6228786424,48613.2097504018,60868.0881210802,63472.6931353024,15847.8410624345
4092926393,26438,-2,0,-7843.3825459462,44860.9840749303,14191.6958478638,33236.7330951913,54349.1228712208,16035.3574381728,48613.4409366415,60869.4387354276,63475.1023392733,15850.9073220338
4092926393,26438,-2,0,-7843.9422600000,44859.6942990670,14194.0198779570,33235.3824808440,54348.2467970496,16032.9117311114,48598.3529925810,60867.3215561804,63472.1334212485,15848.6319627279
4092961654,26439,-2,0,-7844.5628125380,44862.3590246713,14192.0973818590,33237.7186786340,54353.4302358961,16033.5566190430,48615.2904265586,60874.7681866360,63473.6300479577,15852.2701040780
4092961654,26439,-2,0,-7841.9954285084,44866.4960415911,14193.1924745730,33241.6488447078,54355.8881106544,16034.8828979967,48625.1949317724,60876.4229934039,63474.7129729750,15857.6238906801
4092961654,26439,-2,0,-7840.5109694960,44866.5812154688,14197.2929884024,33239.9697025462,54350.6194979300,16034.8098918158,48606.8947157507,60874.8776959074,63473.1798431753,15854.7158111394
4092961654,26439,-2,0,-7836.9580020237,44869.9516674888,14200.6026019382,33242.0503787030,54353.3937328057,16035.3209350823,48616.0691591552,60878.1751417464,63474.5669606131,15850.7126388847
4092961654,26439,-2,0,-7839.0386781804,44876.2058636558,14202.1113963443,33244.6664335199,54362.0814683372,16040.0541691465,48633.2012762819,60885.1715674196,63477.7183940902,15855.9325808217
4092961654,26439,-2,0,-7838.8196596376,44878.7002415045,14205.1289851563,33245.2383152706,54363.5172565624,16046.5517192499,48618.1133322215,60885.0985612387,63480.5169643595,15857.8672446166
4092961654,26439,-2,0,-7830.6307996757,44884.5407359795,14210.4949394553,33250.5312633885,54368.8953785581,16050.2750344777,48617.0182395074,60890.9147203201,63486.7224897392,15862.3449570474
4092961654,26439,-2,0,-7826.1652549417,44888.4100635692,14214.5589501941,33253.7070322593,54377.8751388134,16045.8581605310,48636.5230575146,60895.7209605651,63488.8153335928,15864.0240992090
4092970173,26440,-2,0,-7826.5546212400,44884.2487112557,14217.6495451872,33251.5655176185,54376.1351581677,16044.4953784868,48627.5798003497,60892.4843532102,63484.9460060031,15857.6847291642
4092970173,26440,-2,0,-7826.6154597242,44880.5132283311,14220.7644755738,33251.6141884058,54375.8796365345,16042.9500809903,48614.4630231746,60888.1161500508,63483.7779071081,15848.2547641264
4092970173,26440,-2,0,-7823.2328400074,44885.3803070603,14220.8253140579,33256.1649070176,54386.1613403498,16044.7752355138,48635.0142631085,60895.6844574747,63484.3132857683,15848.6562981216
4092970173,26440,-2,0,-7821.1886669411,44886.7065860140,14222.4922885227,33257.0774842793,54389.4831215825,16047.9875074750,48638.1291934952,60896.8890594601,63484.6053104920,15855.6770591884
4092970173,26440,-2,0,-7820.1422450144,44887.3514739456,14227.6635596724,33258.8052972282,54388.6192151081,16056.8942615494,48621.1430887304,60898.7385493772,63487.5133900327,15859.0840142989
4092970173,26440,-2,0,-7817.6113640752,44896.6719297120,14233.1511909396,33262.5407801528,54397.7328200285,16059.3643040045,48637.4721378668,60905.3699441457,63493.8040892902,15864.2066146613
4092970173,26440,-2,0,-7816.9421407499,44898.1807241180,14231.5328872621,33260.8859733849,54400.7139057501,16054.9595977546,48650.0292009881,60904.9440747569,63493.5850707474,15865.1070242262
4092970173,26440,-2,0,-7821.6632071172,44890.8679383274,14225.9235790268,33256.3474224699,54391.5394623456,16051.7838288838,48628.1881851909,60898.3005122916,63488.7423274118,15857.6238906801
4092998785,26441,-2,0,-7824.1819203596,44890.2960565767,14224.1227598970,33257.3330059126,54389.2519353429,16053.3777971676,48627.8839927703,60898.8358909518,63490.3241279988,15855.4823760393
4092998785,26441,-2,0,-7824.0602433913,44892.5714158826,14224.0375860192,33261.2510042896,54395.8589947177,16048.1700229274,48646.2085441857,60902.4618646050,63489.5697307958,15857.1250151104
4092998785,26441,-2,0,-7826.4451119686,44891.4154846845,14223.6847228113,33259.4866882502,54395.1289329084,16052.6964061455,48634.6857352943,60900.1865052991,63488.4624703849,15856.6139718438
4092998785,26441,-2,0,-7823.0746599487,44894.4574088902,14228.3936214818,33262.3339293068,54399.2781175250,16060.5324028995,48629.2589425113,60902.1333367908,63490.4458049670,15852.6959734668
4092998785,26441,-2,0,-7823.6465416994,44899.1419721670,14232.0560982255,33267.0671633709,54408.2943808708,16059.3764717013,48650.1995487436,60909.7868180924,63493.5729030505,15860.9821750032
4092998785,26441,-2,0,-7825.3865223450,44895.0901291250,14232.6036445825,33263.9522329843,54403.1961159020,16053.8523373437,48645.4298115890,60905.6132980822,63490.4214695734,15866.4576385736
4092998785,26441,-2,0,-7823.0138214646,44886.3658905029,14232.0560982255,33257.8562168760,54390.7242266585,16048.3768737734,48623.8199820314,60899.1522510692,63486.8563344043,15865.2287011944
4092998785,26441,-2,0,-7820.2274188921,44885.7940087523,14229.3427018340,33257.5276890617,54391.2839407123,16048.5593892257,48637.0827715684,60900.6488777784,63485.3353723014,15867.2363711702
4093032888,26442,-2,0,-7819.9840649557,44886.2563812315,14226.2642745378,33255.7633730224,54392.1235117931,16044.2155214599,48644.7970913542,60898.5803693185,63484.5566397047,15870.5703200997
4093032888,26442,-2,0,-7826.2869319099,44879.6858249471,14226.0452559950,33249.1076428603,54381.5376155571,16046.2961976166,48619.3909403879,60888.5055163491,63479.0690084376,15867.9907683732
4093032888,26442,-2,0,-7830.7524766440,44879.0409370155,14226.7996531980,33249.6308538237,54378.8363868624,16048.9244201304,48621.8488151461,60889.1625719776,63482.9505037241,15865.4720551309
4093032888,26442,-2,0,-7834.6218042337,44877.8119996364,14223.9402444446,33248.7547796524,54382.3041804570,16048.5350538321,48637.4356347763,60890.1603231170,63483.7657394112,15861.6392306317
4093032888,26442,-2,0,-7835.1571828939,44877.0576024334,14227.8704105184,33246.6010973147,54382.9003976013,16055.1786162974,48624.9759132296,60889.5641059727,63484.2281118905,15861.6392306317
4093032888,26442,-2,0,-7831.9692463263,44881.8273395880,14235.9619289057,33249.9593816379,54389.0815875874,16060.2038750853,48624.8299008677,60895.6722897778,63491.3097114415,15869.8280905935
4093032888,26442,-2,0,-7829.7912285949,44887.5948278821,14238.0547727592,33252.5511010612,54396.1266840478,16053.8523373437,48645.1499545621,60901.6344612211,63495.7630884787,15878.3698137632
4093032888,26442,-2,0,-7835.1815182875,44879.2842909520,14235.0371839471,33243.3644899598,54384.9810737580,16042.9622486872,48630.7312338269,60891.4135958898,63487.0631852503,15875.6199142812
4093088896,26443,-2,0,-7840.6691495547,44870.5843877236,14233.6865695998,33239.3734854019,54373.6164449254,16041.0762556796,48607.8316284061,60882.6041833900,63481.3565354403,15868.3192961875
4093088896,26443,-2,0,-7840.4501310118,44874.3807091323,14236.6189845341,33244.9462905468,54378.2280020213,16044.8969124820,48625.3774472248,60887.7024483588,63481.4903801053,15870.3756369505
4093088896,26443,-2,0,-7846.6556563915,44877.1549440080,14236.9475123483,33246.1022217450,54380.0653242416,16042.5485469952,48631.8628296314,60885.5122629307,63479.8112379438,15869.4508919920
4093088896,26443,-2,0,-7847.7264137120,44875.2567833036,14239.1620331701,33241.6975154951,54373.4704325635,16047.3912903307,48613.3314273701,60880.3774948714,63478.8864929852,15865.7884152483
4093088896,26443,-2,0,-7838.3207840678,44878.7610799886,14243.6154102073,33242.4032419108,54376.3541767106,16050.2385313873,48623.2602679776,60886.0354738941,63484.4958012206,15874.1354552688
4093088896,26443,-2,0,-7830.9349920963,44878.3717136903,14242.0336096203,33239.1057960718,54379.4812747941,16042.3781992397,48636.5717283019,60887.3860882414,63486.6859866487,15880.7181792500
4093088896,26443,-2,0,-7830.8863213090,44873.3586225992,14241.4130570824,33232.7542583302,54370.9030485339,16041.7089759144,48616.7505501773,60880.5843457174,63482.7801559686,15878.1751306140
4093088896,26443,-2,0,-7829.2923530252,44875.0499324576,14243.3233854836,33235.6014993868,54371.9251350670,16040.0420014496,48616.2516746076,60882.0201339425,63482.5002989416,15875.6320819781
4093091248,26444,-2,0,-7829.0489990887,44878.3595459934,14241.9971065299,33241.3811553777,54378.5930329260,16038.8495671610,48636.0485173385,60884.7578657276,63482.8166590590,15876.0944544573
4093091248,26444,-2,0,-7828.1607572207,44878.3960490839,14243.9439380215,33242.2572295490,54376.9503938549,16045.8581605310,48627.0200862959,60883.0422204756,63483.0235099050,15877.4572365015
4093091248,26444,-2,0,-7831.7137246930,44880.2455390010,14246.6573344130,33241.9773725220,54375.0035623632,16049.6544819398,48613.9276445144,60883.2004005343,63486.4548004091,15876.9340255381
4093091248,26444,-2,0,-7836.6781449967,44881.1946193532,14246.5599928385,33237.1711322770,54375.4537671457,16038.0464991707,48627.4581233815,60884.0886424024,63485.6273970251,15876.1552929414
4093091248,26444,-2,0,-7839.6348953247,44874.9160877925,14246.8641852590,33230.2233773911,54373.0688985684,16033.6174575271,48628.1760174941,60878.8687004653,63480.9671691420,15874.2449645402
4093091248,26444,-2,0,-7840.1824416817,44869.9881705793,14252.3761519198,33226.4392236791,54367.6786088758,16037.2312634835,48610.8735526118,60875.1453852375,63479.5557163105,15870.8623448235
4093091248,26444,-2,0,-7838.1261009187,44871.0102571124,14253.7632693576,33227.5586517868,54369.0170555263,16031.3420982212,48622.5423738650,60876.8488627927,63480.5534674500,15871.8479282661
4093091248,26444,-2,0,-7837.1405174760,44870.8034062664,14253.4225738466,33227.6316579678,54371.9494704606,16027.6796214775,48632.4103759884,60876.5081672817,63477.4385370633,15872.6144931660
4093144862,26445,-2,0,-7838.1261009187,44868.5402146573,14254.1404679592,33227.4491425154,54369.5037633992,16030.4051855659,48614.0979922699,60874.8898636042,63474.1532589211,15869.4143889015
4093144862,26445,-2,0,-7835.0720090161,44874.1130198022,14254.8948651622,33231.4644824670,54375.0400654537,16030.4660240500,48620.9605732781,60878.3819925924,63474.9076561241,15868.2706254002
4093144862,26445,-2,0,-7834.6704750209,44877.6294841841,14251.7677670787,33231.9755257336,54377.6561202706,16026.5966964603,48639.5041432362,60878.6983527098,63473.8734018942,15869.2197057524
4093144862,26445,-2,0,-7834.9138289574,44875.4271310591,14255.7587716366,33229.1647877675,54372.1076505193,16032.4493586321,48628.0300051322,60874.4396588218,63474.2384327989,15870.2904630728
4093144862,26445,-2,0,-7833.9282455147,44878.3230429030,14264.3735009873,33230.9534392004,54373.3244202016,16042.0861745159,48618.8312263340,60876.1066332865,63479.1785177090,15871.2638788186
4093144862,26445,-2,0,-7828.2215957048,44885.7453379650,14270.4330140051,33235.9665302915,54382.7422175426,16042.7188947507,48642.1201980531,60885.4392567497,63484.2646149810,15874.7560078068
4093144862,26445,-2,0,-7824.4252742960,44891.1599630512,14277.3807688910,33240.2130564827,54388.5583766240,16046.1136821643,48643.9940233639,60887.8971315080,63488.2312841453,15873.1255364325
4093144862,26445,-2,0,-7824.0602433913,44893.6786762935,14279.9603206174,33239.4586592797,54386.7818928878,16041.9766652445,48627.0444216895,60885.3905859624,63485.3110369077,15866.1777815466
4093152507,26446,-2,0,-7822.1255795965,44897.7061839419,14281.0310779379,33240.1400503018,54389.5317923698,16035.3087673855,48640.6965775249,60886.9358834590,63485.1893599395,15868.5383147303
4093152507,26446,-2,0,-7823.9994049072,44892.6687574572,14280.3496869158,33235.0539530298,54386.8427313719,16025.3920944748,48642.2418750214,60881.5212583727,63477.5480463347,15866.7253279037
4093152507,26446,-2,0,-7827.8443971033,44887.5339893979,14284.5840454102,33228.8727630437,54379.0675731021,16029.1762481868,48615.8379729156,60874.5978388805,63473.1920108721,15863.1845281282
4093152507,26446,-2,0,-7825.4595285260,44892.4132358239,14291.7508188389,33231.8660164622,54384.2510119486,16033.5687867398,48624.1363421488,60879.6109299715,63476.0514196255,15864.9853472580
4093152507,26446,-2,0,-7821.7483809950,44900.0545494287,14295.9851773333,33235.4068162376,54392.6467227565,16034.2258423683,48643.1179491926,60884.9647165736,63479.5192132200,15870.2052891950
4093152507,26446,-2,0,-7820.7262944619,44903.6926907788,14301.1321130894,33234.8592698806,54392.7683997247,16038.0951699580,48625.4261180121,60882.9692142947,63481.2835292594,15869.0858610873
4093152507,26446,-2,0,-7821.0913253665,44906.4304225640,14304.3322173538,33237.2563061547,54393.0847598421,16039.8229829068,48617.3102642312,60886.0476415909,63482.0500941592,15865.5450613118
4093152507,26446,-2,0,-7815.9565573073,44911.2975012931,14307.1186199262,33241.2838138031,54399.3267883123,16037.0244126376,48637.1071069621,60892.8980549022,63484.5809750984,15860.6901502795
4093194316,26447,-2,0,-7812.9876392825,44906.9171304369,14305.6341609138,33238.7042620767,54393.5227969277,16031.1474150721,48632.1913574456,60886.5830202511,63480.1519334548,15856.4071209978
4093194316,26447,-2,0,-7815.2264954979,44901.7093561967,14304.5025651093,33236.0395364724,54385.7233032642,16027.9351431108,48618.6608785785,60880.0611347540,63475.2361839384,15856.9911704453
4093194316,26447,-2,0,-7816.0538988818,44899.7260216145,14300.4507220673,33236.0760395629,54387.9378240860,16020.2451587187,48634.3450397833,60878.8687004653,63471.7683903438,15859.6193929591
4093194316,26447,-2,0,-7816.9178053563,44893.7516824745,14295.4619663699,33230.9412715036,54384.3726889169,16015.5484277451,48634.6127291134,60873.5027461664,63466.5119453163,15857.0155058390
4093194316,26447,-2,0,-7822.2350888679,44890.6854228751,14300.1708650403,33230.1260358165,54379.1405792830,16019.2109044888,48614.8037186856,60870.4243188702,63465.7210450228,15853.7180599999
4093194316,26447,-2,0,-7823.4761939438,44895.0414583377,14302.3123796812,33231.1481223496,54383.9103164376,16016.2054833735,48623.9659943933,60876.3378195262,63468.6169568667,15853.7423953936
4093194316,26447,-2,0,-7819.2661708431,44894.9197813695,14298.9905984485,33228.3008812930,54385.1149184231,16009.7566040573,48634.2233628151,60876.1309686802,63466.1834175021,15853.4747060635
4093194316,26447,-2,0,-7818.3657612782,44888.5682436279,14297.3601270742,33222.9227592973,54375.9283073218,16008.9048652797,48612.3458439274,60870.2539711147,63461.8395497363,15852.5256257113
4093211585,26448,-2,0,-7818.6091152147,44888.1180388454,14299.6598217738,33224.7114107303,54377.4979402119,16008.4059897100,48612.0294838100,60874.7316835455,63463.2753379614,15851.6130484496
4093211585,26448,-2,0,-7820.7384621587,44883.8836803510,14296.9342576854,33222.3387098498,54377.9481449944,15996.4938145203,48625.3896149216,60873.8921124648,63459.3451718876,15850.4814526450
4093211585,26448,-2,0,-7829.4870361744,44874.5753922815,14292.5782222228,33213.4319557754,54368.2869937169,15988.5969792822,48609.3647582058,60862.3449681798,63449.4893374610,15845.2858461016
4093211585,26448,-2,0,-7836.7998219650,44869.9394997920,14291.7994896262,33207.5184551194,54361.3635742247,15988.7551593409,48596.9172043559,60854.4968037290,63443.5149983209,15843.5702008496
4093211585,26448,-2,0,-7835.2910275589,44873.9913428340,14295.4984694603,33211.1079256822,54365.6344358095,15991.2982079769,48617.5779535613,60857.9402619299,63445.2914820571,15851.7590608114
4093211585,26448,-2,0,-7834.1107609671,44872.9814239977,14299.5868155928,33210.6090501125,54364.5636784891,15992.5879838402,48613.6842905779,60856.6748214603,63445.0967989079,15856.7721519025
4093211585,26448,-2,0,-7837.7975731044,44865.7173089944,14300.4020512800,33206.9830764592,54356.6668432510,15987.4288803872,48590.2979772842,60851.6495626724,63444.0868800716,15850.1772602245
4093211585,26448,-2,0,-7839.0021750899,44863.8921544710,14295.4011278858,33206.0583315007,54355.6690921116,15978.9601633985,48600.7013580679,60851.6252272788,63440.2297201788,15841.9275617785
4093258131,26449,-2,0,-7838.6493118820,44862.0791676443,14289.9499997091,33204.8780649089,54356.7520171288,15977.6338844448,48612.0416515068,60851.4792149169,63435.6790015670,15839.5305255044
4093258131,26449,-2,0,-7841.9102546306,44856.4455240153,14289.7796519536,33199.6702906687,54348.8065111034,15979.2278527286,48591.6607593284,60844.9573294198,63431.1891214393,15836.2939181495
4093258131,26449,-2,0,-7844.4898063571,44855.8128037805,14292.7242345847,33198.5143594705,54348.1129523845,15979.5685482396,48593.0722121599,60845.9550805593,63432.6127419676,15841.0271522136
4093258131,26449,-2,0,-7849.7827544750,44852.6005318193,14293.4907994846,33197.4436021501,54350.7046718078,15977.8529029876,48607.6247775601,60848.3642845302,63434.1458717673,15846.9163174759
4093258131,26449,-2,0,-7854.9783610184,44848.3661733249,14295.4376309762,33192.2114925162,54343.6839107410,15974.1660908502,48589.6774247463,60842.5116223584,63430.3252149649,15848.4859503661
4093258131,26449,-2,0,-7853.0680326172,44844.0831440432,14297.7373256758,33191.1042321053,54338.4274657134,15970.2602601701,48580.7950060655,60841.0514987396,63430.3252149649,15846.9893236568
4093258131,26449,-2,0,-7851.2793811843,44843.2922437497,14295.2794509175,33190.4593441737,54340.1309432687,15964.5171072696,48601.0055504884,60840.2484307493,63428.8407559525,15844.0204056320
4093258131,26449,-2,0,-7854.3456407836,44838.0236310254,14296.6300652649,33186.3223272539,54332.4531265734,15968.7636334609,48594.6540127468,60834.1767500347,63426.6018997371,15838.3745943062
4093280168,26450,-2,0,-7856.9860309942,44834.3611542817,14301.7770010210,33184.9230421192,54327.8415694775,15969.5667014512,48577.5705664074,60832.1325769684,63427.8430048130,15835.4543470687
4093280168,26450,-2,0,-7856.8156832387,44835.1033837879,14301.6674917496,33184.3754957622,54330.6036366563,15964.3710949078,48590.2736418906,60832.5706140540,63425.9448441086,15836.6102782669
4093280168,26450,-2,0,-7858.3244776447,44832.8401921788,14300.7062437006,33180.5183358693,54330.0682579961,15967.3400129326,48593.5345846391,60828.7377895548,63420.8830822303,15840.9298106390
4093280168,26450,-2,0,-7858.2879745543,44832.5846705455,14305.0379437695,33178.0847965048,54328.1092588076,15967.3156775389,48576.2564551506,60824.7711203905,63421.1386038636,15842.2682572895
4093280168,26450,-2,0,-7860.5511661633,44831.7937702520,14304.2348757792,33176.4664928273,54329.5328793359,15957.2043214791,48581.4642293908,60825.3795052317,63419.3377847338,15836.9266383843
4093280168,26450,-2,0,-7863.7391027310,44828.3259766575,14303.4074723952,33172.4146497853,54327.3183585141,15953.8338694591,48590.3466480715,60824.4060894859,63416.3080282248,15839.2385007806
4093280168,26450,-2,0,-7870.0176342916,44818.4944776246,14305.8896825471,33166.7931738531,54316.4891083417,15958.3480849804,48568.9680047536,60815.7670247416,63412.2926882733,15839.0924884188
4093280168,26450,-2,0,-7868.2168151618,44821.1227001383,14310.8419351541,33170.4191475063,54319.5066971538,15963.4463499492,48570.0630974677,60820.7314450453,63416.3932021026,15841.1488291818
4093312962,26451,-2,0,-7864.7855246577,44825.4178971168,14311.2556368460,33175.4079032037,54327.3791969982,15960.6356119831,48594.5201680818,60826.2434117061,63419.2282754624,15841.6112016611
4093312962,26451,-2,0,-7865.4547479830,44821.3173832875,14312.2533879855,33171.7332587632,54323.7532233450,15960.6234442863,48583.0947007651,60821.8022023657,63415.8578234424,15838.3259235189
4093312962,26451,-2,0,-7866.5498406971,44821.6215757081,14317.8991993114,33172.5363267535,54323.9235711005,15965.6243676805,48569.4790480202,60822.2402394514,63416.5878852518,15837.0361476557
4093312962,26451,-2,0,-7862.5953392296,44829.7617648826,14324.3967494148,33178.2186411698,54333.9619209794,15963.2516668001,48591.5269146634,60831.4146828559,63422.3797089395,15841.5990339643
4093312962,26451,-2,0,-7859.8211043540,44837.5977616366,14329.1543188726,33181.7472732485,54338.2084471706,15967.0358205120,48596.7346889036,60835.9410660740,63425.3851300548,15848.9604905422
4093312962,26451,-2,0,-7854.4308146614,44840.6153504487,14335.0313164381,33183.6089308624,54338.3544595325,15967.2061682675,48583.3988931856,60838.2529284704,63426.5410612529,15850.5544588260
4093312962,26451,-2,0,-7855.4772365882,44838.1939787809,14330.2737469803,33181.1997268914,54333.9862563731,15954.5639312685,48591.6729270252,60837.4498604800,63421.9051687634,15842.0005679594
4093312962,26451,-2,0,-7861.6462588774,44828.4841567162,14322.0605516248,33173.8991087977,54325.8217318049,15941.5444956679,48598.4503341556,60830.6116148656,63413.9718304348,15835.5881917338
4093355288,26452,-2,0,-7866.4646668193,44819.1637009498,14322.7784457374,33168.4723160146,54315.7833819259,15943.1141285581,48577.1325293218,60822.5565995688,63408.8613977692,15831.1713177870
4093355288,26452,-2,0,-7869.3605786632,44818.7986700451,14325.6986929749,33169.1415393399,54316.2700897989,15946.9347853605,48578.6778268183,60822.4957610847,63409.3846087326,15830.4777590681
4093355288,26452,-2,0,-7866.8540331176,44824.1767920409,14330.8577964278,33172.8648545677,54323.6072109831,15950.4877528328,48598.6085142143,60826.0365608601,63410.6500492022,15836.3669243304
4093355288,26452,-2,0,-7869.8594542329,44819.7355827005,14332.0015599292,33170.9301907729,54319.9812373299,15948.4922505538,48583.2042100365,60819.2713214266,63405.8924797444,15836.6102782669
4093355288,26452,-2,0,-7875.5661040429,44815.6959073553,14334.1674099636,33165.9292673786,54313.9947304930,15943.4183209787,48567.2766948952,60813.9297025213,63403.5684496512,15834.5296021102
4093355288,26452,-2,0,-7874.2519927860,44816.8761739471,14335.7978813379,33164.9680193296,54316.8176361559,15941.3011417315,48584.5548243838,60817.0933036953,63403.9821513432,15837.3525077731
4093355288,26452,-2,0,-7871.5264286976,44814.0897713747,14340.0200721355,33161.5367288256,54315.3210094467,15940.6319184062,48580.2109566180,60813.3821561643,63401.7432951278,15841.5990339643
4093355288,26452,-2,0,-7868.7156907315,44813.2380325971,14346.9069885373,33159.3708787911,54314.4449352754,15946.0830465829,48565.5853850368,60811.7881878805,63403.8726420718,15844.0569087225
4093372605,26453,-2,0,-7869.0928893331,44817.2412048518,14349.6203849288,33161.6827411874,54321.0641623471,15943.4548240691,48581.5494032685,60817.9328747761,63405.0164055732,15844.1542502971
4093372605,26453,-2,0,-7874.5805206002,44814.5034730666,14349.1945155400,33158.2027798961,54319.9569019362,15938.5512422495,48585.1753769218,60814.4772488783,63403.9213128591,15842.8036359498
4093372605,26453,-2,0,-7875.9433026444,44811.5102196482,14354.7794883817,33157.3510411185,54315.7833819259,15949.7211879329,48565.8409066701,60813.0779637437,63406.2818460427,15841.6477047516
4093372605,26453,-2,0,-7867.2799025064,44821.1227001383,14367.8962655568,33167.4989002688,54326.7586444602,15958.4454265550,48577.7165787693,60823.7003630701,63415.4562894472,15846.9771559600
4093372605,26453,-2,0,-7866.3308221542,44824.2619659186,14371.1937113959,33168.5331544987,54332.3192819083,15949.8915356885,48593.0965475535,60826.1217347379,63412.7307253589,15845.3223491921
4093372605,26453,-2,0,-7872.1956520229,44818.6161545928,14375.9147777632,33161.9747659112,54324.8726514527,15947.7135179572,48575.0640208619,60816.5700927319,63406.6955477347,15839.2019976902
4093372605,26453,-2,0,-7881.2605861560,44812.9216724797,14374.0287847556,33156.3654576758,54318.6671260730,15939.6950057508,48563.8697397848,60812.6277589612,63401.0010656216,15834.6999498657
4093372605,26453,-2,0,-7880.1411580483,44813.5665604113,14374.0896232397,33156.9373394265,54320.5652867774,15939.8775212032,48584.8955198949,60814.7692736021,63401.2444195580,15837.8635510396
4093400112,26454,-2,0,-7874.5561852066,44814.9171747586,14379.5164160228,33159.1883633387,54320.9059822884,15950.6337651947,48582.5471544080,60817.1784775730,63405.5031134461,15842.3534311673
4093400112,26454,-2,0,-7864.6760153863,44822.1204512778,14392.1343176281,33166.7079999753,54325.5418747779,15962.1322386923,48573.5917295463,60821.8873762435,63412.9862469922,15848.2060933391
4093400112,26454,-2,0,-7853.6520820647,44833.9596202865,14402.5376984118,33176.6246728860,54339.4617199434,15964.9673120521,48596.9658751432,60833.5561974967,63422.2215288808,15857.8672446166
4093400112,26454,-2,0,-7852.9463556490,44833.1808876899,14407.8549819234,33174.4101520642,54339.3522106720,15961.4508476703,48597.4525830161,60831.5485275209,63421.4184608905,15861.3350382111
4093400112,26454,-2,0,-7858.0689560115,44828.0826227210,14413.6468056111,33169.1172039462,54332.6234743289,15966.2084171280,48573.7255742114,60824.5764372414,63420.5788898097,15858.4756294577
4093400112,26454,-2,0,-7858.6773408526,44828.8735230145,14416.5792205454,33170.8571845919,54335.9817586520,15957.5693523837,48585.1753769218,60829.3948451833,63422.4892182109,15855.8717423376
4093400112,26454,-2,0,-7865.3330710148,44824.0672827695,14410.6778875863,33164.1284482488,54331.6135554926,15948.4800828570,48595.2502298912,60823.7246984638,63414.5923829728,15849.4837015056
4093400112,26454,-2,0,-7869.0198831521,44816.0487705632,14409.4732856008,33159.1031894610,54322.4999505722,15952.3129073562,48574.7841638350,60815.8400309225,63409.7131365468,15842.7184620720
4093432699,26455,-2,0,-7866.0753005210,44819.0176885879,14416.5183820613,33164.9558516328,54323.2178446848,15958.0438925598,48579.0306900262,60818.7237750695,63413.3147748064,15843.5945362432
4093432699,26455,-2,0,-7865.6007603449,44820.9766877764,14418.6355613085,33168.6183283765,54326.6369674920,15954.4544219971,48597.3795768352,60822.6174380529,63414.5437121855,15851.8198992956
4093432699,26455,-2,0,-7864.3353198753,44820.9158492923,14421.2394484286,33169.1050362494,54324.6901360003,15953.2011492243,48586.3921466041,60820.0013832359,63413.4729548651,15859.4003744162
4093432699,26455,-2,0,-7864.5786738117,44822.2421282460,14425.6684900722,33168.2289620782,54322.1227519707,15956.6811105157,48573.6525680305,60819.3808306980,63412.0736697305,15855.1416805282
4093432699,26455,-2,0,-7864.7003507800,44825.6490833565,14427.5179799893,33167.4989002688,54325.4567009002,15948.7842752776,48591.6364239348,60821.1938175246,63410.0294966642,15847.8410624345
4093432699,26455,-2,0,-7865.6615988290,44820.3926383289,14423.7703293678,33161.7679150652,54319.2998463078,15944.5985875705,48588.1199595529,60817.2271483603,63403.7022943163,15842.0492387467
4093432699,26455,-2,0,-7866.5011699098,44817.8009189057,14427.3111291433,33160.6849900479,54314.0312335834,15946.8861145732,48570.9635070326,60814.2217272451,63403.1790833529,15844.0569087225
4093432699,26455,-2,0,-7870.1636466535,44821.6945818890,14432.2390463566,33163.8120881314,54319.2633432173,15947.5431702016,48585.7472586725,60818.3222410744,63407.4621126346,15850.6761357942
4093487469,26456,-2,0,-7876.5881905760,44820.3074644512,14435.0011135354,33161.1595302240,54321.3926901613,15942.5787498979,48594.8608635928,60813.3699884674,63402.4246861499,15854.5211279902
4093487469,26456,-2,0,-7882.4408527478,44813.8707528318,14439.1016273647,33154.9296694507,54313.7878796470,15947.5188348080,48571.4137118150,60805.7165071658,63398.3971785015,15850.4449495546
4093487469,26456,-2,0,-7874.4466759351,44816.6084846170,14448.2760707692,33158.2027798961,54316.4647729480,15954.1502295765,48578.6291560310,60809.3789839095,63400.4170161741,15850.1042540435
4093487469,26456,-2,0,-7863.6417611564,44820.8428431114,14453.0701433174,33163.7390819505,54322.7311368118,15954.2110680606,48596.2966518179,60814.9639567512,63402.6437046927,15853.6815569095
4093487469,26456,-2,0,-7861.1960540950,44819.0785270721,14455.6010242566,33162.3397968159,54317.1704993638,15952.0208826325,48579.4322240214,60810.5835858950,63401.2687549517,15852.9393274033
4093487469,26456,-2,0,-7859.5899181143,44821.1470355320,14459.2878363940,33164.4934791535,54319.4458586697,15950.9501253121,48572.9590093115,60814.2825657292,63405.5152811429,15854.0709232078
4093487469,26456,-2,0,-7862.9238670438,44820.2222905734,14456.5379369120,33161.9017597302,54321.6847148851,15939.1961301811,48587.0978730198,60812.7616036263,63402.1813322134,15851.2115144544
4093487469,26456,-2,0,-7872.8405399545,44810.2691145722,14455.7957074058,33153.2140241987,54310.3565891429,15935.9230197357,48573.4092140940,60803.5871602218,63395.8297944718,15842.2439218959
4093496583,26457,-2,0,-7876.8193768156,44803.8445706497,14462.4636052647,33150.2451061739,54301.9973814256,15941.7635142107,48553.8922283900,60800.1923728082,63395.6837821100,15838.6057805458
4093496583,26457,-2,0,-7874.8725453239,44807.1541841856,14467.9025657446,33156.7183208837,54305.1366472059,15943.5399979469,48571.2798671500,60806.6412521244,63400.2345007217,15844.2150887812
4093496583,26457,-2,0,-7873.7287818226,44809.1861895550,14472.2342658136,33158.5434754071,54311.5490234316,15946.7766053018,48579.4687271118,60808.4907420414,63401.5486119786,15847.3908576520
4093496583,26457,-2,0,-7874.5926882970,44811.3763749831,14480.6299766214,33158.7016554658,54314.2137490358,15954.4909250875,48564.6606400783,60806.5074074593,63404.0551575241,15847.2570129870
4093496583,26457,-2,0,-7867.2433994160,44819.3827194926,14491.7755869112,33166.6228260975,54325.8704025922,15959.6500285405,48579.8337580165,60813.5403362230,63410.7595584736,15852.2822717748
4093496583,26457,-2,0,-7859.7359304762,44822.4489790920,14499.0397019145,33169.6890856969,54330.6036366563,15958.5184327359,48597.4890861066,60817.7990301110,63412.7428930557,15859.7654053209
4093496583,26457,-2,0,-7859.7480981730,44817.2168694582,14500.3781485650,33166.2091244056,54320.2002558727,15958.8712959438,48580.9045153369,60812.2870634502,63410.0173289674,15860.2764485875
4093496583,26457,-2,0,-7856.0004475516,44825.0285308185,14505.4642458370,33168.8495146161,54322.0497457898,15962.7771266240,48578.2519574295,60815.5115031083,63413.5216256524,15858.3782878831
4093549311,26458,-2,0,-7855.0391995026,44831.8911118266,14507.4840835096,33169.3970609732,54329.3260284899,15960.0393948388,48597.1727259892,60820.5245941993,63413.3391102000,15857.9402507975
4093549311,26458,-2,0,-7854.2969699964,44832.4386581837,14513.1542302291,33168.9103531003,54328.4742897123,15966.9384789374,48586.5381589660,60817.4826699936,63413.3999486842,15858.0619277657
4093549311,26458,-2,0,-7854.4916531455,44832.3413166091,14523.6306171937,33170.8328491983,54326.4787874333,15970.1020801114,48573.1536924607,60817.5556761745,63416.5878852518,15856.5774687533
4093549311,26458,-2,0,-7852.8611817712,44834.9452037292,14528.9479007053,33176.4664928273,54331.4188723434,15967.9727331674,48594.6540127468,60824.1870709430,63419.3012816433,15857.5873875896
4093549311,26458,-2,0,-7847.7020783183,44837.0988860668,14535.2020968723,33178.5471689840,54335.2760322363,15973.7037183710,48601.5287614518,60825.2456605666,63422.1606903967,15864.6203163533
4093549311,26458,-2,0,-7842.3604594130,44838.9605436807,14543.7559877388,33179.1677215220,54334.6433120015,15981.0530072520,48587.0857053230,60825.8783808014,63425.0444345437,15865.3747135563
4093549311,26458,-2,0,-7838.8926658185,44842.0389709770,14545.8731669860,33180.7981928963,54340.2647879337,15973.4725321313,48599.4602529919,60829.0906527627,63426.9425952481,15865.3017073754
4093549311,26458,-2,0,-7842.5794779559,44840.5788473582,14544.7780742719,33178.9608706760,54339.5347261243,15965.1498275044,48605.0087227432,60826.1460701315,63422.4162120300,15863.8050806662
4093572769,26459,-2,0,-7847.4587243819,44837.4152461842,14549.6816560916,33175.4687416878,54330.4941273849,15971.4891975492,48583.6909179094,60820.9504635881,63419.7393187289,15860.9700073064
4093572769,26459,-2,0,-7845.7065760394,44840.2138164535,14556.1913738919,33179.4475785489,54331.6743939767,15971.0024896763,48585.5525755233,60822.4349226005,63421.7591564015,15862.0772677173
4093572769,26459,-2,0,-7846.7043271788,44841.7591139500,14556.6659140680,33177.2695608176,54337.6974039041,15970.4671110161,48604.4611763861,60824.4060894859,63422.0390134285,15864.2552854486
4093572769,26459,-2,0,-7844.8548372617,44840.8343689915,14562.3968992716,33174.4344874579,54337.3080376057,15974.7379726009,48592.0257902331,60822.6052703561,63422.3797089395,15862.3692924410
4093572769,26459,-2,0,-7841.2653666990,44844.3995041606,14571.5226718888,33179.2893984902,54340.3499618115,15976.9524934227,48585.6742524915,60827.8982184740,63427.9646817812,15862.6004786807
4093572769,26459,-2,0,-7840.5596402833,44848.0741486011,14574.4550868231,33183.7671109211,54343.4892275918,15971.8298930602,48604.4976794766,60831.4390182495,63427.5144769988,15867.4432220162
4093572769,26459,-2,0,-7841.9102546306,44841.6131015882,14573.4816710773,33178.6080074681,54340.0214339973,15967.4130191135,48598.3894956715,60826.0852316474,63423.2071123234,15867.5892343781
4093572769,26459,-2,0,-7842.2387824448,44839.1795622236,14578.6286068334,33176.4908282210,54334.6798150920,15972.4261102046,48583.1555392492,60823.5056799210,63423.9250064360,15864.6081486565
4093587857,26460,-2,0,-7840.0851001072,44843.8032870163,14584.1527411910,33179.6179263044,54339.2061983101,15971.1850051286,48599.9347931680,60828.5066033152,63426.8574213703,15862.5031371061
4093587857,26460,-2,0,-7839.4523798724,44843.5234299894,14583.9702257386,33178.3889889253,54338.0137640215,15972.7303026251,48607.9654730711,60829.7842114816,63427.0886076100,15863.9754284217
4093587857,26460,-2,0,-7843.6015644890,44837.3422400033,14585.2721692987,33174.3858166706,54330.8226551991,15967.9970685610,48586.3313081200,60824.0897293685,63423.3896277758,15861.0308457905
4093587857,26460,-2,0,-7847.5317305628,44832.5603351519,14584.6881198512,33170.6868368364,54326.0285826509,15957.9343832884,48587.6089162864,60821.5345130356,63419.0457600100,15855.8839100344
4093587857,26460,-2,0,-7851.7417536635,44831.5990871029,14584.6151136703,33169.4335640636,54328.4864574091,15951.6436840310,48603.4512575498,60820.4515880184,63416.1863512566,15857.3927044405
4093587857,26460,-2,0,-7855.3068888327,44825.9046049897,14586.1482434700,33164.4448083662,54322.9014845674,15950.5364236201,48585.8324325502,60810.5349151077,63412.4021975447,15855.7622330662
4093587857,26460,-2,0,-7857.4970742608,44823.5684071997,14588.4722735631,33164.8828454519,54320.6139575647,15955.7563655571,48579.4322240214,60810.1212134157,63410.5283722339,15851.1263405766
4093587857,26460,-2,0,-7857.6065835322,44826.2818035912,14591.4290238911,33167.3650556037,54324.5076205480,15958.7739543692,48598.9370420285,60814.6962674211,63413.7771472857,15852.0145824447
4093638069,26461,-2,0,-7858.0324529210,44826.5616606182,14593.7043831970,33167.5597387529,54321.5995410073,15965.8433862233,48592.0014548394,60813.8931994308,63415.6996433837,15855.0686743473
4093638069,26461,-2,0,-7854.1509576345,44828.8735230145,14599.3015237356,33169.3483901859,54318.4237721365,15968.6906272799,48580.5151490386,60814.4042426974,63417.9141642055,15858.4999648514
4093638069,26461,-2,0,-7849.6124067195,44831.8302733425,14601.0780074717,33170.5651598682,54321.6360440978,15959.6135254500,48597.7689431335,60817.7503593237,63417.3787855453,15859.1935235703
4093638069,26461,-2,0,-7850.3668039225,44826.6590021928,14597.2938537598,33165.6859134422,54316.6837914908,15951.6193486373,48598.5841788207,60810.5227474109,63410.3093536911,15854.1439293887
4093638069,26461,-2,0,-7853.8832683044,44819.9667689401,14599.0703374959,33161.8774243366,54306.0248890740,15955.8050363444,48576.4998090870,60805.2419669897,63406.1845044682,15854.0222524205
4093638069,26461,-2,0,-7850.6223255558,44826.3791451658,14607.3808744260,33168.8738500098,54316.3187605862,15963.5680269175,48590.5534989175,60812.2627280566,63413.1565947477,15864.0849376931
4093638069,26461,-2,0,-7848.6633263673,44833.0348753280,14611.8342514632,33174.3614812769,54325.8947379858,15967.1818328739,48607.9289699807,60818.0302163506,63417.9384995991,15873.8190951514
4093638069,26461,-2,0,-7849.2717112085,44834.0691295579,14617.9059321778,33173.7409287390,54324.9334899368,15968.7271303704,48589.7260955336,60815.3289876559,63418.8024060735,15874.0746167847
4093670091,26462,-2,0,-7849.8679283528,44831.8667764330,14618.0641122365,33171.9401096092,54323.5585401958,15962.7406235335,48584.9320229853,60814.3069011228,63417.2814439707,15866.1169430625
4093670091,26462,-2,0,-7848.9918541815,44830.9176960808,14616.0077714735,33172.0739542742,54324.8118129686,15961.2318291274,48602.9645496769,60814.8301120862,63417.9993380832,15863.1115219472
4093670091,26462,-2,0,-7848.2374569785,44826.9023561292,14616.9325164320,33169.2388809145,54318.3507659556,15961.9497232400,48592.9140321012,60811.2893123107,63417.1354316088,15861.9434230522
4093670091,26462,-2,0,-7847.2640412327,44827.8027656941,14620.8748502026,33170.7720107142,54316.3430959798,15966.0380693725,48582.4011420461,60813.3578207706,63420.4085420542,15864.7784964120
4093670091,26462,-2,0,-7849.6975805973,44828.8491876209,14618.1736215079,33169.2145455208,54320.8208084106,15953.6270186131,48598.4259987620,60814.9517890544,63418.5833875307,15862.9168387981
4093670091,26462,-2,0,-7854.6620009010,44823.3737240506,14614.3286293119,33162.3276291190,54315.5156925958,15945.2556431989,48592.2569764727,60806.2275504324,63410.1755090261,15859.6315606559
4093670091,26462,-2,0,-7859.8576074444,44814.5764792476,14612.9780149645,33154.8201601793,54305.3800011423,15944.5620844800,48565.4758757654,60797.3938025389,63403.9699836464,15854.8861588949
4093670091,26462,-2,0,-7857.3388942021,44819.9546012433,14618.8793479237,33157.8499166882,54310.0280613287,15951.0352991898,48577.8017526471,60801.3604717032,63407.4499449377,15860.1669393161
4093681558,26463,-2,0,-7854.2361315122,44825.1502077867,14624.5008238559,33160.8553378035,54318.5941198920,15956.3890857919,48591.4295730888,60805.3636439579,63409.7861427277,15866.1047753657
4093681558,26463,-2,0,-7852.8246786808,44826.2453005008,14628.0294559345,33160.4538038083,54318.1682505032,15964.8578027807,48576.6336537521,60803.8670172487,63411.9641604591,15867.6379051654
4093681558,26463,-2,0,-7849.3082142989,44829.7739325794,14630.3291506341,33164.9558516328,54320.7112991392,15959.5040161786,48581.9752726573,60810.5227474109,63417.0015869438,15867.7109113463
4093681558,26463,-2,0,-7850.7561702209,44829.1533800415,14630.3534860277,33164.8950131487,54321.6968825819,15951.9357087547,48597.2578998670,60812.3965727216,63416.1255127725,15863.2210312187
4093681558,26463,-2,0,-7854.9175225343,44822.8140099967,14632.1299697638,33159.8210835735,54313.8122150406,15954.8072852049,48578.4709759723,60807.4564878115,63411.1489247719,15860.6901502795
4093681558,26463,-2,0,-7853.1897095855,44828.3503120511,14641.3165808652,33161.1595302240,54317.3043440288,15960.7937920418,48570.4889668565,60811.1067968584,63414.9209107870,15863.0020126758
4093681558,26463,-2,0,-7848.9188480006,44835.8334455973,14647.1449076434,33163.0941940189,54327.3670293014,15957.6788616552,48591.9527840522,60818.1640610157,63417.4639594230,15864.4986393851
4093681558,26463,-2,0,-7848.8823449101,44834.2759804039,14650.5275273601,33161.0865240431,54326.9654953062,15957.0583091172,48589.4462385066,60814.6354289370,63414.4098675205,15863.7199067884
4093715477,26464,-2,0,-7848.8336741229,44831.2948946823,14653.4964453849,33161.6340704001,54322.1592550612,15960.4287611371,48574.6746545636,60812.6277589612,63414.6045506696,15861.1403550619
4093715477,26464,-2,0,-7847.9819353452,44830.6135036602,14650.1989995459,33164.7246653932,54322.5851244500,15955.0141360509,48587.9252764038,60814.9639567512,63413.8744888603,15859.7775730178
4093715477,26464,-2,0,-7852.5569893507,44826.4886544372,14646.8285475260,33163.1793678966,54319.7378833934,15953.2619877084,48594.0212925121,60812.3965727216,63410.9542416227,15860.3494547684
4093715477,26464,-2,0,-7855.5867458596,44825.0285308185,14652.5351973359,33162.2302875445,54314.3597613977,15959.7230347214,48579.8702611070,60809.1721330635,63413.0470854763,15861.7365722063
4093715477,26464,-2,0,-7850.0261084115,44829.7861002763,14659.3977783441,33166.5741553102,54321.1250008312,15958.8226251565,48591.1862191523,60814.7327705116,63416.6608914327,15863.5617267297
4093715477,26464,-2,0,-7846.5704825138,44827.4742378799,14657.8889839380,33164.7246653932,54323.9965772814,15951.2421500358,48603.5364314276,60813.3943238611,63414.2273520681,15865.0461857421
4093715477,26464,-2,0,-7849.3812204799,44820.0762782115,14656.1125002019,33158.7624939499,54316.6229530067,15953.6026832195,48580.1257827403,60807.0184507259,63410.5283722339,15858.9501696338
4093715477,26464,-2,0,-7849.8557606560,44818.8108377420,14655.9908232336,33156.2681161012,54316.5621145226,15951.2299823390,48577.4732248329,60805.5096563198,63410.6622168990,15855.8960777312
4093744934,26465,2,0,-7850.2207915607,44821.5120664366,14654.7497181577,33158.2514506834,54325.8582348953,15947.2876485684,48598.0366324636,60810.4862443204,63410.9420739259,15856.6139718438
4093744934,26465,2,0,-7854.1996284218,44817.8009189057,14653.4842776881,33155.4163773236,54321.9280688215,15947.4823317175,48588.6431705163,60806.5682459434,63409.4697826104,15854.0344201173
4093744934,26465,2,0,-7856.9130248133,44817.6305711501,14658.4973687792,33158.7624939499,54321.3318516772,15957.9952217725,48575.6480703094,60808.4542389510,63410.4310306594,15854.5941341712
4093744934,26465,2,0,-7849.4907297513,44826.9875300070,14665.5424652396,33169.1415393399,54332.1976049401,15963.3611760715,48600.7378611583,60820.5489295930,63418.7050644990,15865.6910736737
4093744934,26465,2,0,-7842.7376580146,44831.5382486188,14669.0345942278,33172.8770222645,54336.0425971361,15967.6685407468,48606.3715047873,60821.8387054562,63420.7005667779,15870.9596863980
4093744934,26465,2,0,-7835.3031952557,44831.9032795234,14672.7700771525,33172.8040160836,54334.4486288523,15970.0290739304,48589.6165862621,60819.7093585122,63419.3621201274,15868.1976192192
4093744934,26465,2,0,-7829.7182224140,44835.8942840814,14674.2788715585,33175.2618908418,54339.2548690974,15963.6532007952,48601.6382707232,60823.3718352559,63420.4085420542,15869.9619352586
4093744934,26465,2,0,-7832.0544202040,44833.9474525897,14670.7867425703,33173.1082085042,54337.9164224469,15958.7252835819,48608.6955348805,60820.8044512263,63417.4152886357,15869.7064136253
4093790075,26466,2,0,-7840.7299880388,44823.0573639332,14667.4406259440,33165.2965471438,54325.8704025922,15957.6180231710,48582.9365207064,60810.1577165062,63411.7816450067,15864.2309500550
4093790075,26466,2,0,-7845.6214021616,44818.6039868960,14664.5082110097,33162.4614737841,54320.6869637456,15961.0493136751,48578.8846776643,60810.0725426284,63409.7253042436,15860.2399454970
4093790075,26466,2,0,-7846.1811162154,44821.9257681286,14660.7240572978,33162.9968524443,54323.7288879513,15959.2606622421,48597.4769184098,60812.5304173867,63408.9465716470,15860.3616224653
4093790075,26466,2,0,-7849.9409345337,44816.5963169202,14653.3626007199,33157.7525751136,54318.5697844984,15954.9654652636,48580.5151490386,60805.9476934055,63401.0497364089,15856.0055870026
4093790075,26466,2,0,-7855.4894042850,44810.9140025039,14641.8762949190,33155.7327374410,54312.2425821505,15955.8050363444,48568.1892721570,60802.1635396935,63397.4602658461,15854.5089602934
4093790075,26466,2,0,-7856.7305093609,44809.1861895550,14626.5936677094,33157.8377489914,54313.1916625027,15954.0163849114,48586.3434758168,60806.7750967894,63399.8573021202,15857.9159154038
4093790075,26466,2,0,-7853.6520820647,44808.3101153838,14610.5931463872,33159.6629035148,54311.8045450648,15962.2295802669,48588.7405120909,60806.5439105498,63400.1979976313,15859.6558960495
4093790075,26466,2,0,-7851.2550457906,44809.3322019169,14590.1149126342,33161.4758903414,54309.2614964289,15971.3553528841,48573.4092140940,60805.1567931120,63401.7554628246,15860.4711317367
4093805027,26467,2,0,-7850.4033070130,44811.4372134673,14559.2211304008,33162.3884676032,54309.8698812700,15970.4549433192,48582.8270114350,60807.9918664717,63401.9136428833,15860.9335042159
4093805027,26467,2,0,-7850.7318348272,44810.2326114818,14524.3485113062,33159.4925557593,54311.5490234316,15976.3927793688,48585.1267061345,60807.1522953909,63403.4954434703,15862.2962862601
4093805027,26467,2,0,-7854.2239638154,44804.2217692512,14488.3807994976,33154.9540048443,54301.9487106383,15982.5252985676,48561.7768959313,60802.3582228427,63402.2178353039,15856.8694934771
4093805027,26467,2,0,-7852.7273371062,44805.6818928700,14451.0016348575,33158.3852953484,54304.6256039393,15982.6834786263,48568.7489862108,60805.9720287991,63405.2232564191,15853.0001658874
4093805027,26467,2,0,-7849.4420589640,44808.2492768996,14410.7508937672,33163.9702681901,54307.7527020228,15978.0840892272,48589.2272199638,60808.5880836160,63404.9068963017,15854.7888173204
4093805027,26467,2,0,-7850.2329592575,44805.5115451145,14373.4812383986,33166.8175092467,54302.9829648682,15982.0020876042,48575.8670888522,60806.6534198212,63405.1259148446,15853.1583459461
4093805027,26467,2,0,-7847.5925690469,44808.1397676282,14341.5653696320,33174.0572888564,54303.6886912839,15986.6988185779,48573.2510340353,60811.7151816995,63410.6013784149,15855.3972021615
4093805027,26467,2,0,-7845.2807066506,44808.7481524694,14308.4814019704,33178.2673119571,54306.6819447024,15982.7808202009,48592.1596348981,60815.1586399004,63414.5558798823,15860.0939331352
4093845193,26468,2,0,-7850.6223255558,44801.1068388646,14277.1495826513,33172.7675129931,54297.8238614153,15977.7677291098,48578.6169883342,60806.0085318896,63409.7983104246,15856.4192886946
4093845193,26468,2,0,-7854.2848022995,44795.1324997245,14248.8718552348,33168.3019682591,54290.1582124168,15981.4910443376,48558.3577731240,60799.2676278497,63405.4057718715,15851.0411666989
4093845193,26468,2,0,-7851.1455365192,44800.5836279012,14227.4080380392,33176.2231388908,54298.6877678897,15986.9178371207,48578.1789512486,60805.1811285056,63408.2408452312,15855.6162207043
4093845193,26468,2,0,-7849.0283572720,44799.4033613094,14207.1488228290,33180.4331619916,54297.4466628138,15985.1048502941,48582.6201605890,60802.9422722902,63407.9488205075,15857.4900460150
4093845193,26468,2,0,-7849.3812204799,44794.8039719103,14191.8783633162,33183.0370491117,54290.9856158008,15987.5018865682,48563.5655473642,60797.5033118103,63407.3161002727,15857.9402507975
4093845193,26468,2,0,-7849.9774376242,44794.4511087024,14179.1874555298,33187.3809168775,54293.8085214637,15986.3337876732,48569.9292528026,60801.0562792826,63410.1633413293,15859.4368775067
4093845193,26468,2,0,-7854.1752930281,44797.3348528495,14166.4478769562,33190.7270335038,54299.9410406625,15982.9876710469,48585.8446002470,60802.6624152633,63410.9785770164,15860.6049764017
4093845193,26468,2,0,-7854.0292806662,44795.9112323212,14157.9304891802,33190.8000396847,54298.3714077723,15990.2882891406,48567.5565519222,60799.8273419035,63410.9664093196,15859.5342190813
4093874111,26469,2,0,-7851.0725303383,44800.3646093584,14153.0755781478,33195.3750936902,54301.7783628827,15993.6222380701,48568.6394769394,60804.2685512439,63414.7505630315,15859.6558960495
4093874111,26469,2,0,-7852.7030017125,44800.3281062679,14143.4752653545,33197.1150743358,54303.6156851030,15986.4554646414,48585.7229232788,60805.6921717722,63415.5049602345,15860.9700073064
4093874111,26469,2,0,-7856.8886894196,44795.0473258468,14134.1183064977,33194.3165040666,54293.9910369161,15986.2121107049,48571.7544073261,60799.6569941480,63413.2782717159,15856.8938288707
4093874111,26469,2,0,-7856.0856214293,44795.6070399006,14130.2124758175,33198.4778563800,54289.1726289742,15988.6334823727,48561.3388588456,60799.0364416100,63414.8600723029,15856.0177546995
4093874111,26469,2,0,-7850.5371516781,44804.5137939750,14127.4260732450,33207.3237719703,54299.7706929070,15991.9309282117,48585.2605507995,60805.8503518309,63419.3864555210,15863.7199067884
4093874111,26469,2,0,-7842.4699686845,44811.3155364990,14129.2755631621,33214.8190732132,54306.9252986388,15997.7470872931,48592.4638273187,60807.9310279876,63422.9515906902,15872.1156175962
4093874111,26469,2,0,-7840.9976773689,44808.2736122933,14129.2268923748,33213.9551667388,54302.6057662667,15990.6776554390,48571.3285379373,60805.4244824421,63419.3012816433,15868.9398487254
4093874111,26469,2,0,-7846.4974763328,44805.1100111193,14121.9749450684,33210.9132425331,54298.8337802516,15980.9069948901,48575.7332441872,60804.7674268136,63415.0912585426,15865.0705211357
4093906716,26470,2,0,-7854.8810194439,44797.5052006050,14110.2939561183,33201.7266314317,54294.7941049064,15974.1660908502,48578.2397897327,60799.4623109988,63407.7541373583,15859.8140761082
4093906716,26470,2,0,-7861.4029049410,44789.3893468241,14106.0352622303,33195.6184476266,54286.0942016780,15977.2566858433,48558.1509222780,60792.4902207193,63404.0308221305,15857.0398412326
4093906716,26470,2,0,-7860.6728431316,44790.5331103254,14107.0573487634,33199.8771415146,54287.5664929935,15982.0750937851,48564.1009260244,60796.8949269692,63407.3891064536,15857.1006797167
4093906716,26470,2,0,-7854.4429823582,44795.6070399006,14109.2597018884,33207.6401320877,54297.6656813566,15986.1147691304,48587.1952145944,60802.8327630188,63412.7428930557,15863.9632607249
4093906716,26470,2,0,-7848.9066803038,44797.7850576319,14114.4674761286,33212.0448383376,54297.1911411805,15993.4518903146,48577.1933678059,60802.3582228427,63413.9718304348,15871.1422018504
4093906716,26470,2,0,-7844.7818310808,44802.2749377596,14120.3809767846,33216.1940229542,54298.3957431660,15996.3599698553,48570.7323207929,60804.4632343930,63418.6807291053,15873.6000766086
4093906716,26470,2,0,-7841.2288636085,44808.5169662297,14120.4904860560,33219.8078289106,54305.1123118122,15990.6289846517,48593.7171000915,60808.5637482224,63419.5446355797,15874.1719583593
4093906716,26470,2,0,-7845.0981911982,44804.1487630703,14116.0979475029,33214.7460670323,54300.8901210147,15984.8614963576,48587.4385685308,60801.8593472729,63414.2395197649,15870.0106060459
4093935366,26471,2,0,-7852.7030017125,44795.9599031085,14113.3967188082,33210.6942239902,54290.9977834976,15985.2630303528,48567.2036887143,60795.6294864996,63411.6964711289,15864.5351424755
4093935366,26471,2,0,-7854.2482992091,44797.5173683018,14111.1943656832,33211.6919751297,54291.9955346371,15982.1724353597,48581.8414279923,60798.9391000354,63413.2052655350,15867.2120357766
4093935366,26471,2,0,-7856.3898138499,44793.7332145899,14105.3903742987,33207.3116042735,54289.4038152138,15980.7001440442,48585.1145384377,60796.8340884851,63413.5337933492,15867.9299298891
4093935366,26471,2,0,-7855.9031059770,44791.4213521935,14108.1281060839,33203.0650780823,54287.2257974825,15987.9764267443,48566.5709684795,60795.2279525044,63415.0669231489,15865.6058997959
4093935366,26471,2,0,-7850.1964561670,44797.1036666098,14111.7905828276,33208.6622186208,54294.3925709112,15990.7141585294,48575.4533871602,60803.1247877425,63421.1751069540,15867.3580481385
4093935366,26471,2,0,-7845.9986007631,44801.8855714612,14114.9055132142,33213.9308313451,54302.3745800271,15986.7961601525,48591.9162809617,60807.8823572003,63425.2026146024,15872.6996670437
4093935366,26471,2,0,-7849.6124067195,44796.8481449765,14115.4773949649,33210.7185593839,54295.4633282316,15989.0106809742,48572.3992952577,60801.6403287301,63420.8344114430,15870.4608108283
4093935366,26471,2,0,-7845.5970667679,44802.5182916960,14121.8045973128,33217.8975005094,54300.8292825306,15997.7470872931,48573.7255742114,60806.9819476354,63426.0056825927,15876.7271746921
4094022807,26472,2,0,-7843.0783535256,44805.8400729287,14118.6653315325,33217.2404448810,54304.5891008488,15984.3504530910,48593.9117832406,60809.4641577873,63423.1219384457,15876.3621437874
4094022807,26472,2,0,-7850.9751887637,44794.4267733088,14108.9311740742,33204.7928910311,54292.8107703242,15977.4635366893,48578.6778268183,60797.5398149008,63412.9497439017,15867.2972096543
4094022807,26472,2,0,-7857.4970742608,44788.3064218068,14108.2619507489,33200.0596569670,54286.2767171303,15982.8051555945,48561.1198403028,60794.7412446315,63409.9199873928,15864.8758379866
4094022807,26472,2,0,-7858.3244776447,44790.8616381397,14109.5638943090,33205.0240772707,54293.6381737082,15983.5473851007,48580.1866212244,60802.9909430775,63414.0691720094,15868.5261470335
4094022807,26472,2,0,-7856.5723293022,44794.5362825802,14111.5958996784,33208.9664110414,54297.5440043884,15990.4343015025,48587.7549286482,60806.0693703737,63416.5270467677,15870.6311585838
4094022807,26472,2,0,-7854.7593424756,44795.4245244483,14115.5017303586,33212.0326706408,54296.7896071853,15989.4365503630,48571.6935688420,60807.3348108433,63417.4639594230,15868.3679669748
4094022807,26472,2,0,-7852.5204862602,44797.5052006050,14113.2628741431,33215.6708119908,54299.1744757626,15981.8439075455,48583.7395886967,60810.7904367410,63418.2183566261,15866.0561045784
4094022807,26472,2,0,-7856.5601616054,44791.9323954601,14106.2786161668,33212.0326706408,54295.2443096888,15976.1615931292,48590.8090205508,60806.2518858260,63412.7063899653,15865.8370860356
4094028764,26473,2,0,-7860.5755015570,44785.3983422662,14106.3516223477,33209.3679450365,54287.5299899031,15978.3882816478,48567.5322165285,60800.3383851701,63410.0294966642,15863.9632607249
4094028764,26473,2,0,-7861.5610849996,44786.2379133469,14106.4246285286,33211.4121181028,54290.2433862946,15981.0895103425,48565.4637080686,60803.4168124663,63412.4143652415,15865.4598874341
4094028764,26473,2,0,-7859.9914521095,44792.7476311472,14105.9014175653,33214.3080299467,54297.7386875375,15981.2841934917,48586.1001218803,60807.9918664717,63415.8578234424,15870.9353510044
4094028764,26473,2,0,-7863.6295934595,44789.8638870002,14103.2853627483,33210.7428947775,54294.7332664223,15978.0110830463,48574.1392759034,60802.6015767791,63412.0736697305,15866.2751231212
4094028764,26473,2,0,-7866.5863437875,44788.7322911956,14101.8252391296,33210.6455532029,54288.2722194093,15978.4856232224,48562.7868147676,60800.8615961335,63412.8158992367,15862.2111123823
4094028764,26473,2,0,-7869.8837896265,44788.9756451321,14099.4768736427,33211.3147765282,54289.0387843091,15970.7956388303,48581.6954156304,60804.0982034884,63413.5094579556,15862.8316649203
4094028764,26473,2,0,-7870.8450376756,44785.9580563200,14098.7954826207,33209.9154913936,54284.9991089639,15979.1548465476,48580.6733290973,60803.3316385885,63413.7041411047,15866.6036509354
4094028764,26473,2,0,-7861.1230479140,44791.7133769173,14109.7342420645,33214.2958622498,54289.9878646613,15990.0571029010,48574.7963315318,60810.4132381395,63419.4837970956,15875.3035541638
4094040434,26474,2,0,-7854.8931871407,44799.2816843411,14116.1709536838,33218.4085437760,54301.2186488289,15979.0940080635,48595.1407206198,60817.3244899349,63422.6595659664,15878.6131676997
4094040434,26474,2,0,-7861.7922712393,44792.4312710298,14110.7319932040,33210.8402363521,54298.0915507454,15962.8623005017,48598.0244647668,60810.7539336505,63413.0714208699,15872.1399529899
4094040434,26474,2,0,-7871.3074101548,44781.3708346178,14104.2587784942,33203.9046491630,54288.6859211013,15964.1642440618,48572.1802767149,60801.9810242412,63405.6856288984,15858.8284926656
4094040434,26474,2,0,-7873.6071048544,44781.8940455812,14103.9667537704,33208.3945292907,54290.3650632628,15967.9240623801,48573.4092140940,60806.6655875180,63408.3016837153,15857.1858535945
4094040434,26474,2,0,-7868.5940137633,44787.5641923006,14103.3218658388,33211.5824658583,54297.4223274201,15967.9240623801,48591.3809023015,60811.4109892789,63409.7739750309,15860.6049764017
4094040434,26474,2,0,-7863.9459535769,44788.1847448386,14104.9645049099,33210.0615037554,54294.1005461875,15971.7447191825,48577.5462310138,60810.3158965649,63409.5184533976,15859.8992499860
4094040434,26474,2,0,-7857.1928818402,44794.0617424041,14112.3137937909,33213.8821605578,54297.8360291121,15983.5108820103,48576.8283369012,60817.0689683016,63416.2350220439,15861.4567151793
4094040434,26474,2,0,-7851.7417536635,44802.3844470310,14118.9451885594,33221.8520019769,54310.1740736906,15990.4829722898,48599.1073897840,60827.4966844789,63422.9515906902,15867.5283958940
4094059462,26475,2,0,-7850.3911393162,44803.1266765372,14124.1164597092,33223.2634548083,54312.3034206346,15987.6235635364,48595.9802917006,60828.0320631391,63423.8398325582,15870.2539599823
4094059462,26475,2,0,-7852.0702814778,44802.2140992755,14123.9826150441,33220.0146797566,54307.6796958419,15982.5131308708,48581.3425524226,60823.7855369479,63420.8222437462,15866.6523217227
4094059462,26475,2,0,-7853.3357219473,44801.5205405566,14118.5558222611,33216.2183583479,54310.3565891429,15968.0700747419,48595.7612731577,60823.6638599797,63417.3787855453,15862.3327893506
4094059462,26475,2,0,-7858.5069930971,44795.2541766927,14112.3381291846,33207.9199891146,54306.0735598612,15958.4089234645,48593.5102492455,60815.1343045068,63407.8514789329,15855.9812516090
4094059462,26475,2,0,-7860.6241723443,44788.9513097385,14113.5914019574,33202.7608856617,54297.6900167502,15962.2052448733,48568.2136075506,60807.9188602908,63402.4855246340,15849.7027200484
4094059462,26475,2,0,-7855.7327582215,44792.6989603599,14120.1376228481,33207.1899273052,54302.4597539048,15967.9118946832,48578.8725099675,60814.7936089957,63406.6225415538,15854.8131527140
4094059462,26475,2,0,-7855.5259073755,44795.2541766927,14122.4981560317,33209.2584357651,54305.6963612597,15968.2039194070,48594.5810065659,60817.8598685951,63407.0362432458,15861.8095783872
4094059462,26475,2,0,-7856.4141492435,44796.9698219448,14125.2845586042,33208.0903368701,54306.6332739151,15974.6284633295,48579.2010377817,60816.8377820620,63408.9709070406,15863.1115219472
4094096662,26476,2,0,-7854.0414483631,44802.1654284882,14128.8496937733,33211.6433043424,54312.6319484488,15976.0399161610,48578.2032866422,60821.6561900039,63416.2471897407,15862.3692924410
4094096662,26476,2,0,-7851.8877660254,44804.6963094273,14128.8010229860,33211.8136520979,54317.6815426303,15974.2999355153,48593.0600444630,60823.6516922828,63418.1331827483,15862.9046711013
4094096662,26476,2,0,-7852.3988092920,44800.7174725662,14128.9226999543,33208.6135478335,54312.1695759695,15975.6870529531,48580.2109566180,60816.6552666096,63415.7118110805,15865.0218503484
4094096662,26476,2,0,-7853.9197713948,44799.3303551284,14131.1250530792,33209.1975972810,54309.5170180621,15977.2688535401,48566.8021547191,60815.8278632257,63416.8677422787,15864.4012978105
4094096662,26476,2,0,-7852.6786663189,44805.0370049384,14132.3661581552,33211.6311366456,54316.2214190116,15978.6073001906,48586.5624943596,60821.3641652801,63419.7149833353,15866.5914832386
4094096662,26476,2,0,-7855.8909382802,44800.2794354806,14131.2832331379,33206.8492317942,54311.9140543363,15973.0466627425,48583.3988931856,60816.3389064922,63416.1620158630,15863.3548758837
4094096662,26476,2,0,-7860.6606754348,44794.5849533675,14132.2201457933,33202.2620100919,54303.9320452204,15974.3729416962,48562.9693302199,60809.8778594793,63414.1908489777,15857.9767538880
4094096662,26476,2,0,-7860.4903276792,44795.0959966340,14129.8474449128,33202.6027056030,54304.9541317535,15970.6252910748,48571.2433640595,60811.9342002423,63414.8722399997,15855.4702083424
4094143133,26477,2,0,-7859.6264212048,44791.9445631569,14126.3188128341,33199.7311291528,54303.7616974649,15967.1453297834,48580.1257827403,60809.8900271761,63413.2174332318,15857.1128474135
4094143133,26477,2,0,-7860.0036198063,44788.5376080465,14127.1583839149,33194.4138456411,54298.9676249166,15972.1949239649,48561.5700450853,60805.7165071658,63410.1025028451,15856.1759347582
4094143133,26477,2,0,-7857.2050495370,44792.5651156949,14133.3152385073,33196.5310248883,54301.1821457384,15975.5045375008,48564.1860999022,60809.7318471174,63413.0957562636,15854.7766496235
4094143133,26477,2,0,-7856.2559691848,44796.3127663163,14134.7996975197,33200.3030109034,54307.6675281450,15976.2102639165,48579.6390748673,60812.2140572693,63413.2052655350,15856.2246055455
4094143133,26477,2,0,-7856.5358262118,44795.9355677148,14137.5009262144,33200.3395139939,54302.6422693572,15979.6415544206,48565.9990867288,60808.9166114302,63413.1200916572,15862.6613171648
4094143133,26477,2,0,-7853.4573989156,44799.6588829426,14144.4121780099,33204.8658972120,54303.8833744331,15986.6379800938,48560.4871200680,60814.0270440959,63417.3909532421,15870.5459847061
4094143133,26477,2,0,-7849.6732452036,44804.5989678528,14144.3270041321,33207.6888028750,54310.5877753826,15984.1314345482,48583.4597316697,60820.5732649866,63421.1264361667,15873.7217535769
4094143133,26477,2,0,-7850.0869468956,44803.6620551974,14142.1124833103,33204.3426862487,54310.5877753826,15979.0940080635,48583.0216945841,60816.2902357050,63419.2647785528,15869.0615256937
4094152816,26478,2,0,-7856.7183416641,44796.4831140719,14138.7785343808,33198.6117010451,54300.3182392640,15974.3607739994,48562.9693302199,60808.5029097383,63413.4851225619,15856.5774687533
4094152816,26478,2,0,-7861.3542341537,44793.7575499835,14135.3107407863,33196.3485094360,54298.2740661977,15966.6707896073,48571.9369227784,60806.6290844275,63408.4355283804,15855.8839100344
4094152816,26478,2,0,-7866.0631328241,44787.5398569070,14132.9258722090,33192.2358279098,54293.3583166813,15964.2980887268,48574.1757789938,60800.1923728082,63401.5242765850,15860.2886162843
4094152816,26478,2,0,-7864.3109844816,44786.8949689754,14137.1358953097,33193.2457467461,54290.6449202897,15971.6473776079,48556.4109416323,60798.3672182848,63402.5706985117,15865.0948565294
4094152816,26478,2,0,-7861.0257063394,44791.1901659539,14139.2530745569,33196.5431925852,54293.1027950480,15965.4661876218,48563.2248518532,60801.3726394000,63403.9699836464,15866.5914832386
4094152816,26478,2,0,-7863.1428855866,44789.0851544035,14134.5563435833,33191.8221262179,54290.3042247787,15958.5306004328,48572.7156553751,60795.6051511059,63400.3561776900,15862.7586587394
4094152816,26478,2,0,-7867.6814365016,44780.8354559576,14131.2954008347,33185.6652716254,54279.8035024205,15963.9695609126,48549.3780128687,60786.9295832712,63396.3530054352,15859.5220513845
4094152816,26478,2,0,-7868.1438089809,44781.6871947352,14136.7221936178,33185.3732469017,54282.5655695993,15969.7127138130,48545.4478467949,60790.3122029880,63401.7067920373,15864.8758379866
4094181522,26479,2,0,-7866.0874682178,44786.4934349802,14139.5450992807,33187.4417553616,54288.5642441330,15964.2980887268,48569.9292528026,60796.1283620693,63403.1425802624,15867.5405635908
4094181522,26479,2,0,-7868.8617030934,44783.0256413857,14137.0385537352,33183.6819370433,54284.2325440641,15960.0637302324,48561.8620698090,60789.4969673008,63399.0664018267,15865.8735891261
4094181522,26479,2,0,-7869.7742803551,44780.8111205639,14137.5495970017,33183.0613845053,54279.5114776968,15961.2683322179,48547.1513243501,60786.0291737063,63397.4846012398,15863.2697020059
4094181522,26479,2,0,-7867.6205980175,44780.4582573560,14134.2278157691,33185.4340853858,54283.0157743818,15953.6026832195,48564.3199445673,60789.4604642104,63396.0609807115,15862.9776772822
4094181522,26479,2,0,-7869.6526033869,44776.9539606710,14130.5410036317,33185.6409362318,54281.1419490710,15953.4445031608,48565.8530743669,60786.9295832712,63391.5954359774,15859.3760390226
4094181522,26479,2,0,-7871.5264286976,44777.4650039376,14133.3517415978,33184.8865390288,54279.4384715158,15960.2827487753,48550.2419193431,60784.8245717208,63392.0699761535,15860.4711317367
4094181522,26479,2,0,-7866.6106791812,44781.6750270383,14137.4765908208,33186.9672151855,54283.7458361911,15960.5382704085,48561.7647282344,60788.7547377946,63395.5499374449,15864.8393348961
4094181522,26479,2,0,-7862.8021900756,44788.0874032640,14144.7893766114,33186.6021842808,54290.4745725342,15968.7027949767,48576.1591135760,60792.1981959955,63402.3030091816,15870.2417922855
4094210427,26480,2,0,-7864.0676305452,44787.9048878117,14154.0246585000,33183.5845954687,54287.3718098444,15973.5577060091,48555.9485691531,60789.6064765722,63406.5373676760,15872.5658223787
4094210427,26480,2,0,-7864.7611892641,44788.3915956846,14158.3563585690,33181.9541240944,54286.9824435460,15972.5599548696,48553.5880359694,60790.9327555259,63408.9222362533,15873.5270704277
4094210427,26480,2,0,-7861.5245819092,44793.8305561645,14157.9548245738,33183.1830614736,54294.3439001239,15968.8123042481,48575.8184180649,60797.7466657468,63411.7938127035,15876.5689946334
4094210427,26480,2,0,-7861.8409420266,44790.8616381397,14155.7524714488,33180.1898080551,54293.2366397130,15971.5013652460,48567.9094151300,60793.7313257952,63407.2065910013,15874.4396476894
4094210427,26480,2,0,-7858.7381793367,44793.6967114994,14159.6583021290,33185.5557623540,54294.2708939430,15975.9790776769,48560.9494925473,60796.4203867931,63409.3116025517,15871.4098911805
4094210427,26480,2,0,-7858.6408377621,44793.5263637439,14158.9039049260,33187.4660907552,54299.3448235182,15968.8001365513,48578.2884605200,60800.2167082018,63409.0074101311,15869.2440411460
4094210427,26480,2,0,-7864.7733569609,44788.0874032640,14158.2103462071,33183.9374586766,54295.2808127793,15962.8988035922,48571.6205626610,60795.0941078394,63404.7122131526,15867.2242034734
4094210427,26480,2,0,-7869.9811312011,44784.0233925252,14159.7678114004,33180.7373544122,54288.7102564949,15962.9474743795,48547.7110384039,60790.7502400736,63401.8284690055,15865.1191919230
4094258222,26481,2,0,-7869.0928893331,44786.7976274008,14160.1693453956,33181.1267207105,54291.1194604658,15962.7892943208,48561.5700450853,60792.3077052669,63401.6094504627,15870.8623448235
4094258222,26481,2,0,-7865.0653816847,44789.8882223938,14163.4911266282,33180.4818327789,54292.1172116053,15962.6067788684,48570.2699483137,60794.1571951840,63403.1790833529,15874.5004861735
4094258222,26481,2,0,-7866.2943190638,44786.7489566135,14166.8007401641,33175.0307046022,54284.0500286117,15966.0867401598,48548.9643111767,60788.5722223423,63401.6216181596,15871.3368849996
4094258222,26481,2,0,-7865.3695741052,44787.4181799388,14170.4875523014,33176.1014619226,54283.5633207388,15964.0425670935,48552.5172786490,60790.9084201323,63404.7608839399,15867.6865759527
4094258222,26481,2,0,-7867.0608839636,44784.1085664029,14165.6083058754,33171.8671034282,54285.0112766607,15955.6468562857,48566.5344653890,60789.4482965135,63398.6770355284,15863.0385157663
4094258222,26481,2,0,-7867.1582255382,44780.8719590480,14165.5352996945,33170.3583090222,54281.7990046995,15963.2881698905,48552.3956016808,60784.6542239653,63395.5742728386,15863.6469006075
4094258222,26481,2,0,-7862.1938052344,44786.4447641929,14173.8580043214,33176.2839773750,54286.3862264017,15972.0245762094,48548.7331249371,60788.3532037995,63397.6062782080,15866.0317691848
4094258222,26481,2,0,-7854.1631253313,44796.6412941306,14181.7548395595,33186.3344949507,54299.6976867260,15974.5067863613,48573.3605433067,60798.9634354291,63403.0939094751,15871.9574375375
4094280363,26482,2,0,-7851.8877660254,44798.3812747762,14185.5146578778,33185.0690544811,54300.1965622958,15966.3665971867,48568.8341600886,60797.4303056294,63402.7045431768,15873.5392381245
4094280363,26482,2,0,-7854.9418579280,44792.2852586679,14183.3488078433,33180.4574973852,54294.5020801826,15964.4927718760,48552.2495893189,60791.2369479465,63397.3507565747,15872.5171515914
4094280363,26482,2,0,-7853.1897095855,44796.1059154703,14183.5191555988,33182.1488072436,54298.6634324961,15962.1444063892,48569.8440789249,60793.9990151253,63398.4336815919,15875.7902620368
4094280363,26482,2,0,-7858.5069930971,44792.9423142964,14180.6232437549,33176.0406234385,54296.2907316156,15955.7320301635,48570.0265943772,60786.7227324252,63392.5688517233,15873.8190951514
4094280363,26482,2,0,-7862.3398175963,44785.6416962026,14178.9927723807,33170.6990045332,54286.9337727588,15955.1358130192,48544.4744310490,60779.8723191139,63387.6409345100,15865.0705211357
4094280363,26482,2,0,-7859.6385889016,44788.9269743448,14183.0932862100,33175.6877602306,54289.6593368471,15956.8392905744,48550.7042918224,60784.6298885717,63389.2835735811,15864.3769624168
4094280363,26482,2,0,-7855.8909382802,44794.3172640374,14188.4835759026,33179.9829572091,54295.5971728967,15957.8127063202,48569.5763895948,60789.6308119659,63391.0722250141,15870.2174568918
4094280363,26482,2,0,-7861.5854203933,44792.1879170934,14191.8296925289,33175.6147540497,54290.0973739327,15954.9046267795,48553.2351727616,60783.7294790068,63388.1154746861,15870.1687861046
4094309313,26483,2,0,-7868.4601690983,44790.6182842032,14194.1172195316,33170.6990045332,54287.1162882111,15949.3804924219,48545.8615484868,60778.8015617935,63385.8766184707,15863.0385157663
4094309313,26483,2,0,-7869.6161002964,44787.6371984816,14191.9757048907,33166.0266089532,54288.9049396441,15945.4138232576,48559.7813936523,60776.7573887272,63384.0027931599,15864.4256332041
4094309313,26483,2,0,-7870.1149758662,44783.2933307158,14194.4092442553,33160.5876484734,54282.5899049930,15950.8284483438,48546.4942687216,60771.0385712204,63382.1046324556,15867.2120357766
4094309313,26483,2,0,-7869.9202927170,44783.9503863442,14201.9288808919,33163.0576909284,54280.5944027140,15956.9731352394,48534.4604165638,60773.6546260374,63384.7936934534,15869.0006872095
4094309313,26483,2,0,-7866.4403314256,44789.8638870002,14204.7882896453,33166.6836645817,54286.4835679763,15948.5530890379,48553.7705514218,60779.8601514171,63387.7991145687,15866.7618309941
4094309313,26483,2,0,-7868.2654859491,44788.0509001736,14204.3624202565,33163.1306971094,54283.5633207388,15945.3894878640,48552.8336387664,60774.6037063896,63384.3799917614,15865.3260427690
4094309313,26483,2,0,-7868.6913553379,44782.5389335128,14208.0127293034,33160.0766052068,54278.2582049240,15951.6801871214,48531.7591878691,60771.5617821838,63381.9586200937,15863.7929129693
4094309313,26483,2,0,-7864.6638476895,44786.7246212199,14212.0159015581,33167.6814157211,54284.3907241228,15951.1326407644,48543.6348599683,60777.7429721699,63385.6697676247,15868.7086624858
4094336642,26484,2,0,-7864.4934999340,44788.7079558020,14210.5192748489,33168.9590238875,54287.9801946855,15950.8649514343,48556.2405938768,60783.0480879847,63386.1686431944,15873.2472134008
4094336642,26484,2,0,-7862.0112897821,44792.8449727218,14215.0699934607,33169.6039118192,54290.4989079279,15956.0118871904,48542.8074565843,60784.0701745178,63389.6851075762,15876.8731870540
4094336642,26484,2,0,-7858.8963593954,44799.9874107569,14221.4823696864,33171.7697618536,54297.2154765741,15953.9190433369,48548.5992802720,60789.3509549390,63393.3110812295,15875.8754359145
4094336642,26484,2,0,-7859.1397133319,44799.1965104634,14220.9104879357,33168.4601483178,54297.5683397820,15947.4336609302,48566.2911114526,60789.6308119659,63390.8167033808,15872.0426114153
4094336642,26484,2,0,-7861.5854203933,44789.5475268828,14222.0177483466,33162.4006353000,54286.0455308907,15946.4724128812,48550.4244347955,60781.4906227913,63385.7914445929,15867.0903588083
4094336642,26484,2,0,-7862.6075069264,44788.1847448386,14226.3616161124,33162.2911260286,54283.2712960150,15953.4931739481,48540.7511158212,60780.9065733438,63388.0181331115,15866.1656138498
4094336642,26484,2,0,-7859.3708995715,44794.2685932501,14229.9389189783,33167.0730308800,54290.4745725342,15949.3196539378,48563.6142181515,60787.1851049045,63391.3399143442,15870.9840217917
4094336642,26484,2,0,-7860.7701847062,44791.1536628634,14228.1624352422,33164.1162805520,54287.4691514190,15947.5066671112,48559.9152383173,60782.2328522975,63388.0059654147,15872.7726732247
4094378966,26485,2,0,-7865.4425802862,44786.7732920072,14230.4864653354,33162.7291631142,54279.8400055110,15947.6526794730,48544.6812818950,60778.5460401602,63386.5580094927,15869.8280905935
4094378966,26485,2,0,-7867.2433994160,44786.2135779533,14228.1380998485,33163.4957280140,54280.1928687188,15942.3718990519,48557.5668728305,60779.5559589965,63386.9595434879,15867.0660234147
4094378966,26485,2,0,-7867.0243808732,44784.8264605155,14226.7874855012,33161.1716979209,54277.6619877797,15943.3939855850,48559.4163627476,60779.8236483266,63383.1145512919,15865.7884152483
4094378966,26485,2,0,-7863.9216181833,44784.1450694934,14231.2165271447,33161.0500209526,54275.8855040435,15952.7266090482,48538.2324025789,60776.4410286098,63380.3646518099,15868.9641841191
4094378966,26485,2,0,-7857.6309189258,44791.7620477046,14239.8312564954,33166.5984907039,54284.5854072719,15958.1777372249,48548.6479510593,60783.8754913686,63388.2979901384,15875.9484420954
4094378966,26485,2,0,-7857.0468694783,44792.9423142964,14242.1796219822,33166.5863230071,54288.3938963775,15954.0042172146,48564.2469383863,60784.5568823907,63391.9117960948,15878.6983415774
4094378966,26485,2,0,-7860.2834768332,44788.4402664719,14245.0877015229,33163.3010448649,54279.2924591539,15952.1182242071,48547.4555167707,60776.8547303018,63390.8045356840,15878.0899567363
4094378966,26485,2,0,-7867.4137471715,44783.9625540410,14244.7470060118,33159.4073818815,54272.3812073585,15943.6981780056,48537.6605208282,60772.6447072011,63387.4219159672,15874.9385232591
4094408288,26486,2,0,-7871.4655902135,44782.5632689064,14240.7560014539,33156.8034947614,54276.3600442196,15937.6630003814,48553.7218806345,60771.7442976362,63382.4209925730,15875.2548833765
4094408288,26486,2,0,-7870.2123174408,44779.7525309403,14241.2062062364,33154.1022660667,54273.9873433391,15938.3078883130,48548.9399757831,60765.3197537137,63377.1158767582,15874.3788092053
4094408288,26486,2,0,-7870.2731559249,44777.2216500011,14244.0169442025,33152.4961300861,54269.1446000036,15939.4759872080,48534.5942612288,60763.6649469457,63375.7774301076,15868.0881099478
4094408288,26486,2,0,-7871.3560809421,44776.6862713409,14243.8709318406,33152.0702606973,54271.3104500381,15935.9108520389,48549.8525530448,60767.5221068386,63377.7972677802,15863.6590683043
4094408288,26486,2,0,-7871.2465716707,44776.3699112235,14246.8885206527,33152.2041053624,54271.4442947031,15944.8541092038,48552.1765831380,60768.9822304574,63380.5958380495,15869.3413827206
4094408288,26486,2,0,-7867.1825609318,44776.5645943727,14251.9989533183,33151.7782359736,54272.8922506251,15945.3529847735,48536.1395587253,60770.2111678365,63384.7450226661,15870.3513015569
4094408288,26486,2,0,-7865.9536235527,44782.3564180604,14253.5564185117,33153.9805890985,54276.2383672514,15943.8441903675,48549.7065406829,60774.8957311133,63385.2073951454,15872.4198100168
4094408288,26486,2,0,-7867.0122131763,44783.4636784713,14254.4568280766,33153.7250674652,54280.0225209633,15941.0577877950,48562.1540945328,60772.5960364138,63383.0293774141,15874.9506909560
4094428995,26487,2,0,-7870.5773483454,44779.7281955467,14258.7520250551,33149.2351873376,54272.3690396617,15941.4714894870,48540.7997866085,60767.5342745354,63378.8558574038,15873.0403625548
4094428995,26487,2,0,-7871.9888011769,44780.6164374147,14263.5217622096,33150.3181123548,54271.2617792508,15941.9581973599,48536.4924219332,60768.0574854988,63379.2330560053,15871.6167420265
4094428995,26487,2,0,-7870.4556713772,44783.0134736889,14264.3735009873,33150.5371308976,54275.9463425276,15937.8211804401,48555.1698365564,60770.9290619490,63378.6976773451,15872.5414869850
4094428995,26487,2,0,-7869.6769387806,44784.0112248283,14270.9927280589,33151.2185219197,54275.9220071340,15944.7689353260,48548.7817957244,60769.7001245699,63377.4809076628,15873.5514058213
4094428995,26487,2,0,-7866.3916606384,44786.2987518311,14278.2690107590,33155.3312034459,54276.6520689434,15948.2123935269,48545.7885423059,60772.7542164725,63380.4011549003,15875.9849451859
4094428995,26487,2,0,-7864.4691645403,44789.1094897972,14279.7899728619,33159.0058478864,54280.2172041125,15943.8198549738,48564.0279198435,60776.7573887272,63382.3966571793,15876.9340255381
4094428995,26487,2,0,-7866.2456482765,44786.1649071660,14279.8264759524,33154.9661725412,54276.8102490021,15944.1605504849,48560.1464245570,60774.1535016071,63382.5183341475,15872.2372945645
4094428995,26487,2,0,-7863.4835810977,44785.3618391757,14286.5430445987,33156.8399978519,54276.6885720338,15952.9334598942,48542.7587857970,60775.3459358958,63386.6796864610,15872.6631639533
4094460404,26488,2,0,-7858.7746824272,44792.9179789027,14291.9820050785,33162.0477720921,54286.4227294922,15948.0663811650,48559.6110458968,60782.2085169039,63390.0379707841,15876.0701190637
4094460404,26488,2,0,-7860.0279552000,44789.9247254843,14290.8990800613,33161.1595302240,54288.0653685633,15944.9392830815,48569.6250603821,60779.6533005711,63385.8887861675,15879.4040679932
4094460404,26488,2,0,-7861.3907372441,44786.2744164374,14297.0559346537,33160.0766052068,54282.5047311152,15948.2975674047,48553.6002036662,60776.0151592210,63384.4408302456,15879.5865834455
4094460404,26488,2,0,-7863.4105749167,44783.8165416792,14299.6476540770,33159.2857049133,54281.4339737948,15943.2479732231,48557.4938666496,60777.1102519351,63384.5381718201,15875.1088710147
4094460404,26488,2,0,-7869.2510693917,44781.2369899527,14294.7805753478,33155.6718989569,54279.0369375207,15934.2925483615,48569.7102342598,60774.7132156610,63380.5106641718,15871.4098911805
4094460404,26488,2,0,-7872.9013784386,44775.2018123285,14294.7684076510,33150.9264971959,54272.4298781458,15941.2524709442,48554.0017376614,60768.5928641590,63376.2032994964,15868.3557992779
4094460404,26488,2,0,-7865.7102696163,44781.7723686129,14303.9428510555,33155.8179113188,54277.3456276623,15950.8162806470,48551.1423289080,60773.5816198564,63383.1632220792,15869.4873950825
4094460404,26488,2,0,-7858.3488130384,44792.6989603599,14313.6283377265,33164.1284482488,54289.2091320646,15953.8338694591,48573.9932635415,60786.1751860682,63394.2114907944,15877.0313671127
4094499369,26489,2,0,-7857.1563787497,44792.1635816997,14319.5540060793,33163.1550325030,54288.1262070474,15953.3593292830,48567.9337505237,60786.2481922491,63396.0853161051,15878.1751306140
4094499369,26489,2,0,-7856.4506523340,44791.3361783158,14325.2241527988,33164.1406159457,54287.3961452380,15952.7752798355,48554.4397747470,60786.1873537650,63396.7423717336,15875.6685850685
4094499369,26489,2,0,-7857.1198756593,44792.4069356362,14323.4598367595,33164.1771190361,54290.8517711357,15941.7878496044,48571.6814011451,60786.7835709093,63393.2624104422,15871.9696052343
4094499369,26489,2,0,-7862.5710038360,44788.9513097385,14319.1768074778,33158.2392829865,54286.0211954970,15937.9185220147,48573.2632017321,60778.8137294903,63385.7062707151,15868.1976192192
4094499369,26489,2,0,-7864.6881830831,44785.3375037820,14324.2020662657,33155.2703649617,54279.9860178729,15944.8297738101,48551.8967261110,60775.2485943212,63382.0681293651,15864.0240992090
4094499369,26489,2,0,-7863.0698794057,44787.9657262958,14328.5581017283,33156.7548239741,54282.6750788707,15944.7445999324,48559.1365057207,60779.2639342727,63383.0902158982,15864.3769624168
4094499369,26489,2,0,-7864.1284690293,44788.9513097385,14331.0889826674,33156.3167868885,54286.5322387636,15948.3097351015,48572.6183138005,60781.4297843072,63385.0005442994,15866.8591725687
4094499369,26489,2,0,-7863.7269350341,44788.0752355672,14337.6960420423,33156.7791593678,54283.7701715848,15954.0163849114,48558.6863009382,60778.5095370697,63384.4286625487,15873.1985426135
4094519359,26490,2,0,-7859.5777504175,44794.4146056120,14345.1670078916,33161.1960333145,54286.3862264017,15955.5738501048,48561.0590018187,60781.6001320627,63389.3444120652,15878.5036584283
4094519359,26490,2,0,-7856.7426770578,44796.8724803702,14347.6370503466,33164.3231313980,54292.4822425100,15950.7797775565,48579.0306900262,60784.4717085130,63388.3223255321,15881.5455826340
4094519359,26490,2,0,-7856.6940062705,44791.5795322522,14350.0340866208,33161.7070765811,54288.4547348616,15946.3264005193,48566.7778193255,60778.6677171284,63384.1853086123,15876.8975224476
4094519359,26490,2,0,-7862.5710038360,44786.0553978946,14350.4477883127,33156.5966439154,54281.9936878486,15942.0798743281,48548.5506094847,60774.0439923357,63381.0825459224,15865.3625458595
4094519359,26490,2,0,-7864.7125184768,44785.9580563200,14347.1868455642,33155.6718989569,54284.8287612084,15934.7184177503,48566.3884530272,60775.9178176464,63379.5980869100,15863.1601927345
4094519359,26490,2,0,-7865.0897170783,44783.6826970141,14344.4491137790,33152.8854963844,54283.1982898341,15936.9694416625,48566.5831361763,60774.2995139690,63377.2253860296,15862.9168387981
4094519359,26490,2,0,-7861.2568925791,44783.7313678014,14351.1900178189,33151.1211803451,54281.0081044060,15947.5675055953,48547.0904858660,60773.5086136755,63379.2452237022,15863.5008882456
4094519359,26490,2,0,-7859.0667071509,44791.3483460126,14360.2914550425,33155.4893835046,54287.5056545094,15948.0420457714,48558.5767916668,60778.1688415587,63386.3876617372,15870.3634692537
4094555394,26491,2,0,-7863.2888979485,44793.9644008295,14364.2216211163,33153.6277258906,54288.9536104314,15941.2281355505,48568.9801724504,60777.8038106540,63387.9572946274,15876.1674606383
4094555394,26491,2,0,-7867.6571011079,44788.4402664719,14364.0877764513,33148.8823241297,54279.8643409046,15940.4737383475,48550.1689131622,60771.6469560616,63383.2848990474,15874.6586662322
4094555394,26491,2,0,-7868.1924797682,44786.4569318898,14364.5988197178,33147.4222005109,54278.2703726208,15937.6264972909,48550.9841488493,60772.1336639345,63379.5737515164,15870.3147984664
4094555394,26491,2,0,-7865.2235617434,44787.4546830292,14366.7159989650,33150.3424477484,54281.4583091884,15938.6364161272,48572.6183138005,60774.6767125705,63380.2673102353,15867.6014020749
4094555394,26491,2,0,-7863.5565872786,44784.2180756743,14370.8651835816,33151.0238387705,54277.5403108114,15940.1330428365,48559.2703503857,60771.3427636410,63379.0140374625,15867.5162281971
4094555394,26491,2,0,-7863.4105749167,44784.7169512441,14376.9855350836,33152.9341671717,54274.6443989676,15939.4273164207,48549.7917145607,60772.7177133820,63379.0140374625,15868.6478240017
4094555394,26491,2,0,-7865.9171204623,44787.4668507261,14374.4303187508,33152.5813039639,54279.8765086014,15934.9496039899,48568.3231168220,60774.7497187514,63378.1744663817,15869.7185813221
4094555394,26491,2,0,-7865.2478971370,44788.0995709609,14374.8805235332,33151.4740435530,54279.4871423031,15939.2448009684,48566.0964283034,60772.1093285408,63377.8459385675,15873.9894429070
4094644451,26492,2,0,-7863.7025996405,44786.9436397627,14383.3614082188,33151.3036957975,54276.8345843957,15944.2578920594,48550.1324100717,60771.0142358268,63378.9653666752,15875.3765603448
4094644451,26492,2,0,-7861.0257063394,44789.0729867067,14390.2726600142,33153.3478688637,54277.9053417161,15936.8355969975,48564.9283294084,60772.5473656265,63380.7175150177,15878.0777890395
4094644451,26492,2,0,-7866.2943190638,44783.3785045936,14391.0392249141,33146.8016479730,54272.3203688744,15931.8955120873,48568.6394769394,60768.6293672495,63376.7873489439,15874.7681755036
4094644451,26492,2,0,-7868.7035230347,44779.7160278498,14394.1784906944,33142.0440785152,54267.5019609325,15938.3687267971,48550.9719811525,60765.9159708580,63374.1104556429,15870.3147984664
4094644451,26492,2,0,-7867.4380825651,44782.2347410922,14395.6142789195,33142.9079849896,54270.0328418717,15929.5228112069,48558.7228040287,60765.4657660755,63372.2001272417,15866.7009925100
4094644451,26492,2,0,-7869.8229511424,44779.9593817863,14394.8355463228,33142.3482709358,54269.1567677004,15927.1501103264,48573.6525680305,60764.8573812344,63369.3163830946,15867.4797251067
4094644451,26492,2,0,-7874.8117068398,44773.2793162305,14397.8166320445,33139.0873281872,54262.0873358463,15929.3281280577,48555.7660537007,60758.0191356199,63365.7147448351,15868.8911779381
4094644451,26492,2,0,-7878.0969849820,44769.8115226360,14400.6395377074,33139.2333405491,54256.2346736745,15931.3723011240,48547.3338398024,60756.6806889694,63364.9603476320,15868.3314638843
4094647697,26493,2,0,-7873.6192725512,44774.8124460302,14403.7666357909,33143.5528729212,54265.0684215679,15930.1798668353,48568.6881477267,60763.4580960997,63367.9779364441,15870.6068231902
4094647697,26493,2,0,-7869.2997401790,44774.6786013652,14407.6116279869,33143.1148358356,54266.5042097930,15929.9365128988,48563.2248518532,60760.7325320114,63365.7025771382,15866.3968000894
4094647697,26493,2,0,-7862.5223330487,44778.2924073216,14417.4066239294,33146.9354926380,54269.1567677004,15934.6819146598,48552.6024525268,60761.7059477572,63368.1117811092,15868.4531408525
4094647697,26493,2,0,-7859.8089366571,44781.6020208574,14418.3678719784,33150.6223047754,54273.2572815298,15930.4353884686,48570.2212775264,60765.0642320804,63369.9977741167,15870.3634692537
4094647697,26493,2,0,-7859.7846012635,44780.2027357228,14419.6576478416,33151.4010373720,54273.5979770408,15933.2096233442,48575.9279273363,60765.4779337723,63370.4358112024,15869.9497675617
4094647697,26493,2,0,-7863.1428855866,44776.1873957712,14421.0569329763,33146.9719957285,54265.9566634360,15929.0239356371,48554.4641101407,60759.3575822704,63369.7665878771,15864.5473101724
4094647697,26493,2,0,-7868.1316412840,44777.7570286614,14422.6143981696,33144.1490900656,54268.4145381942,15930.4110530749,48559.7813936523,60761.0975629161,63368.6958305567,15864.2309500550
4094647697,26493,2,0,-7869.4335848441,44780.0445556641,14427.7856693194,33142.9323203833,54273.7196540090,15929.0847741212,48569.8927497122,60762.8375435618,63370.0099418136,15868.2827930970
4094652871,26494,2,0,-7875.2619116223,44774.4717505192,14431.4116429726,33134.8773050865,54264.7155583601,15925.6656513140,48546.2022439979,60754.6608512968,63365.3740493240,15864.9366764707
4094652871,26494,2,0,-7875.9189672507,44772.9872915068,14434.3075548165,33135.5100253213,54265.1049246584,15927.5273089279,48543.9633877825,60755.2692361379,63366.6881605809,15862.3571247442
4094652871,26494,2,0,-7870.4191682868,44780.2635742069,14440.2575585629,33142.7741403246,54275.6299824102,15934.9617716867,48568.7854893013,60764.4801826329,63371.8107609433,15864.5838132628
4094652871,26494,2,0,-7865.2600648338,44785.1428206329,14449.8943744466,33146.9963311221,54280.5092288362,15945.2069724116,48564.7579816529,60768.1426593766,63375.7287593203,15869.5360658698
4094652871,26494,2,0,-7859.3100610874,44790.3019240858,14459.5555257241,33153.3357011669,54282.3222156629,15947.8838657127,48557.8223944638,60771.7199622425,63382.0802970619,15869.9010967744
4094652871,26494,2,0,-7851.3280519716,44795.1081643309,14462.4392698711,33159.1153571578,54289.5984983630,15940.7535953744,48580.5881552195,60779.1179219109,63384.3921594583,15870.6676616743
4094652871,26494,2,0,-7850.8656794923,44789.0486513130,14457.6086942324,33155.1608556903,54284.8774319957,15929.2916249672,48576.6336537521,60774.3725201499,63377.7729323866,15867.2850419575
4094652871,26494,2,0,-7855.7084228278,44782.3807534541,14454.3112483934,33148.9188272202,54274.7904113295,15931.2627918525,48553.2108373679,60766.6825357578,63371.1293699213,15864.0240992090
4094684117,26495,2,0,-7857.4484034735,44784.3154172489,14453.8975467014,33148.9796657043,54277.1509445131,15930.4353884686,48564.5632985037,60769.2012490002,63371.6404131878,15865.1313596199
4094684117,26495,2,0,-7858.2393037670,44786.4690995866,14457.5356880515,33149.5758828486,54281.7746693058,15932.6499092904,48573.9567604510,60769.5784476017,63371.5917424005,15868.7938363636
4094684117,26495,2,0,-7856.9008571165,44786.3960934056,14467.7687210795,33148.2009331076,54281.4948122789,15937.0667832371,48556.0824138181,60766.8163804229,63372.5408227527,15869.2440411460
4094684117,26495,2,0,-7858.3001422511,44786.0919009851,14471.8083964248,33147.7872314156,54279.8521732078,15931.0681087034,48554.5249486248,60765.5144368628,63370.7643390166,15864.2674531454
4094684117,26495,2,0,-7861.3177310632,44783.8287093760,14472.2220981167,33144.7939779972,54279.3776330317,15923.9621737588,48568.1771044601,60765.7942938897,63365.7755833192,15865.7275767642
4094684117,26495,2,0,-7862.3276498995,44778.2437365343,14475.7872332859,33141.4478613709,54275.4961377452,15927.4421350501,48553.3933528203,60760.1971533512,63363.9139257053,15867.0903588083
4094684117,26495,2,0,-7858.0932914051,44781.5168469796,14483.7327393112,33145.7795614398,54278.8909251588,15937.3588079608,48550.6921241256,60764.9912258994,63367.6007378426,15869.4995627793
4094684117,26495,2,0,-7851.9851076000,44792.1270786092,14489.9260969941,33154.8444955729,54291.5209944610,15942.2258866900,48575.9522627300,60775.6379606195,63376.4101503424,15874.8776847750
4094728258,26496,2,0,-7851.6809151794,44791.4943583745,14492.7368349602,33154.8079924825,54290.4259017469,15939.8896889000,48572.3506244704,60774.6037063896,63375.8991070759,15873.6730827896
4094728258,26496,2,0,-7855.1243733803,44786.0188948041,14493.1262012586,33148.9796657043,54282.0910294232,15935.6553304056,48551.3613474508,60766.7068711515,63370.8251775007,15868.1611161288
4094728258,26496,2,0,-7859.3587318747,44784.1450694934,14490.8508419527,33143.9544069164,54279.7061608459,15925.2032788347,48560.6209647331,60763.8596300949,63368.2456257742,15865.2043658008
4094728258,26496,2,0,-7863.4592457040,44781.8697101875,14488.0036008961,33138.0652416541,54275.7151562880,15924.9964279887,48561.7525605376,60758.7248620356,63364.2667889131,15861.5662244507
4094728258,26496,2,0,-7863.4349103104,44781.3099961336,14496.2532993421,33138.3572663778,54271.6146424587,15934.3777222392,48544.7664557728,60757.1673968423,63366.7611667618,15864.7663287152
4094728258,26496,2,0,-7861.1595510045,44785.6051931121,14501.1690488585,33139.5983714538,54273.7318217059,15931.1776179748,48552.5172786490,60759.6374392973,63369.7300847866,15868.9641841191
4094728258,26496,2,0,-7861.7801035425,44785.1306529361,14502.1424646044,33140.0242408426,54275.2527838087,15927.2474519010,48565.4272049781,60760.0876440798,63368.5863212853,15871.5437358455
4094728258,26496,2,0,-7864.2501459975,44780.3000772973,14505.2330595974,33137.0918259083,54268.9255814608,15928.8170847911,48548.3559263356,60753.7482740350,63364.7656644829,15869.0858610873
4094746700,26497,2,0,-7862.5953392296,44782.1495672144,14512.9960501704,33139.0508250968,54272.1013503316,15936.6652492419,48548.1490754896,60760.1119794734,63368.8905137058,15870.1201153173
4094746700,26497,2,0,-7856.0126152484,44788.2090802323,14518.0091412615,33142.9809911706,54278.7570804937,15936.1420382785,48570.6593146120,60765.8916354643,63374.3538095793,15873.9894429070
4094746700,26497,2,0,-7860.0036198063,44782.9891382952,14517.5346010854,33138.9413158254,54270.7385682874,15932.6985800777,48558.5767916668,60761.2192398843,63372.6624997210,15866.2751231212
4094746700,26497,2,0,-7864.4083260562,44776.3699112235,14516.5003468554,33134.1715786708,54262.5253729319,15932.1632014174,48540.8484573958,60756.7171920598,63372.6868351146,15860.8604980350
4094746700,26497,2,0,-7863.9581212738,44778.0855564756,14515.8676266206,33136.9579812432,54267.7939856563,15927.9775137103,48559.7083874714,60760.5135134686,63371.8107609433,15863.0871865536
4094746700,26497,2,0,-7863.1063824962,44774.4960859128,14514.6630246352,33135.0233174484,54266.2000173725,15924.9112541110,48561.8012313249,60757.6419370184,63365.9702664683,15865.4963905245
4094746700,26497,2,0,-7859.4195703588,44773.2671485337,14520.1019851150,33135.5221930181,54264.0950058221,15933.5624865521,48545.5938591567,60757.3864153851,63365.4348878081,15865.9587630038
4094746700,26497,2,0,-7857.7160928036,44776.2238988617,14524.4580205776,33137.2986767543,54267.3072777834,15926.5417254852,48558.3821085177,60761.7789539382,63367.7102471140,15865.8370860356
4094777949,26498,2,0,-7859.3222287842,44776.4915881918,14526.0276534678,33137.7853846272,54268.5483828593,15924.2663661794,48570.8418300644,60762.3021649016,63367.1383653633,15865.7397444610
4094777949,26498,2,0,-7860.6606754348,44773.6930179225,14529.2277577322,33136.0940747688,54264.4843721204,15927.4908058374,48552.6146202236,60759.1020606371,63366.0919434366,15863.0871865536
4094777949,26498,2,0,-7853.5547404902,44782.1252318208,14536.1390095277,33144.3316055179,54273.4641323758,15937.9550251052,48560.1099214665,60767.1205728434,63374.9621944205,15866.4211354831
4094777949,26498,2,0,-7846.4244701519,44787.8075462371,14540.3246972348,33152.3744531179,54283.6606623134,15934.7914239312,48584.4331474156,60775.5041159544,63380.1943040544,15868.9276810286
4094777949,26498,2,0,-7843.0296827383,44787.3086706674,14544.5225526387,33153.7980736462,54281.7746693058,15938.9041054574,48574.7111576540,60773.2530920422,63378.7950189197,15870.3878046474
4094777949,26498,2,0,-7841.5330560291,44789.5110237923,14550.8132518961,33156.9373394265,54283.4781468610,15939.0501178192,48565.8895774574,60775.6987991036,63378.7828512229,15874.8168462909
4094777949,26498,2,0,-7848.0671092230,44787.6371984816,14547.4793029666,33152.4961300861,54284.1108670958,15925.3006204093,48580.5638198259,60775.6744637100,63372.4921519654,15874.4396476894
4094777949,26498,2,0,-7857.6674220163,44780.6529405052,14544.0723478562,33145.8647353176,54278.5137265573,15920.9080818562,48575.5872318253,60769.2620874843,63363.2447023800,15871.1543695472
4094805372,26499,2,0,-7859.8576074444,44775.4086631745,14545.6054776559,33142.9688234737,54271.3347854317,15922.8914164384,48559.6110458968,60763.9083008822,63359.3510393966,15865.5207259182
4094805372,26499,2,0,-7851.0116918542,44780.6164374147,14548.6474018616,33148.9309949170,54278.7570804937,15928.6954078229,48577.4002186519,60769.6271183890,63363.2568700768,15867.0781911115
4094805372,26499,2,0,-7844.2829555111,44784.4370942171,14554.8529272413,33154.9175017539,54283.4538114674,15936.3245537309,48588.5093258513,60775.1269173529,63370.1802895691,15875.1210387115
4094805372,26499,2,0,-7844.8791726554,44784.2789141585,14561.1679618925,33153.4817135288,54278.3190434081,15935.2416287136,48566.6196392668,60771.5617821838,63373.2587168653,15875.8145974304
4094805372,26499,2,0,-7845.3293774378,44788.6957881052,14563.8935259808,33154.1509368540,54281.7625016090,15927.6246505025,48570.7809915802,60774.3846878467,63373.8792694032,15876.9096901445
4094805372,26499,2,0,-7847.9819353452,44789.7787131224,14559.9390245133,33150.5492985944,54280.7890858632,15920.2875293182,48584.5913274743,60772.4135209614,63371.2632145863,15875.1453741051
4094805372,26499,2,0,-7850.6588286463,44783.7192001046,14559.9755276038,33147.7263929315,54273.5614739503,15925.0450987760,48567.5443842253,60764.3950087551,63366.7003282777,15872.6509962564
4094805372,26499,2,0,-7851.4862320303,44779.2414876738,14560.6934217164,33148.0305853521,54268.3415320133,15923.6458136414,48558.2969346399,60762.3995064761,63366.5543159158,15868.1489484319
4094855504,26500,2,0,-7851.9607722063,44778.4749227739,14556.5442370997,33147.0084988190,54269.9720033876,15915.1770966526,48575.1005239524,60761.3044137621,63364.9238445416,15867.4188866226
4094855504,26500,2,0,-7857.4240680798,44773.2428131400,14551.0201027421,33140.2432593854,54266.8935760914,15914.2036809068,48565.5367142496,60755.0988883824,63357.9760896557,15867.5040605003
4094855504,26500,2,0,-7856.3654784563,44771.9408695800,14554.9989396032,33139.2455082459,54264.4357013331,15917.8418222568,48549.9620623162,60754.0889695461,63357.8422449906,15866.0682722752
4094855504,26500,2,0,-7854.3213053900,44776.4307497077,14560.7299248068,33141.5695383391,54271.4321270063,15915.2744382272,48565.9017451542,60759.1142283340,63357.1973570590,15866.6036509354
4094855504,26500,2,0,-7856.7913478451,44772.5127513307,14562.5185762398,33138.5154464365,54266.6745575486,15913.1815943737,48565.7435650955,60754.1984788175,63353.9485820073,15863.3183727932
4094855504,26500,2,0,-7861.3907372441,44768.1080450808,14564.4532400346,33134.6826219373,54258.3518529217,15916.0531708239,48542.7952888875,60749.4044062692,63352.2816075425,15857.7699030420
4094855504,26500,2,0,-7859.3222287842,44773.2428131400,14567.2031395166,33138.9899866126,54261.5519571861,15914.6538856892,48554.0990792360,60753.9064540937,63355.1531839927,15856.6626426311
4094855504,26500,2,0,-7857.0712048720,44774.0945519176,14566.0715437121,33138.6614587984,54263.4014471032,15907.0855782654,48568.4326260934,60753.0425476193,63351.8922412442,15857.5630521960
4094873270,26501,2,0,-7860.2469737428,44767.1711324254,14565.3779849932,33132.8696351107,54254.9935685985,15903.8246355168,48547.6380322230,60746.3746497603,63345.4433619280,15856.0907608804
4094873270,26501,2,0,-7861.3420664568,44763.2166309579,14564.0882091300,33133.0521505630,54252.8885570482,15903.8003001232,48542.2477425304,60745.2673893494,63344.4212753949,15851.9172408701
4094873270,26501,2,0,-7860.5389984665,44762.5474076327,14561.6303343717,33135.1814975071,54256.1616674935,15904.4208526611,48559.1365057207,60747.0682084792,63343.3140149840,15851.7103900241
4094873270,26501,2,0,-7858.3974838257,44762.9732770215,14566.1445498930,33134.7799635119,54255.2247548382,15914.0089977576,48553.8313899059,60744.6346691146,63344.1292506712,15852.0510855352
4094873270,26501,2,0,-7850.8778471891,44772.2815650910,14580.6241091123,33142.4821156008,54260.6028768339,15928.6710724293,48551.8602230206,60753.4075785240,63355.7372334402,15857.5995552865
4094873270,26501,2,0,-7845.4632221029,44783.2324922317,14590.5529497199,33151.5470497339,54273.3667908012,15925.2397819252,48577.1690324123,60763.7257854298,63365.3375462335,15867.7230790431
4094873270,26501,2,0,-7847.2153704454,44781.7480332193,14591.1978376515,33149.1500134598,54269.6191401797,15918.1338469806,48575.6237349158,60759.7469485687,63360.3244551425,15867.9420975860
4094873270,26501,2,0,-7850.4276424067,44775.2869862063,14589.2266707662,33144.8669841781,54260.0918335673,15919.1437658169,48550.3635963113,60753.3589077367,63355.5060472006,15861.9312553554
4094900425,26502,2,0,-7850.3546362257,44778.7304444072,14590.7111297786,33146.0350830731,54266.4433713089,15916.9414126919,48562.6651377993,60757.6906078057,63358.6209775873,15864.8028318056
4094900425,26502,2,0,-7849.6854129005,44780.6042697179,14592.5727873925,33145.9499091954,54270.4465435637,15917.7323129854,48574.8693377127,60757.8122847739,63361.0058461646,15870.8988479139
4094900425,26502,2,0,-7851.8999337222,44777.7448609645,14598.2307664151,33143.2608481975,54265.5429617440,15919.7521506580,48555.0724949818,60751.8987841179,63359.9715919346,15871.7262512979
4094900425,26502,2,0,-7853.8102621234,44776.9782960647,14599.5205422784,33143.9057361291,54263.8638195825,15923.5241366732,48557.2626804099,60752.9817091352,63360.4948028980,15871.7870897820
4094900425,26502,2,0,-7849.5759036291,44780.9693006226,14602.5016280000,33148.3226100758,54270.2640281113,15922.4168762623,48575.5628964317,60758.6396881579,63364.5101428496,15877.1043732936
4094900425,26502,2,0,-7851.0968657319,44778.0490533851,14603.0126712665,33144.0395807942,54263.9489934602,15921.0662619149,48560.1342568602,60750.8036914039,63361.6020633089,15874.7560078068
4094900425,26502,2,0,-7854.9540256248,44775.7980294729,14605.6287260835,33144.0760838846,54262.0873358463,15920.5552186484,48552.0184030793,60748.0051211346,63361.8697526390,15870.5946554934
4094900425,26502,2,0,-7858.5799992780,44775.0071291794,14602.0514232175,33142.4699479040,54264.6425521791,15911.2590982756,48567.5930550126,60748.3458166456,63359.3510393966,15866.7618309941
4094934349,26503,2,0,-7860.0766259872,44767.3049770904,14598.8269835595,33137.4690245098,54260.2865167165,15911.2712659724,48556.8246433243,60742.8703530753,63354.5326314548,15864.4134655073
4094934349,26503,2,0,-7857.4970742608,44765.9786981367,14603.5480499268,33135.3153421721,54254.3121775764,15923.1347703748,48537.7821977964,60741.0086954614,63357.0026739098,15865.5450613118
4094934349,26503,2,0,-7848.7971710324,44774.3622412477,14609.0235134971,33141.0219919821,54261.9534911813,15918.4623747948,48558.2725992463,60749.5139155406,63361.0058461646,15872.6874993469
4094934349,26503,2,0,-7850.7074994336,44772.3667389688,14605.2636951788,33136.1914163434,54260.0309950832,15906.0513240354,48561.5943804789,60743.3570609482,63353.9364143104,15870.3878046474
4094934349,26503,2,0,-7857.8742728623,44766.2950582541,14603.6940622886,33130.6064435016,54252.3531783880,15907.0490751749,48539.2909922025,60735.3507164387,63345.5772065931,15863.3913789742
4094934349,26503,2,0,-7858.8963593954,44765.5041579606,14601.5282122542,33131.1904929491,54254.1174944273,15904.8223866563,48542.0408916844,60735.5819026784,63345.7718897423,15861.3107028175
4094934349,26503,2,0,-7858.4461546130,44766.8304369144,14603.4628760490,33133.5631938296,54255.9304812539,15904.7128773849,48556.9463202926,60739.8527642632,63345.0539956297,15861.9677584459
4094934349,26503,2,0,-7859.7480981730,44765.4189840829,14608.7193210765,33130.6916173794,54250.4550176836,15909.6651299918,48541.9070470194,60737.6747465319,63344.6281262409,15859.4612129004
4094975350,26504,2,0,-7855.1973795613,44772.1233850323,14618.0276091461,33136.6781242163,54255.7723011952,15918.2920270393,48543.8782139047,60746.0826250366,63352.3789491171,15868.1124453415
4094975350,26504,2,0,-7849.8314252623,44779.5700154880,14622.3958123055,33142.3482709358,54262.8417330493,15912.1351724469,48566.7534839318,60751.1322192181,63356.5403014306,15877.4085657142
4094975350,26504,2,0,-7855.5380750723,44773.3158193210,14619.1957080411,33138.7709680698,54255.3585995032,15903.9098093946,48554.3667685661,60744.3913151782,63350.7119746524,15875.5469081003
4094975350,26504,2,0,-7857.0833725688,44769.3248147631,14619.2930496156,33138.2112540160,54249.7492912678,15899.7241216875,48539.3761660802,60741.1790432169,63345.9422374978,15871.6897482074
4094975350,26504,2,0,-7856.5966646959,44770.9431184405,14618.1006153270,33140.6447933806,54252.7912154736,15892.6790252270,48560.6574678235,60744.2331351195,63344.4942815758,15870.6554939775
4094975350,26504,2,0,-7859.2492226033,44764.6645868799,14613.3430458692,33135.0598205388,54248.9705586712,15887.5685925614,48562.3122745915,60738.7576715492,63338.7267932818,15863.8294160598
4094975350,26504,2,0,-7860.7336816157,44761.0507809235,14615.5697343878,33133.4050137709,54242.7163625042,15896.4145081516,48544.8394619537,60737.6017403510,63338.9214764309,15860.9213365191
4094975350,26504,2,0,-7862.3884883836,44762.9854447183,14618.5143170190,33137.0431551210,54249.4694342409,15894.6866952028,48556.3501031482,60743.0528685277,63343.5086981332,15857.4292075309
4094996818,26505,2,0,-7860.0522905936,44767.9133619316,14624.5981654304,33142.0927493025,54259.5807903008,15899.4564323574,48571.0608486072,60750.0249588072,63349.4343664860,15863.4278820646
4094996818,26505,2,0,-7855.3312242263,44769.6046717900,14631.9839574020,33142.4699479040,54262.1481743304,15901.1842453062,48555.6322090357,60747.8226056823,63349.4343664860,15867.0660234147
4094996818,26505,2,0,-7854.0049452726,44773.4618316829,14637.2525701263,33143.1026681388,54265.0684215679,15901.3180899713,48555.5957059452,60749.9884557167,63351.1500117380,15867.3945512289
4094996818,26505,2,0,-7856.5966646959,44773.7051856193,14634.1498074365,33139.9025638744,54268.2563581355,15898.0449795259,48570.0874328613,60748.3579843425,63347.0129948182,15864.5838132628
4094996818,26505,2,0,-7860.6120046475,44767.7065110856,14632.2638144289,33131.6528654284,54260.8462307704,15899.9309725335,48554.0139053582,60740.3638075298,63342.6326239619,15862.4057955315
4094996818,26505,2,0,-7860.8918616744,44762.7907615691,14632.1299697638,33131.0931513746,54253.7037927353,15904.3965172675,48541.1648175132,60738.8306777301,63343.3505180745,15861.5905598444
4094996818,26505,2,0,-7859.1397133319,44765.3216425083,14633.9064535000,33136.1305778593,54259.5077841198,15903.3622630375,48559.9639091046,60744.6711722051,63347.8647335958,15865.9830983975
4094996818,26505,2,0,-7857.8134343782,44765.6136672321,14637.4715886691,33136.3252610084,54261.4181125210,15911.7701415422,48561.5822127821,60745.8514387969,63351.1986825253,15869.2562088428
4095025370,26506,2,0,-7851.0238595510,44769.2274731885,14648.5320250812,33141.0828304662,54266.2243527661,15921.7719883306,48548.7087895434,60750.1223003818,63358.6939837682,15872.2494622613
4095025370,26506,2,0,-7849.8314252623,44771.7948572181,14652.4500234582,33142.1292523930,54270.0206741749,15911.9769923882,48561.1685110901,60752.4706658686,63359.8134118759,15867.6379051654
4095025370,26506,2,0,-7855.1365410771,44767.2563063032,14646.9745598878,33136.4104348862,54265.7498125900,15905.6376223434,48563.3830319119,60747.3602332030,63355.9197488926,15862.9776772822
4095025370,26506,2,0,-7861.0865448236,44759.8340112412,14644.6505297947,33130.0588971446,54255.0179039922,15913.9846623640,48541.3229975719,60739.6459134172,63353.7660665549,15861.4688828761
4095025370,26506,2,0,-7855.4285658009,44766.6479214620,14646.8285475260,33135.9967331942,54260.7367214990,15917.5254621394,48550.1932485558,60749.2583939074,63358.8156607364,15864.8028318056
4095025370,26506,2,0,-7849.1135311498,44772.9751238099,14645.2589146358,33141.0463273757,54269.0594261259,15914.3375255718,48571.2798671500,60757.4472538692,63359.7404056950,15868.9763518159
4095025370,26506,2,0,-7849.2960466021,44769.7750195455,14639.4914263417,33139.5131975760,54267.5749671135,15921.5286343942,48557.9684068257,60755.6464347394,63357.2216924526,15868.2097869161
4095025370,26506,2,0,-7847.3978858977,44771.1864723770,14635.9871296567,33143.8083945545,54268.6092213434,15928.9752648498,48554.2815946883,60760.8177058892,63361.0423492550,15868.8546748477
4095053629,26507,2,0,-7846.6799917852,44773.0237945972,14620.7653409312,33146.5339586429,54272.3447042680,15930.8369224637,48575.8062503681,60763.6771146426,63363.7679133434,15869.1466995714
4095053629,26507,2,0,-7843.8814215159,44771.5758386753,14598.6201327135,33144.5871271512,54268.6578921307,15939.9140242937,48570.9026685485,60760.3309980162,63363.7070748593,15867.1025265052
4095053629,26507,2,0,-7837.8705792854,44774.5204213064,14575.7326949895,33146.4122816746,54267.7939856563,15948.1880581333,48557.8102267670,60761.3165814589,63368.6228243757,15865.1678627103
4095053629,26507,2,0,-7835.9480831874,44777.0147991551,14542.7825719930,33147.2031819681,54269.8746618130,15946.4115743971,48570.3064514041,60762.7036988967,63371.6890839751,15863.8659191503
4095053629,26507,2,0,-7839.1481874518,44773.5956763479,14504.4664946975,33144.1125869751,54267.0152530596,15949.1493061823,48566.5588007827,60760.9150474637,63369.7057493930,15863.2697020059
4095053629,26507,2,0,-7839.5375537501,44772.3667389688,14471.9544087866,33145.3171889606,54263.3649440127,15964.8212996902,48548.1004047023,60762.9592205300,63376.2519702837,15865.3017073754
4095053629,26507,2,0,-7835.7899031287,44778.9372952532,14436.1570447335,33153.8589121303,54271.0670961016,15966.3665971867,48561.5700450853,60771.8538069076,63383.2727313506,15871.0935310631
4095053629,26507,2,0,-7833.4172022482,44781.4803438892,14393.7039505183,33155.6232281696,54274.2185295788,15959.0781467898,48580.4543105545,60773.6181229469,63384.2948178837,15873.5149027309
4095088248,26508,2,0,-7841.7034037846,44769.0449577361,14346.8096469627,33147.9332437775,54260.9435723449,15949.3926601187,48558.6984686351,60764.5045180265,63374.4024803666,15864.9975149548
4095088248,26508,2,0,-7846.0959423377,44762.0120289725,14306.5954089629,33145.9377414985,54251.3189241580,15953.2984907989,48549.7187083797,60759.6252716005,63374.2077972175,15861.4932182698
4095088248,26508,2,0,-7842.8593349828,44765.8813565622,14274.5700309249,33153.4087073478,54256.5266983982,15955.1844838064,48567.0455086556,60765.0033935962,63377.0672059709,15867.1755326861
4095088248,26508,2,0,-7844.4046324793,44764.0440343419,14243.2382116058,33156.1342714362,54251.2215825834,15951.9600441484,48557.4816989528,60760.5013457718,63374.1712941270,15862.3327893506
4095088248,26508,2,0,-7846.3027931837,44764.1413759165,14217.3696881602,33160.5268099892,54248.1066521967,15958.1047310440,48548.6844541498,60759.5887685100,63373.6602508604,15859.7775730178
4095088248,26508,2,0,-7838.7953242439,44769.8845288169,14197.1713114341,33171.5994140981,54259.4104425453,15963.7870454603,48571.5718918737,60767.0719020562,63380.2186394480,15868.3557992779
4095088248,26508,2,0,-7837.0188405078,44767.2806416968,14175.1234447910,33174.0572888564,54256.7822200315,15960.2827487753,48569.4425449297,60765.2102444422,63376.5804980979,15872.9673563738
4095088248,26508,2,0,-7839.9390877453,44760.4423960823,14159.0255818942,33174.1911335214,54249.0679002458,15961.1344875529,48547.7718768881,60758.9803836689,63374.6580019999,15873.3202195817
4095123575,26509,2,0,-7838.2721132805,44763.1314570802,14144.9475566701,33179.6057586076,54251.4892719135,15957.0583091172,48560.5357908553,60761.6086061826,63376.9090259122,15873.5027350340
4095123575,26509,2,0,-7839.3793736914,44763.2409663516,14128.2291412354,33182.2218134246,54253.9836497622,15957.9343832884,48572.1924444117,60761.4260907303,63376.6656719757,15872.3833069263
4095123575,26509,2,0,-7841.8129130560,44763.4478171976,14119.1520394054,33185.9572963492,54251.3675949453,15959.3580038167,48556.6664632656,60758.6275204610,63377.7120939025,15871.7627543884
4095123575,26509,2,0,-7844.9521788363,44762.7420907818,14109.0406833456,33191.0433936212,54250.0656513852,15953.7000247940,48554.7439671676,60759.5522654196,63374.5241573349,15866.5549801481
4095123575,26509,2,0,-7851.9851076000,44759.3594710651,14095.6562168403,33190.1308163595,54248.2769999523,15945.1583016243,48564.2347706895,60756.9483782995,63370.9955252562,15865.9952660943
4095123575,26509,2,0,-7857.1807141434,44750.9515925604,14086.5182765263,33185.3975822953,54239.0417180637,15947.2998162652,48547.2851690151,60747.0073699951,63365.0455215098,15863.9875961185
4095123575,26509,2,0,-7858.8111855177,44748.0556807165,14081.6998685844,33185.8964578651,54237.1313896624,15954.6369374494,48537.5388438600,60746.6180036968,63365.9094279842,15864.0362669058
4095123575,26509,2,0,-7853.8589329107,44753.6041504678,14079.5705216404,33192.5156849368,54245.8069574972,15953.9798818210,48560.5357908553,60753.1398891939,63370.1194510850,15868.3679669748
4095154470,26510,2,0,-7854.8566840502,44752.7159085997,14076.6502744029,33192.7347034796,54244.8335417514,15954.7221113272,48557.3356865909,60751.4607470323,63369.4745631533,15870.0349414395
4095154470,26510,2,0,-7856.3654784563,44749.3454565798,14076.6016036156,33194.8640504236,54241.0980588267,15959.4675130881,48540.7511158212,60750.3169835310,63371.7742578529,15868.8303394540
4095154470,26510,2,0,-7855.8422674929,44754.5410631232,14075.3604985397,33201.2885943461,54249.5667758155,15958.5184327359,48558.6132947573,60758.5058434928,63375.0838713887,15868.5991532144
4095154470,26510,2,0,-7856.4628200308,44755.7821681991,14069.6903518202,33200.3030109034,54252.1828306324,15954.5760989653,48566.8994962937,60757.9339617421,63374.3173064889,15865.2652042849
4095154470,26510,2,0,-7858.5678315812,44750.3553754161,14066.8674461573,33195.2899198124,54245.9408021623,15956.7297813030,48544.3649217776,60751.1808900054,63370.7643390166,15861.1403550619
4095154470,26510,2,0,-7856.5358262118,44754.2612060962,14070.1283889058,33199.4026013385,54249.2990864854,15964.2737533332,48550.8503041843,60757.1795645391,63376.1302933155,15867.6379051654
4095154470,26510,2,0,-7854.9540256248,44758.9336016763,14072.1482265784,33204.3426862487,54254.5676992097,15966.4396033677,48567.9580859173,60761.9006309064,63380.8026888955,15876.2161314256
4095154470,26510,2,0,-7853.9806098790,44759.9678559062,14075.8715418062,33205.6446298087,54255.5897857429,15970.4914464097,48556.2405938768,60760.9393828574,63383.9906254631,15877.9317766776
4095184171,26511,2,0,-7850.5249839812,44764.4577360339,14078.6822797723,33210.0250006650,54261.9534911813,15970.0047385368,48557.9319037352,60766.0254801294,63388.7481949209,15873.7217535769
4095184171,26511,2,0,-7850.7440025241,44767.3658155746,14074.8859583636,33208.9177402541,54267.3194454802,15964.1399086681,48576.7796661140,60770.2355032301,63387.0447173657,15870.9596863980
4095184171,26511,2,0,-7851.7174182699,44764.8227669386,14073.3649962607,33205.8028098674,54264.0463350348,15967.1574974802,48568.3961230029,60765.6482815279,63384.4043271551,15869.6090720507
4095184171,26511,2,0,-7851.7417536635,44761.8781843074,14074.5330951557,33204.4521955201,54260.9314046481,15972.0002408158,48551.3370120572,60764.2003256059,63384.0879670377,15865.2652042849
4095184171,26511,2,0,-7844.1491108460,44768.4487405918,14079.5096831563,33210.8889071394,54268.2928612260,15971.8298930602,48571.4867179960,60771.0020681300,63387.4219159672,15868.2706254002
4095184171,26511,2,0,-7844.2099493301,44767.5483310269,14077.9643856598,33209.4774543079,54265.5794648345,15964.1885794554,48574.1271082066,60765.5996107406,63383.0658805046,15867.2120357766
4095184171,26511,2,0,-7844.3802970857,44764.0562020387,14077.1369822758,33208.1511753542,54259.3739394548,15967.2426713580,48554.3546008693,60761.0123890383,63378.9045281911,15867.3093773512
