steady_timestamp,sequence,battery,flags,EEG-ch1,EEG-ch2,EEG-ch3,EEG-ch4,EEG-ch5,EEG-ch6,EEG-ch7,EEG-ch8,EEG-ch9,EEG-ch10
5527424878,6834,-2,0,-6720.0607752522,-80196.6570397759,-35669.6032364545,-12640.8620492957,-80538.4476435324,-41188.7366706759,-80473.1436146836,-80462.2535260271,-80502.9179688094,-2416.7966137600
5527424878,6834,-2,0,-6719.1238625968,-80196.2068349935,-35657.0826764237,-12639.8521304594,-80538.4111404419,-41351.9419881620,-80473.1557823805,-80461.3287810686,-80502.2122423937,-2416.9426261219
5527424878,6834,-2,0,-6718.9170117508,-80196.1824995998,-35636.4827657024,-12639.9129689436,-80540.4309781145,-41488.4878819091,-80473.3626332265,-80461.4139549463,-80503.3560058950,-2417.5388432662
5527424878,6834,-2,0,-6719.8174213157,-80196.1216611157,-35634.0735617315,-12640.7282046307,-80542.0006110047,-41414.5447883161,-80473.2287885614,-80461.9006628192,-80503.4046766823,-2417.4780047821
5527424878,6834,-2,0,-6719.1238625968,-80196.6813751696,-35651.9479083644,-12640.8377139021,-80540.9663567747,-41227.0284125777,-80474.3117135786,-80462.5212153572,-80504.1104030980,-2416.4680859458
5527424878,6834,-2,0,-6719.6227381665,-80197.3627661917,-35667.1088586058,-12641.0932355354,-80539.8712640607,-41178.4062960732,-80475.0296076912,-80463.3364510443,-80505.1446573280,-2417.6726879313
5527424878,6834,-2,0,-6719.2577072619,-80197.6547909154,-35658.3237814996,-12640.4726829974,-80540.4918165986,-41330.7580279933,-80474.5915706056,-80462.0345074843,-80503.7940429806,-2417.3198247234
5527424878,6834,-2,0,-6719.0021856286,-80196.6327043823,-35636.9694735753,-12639.3897579802,-80540.4918165986,-41480.8952390916,-80473.3382978328,-80462.7037308096,-80503.4168443791,-2416.0665519507
5527431101,6835,-2,0,-6720.1216137363,-80197.5087785535,-35630.5570973497,-12640.3510060292,-80541.9154371269,-41432.3461287680,-80473.5694840724,-80462.5942215382,-80503.3803412886,-2417.3319924202
5527431101,6835,-2,0,-6717.9070929145,-80195.7566302110,-35645.8640599529,-12639.7912919753,-80539.7860901829,-41245.8518395628,-80472.5960683266,-80459.9538313276,-80502.2244100905,-2416.7722783664
5527431101,6835,-2,0,-6720.1337814331,-80196.4988597172,-35664.0425990064,-12639.9738074277,-80538.0096064467,-41168.0150829864,-80473.2774593487,-80462.1440167557,-80503.0031426871,-2417.3563278139
5527431101,6835,-2,0,-6719.6105704697,-80196.6570397759,-35657.6667258712,-12641.1054032322,-80538.6058235911,-41297.8200726936,-80473.0584408059,-80461.4261226431,-80502.5772732983,-2417.6240171440
5527431101,6835,-2,0,-6720.9125140298,-80197.4114369789,-35637.2614982991,-12641.1784094131,-80542.0371140951,-41465.7951273343,-80474.7375829674,-80462.6915631127,-80503.4046766823,-2418.0863896233
5527431101,6835,-2,0,-6719.4645581078,-80196.6448720791,-35626.3227388553,-12640.1806582737,-80542.7793436013,-41442.3966463438,-80473.2409562582,-80462.7402339000,-80504.3050862472,-2417.9890480487
5527431101,6835,-2,0,-6719.8052536189,-80195.8296363920,-35639.3665098495,-12640.2658321514,-80541.1610399239,-41257.1799653050,-80474.0926950358,-80462.0466751811,-80503.3195028045,-2418.0985573201
5527431101,6835,-2,0,-6719.3672165333,-80195.6106178492,-35657.1556826046,-12640.4726829974,-80537.7054140262,-41153.7058715227,-80472.7542483853,-80460.8785762861,-80501.9202176699,-2416.7844460632
5527454984,6836,-2,0,-6719.6714089538,-80196.1946672967,-35654.3936154258,-12641.8354650416,-80538.6909974688,-41267.5590106949,-80473.1436146836,-80461.5599673082,-80501.9445530635,-2417.6483525376
5527454984,6836,-2,0,-6719.4402227142,-80196.4380212331,-35632.3214133890,-12640.5213537847,-80539.0681960703,-41441.7639261090,-80472.8394222631,-80460.6960608338,-80501.4335097970,-2417.5388432662
5527454984,6836,-2,0,-6719.4523904110,-80196.5962012918,-35619.6061702090,-12641.2149125036,-80541.3435553762,-41447.7260975522,-80471.6104848839,-80461.2071041003,-80502.5164348142,-2418.4392528311
5527454984,6836,-2,0,-6720.3406322791,-80196.7543813505,-35631.0316375257,-12640.9228877799,-80541.2827168921,-41274.6041071554,-80473.0827761995,-80461.9249982129,-80503.1126519585,-2417.7213587186
5527454984,6836,-2,0,-6720.5961539124,-80196.2068349935,-35650.8406479535,-12640.5821922688,-80539.1046991608,-41149.0334759426,-80472.4378882679,-80460.6352223497,-80502.5042671174,-2418.3784143470
5527454984,6836,-2,0,-6718.9291794476,-80194.6372021033,-35649.5265366966,-12640.0103105181,-80536.7563336740,-41234.6088876984,-80471.9146773045,-80460.5500484719,-80501.5430190684,-2416.3707443712
5527454984,6836,-2,0,-6720.5839862156,-80196.0364872380,-35630.1555633545,-12641.0202293544,-80538.9100160116,-41421.1761830846,-80472.2432051187,-80460.8907439829,-80502.1149008191,-2418.0133834423
5527454984,6836,-2,0,-6719.8660921030,-80195.4159347000,-35614.9216069322,-12640.6673661466,-80540.4553135082,-41455.0632187365,-80471.6226525808,-80460.2945268386,-80501.2996651319,-2417.5631786599
5527486028,6837,-2,0,-6719.5010611983,-80194.4911897414,-35624.0108764589,-12640.9350554767,-80539.7739224861,-41292.0282490059,-80471.4766402189,-80460.0390052053,-80500.5939387162,-2418.3905820438
5527486028,6837,-2,0,-6720.4014707632,-80195.7687979078,-35645.0001534785,-12641.3244217750,-80538.3381342610,-41151.6130276691,-80471.7564972458,-80460.6352223497,-80502.3217516650,-2417.7091910218
5527486028,6837,-2,0,-6720.7421662743,-80196.1459965094,-35649.6725490585,-12641.5191049242,-80539.1777053417,-41215.7854607133,-80473.2531239550,-80461.5964703987,-80503.8427137679,-2417.9525449582
5527486028,6837,-2,0,-6718.8683409635,-80195.5254439714,-35629.9487125085,-12640.1684905768,-80539.1533699481,-41400.1138998841,-80472.6204037203,-80461.2922779781,-80503.1491550490,-2417.5266755694
5527486028,6837,-2,0,-6718.9535148413,-80195.8539717856,-35613.4858187071,-12639.2924164056,-80539.9564379384,-41461.1227317543,-80472.4987267520,-80461.5477996114,-80502.5042671174,-2416.5167567331
5527486028,6837,-2,0,-6718.4911423620,-80195.4767731841,-35620.7986044976,-12639.3654225865,-80540.4188104177,-41316.4731519232,-80472.1823666346,-80461.0610917385,-80502.6989502666,-2416.0787196475
5527486028,6837,-2,0,-6719.3307134428,-80195.5619470619,-35642.7247941726,-12639.0247270755,-80538.7153328625,-41155.3971813810,-80472.0971927569,-80460.5135453814,-80502.2609131809,-2416.0300488602
5527486028,6837,-2,0,-6719.3793842301,-80195.4646054873,-35648.4314439826,-12639.7061180976,-80537.0848614882,-41189.8926018741,-80471.9146773045,-80460.8542408925,-80502.1514039095,-2416.7844460632
5527521273,6838,-2,0,-6719.7930859221,-80195.6957917269,-35632.1875687239,-12641.0445647481,-80539.0073575862,-41377.2751329474,-80472.5960683266,-80460.5865515624,-80502.2122423937,-2417.4658370853
5527521273,6838,-2,0,-6719.9756013744,-80196.6327043823,-35614.9337746290,-12640.5943599656,-80541.0393629556,-41465.6004441851,-80472.1458635442,-80461.7668181542,-80502.2365777873,-2417.5145078726
5527521273,6838,-2,0,-6718.9170117508,-80196.2798411744,-35619.5818348154,-12640.3266706355,-80540.6013258700,-41338.2776646299,-80473.0341054122,-80461.2679425844,-80502.4555963301,-2417.8795387773
5527521273,6838,-2,0,-6718.8318378731,-80196.1216611157,-35639.9627269938,-12640.2049936673,-80538.5814881974,-41168.6234678276,-80473.3991363169,-80461.2436071908,-80502.2000746968,-2417.1494769679
5527521273,6838,-2,0,-6719.8782597998,-80195.5254439714,-35651.7532252152,-12640.2049936673,-80537.5472339675,-41179.9272581761,-80472.6934099012,-80460.3553653227,-80501.4943482811,-2417.3806632075
5527521273,6838,-2,0,-6719.0873595063,-80194.0774880495,-35636.4340949151,-12640.0954843959,-80537.6689109357,-41355.1177570328,-80471.9876834855,-80460.0390052053,-80501.4943482811,-2416.7722783664
5527521273,6838,-2,0,-6718.9778502349,-80195.1969161572,-35616.9657799984,-12639.7061180976,-80538.9465191021,-41466.4278475691,-80472.0971927569,-80460.7568993179,-80501.2144912542,-2417.0156323028
5527521273,6838,-2,0,-6719.6470735602,-80195.7079594237,-35618.5232451918,-12640.6308630561,-80540.0172764225,-41362.0776796155,-80472.4013851774,-80460.5865515624,-80502.7719564475,-2417.6118494472
5527541246,6839,-2,0,-6719.4888935015,-80195.7566302110,-35638.5999449496,-12640.7403723275,-80539.2263761290,-41176.0457628896,-80473.3626332265,-80461.2314394940,-80502.4069255428,-2418.1958988947
5527541246,6839,-2,0,-6719.6105704697,-80194.9170591302,-35649.6360459680,-12640.8742169926,-80537.0605260946,-41153.9248900655,-80472.6569068107,-80461.2192717971,-80502.1757393032,-2416.6384337013
5527541246,6839,-2,0,-6720.2189553109,-80195.3672639127,-35639.7193730573,-12640.8255462053,-80539.0195252830,-41326.5358371957,-80472.2553728156,-80460.2701914450,-80502.0905654254,-2417.9282095646
5527541246,6839,-2,0,-6719.4523904110,-80195.3550962159,-35620.5309151675,-12640.6065276625,-80540.0051087257,-41463.3129171824,-80472.0241865759,-80460.7568993179,-80502.2000746968,-2417.6118494472
5527541246,6839,-2,0,-6719.4645581078,-80195.2334192476,-35618.8274376123,-12640.7403723275,-80540.0172764225,-41388.2990662690,-80471.1967831920,-80460.5500484719,-80502.0540623350,-2417.6240171440
5527541246,6839,-2,0,-6719.2577072619,-80196.1459965094,-35639.0501497321,-12641.3974279560,-80538.7153328625,-41210.1153139938,-80471.3184601602,-80461.1219302226,-80502.4312609365,-2417.4293339948
5527541246,6839,-2,0,-6719.5132288951,-80195.1847484603,-35654.6613047559,-12640.3023352419,-80535.7707502313,-41163.2210104382,-80471.9268450013,-80460.0511729022,-80500.9954727114,-2416.3829120681
5527541246,6839,-2,0,-6719.3550488364,-80195.4037670032,-35645.8397245593,-12640.3996768165,-80537.4133893024,-41314.3559726760,-80471.9268450013,-80460.4405392005,-80502.1027331222,-2417.0277999997
5527567384,6840,-2,0,-6719.4767258047,-80195.2212515508,-35624.4975843318,-12640.0954843959,-80539.7374193956,-41462.0109736224,-80472.3648820870,-80460.2580237481,-80501.6281929461,-2417.8673710805
5527567384,6840,-2,0,-6720.0729429490,-80195.2942577318,-35620.2023873533,-12641.3365894718,-80541.3070522858,-41408.0594059094,-80472.2675405124,-80461.0245886480,-80502.3217516650,-2418.7799483422
5527567384,6840,-2,0,-6718.8805086603,-80194.9657299175,-35635.9473870422,-12639.5601057357,-80538.3503019578,-41215.8462991974,-80471.8538388204,-80459.3576141832,-80500.9954727114,-2416.5897629140
5527567384,6840,-2,0,-6719.6957443475,-80196.1581642062,-35654.0529199147,-12640.1076520927,-80537.3525508183,-41142.9009567439,-80473.1436146836,-80461.2557748876,-80502.6624471761,-2416.8696199410
5527567384,6840,-2,0,-6719.7687505284,-80196.1581642062,-35648.8694810682,-12640.5213537847,-80538.0217741436,-41279.4103474005,-80472.6082360234,-80461.5964703987,-80502.7962918412,-2417.0277999997
5527567384,6840,-2,0,-6719.2577072619,-80195.6714563333,-35626.4565835203,-12640.6795338434,-80539.3845561877,-41439.0383620206,-80471.8903419109,-80460.1728498704,-80501.5673544620,-2416.6749367918
5527567384,6840,-2,0,-6719.2212041714,-80194.4425189542,-35617.2456370253,-12640.0224782150,-80540.0537795130,-41407.5970334302,-80471.2941247665,-80460.4283715037,-80501.7011991271,-2416.7357752759
5527567384,6840,-2,0,-6718.8196701762,-80193.6516186607,-35630.9464636480,-12639.1950748310,-80538.8978483148,-41222.6845448119,-80472.0850250600,-80460.8177378020,-80501.7498699144,-2416.6140983077
5527607509,6841,-2,0,-6719.4645581078,-80194.5276928319,-35648.7721394936,-12639.4749318579,-80535.7707502313,-41127.4601494756,-80471.2454539793,-80459.2724403055,-80500.6912802908,-2416.0543842538
5527607509,6841,-2,0,-6718.7101609048,-80194.2235004113,-35645.5355321387,-12639.4870995548,-80536.1844519233,-41244.2700389758,-80470.3815475048,-80458.5302107993,-80500.0585600560,-2415.8597011047
5527607509,6841,-2,0,-6719.5010611983,-80194.1626619272,-35625.1181368698,-12640.6186953593,-80538.7153328625,-41422.8309898525,-80471.5253110062,-80460.5013776846,-80501.5673544620,-2417.1008061806
5527607509,6841,-2,0,-6720.3284645823,-80195.5132762746,-35615.0554515972,-12641.3122540782,-80540.6378289605,-41425.9459202392,-80472.2553728156,-80461.4991288241,-80502.8571303253,-2418.5974328898
5527607509,6841,-2,0,-6720.0242721617,-80195.6592886365,-35628.0505518041,-12641.1540740195,-80540.1511210876,-41246.9225968832,-80472.2918759060,-80461.4747934304,-80502.6137763888,-2417.3928309044
5527607509,6841,-2,0,-6720.5353154283,-80196.5840335950,-35648.2975993175,-12641.1540740195,-80538.7883390434,-41127.8616834707,-80473.7276641311,-80462.1561844525,-80503.5871921346,-2417.8308679900
5527607509,6841,-2,0,-6719.5497319856,-80196.5962012918,-35648.0055745937,-12640.4483476038,-80537.9609356594,-41223.3781035308,-80472.4257205711,-80461.3409487654,-80503.4898505601,-2416.6262660045
5527607509,6841,-2,0,-6719.0630241127,-80196.4501889299,-35628.7197751294,-12639.5966088262,-80540.1754564812,-41408.1810828777,-80472.1701989378,-80460.4162038068,-80502.9058011126,-2416.7966137600
5527638673,6842,-2,0,-6718.0652729732,-80195.1725807635,-35613.5831602816,-12639.1220686501,-80541.1367045302,-41438.8923496588,-80471.1967831920,-80460.7568993179,-80502.3095839682,-2416.6992721854
5527638673,6842,-2,0,-6718.9291794476,-80196.1703319030,-35626.0185464347,-12639.7791242785,-80539.5792393369,-41276.5631063439,-80471.3792986443,-80460.7203962274,-80501.6890314303,-2417.1494769679
5527638673,6842,-2,0,-6719.4645581078,-80195.9999841475,-35647.7013821732,-12640.5213537847,-80537.8514263880,-41132.6314206253,-80472.1093604537,-80461.2679425844,-80502.7232856602,-2417.7943648995
5527638673,6842,-2,0,-6719.7322474379,-80195.1360776731,-35650.4026108679,-12640.1319874864,-80537.3768862119,-41196.4753258553,-80471.7564972458,-80460.8907439829,-80502.1392362127,-2417.0156323028
5527638673,6842,-2,0,-6719.4037196237,-80195.9878164507,-35631.9198793938,-12640.6186953593,-80539.1412022513,-41382.6410872463,-80473.0827761995,-80461.2436071908,-80503.2951674109,-2417.8917064741
5527638673,6842,-2,0,-6719.0751918095,-80195.7322948174,-35615.6395010447,-12639.4627641611,-80540.5161519923,-41439.9874423728,-80472.9124284440,-80461.9858366970,-80503.5020182569,-2417.1738123615
5527638673,6842,-2,0,-6719.9877690712,-80197.0585737711,-35622.8549452607,-12641.2757509877,-80541.9397725205,-41289.4365295826,-80474.8470922389,-80462.3752029953,-80504.2077446726,-2417.7700295059
5527638673,6842,-2,0,-6719.5497319856,-80196.7178782600,-35641.7270430331,-12640.3753414228,-80539.9686056352,-41130.1127073830,-80473.3748009233,-80462.0831782716,-80504.1590738853,-2417.4171662980
5527655632,6843,-2,0,-6718.8926763572,-80197.0950768616,-35648.2245931366,-12639.9373043372,-80538.4111404419,-41171.4220380969,-80473.8250057057,-80462.5212153572,-80503.1369873522,-2416.0543842538
5527655632,6843,-2,0,-6718.3816330906,-80196.8638906219,-35631.0924760099,-12639.8277950658,-80539.6644132147,-41354.6553845535,-80473.0827761995,-80461.7789858510,-80503.2951674109,-2416.2368997062
5527655632,6843,-2,0,-6719.0630241127,-80197.1437476488,-35612.6219122326,-12640.5821922688,-80542.0492817920,-41436.3614687196,-80473.4721424979,-80461.7668181542,-80503.3681735918,-2418.0742219264
5527655632,6843,-2,0,-6719.6714089538,-80197.2775923139,-35617.9391957443,-12640.1563228800,-80542.3656419094,-41306.4104666506,-80474.4090551532,-80462.3143645112,-80503.4168443791,-2417.9160418677
5527655632,6843,-2,0,-6719.7322474379,-80196.9977352870,-35637.5170199324,-12640.5456891783,-80540.5404873859,-41133.3736501315,-80474.3238812755,-80462.2048552398,-80503.7453721933,-2417.0643030901
5527655632,6843,-2,0,-6719.5618996824,-80196.7787167442,-35645.9127307402,-12640.0346459118,-80539.2507115227,-41143.8865401865,-80474.0805273390,-80462.2291906335,-80503.0031426871,-2417.6726879313
5527655632,6843,-2,0,-6719.9756013744,-80196.8882260156,-35630.9342959512,-12640.6065276625,-80538.7761713466,-41324.1631363153,-80473.0097700186,-80462.7280662032,-80503.6601983156,-2417.3563278139
5527655632,6843,-2,0,-6719.8904274966,-80197.2654246171,-35610.5655714696,-12640.8863846894,-80542.3413065157,-41431.0198498143,-80474.3360489723,-80462.3508676017,-80503.7697075870,-2418.0133834423
5527693425,6844,-2,0,-6718.3938007874,-80195.9999841475,-35610.1518697776,-12640.3266706355,-80541.2827168921,-41322.3988202759,-80473.1922854709,-80461.3531164622,-80502.8327949316,-2417.1738123615
5527693425,6844,-2,0,-6718.9291794476,-80197.5939524313,-35630.7396128020,-12640.6551984498,-80540.0294441194,-41144.9207944165,-80474.1535335199,-80461.9615013033,-80503.0396457776,-2417.4901724789
5527693425,6844,-2,0,-6718.3572976970,-80196.2190026903,-35642.4206017520,-12639.9373043372,-80537.5228985738,-41128.5917452801,-80472.7177452948,-80460.6838931369,-80502.4190932396,-2416.1638935252
5527693425,6844,-2,0,-6719.1968687777,-80196.5718658982,-35631.1898175844,-12640.2536644546,-80539.4940654591,-41294.5104591577,-80473.4599748010,-80461.5843027018,-80503.5871921346,-2417.4780047821
5527693425,6844,-2,0,-6719.4280550174,-80196.1459965094,-35608.9229323985,-12640.4118445133,-80540.3214688431,-41423.0135053048,-80473.3139624392,-80461.7546504574,-80502.5772732983,-2417.8308679900
5527693425,6844,-2,0,-6719.0630241127,-80196.5110274140,-35607.7061627162,-12640.6430307529,-80541.3678907699,-41341.3074211388,-80473.2896270455,-80462.1805198462,-80502.3339193619,-2416.9791292124
5527693425,6844,-2,0,-6718.8805086603,-80196.1459965094,-35626.2375649775,-12639.4505964643,-80538.6544943784,-41154.3142563638,-80472.9245961408,-80461.3166133717,-80502.8206272348,-2417.1494769679
5527693425,6844,-2,0,-6718.5519808461,-80196.0729903284,-35641.2159997666,-12640.1076520927,-80536.6224890089,-41111.2527773074,-80472.8515899599,-80460.5135453814,-80501.9202176699,-2416.0543842538
5527723588,6845,-2,0,-6719.9025951935,-80196.1216611157,-35631.9077116970,-12640.4361799069,-80538.1799542023,-41271.0511396831,-80473.2287885614,-80461.0367563448,-80502.8814657189,-2417.5631786599
5527723588,6845,-2,0,-6719.5740673793,-80195.9513133602,-35611.5511549122,-12641.1662417163,-80540.2849657526,-41417.6718863996,-80472.9489315345,-80461.7059796701,-80502.7232856602,-2417.7821972027
5527723588,6845,-2,0,-6719.4523904110,-80195.6957917269,-35605.3699649262,-12640.4848506942,-80541.0880337429,-41357.1132593118,-80472.7907514758,-80461.1340979194,-80502.0540623350,-2417.3928309044
5527723588,6845,-2,0,-6719.8539244062,-80195.0630714921,-35622.2100573291,-12640.9350554767,-80539.1533699481,-41171.1300133731,-80472.1701989378,-80460.7325639242,-80501.9567207604,-2417.2711539361
5527723588,6845,-2,0,-6719.5618996824,-80196.5231951109,-35640.3885963826,-12640.6551984498,-80537.4863954834,-41104.4632024802,-80472.7664160821,-80461.6816442764,-80502.7841241443,-2417.9403772614
5527723588,6845,-2,0,-6719.9999367681,-80196.6570397759,-35633.3800030126,-12641.3852602591,-80537.7784202071,-41242.3353751810,-80473.5694840724,-80461.8154889415,-80502.6016086920,-2417.3441601171
5527723588,6845,-2,0,-6719.3063780491,-80196.0973257221,-35611.8310119391,-12640.7647077212,-80539.5670716401,-41406.9156424081,-80472.7542483853,-80461.4504580368,-80502.9788072935,-2416.6992721854
5527723588,6845,-2,0,-6719.1968687777,-80196.4623566268,-35604.3113753026,-12639.8034596721,-80541.0028598652,-41377.0074436173,-80471.7443295490,-80460.6595577433,-80502.2974162714,-2417.8795387773
5527758646,6846,-2,0,-6719.3793842301,-80196.3528473554,-35621.0054553436,-12640.4361799069,-80539.4818977623,-41193.8957741288,-80472.3283789965,-80461.2557748876,-80502.2365777873,-2417.7700295059
5527758646,6846,-2,0,-6719.4645581078,-80195.6471209396,-35639.6098637859,-12640.7768754180,-80537.4742277865,-41100.2410116827,-80472.6082360234,-80460.2336883545,-80502.0783977286,-2416.7722783664
5527758646,6846,-2,0,-6719.0386887190,-80195.4646054873,-35636.0690640104,-12639.8399627626,-80536.4034704661,-41222.3316816041,-80471.4644725221,-80460.7203962274,-80501.4578451906,-2415.7501918333
5527758646,6846,-2,0,-6718.8926763572,-80195.9756487538,-35615.8098488002,-12640.7647077212,-80539.5062331560,-41396.7799509546,-80472.1580312410,-80461.0245886480,-80502.7841241443,-2417.0399676965
5527758646,6846,-2,0,-6720.1216137363,-80196.2676734776,-35605.9175112832,-12641.1905771100,-80542.2804680316,-41393.0931388172,-80472.9245961408,-80461.6086380955,-80503.1978258363,-2418.2689050756
5527758646,6846,-2,0,-6719.7930859221,-80196.3041765681,-35617.6350033237,-12640.4605153006,-80540.4674812050,-41217.0752365765,-80472.6934099012,-80461.9006628192,-80503.5385213473,-2417.8917064741
5527758646,6846,-2,0,-6719.2820426555,-80195.8053009983,-35637.5778584165,-12640.2171613641,-80537.8757617817,-41100.8128934333,-80472.5108944488,-80460.4283715037,-80502.0662300318,-2416.4680859458
5527758646,6846,-2,0,-6719.1116949000,-80195.6106178492,-35638.3565910132,-12639.6331119166,-80537.5228985738,-41197.9111140804,-80473.1192792900,-80460.6595577433,-80502.3460870587,-2416.6627690950
5527794892,6847,-2,0,-6719.7687505284,-80195.6592886365,-35619.0707915488,-12641.1297386259,-80538.7640036498,-41383.2616397843,-80471.8295034268,-80460.5622161687,-80501.4091744033,-2417.7091910218
5527794892,6847,-2,0,-6719.0386887190,-80194.2843388954,-35605.1874494738,-12639.1950748310,-80539.6035747305,-41409.6533741932,-80470.8439199841,-80458.7492293421,-80500.4844294448,-2416.5289244299
5527794892,6847,-2,0,-6718.5641485429,-80194.2600035018,-35616.9901153921,-12640.1319874864,-80539.3845561877,-41241.6539841589,-80471.1237770110,-80459.6618066038,-80501.8350437921,-2416.7114398823
5527794892,6847,-2,0,-6720.1581168268,-80195.9269779665,-35638.0645662894,-12640.9107200830,-80537.4863954834,-41104.4266993897,-80472.4378882679,-80461.6694765796,-80502.9301365062,-2417.6970233249
5527794892,6847,-2,0,-6719.5253965920,-80195.6349532428,-35640.7171241968,-12641.0810678386,-80536.4399735566,-41178.4549668605,-80472.3040436029,-80460.9759178607,-80502.1027331222,-2417.7821972027
5527794892,6847,-2,0,-6718.7466639953,-80195.3307608222,-35621.2123061896,-12640.1806582737,-80538.6179912879,-41362.7590706376,-80471.9755157886,-80460.0998436894,-80501.1901558605,-2416.6262660045
5527794892,6847,-2,0,-6720.2311230077,-80196.5840335950,-35607.0977778750,-12640.9472231735,-80541.3557230731,-41416.3699428395,-80473.5816517693,-80461.3409487654,-80504.3415893377,-2418.4757559216
5527794892,6847,-2,0,-6719.0508564159,-80196.1216611157,-35615.6638364384,-12640.3023352419,-80539.5670716401,-41269.3233267343,-80472.3162112997,-80460.5987192592,-80502.0053915477,-2416.9304584251
5527833644,6848,-2,0,-6718.3451300001,-80194.4303512573,-35637.2371629054,-12640.1076520927,-80537.4377246961,-41115.5358065891,-80471.9755157886,-80460.3797007164,-80501.5916898557,-2417.1494769679
5527833644,6848,-2,0,-6719.0630241127,-80195.2212515508,-35643.5400298597,-12639.9738074277,-80537.1943707596,-41159.6680429659,-80471.8416711236,-80459.7834835720,-80501.5916898557,-2416.1517258284
5527833644,6848,-2,0,-6718.7223286016,-80193.9436433844,-35626.4930866108,-12639.3410871929,-80536.9510168231,-41343.9478113494,-80471.4766402189,-80460.7812347115,-80501.3118328288,-2416.8817876378
5527833644,6848,-2,0,-6719.1481979904,-80194.7953821620,-35610.6629130441,-12640.4483476038,-80541.1732076207,-41424.6683120728,-80473.4113040137,-80461.7181473669,-80502.2244100905,-2417.7943648995
5527833644,6848,-2,0,-6719.6835766507,-80196.6448720791,-35616.6007490937,-12641.1540740195,-80541.2462138016,-41290.3369391475,-80474.2387073977,-80462.1440167557,-80503.9887261298,-2418.6826067676
5527833644,6848,-2,0,-6719.5375642888,-80196.8638906219,-35635.9717224359,-12640.3996768165,-80538.7275005593,-41121.6439903942,-80473.1071115932,-80461.3774518558,-80503.3316705014,-2416.8696199410
5527833644,6848,-2,0,-6719.2577072619,-80195.6471209396,-35644.2457562755,-12640.2779998482,-80537.0605260946,-41141.8788702108,-80472.2067020283,-80461.2071041003,-80501.4335097970,-2416.4802536426
5527833644,6848,-2,0,-6718.9535148413,-80195.9756487538,-35630.2772403227,-12640.1076520927,-80537.8635940849,-41321.2185536841,-80472.7785837790,-80461.5234642177,-80502.6746148729,-2416.4802536426
5527849820,6849,-2,0,-6718.9048440540,-80195.8661394824,-35611.2956332789,-12640.0711490023,-80539.9442702416,-41424.8264921315,-80473.7033287375,-80461.3774518558,-80502.3947578460,-2417.2346508457
5527849820,6849,-2,0,-6719.3185457460,-80195.7931333015,-35613.2546324674,-12639.7426211880,-80540.1997918749,-41315.2563822409,-80472.3405466933,-80460.6230546528,-80502.5042671174,-2416.9304584251
5527849820,6849,-2,0,-6719.0508564159,-80196.3528473554,-35634.6819465726,-12640.2171613641,-80540.0659472098,-41136.5980897896,-80472.6569068107,-80461.0489240416,-80503.1491550490,-2416.6871044886
5527849820,6849,-2,0,-6719.4523904110,-80196.5962012918,-35647.3120158748,-12640.7160369339,-80538.6179912879,-41125.3186348347,-80474.0318565517,-80462.0710105748,-80504.2929185504,-2417.1494769679
5527849820,6849,-2,0,-6718.8196701762,-80196.2920088712,-35634.1709033061,-12640.2536644546,-80538.5084820165,-41298.0755943269,-80472.0241865759,-80461.2436071908,-80502.5042671174,-2416.8574522441
5527849820,6849,-2,0,-6718.6614901175,-80195.8661394824,-35613.7778434308,-12639.9616397308,-80539.7130840020,-41424.3884550458,-80473.0341054122,-80461.8519920320,-80503.2464966236,-2417.0886384838
5527849820,6849,-2,0,-6718.5519808461,-80196.9368968029,-35611.5389872154,-12640.5456891783,-80541.2340461048,-41335.6007713288,-80473.8006703121,-80461.0002532543,-80502.3825901492,-2417.0156323028
5527849820,6849,-2,0,-6719.2698749587,-80197.2167538298,-35631.5548484891,-12640.2414967578,-80539.1655376449,-41150.9803074343,-80474.1413658231,-80461.2679425844,-80501.9932238508,-2417.2711539361
5527900147,6850,-2,0,-6719.6105704697,-80196.7422136537,-35646.1682523735,-12640.8255462053,-80538.0096064467,-41116.6430670000,-80474.0561919454,-80461.9371659097,-80503.5628567410,-2417.8430356868
5527900147,6850,-2,0,-6719.5497319856,-80196.0364872380,-35635.7283684994,-12640.4240122101,-80537.7662525103,-41272.9006296002,-80472.6569068107,-80461.1340979194,-80502.9301365062,-2416.8087814569
5527900147,6850,-2,0,-6719.1481979904,-80196.7300459569,-35615.2623024432,-12640.8012108116,-80541.5625739190,-41417.3798616758,-80473.6424902534,-80462.0101720907,-80503.7818752838,-2417.2954893298
5527900147,6850,-2,0,-6719.5862350761,-80197.2654246171,-35610.4560621982,-12640.8985523862,-80542.4873188776,-41355.3611109693,-80473.8980118867,-80462.6793954159,-80503.6845337092,-2417.4901724789
5527900147,6850,-2,0,-6719.9999367681,-80197.3992692821,-35628.5980981612,-12641.0202293544,-80541.0271952588,-41166.3359408249,-80473.8615087962,-80462.7767369905,-80504.0130615234,-2417.9768803519
5527900147,6850,-2,0,-6718.9413471445,-80197.2045861330,-35643.4305205883,-12639.7061180976,-80538.4719789260,-41100.5573718001,-80472.7664160821,-80461.8398243351,-80502.9301365062,-2416.8452845473
5527900147,6850,-2,0,-6719.1847010809,-80197.2410892234,-35636.6409457611,-12639.5114349484,-80539.4575623687,-41245.5233117486,-80473.8736764930,-80462.2170229366,-80504.4267632154,-2416.9669615156
5527900147,6850,-2,0,-6718.2477884255,-80196.4866920204,-35614.7512591766,-12639.0855655596,-80540.6256612637,-41407.0251516795,-80473.8371734025,-80462.1683521493,-80503.3681735918,-2416.6627690950
5527918478,6851,-2,0,-6719.4402227142,-80197.1924184361,-35607.5723180511,-12639.9859751245,-80542.7550082077,-41372.0186879199,-80473.8128380089,-80462.9470847460,-80503.9157199489,-2416.3099058871
5527918478,6851,-2,0,-6719.3793842301,-80195.8418040888,-35622.5142497497,-12639.6452796135,-80540.2606303590,-41188.1404535316,-80472.9124284440,-80462.4360414795,-80503.9278876457,-2417.1251415743
5527918478,6851,-2,0,-6719.3915519269,-80195.6227855460,-35640.7292918936,-12639.8642981563,-80537.1091968819,-41098.6957141861,-80472.6325714171,-80461.4261226431,-80502.3947578460,-2416.4924213395
5527918478,6851,-2,0,-6719.8417567094,-80195.7566302110,-35637.6265292038,-12640.6065276625,-80537.8514263880,-41220.0563222982,-80473.2166208646,-80461.3774518558,-80503.1491550490,-2417.4415016916
5527918478,6851,-2,0,-6720.4136384600,-80196.9125614092,-35615.4083148051,-12642.1274897653,-80540.9541890779,-41394.4194177709,-80473.6059871629,-80462.2170229366,-80503.5263536505,-2418.0377188360
5527918478,6851,-2,0,-6718.7588316921,-80196.7787167442,-35604.2627045153,-12639.9616397308,-80541.3800584667,-41388.6884325673,-80473.7763349184,-80461.2192717971,-80503.1491550490,-2417.5388432662
5527918478,6851,-2,0,-6718.7466639953,-80196.8273875314,-35619.0586238520,-12639.8764658531,-80540.9176859874,-41211.4902637348,-80472.8150868694,-80461.8276566383,-80503.1978258363,-2416.6019306109
5527918478,6851,-2,0,-6718.5641485429,-80195.9878164507,-35640.1452424461,-12639.9738074277,-80538.2042895959,-41097.8074723181,-80473.5573163756,-80462.2170229366,-80504.6822848487,-2416.9426261219
5527944828,6852,-2,0,-6718.9291794476,-80197.0585737711,-35640.4129317762,-12640.2293290610,-80538.1434511118,-41202.4740003890,-80472.6690745075,-80461.5843027018,-80502.9301365062,-2416.7966137600
5527944828,6852,-2,0,-6719.7322474379,-80197.2410892234,-35620.9081137691,-12641.0080616576,-80539.8834317575,-41386.0358746599,-80472.5230621457,-80462.2170229366,-80502.8449626284,-2418.2324019851
5527944828,6852,-2,0,-6719.7444151348,-80196.3163442649,-35608.6065722811,-12640.7647077212,-80541.3192199826,-41406.4411022320,-80473.1192792900,-80462.0101720907,-80502.4920994206,-2417.7578618090
5527944828,6852,-2,0,-6719.4402227142,-80194.9900653112,-35620.2023873533,-12640.8012108116,-80540.4188104177,-41241.2524501637,-80472.8880930504,-80460.2823591418,-80502.3704224523,-2416.8939553346
5527944828,6852,-2,0,-6720.4866446410,-80197.0829091647,-35642.0190677569,-12640.4726829974,-80538.1312834150,-41111.9098329359,-80473.1314469868,-80461.8519920320,-80504.0982354012,-2416.6749367918
5527944828,6852,-2,0,-6718.0044344891,-80195.3550962159,-35644.2822593659,-12639.8277950658,-80536.2939611947,-41185.7677526511,-80471.6104848839,-80460.8420731956,-80502.0540623350,-2416.1395581316
5527944828,6852,-2,0,-6718.9291794476,-80195.8661394824,-35625.5075031681,-12639.6817827039,-80538.2042895959,-41372.4932280960,-80473.3626332265,-80460.6473900465,-80501.6038575525,-2417.0643030901
5527944828,6852,-2,0,-6718.9413471445,-80195.6957917269,-35610.8575961933,-12640.8133785085,-80540.7473382319,-41419.7890656468,-80472.3040436029,-80461.9371659097,-80502.5894409952,-2417.6605202345
5528007551,6853,-2,0,-6719.5862350761,-80195.0387360985,-35618.8396053092,-12640.1563228800,-80540.1876241781,-41264.4440803083,-80472.0971927569,-80461.4139549463,-80502.4434286333,-2417.5266755694
5528007551,6853,-2,0,-6719.0021856286,-80195.5376116682,-35638.9284727638,-12640.7647077212,-80538.2651280800,-41112.9075840753,-80471.3427955538,-80459.5644650292,-80501.9810561540,-2417.1251415743
5528007551,6853,-2,0,-6719.0751918095,-80194.9900653112,-35645.6450414101,-12640.0833166991,-80537.0240230041,-41164.7298048442,-80471.4644725221,-80460.6108869560,-80501.9688884572,-2417.3928309044
5528007551,6853,-2,0,-6719.6714089538,-80194.8927237366,-35627.3448253884,-12639.7547888849,-80538.0461095372,-41348.2795114183,-80470.8317522873,-80460.0998436894,-80501.1293173764,-2416.4559182490
5528007551,6853,-2,0,-6720.4136384600,-80195.5619470619,-35611.1861240075,-12641.1662417163,-80540.4918165986,-41423.8165732952,-80472.6082360234,-80461.6451411860,-80502.4677640269,-2418.5974328898
5528007551,6853,-2,0,-6718.8440055699,-80193.8949725971,-35615.5178240765,-12639.7182857944,-80538.8370098307,-41289.5582065508,-80470.8317522873,-80460.0633405990,-80501.2631620415,-2417.0156323028
5528007551,6853,-2,0,-6719.7200797411,-80195.0144007048,-35637.1884921182,-12640.6673661466,-80537.2673769405,-41125.9391873727,-80471.7930003363,-80460.0511729022,-80500.5452679289,-2417.0156323028
5528007551,6853,-2,0,-6718.5033100588,-80195.0265684016,-35645.3408489895,-12640.0103105181,-80537.1822030628,-41148.9361343681,-80472.8515899599,-80460.5987192592,-80501.5186836747,-2416.5775952172
5528055294,6854,-2,0,-6719.4767258047,-80196.2068349935,-35630.4232526846,-12640.1198197895,-80539.2020407354,-41334.5665170989,-80472.4622236616,-80460.6838931369,-80502.2730808778,-2416.9669615156
5528055294,6854,-2,0,-6719.6470735602,-80196.6327043823,-35611.9891919978,-12640.8133785085,-80541.1732076207,-41436.9820212576,-80472.4500559647,-80461.1097625258,-80503.2586643204,-2418.3297435597
5528055294,6854,-2,0,-6719.0751918095,-80196.0121518443,-35614.6660852989,-12640.7647077212,-80541.2340461048,-41319.2595544956,-80472.1093604537,-80460.7934024084,-80502.4434286333,-2417.2711539361
5528055294,6854,-2,0,-6720.1824522204,-80195.9026425729,-35636.2272440691,-12640.2536644546,-80539.1046991608,-41140.3700758047,-80472.5230621457,-80460.6352223497,-80502.4312609365,-2417.5266755694
5528055294,6854,-2,0,-6720.3041291886,-80196.3041765681,-35647.7135498700,-12641.0445647481,-80537.0726937914,-41137.6080086259,-80472.4622236616,-80460.9150793766,-80502.9301365062,-2417.4171662980
5528055294,6854,-2,0,-6719.5010611983,-80195.0995745826,-35633.5625184649,-12640.3875091196,-80537.6080724516,-41308.2112857804,-80472.0241865759,-80459.6253035134,-80502.6381117824,-2417.1859800584
5528055294,6854,-2,0,-6719.5132288951,-80195.4889408809,-35613.0112785310,-12640.1684905768,-80539.5792393369,-41430.2167818240,-80472.5230621457,-80460.9637501639,-80502.7232856602,-2417.6726879313
5528055294,6854,-2,0,-6719.7200797411,-80194.7832144652,-35612.9017692596,-12640.2658321514,-80540.3823073272,-41340.8207132659,-80472.3162112997,-80460.6230546528,-80502.2730808778,-2416.4559182490
5528062623,6855,-2,0,-6718.3451300001,-80194.3208419859,-35631.7738670319,-12640.2536644546,-80537.2552092437,-41159.2908443644,-80471.1602801015,-80459.5644650292,-80500.4114232639,-2416.1638935252
5528062623,6855,-2,0,-6719.6470735602,-80196.0973257221,-35647.7865560509,-12640.8620492957,-80537.0605260946,-41127.4358140819,-80472.2310374219,-80460.0633405990,-80502.5042671174,-2416.7966137600
5528062623,6855,-2,0,-6719.0021856286,-80195.6471209396,-35636.8477966071,-12640.5943599656,-80538.2042895959,-41290.2639329665,-80472.2067020283,-80461.3896195527,-80501.9932238508,-2417.4049986012
5528062623,6855,-2,0,-6719.7079120443,-80195.3185931254,-35617.0022830889,-12641.1662417163,-80539.9929410289,-41432.6868242791,-80472.3405466933,-80461.2801102813,-80502.8814657189,-2417.0886384838
5528062623,6855,-2,0,-6720.5718185187,-80196.6327043823,-35612.7679245945,-12641.3730925623,-80541.1488722271,-41365.2169453959,-80473.1557823805,-80461.8519920320,-80503.4290120759,-2418.1228927137
5528062623,6855,-2,0,-6719.2455395650,-80195.2820900349,-35629.6445200879,-12640.4848506942,-80538.4598112292,-41178.3211221955,-80471.2819570697,-80459.6253035134,-80501.5916898557,-2416.5897629140
5528062623,6855,-2,0,-6720.0364398585,-80195.0995745826,-35646.4846124909,-12640.3266706355,-80537.1335322755,-41120.4150530151,-80472.2553728156,-80459.1750987309,-80501.4213421002,-2417.9282095646
5528062623,6855,-2,0,-6718.8805086603,-80194.1261588367,-35638.4661002846,-12640.0589813054,-80536.9753522168,-41264.0060432226,-80471.1116093142,-80459.7469804816,-80500.1315662369,-2416.2734027966
5528067840,6856,-2,0,-6719.3672165333,-80194.3938481669,-35615.8950226780,-12640.5456891783,-80537.9487679626,-41422.1861019209,-80470.4545536858,-80458.8100678262,-80499.9612184814,-2416.7844460632
5528067840,6856,-2,0,-6718.5398131493,-80194.2478358050,-35609.5678203301,-12640.0346459118,-80539.5670716401,-41383.0547889383,-80471.5253110062,-80459.9659990244,-80501.0441434986,-2416.7114398823
5528067840,6856,-2,0,-6719.9147628903,-80195.5254439714,-35626.2984034616,-12640.9715585672,-80539.6522455178,-41195.2828915667,-80472.4135528743,-80460.6838931369,-80501.7498699144,-2417.7943648995
5528067840,6856,-2,0,-6719.7565828316,-80196.0364872380,-35642.4327694488,-12640.3753414228,-80537.6810786325,-41105.7408106466,-80472.1458635442,-80460.5622161687,-80502.3339193619,-2416.5532598236
5528067840,6856,-2,0,-6720.2311230077,-80195.6106178492,-35636.8964673944,-12640.6551984498,-80537.5959047548,-41232.7959008718,-80472.2918759060,-80461.0975948289,-80502.4312609365,-2416.5654275204
5528067840,6856,-2,0,-6719.9390982839,-80195.9269779665,-35614.6174145116,-12640.6917015402,-80539.3602207941,-41403.6181965691,-80472.8150868694,-80461.3531164622,-80502.4069255428,-2417.2954893298
5528067840,6856,-2,0,-6719.6470735602,-80195.7687979078,-35602.7295747156,-12639.9616397308,-80541.5869093127,-41388.0435446357,-80473.3748009233,-80461.6451411860,-80503.1734904427,-2417.6726879313
5528067840,6856,-2,0,-6719.1360302936,-80196.4015181427,-35614.5809114211,-12640.8498815989,-80540.4066427209,-41209.1784013385,-80472.8394222631,-80461.7424827605,-80502.7354533570,-2417.7943648995
5528126068,6857,-2,0,-6718.9900179317,-80196.4015181427,-35633.6233569490,-12640.2536644546,-80537.9609356594,-41100.7277195556,-80472.9854346249,-80460.9637501639,-80502.7597887507,-2417.2103154520
5528126068,6857,-2,0,-6718.9413471445,-80196.8030521378,-35631.4575069146,-12640.9350554767,-80538.1556188086,-41203.4960869221,-80472.7785837790,-80461.3044456749,-80503.3073351077,-2417.1981477552
5528126068,6857,-2,0,-6719.8782597998,-80196.7422136537,-35610.2370436553,-12640.8863846894,-80539.9442702416,-41381.2539698085,-80473.9223472803,-80462.1561844525,-80502.9423042030,-2417.8795387773
5528126068,6857,-2,0,-6720.3527999759,-80196.6327043823,-35596.7065647882,-12641.0445647481,-80542.1709587602,-41398.2279068765,-80474.2265397009,-80462.3386999049,-80503.0883165649,-2417.7335264154
5528126068,6857,-2,0,-6719.0751918095,-80196.6083689886,-35606.9030947259,-12640.2293290610,-80540.1632887844,-41226.8093940349,-80472.7420806885,-80461.6816442764,-80503.0761488681,-2418.0133834423
5528126068,6857,-2,0,-6719.3428811396,-80195.2090838540,-35626.8702852123,-12639.7061180976,-80538.5814881974,-41094.7533804155,-80471.7930003363,-80461.3044456749,-80502.6137763888,-2416.4559182490
5528126068,6857,-2,0,-6718.9291794476,-80195.5376116682,-35627.2718192075,-12638.6596961708,-80537.5472339675,-41177.8222466257,-80472.5717329330,-80461.0245886480,-80502.4799317237,-2415.5676763809
5528126068,6857,-2,0,-6718.7101609048,-80194.8927237366,-35607.7183304130,-12639.8156273690,-80538.4354758355,-41362.8929153027,-80471.5496463998,-80460.0755082958,-80501.4213421002,-2416.5167567331
5528134787,6858,-2,0,-6718.9291794476,-80194.6006990129,-35592.7398956239,-12640.1198197895,-80539.9199348479,-41405.6867050290,-80472.2067020283,-80460.9759178607,-80502.0175592445,-2417.1251415743
5528134787,6858,-2,0,-6719.9025951935,-80195.6106178492,-35602.0846867840,-12641.1419063227,-80541.0028598652,-41251.4611477982,-80472.6082360234,-80461.4991288241,-80503.0031426871,-2417.8917064741
5528134787,6858,-2,0,-6719.4888935015,-80195.7079594237,-35622.4777466592,-12640.8863846894,-80537.6567432389,-41103.1612589202,-80472.1215281505,-80460.3066945354,-80502.3460870587,-2417.3684955107
5528134787,6858,-2,0,-6719.9512659808,-80195.6227855460,-35628.0018810168,-12640.4605153006,-80537.7297494198,-41155.6770384080,-80472.6325714171,-80460.5987192592,-80502.5529379047,-2416.6506013982
5528134787,6858,-2,0,-6719.8052536189,-80196.4136858395,-35611.3443040662,-12640.7282046307,-80539.0195252830,-41342.9743956035,-80472.8394222631,-80461.8641597288,-80503.4290120759,-2418.2567373788
5528134787,6858,-2,0,-6719.0021856286,-80196.0851580252,-35594.1635161522,-12639.5722734325,-80541.1610399239,-41416.9539922870,-80473.5573163756,-80462.0588428779,-80504.1104030980,-2416.2977381903
5528134787,6858,-2,0,-6719.0508564159,-80195.8661394824,-35600.7827432239,-12639.8764658531,-80540.7473382319,-41278.0110622658,-80472.9002607472,-80461.2557748876,-80502.5651056015,-2416.9669615156
5528134787,6858,-2,0,-6720.0364398585,-80196.9125614092,-35624.5827582096,-12640.3388383324,-80539.7982578797,-41118.1275260124,-80473.9101795835,-80461.9128305161,-80502.2852485746,-2416.9547938187
5528161204,6859,-2,0,-6719.3307134428,-80195.5497793650,-35634.8522943281,-12640.2171613641,-80537.2308738501,-41151.0289782216,-80472.3162112997,-80460.8542408925,-80501.8837145794,-2417.0034646060
5528161204,6859,-2,0,-6720.0486075553,-80195.6227855460,-35621.7720202435,-12640.7525400243,-80538.6666620752,-41338.1559876616,-80471.9511803950,-80461.2922779781,-80502.4434286333,-2417.3684955107
5528161204,6859,-2,0,-6719.1238625968,-80195.1725807635,-35604.6277354200,-12640.6430307529,-80540.4066427209,-41435.7165807880,-80471.6591556712,-80459.7956512689,-80501.9810561540,-2417.8308679900
5528161204,6859,-2,0,-6719.8174213157,-80195.7444625142,-35609.0446093667,-12640.4118445133,-80540.1876241781,-41320.7683489017,-80472.6569068107,-80460.1241790831,-80501.2509943446,-2418.3297435597
5528161204,6859,-2,0,-6719.5132288951,-80194.6250344065,-35631.9198793938,-12640.8255462053,-80537.1943707596,-41145.9550486464,-80471.3914663411,-80461.0732594353,-80502.3339193619,-2417.4293339948
5528161204,6859,-2,0,-6718.4668069684,-80193.5542770861,-35643.2358374392,-12639.1099009532,-80535.6369055663,-41142.8036151693,-80469.3229578812,-80458.8587386135,-80499.7543676354,-2415.9692103761
5528161204,6859,-2,0,-6719.4767258047,-80193.3230908464,-35630.6422712274,-12639.7547888849,-80536.6589920994,-41317.2153814294,-80469.7244918764,-80458.2990245596,-80499.7665353322,-2416.9791292124
5528161204,6859,-2,0,-6718.8683409635,-80193.6394509638,-35611.0157762520,-12639.6817827039,-80538.4841466228,-41434.0252709296,-80469.5419764241,-80459.1629310341,-80500.0220569655,-2416.1760612221
5528246122,6860,-2,0,-6718.8196701762,-80192.6173644307,-35610.4073914109,-12640.0224782150,-80537.7662525103,-41337.5354351237,-80469.6636533923,-80458.3111922565,-80500.2045724179,-2416.5654275204
5528246122,6860,-2,0,-6719.2455395650,-80194.1869973209,-35631.1898175844,-12640.5091860879,-80537.4985631802,-41157.1858328140,-80470.3572121112,-80459.0534217627,-80501.2266589510,-2417.6848556281
5528246122,6860,-2,0,-6719.0508564159,-80194.1383265336,-35645.3043458991,-12639.6939504007,-80535.3448808425,-41135.8071894961,-80470.5275598667,-80458.6032169802,-80500.3384170829,-2415.9083718920
5528246122,6860,-2,0,-6720.0486075553,-80194.8318852525,-35636.7017842452,-12641.0689001417,-80537.0240230041,-41303.6605671686,-80470.9777646492,-80459.7591481784,-80501.3118328288,-2417.0886384838
5528246122,6860,-2,0,-6719.6105704697,-80194.6128667097,-35616.0653704335,-12640.9472231735,-80539.9321025448,-41445.0735396448,-80471.0507708301,-80460.3797007164,-80501.4091744033,-2418.1837311978
5528246122,6860,-2,0,-6720.1946199172,-80194.8318852525,-35611.9161858169,-12640.1684905768,-80539.5184008528,-41374.4887303749,-80471.2941247665,-80460.4527068973,-80501.1049819828,-2417.5996817503
5528246122,6860,-2,0,-6719.1968687777,-80193.8949725971,-35629.6080169975,-12640.1806582737,-80538.3624696546,-41184.4293060006,-80471.7686649426,-80458.9804155817,-80500.9468019241,-2417.1129738774
5528246122,6860,-2,0,-6718.7953347826,-80194.9535622207,-35644.2700916691,-12640.1198197895,-80536.4886443439,-41122.3983875972,-80471.3792986443,-80459.6253035134,-80501.3483359192,-2416.5410921267
5528255013,6861,-2,0,-6719.3550488364,-80195.6592886365,-35635.4363437756,-12640.8620492957,-80538.1434511118,-41269.4328360057,-80472.1215281505,-80461.2679425844,-80501.9445530635,-2417.1251415743
5528255013,6861,-2,0,-6719.8782597998,-80196.2311703871,-35613.7535080372,-12640.8498815989,-80540.8203444128,-41425.3862061853,-80473.1192792900,-80461.5234642177,-80502.5286025110,-2417.6118494472
5528255013,6861,-2,0,-6719.7079120443,-80195.2090838540,-35606.9882686036,-12640.8620492957,-80540.8446798065,-41375.8880155096,-80472.3040436029,-80460.9394147702,-80501.8228760953,-2417.6605202345
5528255013,6861,-2,0,-6719.7079120443,-80196.1581642062,-35623.3051500432,-12640.7282046307,-80539.3723884909,-41187.1792054826,-80473.3748009233,-80461.1827687067,-80503.1856581395,-2417.7456941122
5528255013,6861,-2,0,-6720.3893030664,-80196.3041765681,-35641.1064904951,-12640.8863846894,-80538.1434511118,-41104.7187241135,-80472.3892174806,-80460.0146698117,-80502.0418946381,-2417.4780047821
5528255013,6861,-2,0,-6719.7322474379,-80194.9657299175,-35635.2781637170,-12640.8620492957,-80537.2065384564,-41229.2064303090,-80472.5717329330,-80460.5135453814,-80501.1658204669,-2417.7091910218
5528255013,6861,-2,0,-6718.6006516334,-80194.4303512573,-35611.8431796360,-12640.0103105181,-80538.8735129212,-41394.2977408027,-80472.5230621457,-80460.2580237481,-80501.3240005256,-2416.2368997062
5528255013,6861,-2,0,-6719.1481979904,-80194.9170591302,-35601.7804943634,-12640.5700245720,-80539.9686056352,-41379.1367905613,-80471.5861494903,-80460.8664085893,-80502.1757393032,-2417.2589862393
5528264648,6862,-2,0,-6719.8660921030,-80195.5497793650,-35617.0022830889,-12640.7403723275,-80539.0438606767,-41198.5438343152,-80471.9511803950,-80460.8542408925,-80502.4190932396,-2417.1129738774
5528264648,6862,-2,0,-6719.0630241127,-80194.6737051938,-35635.4363437756,-12639.9494720340,-80537.2552092437,-41093.7921323665,-80472.1215281505,-80460.1850175672,-80501.6646960366,-2415.8962041951
5528264648,6862,-2,0,-6720.1946199172,-80195.6836240301,-35634.6576111790,-12641.0445647481,-80537.2917123342,-41203.2649006825,-80472.5352298425,-80460.2945268386,-80502.1514039095,-2417.4171662980
5528264648,6862,-2,0,-6719.2333718682,-80194.6737051938,-35613.1207878024,-12640.1076520927,-80537.8635940849,-41383.0182858478,-80471.4401371284,-80459.5279619388,-80500.8616280463,-2417.3198247234
5528264648,6862,-2,0,-6719.8782597998,-80194.2965065923,-35601.0747679477,-12640.0103105181,-80540.1632887844,-41393.1053065140,-80471.5374787030,-80460.0146698117,-80501.8837145794,-2417.7213587186
5528264648,6862,-2,0,-6719.5984027729,-80194.9170591302,-35613.4249802229,-12640.5213537847,-80539.1777053417,-41223.6579605578,-80471.5374787030,-80460.3310299291,-80500.3749201734,-2417.1251415743
5528264648,6862,-2,0,-6719.8539244062,-80195.8418040888,-35634.2804125775,-12641.9571420098,-80536.7928367644,-41098.9877389099,-80471.2576216761,-80460.4770422909,-80501.6281929461,-2417.6970233249
5528264648,6862,-2,0,-6719.7079120443,-80194.1869973209,-35635.8257100740,-12640.7038692370,-80536.5251474343,-41181.3873817949,-80471.5253110062,-80460.9880855575,-80501.5065159779,-2416.9669615156
5528285022,6863,-2,0,-6719.7444151348,-80195.0144007048,-35616.6250844874,-12640.7768754180,-80538.5936558942,-41364.6450636452,-80471.4523048252,-80460.3553653227,-80501.3605036160,-2417.4293339948
5528285022,6863,-2,0,-6720.0242721617,-80194.6737051938,-35602.6565685346,-12640.6308630561,-80540.4674812050,-41404.6889538895,-80472.0971927569,-80460.9150793766,-80502.7354533570,-2417.8065325963
5528285022,6863,-2,0,-6719.2698749587,-80195.5497793650,-35612.8287630786,-12640.1563228800,-80539.1898730386,-41244.7932499392,-80472.5230621457,-80460.6960608338,-80501.6403606430,-2417.2468185425
5528285022,6863,-2,0,-6719.8904274966,-80196.6327043823,-35633.7572016141,-12640.4361799069,-80538.8856806180,-41097.2599259610,-80472.9489315345,-80462.3630352985,-80503.1126519585,-2417.6970233249
5528285022,6863,-2,0,-6720.0729429490,-80197.2532569202,-35638.7702927051,-12641.4704341369,-80538.5936558942,-41159.0353227311,-80474.9200984198,-80462.4117060858,-80504.1834092790,-2417.3928309044
5528285022,6863,-2,0,-6718.6858255112,-80195.8539717856,-35620.0563749915,-12639.2437456183,-80538.9343514053,-41344.1668298922,-80472.2553728156,-80461.3652841590,-80502.3339193619,-2416.0422165570
5528285022,6863,-2,0,-6718.6371547239,-80196.1459965094,-35603.6299842805,-12640.0468136086,-80541.6355801000,-41406.7939654399,-80473.2531239550,-80461.5599673082,-80502.7111179634,-2417.0764707870
5528285022,6863,-2,0,-6719.4888935015,-80196.3285119617,-35610.3343852299,-12640.4361799069,-80541.0150275620,-41265.8068623524,-80473.8980118867,-80462.3873706922,-80503.1369873522,-2417.0886384838
5528320334,6864,-2,0,-6718.5641485429,-80195.9756487538,-35630.2285695354,-12639.5966088262,-80539.0803637672,-41104.5483763580,-80472.8029191726,-80461.7181473669,-80502.7476210539,-2415.7501918333
5528320334,6864,-2,0,-6718.4059684842,-80196.5596982013,-35637.9428893212,-12639.7547888849,-80538.5693205006,-41135.7220156184,-80473.1679500773,-80461.8033212447,-80503.4046766823,-2416.1760612221
5528320334,6864,-2,0,-6719.9390982839,-80197.3627661917,-35621.9545356958,-12640.8133785085,-80541.3435553762,-41318.2618033561,-80474.3482166691,-80462.9957555333,-80504.4024278218,-2417.5996817503
5528320334,6864,-2,0,-6720.0607752522,-80198.1049956979,-35603.6664873710,-12640.3996768165,-80543.0957037187,-41410.3469329122,-80475.0174399944,-80463.9691712791,-80505.2906696899,-2417.5753463567
5528320334,6864,-2,0,-6719.6592412570,-80197.9833187296,-35607.5236472638,-12640.3996768165,-80542.4143126967,-41286.1147483499,-80474.6280736960,-80462.9105816555,-80505.0594834502,-2417.1129738774
5528320334,6864,-2,0,-6718.6371547239,-80196.6448720791,-35625.9455402538,-12639.9494720340,-80539.9929410289,-41110.1211815029,-80474.0561919454,-80462.8254077778,-80503.8792168584,-2417.1251415743
5528320334,6864,-2,0,-6718.3086269097,-80196.9490644997,-35635.9838901327,-12639.8886335499,-80538.1312834150,-41115.8399990097,-80473.2044531678,-80462.0223397875,-80503.1978258363,-2415.6893533491
5528320334,6864,-2,0,-6718.8440055699,-80196.1703319030,-35622.7211005957,-12640.2536644546,-80538.9586867989,-41292.8921554803,-80472.7542483853,-80462.1318490589,-80503.1734904427,-2416.4924213395
5528357233,6865,0,0,-6719.2090364746,-80196.6692074727,-35602.6444008378,-12639.7912919753,-80541.0028598652,-41407.2076671318,-80473.3139624392,-80462.1805198462,-80503.4655151664,-2416.8939553346
5528357233,6865,0,0,-6719.2333718682,-80196.6448720791,-35602.0846867840,-12639.9738074277,-80541.7207539777,-41307.7002425138,-80472.3648820870,-80462.0223397875,-80503.0153103840,-2417.2468185425
5528357233,6865,0,0,-6719.4402227142,-80195.6227855460,-35622.5994236274,-12640.8498815989,-80539.3967238846,-41125.1117839887,-80472.9610992313,-80461.2801102813,-80502.7111179634,-2418.0255511391
5528357233,6865,0,0,-6719.4402227142,-80195.9634810570,-35635.8865485581,-12639.9008012467,-80537.1700353660,-41099.1702543622,-80472.4013851774,-80461.1462656162,-80502.2365777873,-2416.3585766744
5528357233,6865,0,0,-6719.5618996824,-80195.4524377905,-35625.1424722634,-12640.6186953593,-80539.2507115227,-41268.0457185678,-80473.3382978328,-80461.2801102813,-80502.7841241443,-2417.2833216329
5528357233,6865,0,0,-6720.5718185187,-80197.5574493408,-35606.3433806720,-12641.9571420098,-80542.4508157871,-41408.4244368141,-80474.2022043072,-80462.9592524428,-80504.4754340027,-2418.9502960977
5528357233,6865,0,0,-6719.4158873206,-80197.0707414679,-35603.8246674296,-12640.9593908703,-80541.7815924618,-41333.7512814117,-80473.6668256470,-80462.5698861445,-80503.7210367997,-2417.6605202345
5528357233,6865,0,0,-6718.3451300001,-80196.0973257221,-35621.7963556371,-12640.0833166991,-80540.1024503003,-41147.9505509254,-80473.9953534612,-80461.6573088828,-80503.5263536505,-2416.4315828553
5528379953,6866,0,0,-6718.5763162398,-80196.8638906219,-35639.0623174289,-12639.8034596721,-80539.0560283735,-41101.2144274285,-80473.4113040137,-80463.0079232301,-80503.0883165649,-2416.1395581316
5528379953,6866,0,0,-6719.2577072619,-80197.3871015853,-35633.3800030126,-12641.2270802004,-80539.5549039433,-41252.8239298423,-80474.2873781850,-80462.6185569318,-80504.5119370932,-2417.1981477552
5528379953,6866,0,0,-6720.1824522204,-80196.7422136537,-35612.8774338659,-12640.2779998482,-80540.8081767160,-41404.1900783197,-80473.4356394074,-80462.6793954159,-80503.8183783743,-2417.6361848408
5528379953,6866,0,0,-6720.0972783426,-80196.5596982013,-35608.1441998018,-12640.4118445133,-80541.9519402174,-41358.3665320845,-80473.9710180676,-80462.1926875430,-80503.9522230393,-2417.8308679900
5528379953,6866,0,0,-6718.7709993889,-80195.8418040888,-35624.1812242144,-12639.6209442198,-80540.0416118162,-41173.8920805519,-80472.4378882679,-80461.0489240416,-80502.9058011126,-2416.3099058871
5528379953,6866,0,0,-6718.9413471445,-80195.7931333015,-35642.0069000600,-12639.2437456183,-80538.1556188086,-41095.7998023423,-80472.3892174806,-80460.6230546528,-80501.9932238508,-2416.2247320094
5528379953,6866,0,0,-6719.9269305871,-80197.5331139472,-35638.3930941036,-12640.8863846894,-80538.6179912879,-41233.1122609892,-80473.8250057057,-80461.8763274256,-80503.6236952251,-2417.3198247234
5528379953,6866,0,0,-6719.2455395650,-80195.9634810570,-35617.6715064142,-12640.3023352419,-80540.2241272685,-41402.1459052535,-80472.9124284440,-80461.5721350050,-80502.9058011126,-2417.8187002932
5528414889,6867,0,0,-6719.2090364746,-80195.4524377905,-35610.5047329854,-12640.7160369339,-80540.8446798065,-41380.7064234515,-80472.4135528743,-80461.1584333130,-80501.8837145794,-2417.7091910218
5528414889,6867,0,0,-6719.3307134428,-80195.4889408809,-35625.1668076571,-12639.7182857944,-80539.7617547892,-41199.4685792737,-80472.7542483853,-80460.8542408925,-80501.6646960366,-2417.0399676965
5528414889,6867,0,0,-6718.6128193302,-80195.0022330080,-35644.3796009405,-12640.1076520927,-80536.7563336740,-41098.5375341274,-80472.0241865759,-80460.4283715037,-80501.9688884572,-2416.6992721854
5528414889,6867,0,0,-6718.7709993889,-80195.9513133602,-35643.4426882851,-12639.9859751245,-80538.0582772340,-41208.9107120083,-80472.2432051187,-80461.1706010099,-80502.3582547555,-2416.8817876378
5528414889,6867,0,0,-6719.3550488364,-80196.5475305045,-35622.9401191385,-12641.0567324449,-80539.8469286670,-41386.8511103471,-80473.1679500773,-80462.3386999049,-80504.0982354012,-2417.4049986012
5528414889,6867,0,0,-6718.4059684842,-80196.3893504458,-35610.3465529267,-12639.6574473103,-80541.1002014398,-41394.7601132820,-80472.9610992313,-80461.4869611273,-80503.1126519585,-2416.6140983077
5528414889,6867,0,0,-6719.3185457460,-80195.9148102697,-35623.9865410653,-12640.5700245720,-80539.9199348479,-41223.6092897705,-80473.2044531678,-80460.9637501639,-80502.1514039095,-2416.8696199410
5528414889,6867,0,0,-6718.4059684842,-80195.5132762746,-35643.8685576740,-12640.0346459118,-80538.0461095372,-41099.0850804845,-80471.4523048252,-80460.6717254401,-80501.4578451906,-2416.5532598236
5528465024,6868,0,0,-6718.9170117508,-80194.7588790716,-35646.0344077084,-12639.9373043372,-80537.4742277865,-41189.7830926027,-80472.4622236616,-80461.0245886480,-80502.7111179634,-2417.2833216329
5528465024,6868,0,0,-6719.1116949000,-80196.1946672967,-35626.6634343663,-12640.5821922688,-80539.7374193956,-41375.6324938763,-80472.9124284440,-80461.8763274256,-80503.0274780808,-2417.6361848408
5528465024,6868,0,0,-6719.3672165333,-80195.6349532428,-35611.6849995773,-12640.7282046307,-80540.3093011463,-41406.5992822907,-80473.5938194661,-80461.1340979194,-80503.0639811712,-2417.8673710805
5528465024,6868,0,0,-6720.3649676727,-80196.9003937124,-35622.5507528402,-12640.9228877799,-80542.0736171856,-41244.9879330884,-80473.1192792900,-80461.8033212447,-80504.0860677044,-2418.2202342883
5528465024,6868,0,0,-6719.8539244062,-80196.0973257221,-35643.2358374392,-12640.8863846894,-80539.0560283735,-41106.3613631846,-80473.2287885614,-80463.3121156507,-80503.4411797728,-2417.5753463567
5528465024,6868,0,0,-6719.4767258047,-80195.4524377905,-35647.8960653223,-12640.8012108116,-80537.0970291850,-41167.7595613532,-80472.3283789965,-80461.0610917385,-80502.3217516650,-2416.8817876378
5528465024,6868,0,0,-6719.4280550174,-80195.6471209396,-35630.1312279608,-12640.3631737260,-80539.1898730386,-41355.7504772676,-80472.6082360234,-80461.1219302226,-80502.4799317237,-2417.0521353933
5528465024,6868,0,0,-6719.0751918095,-80195.5011085778,-35614.6782529957,-12640.9107200830,-80541.3070522858,-41419.4240347421,-80473.0827761995,-80461.3166133717,-80502.2974162714,-2417.2954893298
5528473837,6869,0,0,-6719.2333718682,-80195.0630714921,-35622.3073989037,-12639.9738074277,-80540.3823073272,-41274.8231256982,-80472.7664160821,-80461.5112965209,-80503.0518134744,-2416.6019306109
5528473837,6869,0,0,-6719.7687505284,-80196.8273875314,-35644.7202964516,-12641.0932355354,-80540.4066427209,-41115.1951110781,-80472.9489315345,-80462.8010723841,-80503.0153103840,-2418.2689050756
5528473837,6869,0,0,-6719.4037196237,-80196.1946672967,-35651.3881943105,-12640.5335214815,-80537.6324078452,-41151.1628228867,-80473.4234717106,-80461.8641597288,-80503.1248196554,-2416.6749367918
5528473837,6869,0,0,-6719.1603656873,-80196.1216611157,-35635.1443190519,-12640.3631737260,-80540.2606303590,-41335.3209143019,-80474.1657012168,-80462.7767369905,-80504.0739000076,-2418.2202342883
5528473837,6869,0,0,-6719.7079120443,-80197.8008032773,-35617.4281524777,-12640.9228877799,-80542.5359896649,-41422.0400895590,-80474.7619183611,-80462.6672277191,-80504.5241047900,-2417.8308679900
5528473837,6869,0,0,-6719.2090364746,-80197.3140954044,-35620.6647598326,-12640.8012108116,-80542.0127787015,-41297.4915448794,-80473.7885026153,-80462.9105816555,-80503.2586643204,-2417.7091910218
5528473837,6869,0,0,-6718.8683409635,-80196.5718658982,-35641.8000492140,-12640.7038692370,-80539.8469286670,-41126.3407213679,-80473.2774593487,-80461.7546504574,-80503.8548814647,-2416.6262660045
5528473837,6869,0,0,-6719.0508564159,-80196.3528473554,-35652.1790946040,-12640.1319874864,-80537.3768862119,-41132.8991099554,-80473.0097700186,-80461.4747934304,-80503.4290120759,-2416.3464089776
5528517446,6870,0,0,-6720.3406322791,-80196.6570397759,-35637.6630322943,-12641.2635832909,-80539.6035747305,-41311.3383838639,-80474.0318565517,-80462.8375754746,-80504.0982354012,-2418.0377188360
5528517446,6870,0,0,-6720.2311230077,-80197.2897600107,-35619.3263131821,-12641.2879186845,-80542.1101202761,-41424.8994983124,-80473.9101795835,-80463.3121156507,-80504.9256387852,-2418.4757559216
5528517446,6870,0,0,-6719.1968687777,-80196.7665490473,-35619.3019777884,-12640.1319874864,-80542.2196295475,-41318.4929895958,-80473.7398318280,-80461.7789858510,-80504.4267632154,-2417.5145078726
5528517446,6870,0,0,-6719.9999367681,-80198.4943619962,-35638.6851188274,-12640.8377139021,-80541.8789340364,-41135.1379661708,-80475.4189739895,-80464.4072083648,-80505.1324896312,-2418.0012157455
5528517446,6870,0,0,-6719.7079120443,-80197.8373063678,-35651.5463743692,-12640.4848506942,-80539.4210592782,-41117.5678119585,-80475.2364585372,-80463.2269417729,-80504.8648003010,-2416.7357752759
5528517446,6870,0,0,-6719.2090364746,-80198.1780018788,-35640.5832795318,-12640.3631737260,-80540.3336365399,-41284.7154632153,-80474.3238812755,-80462.8862462619,-80504.3172539440,-2416.4802536426
5528517446,6870,0,0,-6719.5375642888,-80197.7156293995,-35619.8251887518,-12639.8764658531,-80541.4530646476,-41413.9242357781,-80474.6524090897,-80462.7645692937,-80503.5141859537,-2416.9547938187
5528517446,6870,0,0,-6719.3672165333,-80198.0684926074,-35617.4159847809,-12640.3145029387,-80542.5724927553,-41335.9049637494,-80474.8592599357,-80462.7889046873,-80503.8548814647,-2418.3297435597
5528546077,6871,0,0,-6718.9535148413,-80197.2532569202,-35635.8135423772,-12640.0224782150,-80540.0416118162,-41152.1484063293,-80474.2752104882,-80462.7524015969,-80504.0860677044,-2416.8331168505
5528546077,6871,0,0,-6720.1702845236,-80197.9833187296,-35650.4512816552,-12640.3145029387,-80538.2651280800,-41105.0107488372,-80474.4942290310,-80463.2026063793,-80504.4267632154,-2417.1981477552
5528546077,6871,0,0,-6719.8904274966,-80197.5817847345,-35642.0312354537,-12641.0567324449,-80539.9564379384,-41258.8956105570,-80474.4333905469,-80462.9105816555,-80503.7697075870,-2417.1008061806
5528546077,6871,0,0,-6719.1116949000,-80197.1194122552,-35620.3849028057,-12641.1540740195,-80541.3678907699,-41410.3712683058,-80474.7497506643,-80463.1539355920,-80503.5141859537,-2417.9282095646
5528546077,6871,0,0,-6719.4037196237,-80196.4623566268,-35614.6782529957,-12640.7525400243,-80541.5382385254,-41355.3002724852,-80473.6181548597,-80462.1561844525,-80503.0153103840,-2416.8696199410
5528546077,6871,0,0,-6719.3915519269,-80196.7300459569,-35632.2240718144,-12641.1662417163,-80540.8690152001,-41167.4432012358,-80473.4599748010,-80462.0345074843,-80503.0761488681,-2417.5510109631
5528546077,6871,0,0,-6720.3649676727,-80198.1049956979,-35649.9037352981,-12641.3730925623,-80539.6157424274,-41098.9269004258,-80473.8006703121,-80462.2170229366,-80503.8062106774,-2417.2224831488
5528546077,6871,0,0,-6720.0729429490,-80197.4479400694,-35643.8198868867,-12640.8377139021,-80540.1632887844,-41236.5678868869,-80474.7375829674,-80462.6915631127,-80503.7697075870,-2417.6605202345
5528582261,6872,0,0,-6719.3672165333,-80197.6547909154,-35622.8306098671,-12640.5456891783,-80541.5990770095,-41401.7930420456,-80474.1900366104,-80462.7645692937,-80504.0130615234,-2417.8917064741
5528582261,6872,0,0,-6719.5740673793,-80197.2289215266,-35614.5444083307,-12640.1928259705,-80543.1322068092,-41379.0394489867,-80474.6524090897,-80463.3972895285,-80505.1081542375,-2417.8917064741
5528582261,6872,0,0,-6718.6736578144,-80196.7543813505,-35631.1776498876,-12640.3023352419,-80541.4408969508,-41196.4631581585,-80473.7763349184,-80460.9759178607,-80503.8913845552,-2416.7479429727
5528582261,6872,0,0,-6719.5253965920,-80196.9003937124,-35650.4147785647,-12640.0103105181,-80539.7130840020,-41098.0021554672,-80473.1436146836,-80462.5455507509,-80503.4046766823,-2416.1760612221
5528582261,6872,0,0,-6719.9756013744,-80197.3505984948,-35649.6117105744,-12640.3510060292,-80539.6035747305,-41215.3595913245,-80474.3360489723,-80462.6915631127,-80504.2807508535,-2417.3684955107
5528582261,6872,0,0,-6718.5033100588,-80197.3505984948,-35628.5980981612,-12640.5700245720,-80541.1488722271,-41393.7623621425,-80473.3139624392,-80461.5234642177,-80503.2708320172,-2416.8696199410
5528582261,6872,0,0,-6719.8417567094,-80197.8616417614,-35618.3528974362,-12640.7890431148,-80542.2074618507,-41395.2224857612,-80474.4212228500,-80463.4459603158,-80504.2685831567,-2418.3297435597
5528582261,6872,0,0,-6719.4645581078,-80196.7543813505,-35630.9707990416,-12640.7282046307,-80541.1367045302,-41220.5065270806,-80473.8493410994,-80462.6185569318,-80504.5849432741,-2417.4171662980
5528605946,6873,0,0,-6720.1337814331,-80196.9368968029,-35651.2665173423,-12640.8255462053,-80538.6179912879,-41103.3194389789,-80473.7519995248,-80462.6672277191,-80504.1469061885,-2417.7700295059
5528605946,6873,0,0,-6718.7953347826,-80196.7422136537,-35652.1425915135,-12640.5213537847,-80538.5084820165,-41195.3193946571,-80474.0683596422,-80462.0101720907,-80504.1347384917,-2417.0764707870
5528605946,6873,0,0,-6719.2820426555,-80196.7665490473,-35632.2970779953,-12640.2901675451,-80540.8568475033,-41374.3792211035,-80473.7641672216,-80462.5698861445,-80503.8062106774,-2417.5266755694
5528605946,6873,0,0,-6719.8174213157,-80196.4136858395,-35617.8905249570,-12640.1319874864,-80541.7694247650,-41405.2486679433,-80473.2044531678,-80462.0466751811,-80504.4145955186,-2417.0277999997
5528605946,6873,0,0,-6719.2820426555,-80196.8152198346,-35627.5395085376,-12640.7160369339,-80541.7694247650,-41241.9825119731,-80473.1192792900,-80462.2048552398,-80504.0860677044,-2417.4901724789
5528605946,6873,0,0,-6719.2820426555,-80196.9733998933,-35648.0664130779,-12640.6430307529,-80539.1655376449,-41101.0319119761,-80473.9588503708,-80462.4238737826,-80504.1712415821,-2417.4536693885
5528605946,6873,0,0,-6720.1824522204,-80198.0563249106,-35651.7653929120,-12640.3388383324,-80539.9442702416,-41171.8722428793,-80474.0440242485,-80463.1539355920,-80504.7066202423,-2417.8917064741
5528605946,6873,0,0,-6718.9291794476,-80196.9855675901,-35632.6621089000,-12639.8277950658,-80540.2849657526,-41359.9483326715,-80473.4964778915,-80462.3265322080,-80503.0274780808,-2417.0156323028
5528628773,6874,0,0,-6718.9778502349,-80196.4501889299,-35618.2677235585,-12640.2293290610,-80542.1709587602,-41417.7205571869,-80474.1900366104,-80462.6672277191,-80503.7210367997,-2416.8817876378
5528628773,6874,0,0,-6720.3406322791,-80197.3749338885,-35625.2884846253,-12640.5335214815,-80541.8911017333,-41270.3210778737,-80474.2995458818,-80462.3630352985,-80504.0617323107,-2417.8065325963
5528628773,6874,0,0,-6719.5862350761,-80196.0486549348,-35645.4138551705,-12640.3510060292,-80538.6058235911,-41115.2802849558,-80472.3527143901,-80461.7424827605,-80502.4190932396,-2416.5775952172
5528628773,6874,0,0,-6718.9170117508,-80196.1216611157,-35652.8483179293,-12640.1441551832,-80538.1921218991,-41156.3219263396,-80473.2044531678,-80461.3287810686,-80502.7476210539,-2416.4559182490
5528628773,6874,0,0,-6720.1216137363,-80196.6935428664,-35636.2272440691,-12640.3996768165,-80539.7860901829,-41339.4822666153,-80473.1314469868,-80462.0953459684,-80503.7453721933,-2417.4901724789
5528628773,6874,0,0,-6719.3915519269,-80196.5596982013,-35619.2654746980,-12640.1319874864,-80541.7572570682,-41423.4758777841,-80473.8615087962,-80462.1561844525,-80503.8913845552,-2416.9304584251
5528628773,6874,0,0,-6720.0121044649,-80196.6448720791,-35623.1469699845,-12640.0711490023,-80542.1831264570,-41294.0602543753,-80473.3382978328,-80462.0466751811,-80503.8183783743,-2417.4780047821
5528628773,6874,0,0,-6720.2554584013,-80196.5475305045,-35644.4404394246,-12640.2779998482,-80540.2727980558,-41122.5078968686,-80473.4721424979,-80462.3995383890,-80503.6601983156,-2417.0277999997
5528704769,6875,0,0,-6719.2333718682,-80196.8882260156,-35654.0650876116,-12639.8886335499,-80537.9974387499,-41137.9365364401,-80473.7519995248,-80461.2557748876,-80503.5385213473,-2416.7722783664
5528704769,6875,0,0,-6719.7687505284,-80197.5574493408,-35640.3399255953,-12640.7403723275,-80539.3602207941,-41320.3303118160,-80473.7885026153,-80463.2147740761,-80503.7575398902,-2417.1981477552
5528704769,6875,0,0,-6718.9413471445,-80196.7787167442,-35620.6160890453,-12640.4240122101,-80541.1488722271,-41425.5322185472,-80472.9610992313,-80461.1340979194,-80503.6115275283,-2417.1494769679
5528704769,6875,0,0,-6719.8904274966,-80197.6182878249,-35622.5142497497,-12640.8377139021,-80542.2196295475,-41316.7043381628,-80474.4942290310,-80462.7402339000,-80503.6723660124,-2417.0643030901
5528704769,6875,0,0,-6719.5618996824,-80197.5696170376,-35642.9803158059,-12640.6551984498,-80540.2606303590,-41137.7783563814,-80474.3603843659,-80463.2391094698,-80504.2320800663,-2417.5023401758
5528704769,6875,0,0,-6720.0242721617,-80198.0928280010,-35655.5738820176,-12640.2536644546,-80539.7495870924,-41124.6129084190,-80474.3725520627,-80462.9227493524,-80504.2199123694,-2417.2346508457
5528704769,6875,0,0,-6718.9778502349,-80197.8129709741,-35643.4913590724,-12640.5821922688,-80540.2119595717,-41293.9994158912,-80474.8470922389,-80462.7280662032,-80503.7088691029,-2416.5654275204
5528704769,6875,0,0,-6719.9269305871,-80198.3483496343,-35623.9378702780,-12640.1076520927,-80542.3899773030,-41426.9801744691,-80474.8227568452,-80463.0687617142,-80504.8282972106,-2418.2324019851
5528721312,6876,0,0,-6717.7975836431,-80196.6448720791,-35621.4191570356,-12639.3897579802,-80541.5139031318,-41344.1181591049,-80472.9732669281,-80461.4017872495,-80503.2464966236,-2417.0764707870
5528721312,6876,0,0,-6720.2311230077,-80197.8373063678,-35642.2380862997,-12640.3023352419,-80540.6864997478,-41157.2466712981,-80473.9831857644,-80462.3873706922,-80504.0617323107,-2417.8673710805
5528721312,6876,0,0,-6719.9147628903,-80197.8494740646,-35656.2796084334,-12640.8498815989,-80539.1655376449,-41115.5966450732,-80474.0440242485,-80462.1075136652,-80504.3050862472,-2417.5631786599
5528721312,6876,0,0,-6719.7444151348,-80197.1680830425,-35647.1660035130,-12641.3122540782,-80540.9420213811,-41271.9393815512,-80474.3725520627,-80462.3752029953,-80503.8183783743,-2417.4049986012
5528721312,6876,0,0,-6719.6105704697,-80197.6547909154,-35626.4079127330,-12641.1905771100,-80542.3778096062,-41418.1707619693,-80473.9953534612,-80462.5333830540,-80504.6457817582,-2418.3540789534
5528721312,6876,0,0,-6719.3793842301,-80196.8395552283,-35620.0928780819,-12640.1563228800,-80542.5238219680,-41361.2016054443,-80474.9931046007,-80462.1075136652,-80503.8670491616,-2418.3297435597
5528721312,6876,0,0,-6720.0729429490,-80197.5209462504,-35638.0158955021,-12640.4605153006,-80540.4674812050,-41175.1818564152,-80473.4599748010,-80462.0588428779,-80503.5628567410,-2417.5023401758
5528721312,6876,0,0,-6719.2820426555,-80196.4015181427,-35653.7243921005,-12641.0810678386,-80539.1290345545,-41102.6380479568,-80473.1314469868,-80461.5477996114,-80503.0761488681,-2416.6262660045
5528727059,6877,0,0,-6719.8660921030,-80196.4745243236,-35645.8153891656,-12640.8863846894,-80539.7495870924,-41240.4128790829,-80472.3162112997,-80461.6573088828,-80502.5651056015,-2417.1008061806
5528727059,6877,0,0,-6719.9512659808,-80197.3505984948,-35625.4344969872,-12640.8377139021,-80542.0371140951,-41405.6258665449,-80473.5451486788,-80463.2756125602,-80504.3050862472,-2418.1837311978
5528727059,6877,0,0,-6719.8174213157,-80197.4357723726,-35614.9337746290,-12640.5456891783,-80542.6698343299,-41372.7122466388,-80473.7885026153,-80462.4482091763,-80503.3195028045,-2417.7213587186
5528727059,6877,0,0,-6718.9656825381,-80195.7444625142,-35629.0117998531,-12639.3897579802,-80540.3214688431,-41185.9015973162,-80473.6911610407,-80461.9128305161,-80503.7210367997,-2416.8331168505
5528727059,6877,0,0,-6719.7322474379,-80197.4722754631,-35647.6283759922,-12640.7282046307,-80540.2849657526,-41093.9138093347,-80474.6280736960,-80462.1075136652,-80503.7088691029,-2417.0521353933
5528727059,6877,0,0,-6718.6979932080,-80196.0851580252,-35642.7978003535,-12640.2171613641,-80538.5328174101,-41211.5145991285,-80473.5816517693,-80461.2314394940,-80503.8670491616,-2416.1517258284
5528727059,6877,0,0,-6720.0607752522,-80196.4136858395,-35622.4412435687,-12640.7403723275,-80540.6256612637,-41384.0647077746,-80473.3748009233,-80462.4603768731,-80503.4290120759,-2417.5875140535
5528727059,6877,0,0,-6719.0508564159,-80196.4136858395,-35610.0545282030,-12640.7768754180,-80542.3656419094,-41381.2539698085,-80473.1801177741,-80461.2071041003,-80503.4655151664,-2417.5388432662
5528757219,6878,0,0,-6719.8417567094,-80197.0342383774,-35623.6336778574,-12640.4848506942,-80540.1267856939,-41208.0468055339,-80472.7177452948,-80461.6816442764,-80503.2464966236,-2417.5388432662
5528757219,6878,0,0,-6720.2067876140,-80196.5596982013,-35643.3453467106,-12640.9715585672,-80537.9244325690,-41089.7159539308,-80473.3017947423,-80461.9736690002,-80503.3438381982,-2418.8407868263
5528757219,6878,0,0,-6720.5961539124,-80197.3505984948,-35641.9582292728,-12641.6286141956,-80538.8978483148,-41186.3274667050,-80473.0219377154,-80462.2170229366,-80502.7476210539,-2417.9890480487
5528757219,6878,0,0,-6719.8782597998,-80197.2654246171,-35621.9788710895,-12640.8377139021,-80539.7495870924,-41369.0984406824,-80474.7010798770,-80463.2269417729,-80503.8305460711,-2417.1129738774
5528757219,6878,0,0,-6719.4523904110,-80196.9368968029,-35609.3853048777,-12640.5091860879,-80542.1952941538,-41393.3851635410,-80473.7154964343,-80462.3265322080,-80503.3560058950,-2417.2954893298
5528757219,6878,0,0,-6719.9025951935,-80197.7156293995,-35620.2875612311,-12640.4118445133,-80542.6820020267,-41226.6268785826,-80474.1413658231,-80463.0930971079,-80504.5362724868,-2417.4415016916
5528757219,6878,0,0,-6719.4888935015,-80197.3627661917,-35640.9848135269,-12640.9958939608,-80539.8347609702,-41092.3806795350,-80472.9489315345,-80461.4626257336,-80502.8936334157,-2416.8452845473
5528757219,6878,0,0,-6719.2942103523,-80196.2676734776,-35644.2579239723,-12638.9882239850,-80538.1191157181,-41165.3138542917,-80472.1215281505,-80461.0975948289,-80503.1004842617,-2415.7866949237
5528789122,6879,0,0,-6718.9535148413,-80196.3163442649,-35626.6999374568,-12639.8764658531,-80540.3701396304,-41351.6134603478,-80473.3626332265,-80461.7059796701,-80503.1856581395,-2416.6627690950
5528789122,6879,0,0,-6718.4668069684,-80195.9634810570,-35611.9526889074,-12639.6939504007,-80541.7937601587,-41405.2608356402,-80472.5960683266,-80462.1926875430,-80502.9909749903,-2416.8939553346
5528789122,6879,0,0,-6720.0121044649,-80196.3163442649,-35622.1857219355,-12640.3266706355,-80541.6355801000,-41255.2574692069,-80473.6181548597,-80460.8664085893,-80503.1856581395,-2417.2589862393
5528789122,6879,0,0,-6719.3550488364,-80196.4380212331,-35643.8928930676,-12639.9859751245,-80538.4963143197,-41098.0629939513,-80472.7785837790,-80461.4139549463,-80503.1248196554,-2417.1008061806
5528789122,6879,0,0,-6719.8295890125,-80197.4966108567,-35650.2079277187,-12640.8498815989,-80538.5449851070,-41145.0546390816,-80473.6059871629,-80462.0588428779,-80503.3316705014,-2417.4171662980
5528789122,6879,0,0,-6718.8561732667,-80195.7931333015,-35634.1587356092,-12640.8377139021,-80538.7518359529,-41333.0942257833,-80471.9998511823,-80461.1097625258,-80503.0153103840,-2417.3198247234
5528789122,6879,0,0,-6719.5618996824,-80196.5353628077,-35617.5498294459,-12640.7160369339,-80541.6112447063,-41411.9530688928,-80472.6082360234,-80461.4017872495,-80502.3095839682,-2416.7114398823
5528789122,6879,0,0,-6719.0630241127,-80195.9513133602,-35621.9302003022,-12639.8399627626,-80541.8545986428,-41277.7798760262,-80474.2508750945,-80462.4117060858,-80503.6480306188,-2417.1251415743
5528851432,6880,0,0,-6719.5740673793,-80197.2654246171,-35644.1484147009,-12640.3266706355,-80540.0416118162,-41109.8169890823,-80474.6037383024,-80462.5455507509,-80503.5020182569,-2417.0156323028
5528851432,6880,0,0,-6718.7101609048,-80197.1437476488,-35653.2741873181,-12640.3145029387,-80538.9830221926,-41123.6273249763,-80473.7641672216,-80463.0079232301,-80503.8792168584,-2417.1129738774
5528851432,6880,0,0,-6719.9756013744,-80197.2654246171,-35637.8090446561,-12640.2779998482,-80540.7838413224,-41298.3919544443,-80474.1900366104,-80461.3531164622,-80503.3560058950,-2417.2589862393
5528851432,6880,0,0,-6718.8561732667,-80196.2798411744,-35617.8175187760,-12639.9494720340,-80541.1488722271,-41402.4014268868,-80473.0949438963,-80462.2900291176,-80503.0639811712,-2416.5775952172
5528851432,6880,0,0,-6719.6835766507,-80197.5817847345,-35621.8085233340,-12640.9107200830,-80542.4386480903,-41296.1530982288,-80474.8227568452,-80462.9227493524,-80504.3902601250,-2417.6605202345
5528851432,6880,0,0,-6719.4767258047,-80197.4357723726,-35642.4571048425,-12640.2293290610,-80539.9564379384,-41121.1572825213,-80473.4234717106,-80462.5942215382,-80503.8548814647,-2416.3099058871
5528851432,6880,0,0,-6719.0021856286,-80197.8373063678,-35656.1944345556,-12640.5213537847,-80539.4697300655,-41118.8819232154,-80474.5307321214,-80462.3021968144,-80503.8792168584,-2417.3319924202
5528851432,6880,0,0,-6718.9048440540,-80197.5331139472,-35645.6328737133,-12640.1198197895,-80540.7716736256,-41295.0701732116,-80474.4698936373,-80463.6528111617,-80504.3659247313,-2416.7844460632
5528855997,6881,0,0,-6720.1337814331,-80197.6426232186,-35625.1911430507,-12639.9494720340,-80542.3656419094,-41418.1707619693,-80474.0196888549,-80463.1052648047,-80504.4024278218,-2417.4171662980
5528855997,6881,0,0,-6719.4402227142,-80197.0099029838,-35623.2686469527,-12639.9859751245,-80542.3534742125,-41326.1221355037,-80474.3238812755,-80463.2026063793,-80504.9256387852,-2417.7943648995
5528855997,6881,0,0,-6719.4767258047,-80197.6547909154,-35642.4327694488,-12640.6065276625,-80540.1876241781,-41139.0802999415,-80474.2508750945,-80463.7501527363,-80503.9643907361,-2417.5388432662
5528855997,6881,0,0,-6719.4280550174,-80197.2775923139,-35656.1335960715,-12640.5700245720,-80538.9100160116,-41098.3550186751,-80474.6645767865,-80463.2512771666,-80504.5362724868,-2417.2954893298
5528855997,6881,0,0,-6719.0021856286,-80196.9612321965,-35646.1195815862,-12641.0567324449,-80539.7982578797,-41255.7928478671,-80473.7154964343,-80462.5698861445,-80503.3316705014,-2416.6384337013
5528855997,6881,0,0,-6719.4037196237,-80196.4501889299,-35624.9112860238,-12639.5236026452,-80541.1245368334,-41405.0539847942,-80472.9976023218,-80461.7911535478,-80503.2829997141,-2418.1472281074
5528855997,6881,0,0,-6720.0972783426,-80195.8053009983,-35620.2267227470,-12640.2901675451,-80540.8933505938,-41342.0861537355,-80472.5960683266,-80461.5843027018,-80502.5286025110,-2417.3319924202
5528855997,6881,0,0,-6718.5033100588,-80195.4646054873,-35638.3687587100,-12639.6452796135,-80538.9708544958,-41148.2425756492,-80472.9732669281,-80461.5721350050,-80502.8692980221,-2416.3220735839
5528886195,6882,0,0,-6719.7444151348,-80196.8273875314,-35654.9533294796,-12640.7403723275,-80538.7640036498,-41083.0358883750,-80473.1192792900,-80461.3774518558,-80503.6601983156,-2417.1859800584
5528886195,6882,0,0,-6718.5884839366,-80195.8783071793,-35646.4602770972,-12639.9981428213,-80538.8613452243,-41224.7530532718,-80472.5230621457,-80461.6816442764,-80503.6723660124,-2416.7357752759
5528886195,6882,0,0,-6720.3771353696,-80196.6327043823,-35624.7409382683,-12640.8498815989,-80539.9199348479,-41383.8578569286,-80474.0075211581,-80462.7280662032,-80503.8305460711,-2417.8917064741
5528886195,6882,0,0,-6720.7665016679,-80197.3992692821,-35618.6570898568,-12641.6407818924,-80541.3070522858,-41351.8203111938,-80473.9101795835,-80462.3752029953,-80504.4754340027,-2418.6461036771
5528886195,6882,0,0,-6719.9390982839,-80196.9977352870,-35634.5481019076,-12641.3000863814,-80541.3800584667,-41168.8303186736,-80474.1291981263,-80462.2291906335,-80502.9179688094,-2417.9768803519
5528886195,6882,0,0,-6718.9656825381,-80196.4136858395,-35653.2255165308,-12640.1319874864,-80539.1290345545,-41078.3026543109,-80473.3261301360,-80461.4626257336,-80503.2221612299,-2415.9935457697
5528886195,6882,0,0,-6719.0995272032,-80197.0585737711,-35648.9789903396,-12639.3167517992,-80538.5328174101,-41201.3180691908,-80474.0926950358,-80461.4991288241,-80503.8183783743,-2417.1981477552
5528886195,6882,0,0,-6718.6493224207,-80196.9490644997,-35628.6102658580,-12639.9859751245,-80540.4674812050,-41378.9177720185,-80473.0462731091,-80462.0588428779,-80503.8183783743,-2417.6118494472
5528944975,6883,0,0,-6719.2820426555,-80196.4015181427,-35619.5696671185,-12640.1563228800,-80542.6089958458,-41376.9344374364,-80474.1413658231,-80463.3851218316,-80504.0373969171,-2417.1859800584
5528944975,6883,0,0,-6718.8196701762,-80197.2410892234,-35633.5990215554,-12640.0711490023,-80541.8667663396,-41197.9232817772,-80473.8615087962,-80462.5698861445,-80503.7453721933,-2416.7236075791
5528944975,6883,0,0,-6719.2090364746,-80195.6592886365,-35652.7874794452,-12640.0468136086,-80538.5206497133,-41083.9971364240,-80472.0850250600,-80460.6717254401,-80502.2609131809,-2416.3464089776
5528944975,6883,0,0,-6718.7588316921,-80195.4767731841,-35652.4711193278,-12640.2171613641,-80537.7419171166,-41182.2269528756,-80472.5717329330,-80460.7447316211,-80502.0540623350,-2417.3319924202
5528944975,6883,0,0,-6719.3793842301,-80196.2068349935,-35633.6476923427,-12641.1540740195,-80539.7495870924,-41361.1042638697,-80473.4843101947,-80461.8763274256,-80502.8814657189,-2417.4901724789
5528944975,6883,0,0,-6718.5276454525,-80196.5840335950,-35619.5209963312,-12640.1076520927,-80541.6599154936,-41382.8357703955,-80472.9610992313,-80462.4482091763,-80503.1978258363,-2416.8087814569
5528944975,6883,0,0,-6720.0486075553,-80197.0464060743,-35631.1898175844,-12640.7160369339,-80542.3291388189,-41219.0464034619,-80474.1900366104,-80462.7037308096,-80504.4267632154,-2417.5510109631
5528944975,6883,0,0,-6718.7223286016,-80197.4114369789,-35651.8749021834,-12640.0468136086,-80539.3480530973,-41083.7051117003,-80473.2652916519,-80461.8398243351,-80504.1225707948,-2416.4315828553
5528951099,6884,0,0,-6719.0751918095,-80196.9125614092,-35653.8704044624,-12640.3145029387,-80538.8005067402,-41157.9767331075,-80474.6037383024,-80462.6672277191,-80504.0130615234,-2416.7844460632
5528951099,6884,0,0,-6719.3185457460,-80196.4380212331,-35634.9374682059,-12640.6917015402,-80540.9541890779,-41345.2497549094,-80474.1291981263,-80462.1440167557,-80504.6579494551,-2417.5510109631
5528951099,6884,0,0,-6719.2333718682,-80196.9368968029,-35619.5331640281,-12640.6795338434,-80541.6234124032,-41391.7790275603,-80475.0052722976,-80462.9349170492,-80503.6723660124,-2416.8087814569
5528951099,6884,0,0,-6719.5010611983,-80196.7543813505,-35627.9532102295,-12640.4848506942,-80541.8911017333,-41235.6309742315,-80474.1048627327,-80463.0809294111,-80504.6336140614,-2417.5510109631
5528951099,6884,0,0,-6720.2919614918,-80198.2266726661,-35649.3805243347,-12640.8377139021,-80540.7473382319,-41085.7492847665,-80475.4189739895,-80464.0300097633,-80504.1834092790,-2417.2954893298
5528951099,6884,0,0,-6718.9656825381,-80197.4844431599,-35653.6270505260,-12640.2414967578,-80538.7640036498,-41135.0041215058,-80474.0196888549,-80462.5942215382,-80504.2320800663,-2416.0543842538
5528951099,6884,0,0,-6718.6371547239,-80197.5939524313,-35635.9108839517,-12640.3023352419,-80541.1002014398,-41317.7994308769,-80473.8128380089,-80462.0466751811,-80503.7088691029,-2416.6140983077
5528951099,6884,0,0,-6718.7466639953,-80198.0806603042,-35617.3551462968,-12639.5601057357,-80543.1687098997,-41392.3265739174,-80475.1026138721,-80462.9470847460,-80504.7674587265,-2417.9768803519
5528982541,6885,0,0,-6719.3428811396,-80196.9855675901,-35622.5872559306,-12639.9616397308,-80542.3413065157,-41257.8126855397,-80474.7984214516,-80463.1052648047,-80504.7674587265,-2416.8696199410
5528982541,6885,0,0,-6719.5010611983,-80197.6669586122,-35644.2822593659,-12640.3510060292,-80540.4431458113,-41090.7258727671,-80473.4964778915,-80462.5333830540,-80503.6723660124,-2416.9426261219
5528982541,6885,0,0,-6719.0386887190,-80197.2897600107,-35652.0209145453,-12640.3510060292,-80539.0195252830,-41113.8566644275,-80473.1557823805,-80462.0831782716,-80503.8913845552,-2416.6627690950
5528982541,6885,0,0,-6719.3672165333,-80197.5209462504,-35637.2493306023,-12640.2414967578,-80540.4309781145,-41298.3311159602,-80474.2508750945,-80462.3021968144,-80504.0982354012,-2417.2954893298
5528982541,6885,0,0,-6719.2698749587,-80197.4601077662,-35618.8274376123,-12640.5821922688,-80542.2074618507,-41396.9381310133,-80475.2729616276,-80463.5311341935,-80504.7431233328,-2416.9182907283
5528982541,6885,0,0,-6719.2090364746,-80197.2410892234,-35619.8860272359,-12640.5335214815,-80542.2317972443,-41278.2179131118,-80474.6159059992,-80462.3386999049,-80503.9035522520,-2417.0643030901
5528982541,6885,0,0,-6719.9269305871,-80197.2167538298,-35641.8487200013,-12641.1054032322,-80540.4431458113,-41102.9057372869,-80474.5428998183,-80463.0809294111,-80504.4267632154,-2417.1738123615
5528982541,6885,0,0,-6718.9048440540,-80196.8882260156,-35653.7852305846,-12640.2414967578,-80538.9465191021,-41097.4911122007,-80474.5672352119,-80462.1805198462,-80503.7697075870,-2415.9692103761
5529007394,6886,0,0,-6717.4933912225,-80196.0851580252,-35639.4151806368,-12638.8543793200,-80538.3259665641,-41271.8542076734,-80473.2287885614,-80460.7568993179,-80502.6989502666,-2415.3243224445
5529007394,6886,0,0,-6717.9679313986,-80196.8882260156,-35620.3483997152,-12639.9738074277,-80542.4386480903,-41397.6073543385,-80473.3139624392,-80462.2778614207,-80503.5263536505,-2416.1882289189
5529007394,6886,0,0,-6718.7223286016,-80197.9468156392,-35620.4700766834,-12640.3875091196,-80542.9740267505,-41306.1671127141,-80474.9200984198,-80462.8375754746,-80504.9621418756,-2416.8209491537
5529007394,6886,0,0,-6720.0851106458,-80198.2145049693,-35640.5832795318,-12640.6673661466,-80541.9519402174,-41119.7458296898,-80474.4090551532,-80463.3121156507,-80505.4488497485,-2416.9426261219
5529007394,6886,0,0,-6719.5132288951,-80199.1149145342,-35655.4278696557,-12641.0202293544,-80540.6134935669,-41087.8664640137,-80475.5041478673,-80463.4702957094,-80506.7264579150,-2418.1472281074
5529007394,6886,0,0,-6718.6736578144,-80198.0806603042,-35644.8176380261,-12639.8764658531,-80540.4674812050,-41250.3903904778,-80475.4311416863,-80463.4946311031,-80504.3659247313,-2416.1152227379
5529007394,6886,0,0,-6719.8539244062,-80198.1536664851,-35625.7873601951,-12639.6209442198,-80542.4629834839,-41391.9007045286,-80475.0904461753,-80462.8984139587,-80504.3659247313,-2417.8795387773
5529007394,6886,0,0,-6720.0121044649,-80198.0563249106,-35621.8693618181,-12640.9593908703,-80543.2538837774,-41324.6620118850,-80475.9178495593,-80462.8497431714,-80504.5484401837,-2418.2932404693
5529062577,6887,0,0,-6719.1968687777,-80197.0585737711,-35639.0014789448,-12639.4505964643,-80539.9077671511,-41140.7351067094,-80473.0706085027,-80462.3995383890,-80504.5727755773,-2416.9182907283
5529062577,6887,0,0,-6718.7223286016,-80196.8760583187,-35656.8149870936,-12640.3875091196,-80539.6035747305,-41081.3810816071,-80473.7641672216,-80462.8375754746,-80504.1104030980,-2416.2977381903
5529062577,6887,0,0,-6719.2942103523,-80197.2654246171,-35648.8816487650,-12639.7061180976,-80539.3723884909,-41223.7796375260,-80472.9245961408,-80461.3896195527,-80502.4312609365,-2416.2125643125
5529062577,6887,0,0,-6718.5154777557,-80197.5696170376,-35627.7341916867,-12639.7547888849,-80541.1732076207,-41382.4707394908,-80474.0926950358,-80462.2170229366,-80504.6214463646,-2416.4924213395
5529062577,6887,0,0,-6720.0121044649,-80197.6547909154,-35621.4191570356,-12641.0445647481,-80542.7428405109,-41344.9942332761,-80475.1391169626,-80463.3607864380,-80504.1834092790,-2418.8164514326
5529062577,6887,0,0,-6719.9147628903,-80196.9855675901,-35636.8234612135,-12640.4970183911,-80541.1610399239,-41156.9303111807,-80474.4090551532,-80462.7645692937,-80504.1469061885,-2417.0764707870
5529062577,6887,0,0,-6718.8805086603,-80196.6327043823,-35654.6248016654,-12639.8399627626,-80538.7883390434,-41071.7564334201,-80473.4356394074,-80461.7668181542,-80503.6236952251,-2417.2468185425
5529062577,6887,0,0,-6718.9170117508,-80196.9733998933,-35650.6216294107,-12639.8277950658,-80538.6301589847,-41199.6389270293,-80472.7055775980,-80462.2900291176,-80503.8792168584,-2417.2224831488
5529071597,6888,0,0,-6718.6006516334,-80197.3627661917,-35629.2551537896,-12639.5844411293,-80541.6964185841,-41368.9889314110,-80474.3968874564,-80463.4824634062,-80503.9157199489,-2416.5897629140
5529071597,6888,0,0,-6719.2455395650,-80197.6426232186,-35618.8517730060,-12640.6186953593,-80543.1078714156,-41357.4904579133,-80474.9444338134,-80462.8740785651,-80505.3150050835,-2417.1616446647
5529071597,6888,0,0,-6719.1481979904,-80198.1414987883,-35633.0514751984,-12640.2293290610,-80542.3291388189,-41178.8930039461,-80475.8448433783,-80463.6163080713,-80504.6214463646,-2416.7844460632
5529071597,6888,0,0,-6719.0386887190,-80199.1757530183,-35653.4445350736,-12641.3487571687,-80540.1146179971,-41068.2764721288,-80475.5771540482,-80463.7988235236,-80504.9499741788,-2416.9426261219
5529071597,6888,0,0,-6720.8395078488,-80199.0540760500,-35651.4977035819,-12640.9958939608,-80541.6842508873,-41171.3125288255,-80475.4189739895,-80464.3463698806,-80506.2884208293,-2417.6118494472
5529071597,6888,0,0,-6720.0242721617,-80198.3726850280,-35630.6057681369,-12640.6673661466,-80542.6698343299,-41352.5138699127,-80476.3072158576,-80464.6505623012,-80505.7408744723,-2417.6240171440
5529071597,6888,0,0,-6719.9756013744,-80197.5331139472,-35618.0487050157,-12640.9350554767,-80543.6067469853,-41369.6581547362,-80474.8957630261,-80464.0178420664,-80505.3758435676,-2417.2833216329
5529071597,6888,0,0,-6718.9900179317,-80197.0099029838,-35629.1456445182,-12640.1806582737,-80541.6842508873,-41196.7430151854,-80474.1657012168,-80463.2512771666,-80504.5362724868,-2417.1373092711
5529100293,6889,0,0,-6720.0242721617,-80199.5651193166,-35650.7554740757,-12640.6186953593,-80540.6256612637,-41069.0065339382,-80474.9931046007,-80463.3851218316,-80505.7165390787,-2417.3563278139
5529100293,6889,0,0,-6719.5010611983,-80198.3848527248,-35652.4711193278,-12640.8133785085,-80540.7473382319,-41150.4570964709,-80475.0174399944,-80463.2026063793,-80504.8039618169,-2417.1494769679
5529100293,6889,0,0,-6719.3550488364,-80197.4722754631,-35633.1609844698,-12640.0954843959,-80540.6864997478,-41331.7801145264,-80473.6911610407,-80463.0079232301,-80504.9134710883,-2417.2833216329
5529100293,6889,0,0,-6720.4258061569,-80198.3483496343,-35618.3042266490,-12641.2514155941,-80544.0691194646,-41375.4256430303,-80474.5550675151,-80463.6649788586,-80505.1689927216,-2418.2080665915
5529100293,6889,0,0,-6718.7466639953,-80197.5452816440,-35626.8337821218,-12640.3266706355,-80542.7550082077,-41221.0054026503,-80475.3581355054,-80463.8109912204,-80505.1203219343,-2417.7943648995
5529100293,6889,0,0,-6719.2090364746,-80197.9833187296,-35648.1515869556,-12639.8399627626,-80540.7595059287,-41070.5639991315,-80475.1756200531,-80463.4824634062,-80504.7187879392,-2416.6019306109
5529100293,6889,0,0,-6719.2577072619,-80198.3726850280,-35652.3616100564,-12639.8886335499,-80539.6522455178,-41123.0432755288,-80474.9566015103,-80463.9570035823,-80504.8404649074,-2416.3464089776
5529100293,6889,0,0,-6718.8561732667,-80199.1270822310,-35635.5215176534,-12640.2779998482,-80541.7572570682,-41311.5574024067,-80475.2607939308,-80463.6406434649,-80505.3515081740,-2417.3076570266
5529127117,6890,0,0,-6719.0995272032,-80198.3361819375,-35618.8152699155,-12640.4848506942,-80543.9109394059,-41382.2273855543,-80475.5649863514,-80463.9205004918,-80505.8990545310,-2417.1616446647
5529127117,6890,0,0,-6719.0386887190,-80197.8494740646,-35624.8991183270,-12640.4605153006,-80542.4264803935,-41240.2181959338,-80473.6303225565,-80463.3242833475,-80504.8282972106,-2416.8574522441
5529127117,6890,0,0,-6719.7079120443,-80197.1924184361,-35645.6815445006,-12640.2293290610,-80540.5161519923,-41076.2828166383,-80474.1291981263,-80462.6915631127,-80504.6701171519,-2416.8574522441
5529127117,6890,0,0,-6719.4888935015,-80197.3871015853,-35654.0650876116,-12640.4970183911,-80538.9708544958,-41104.4266993897,-80474.6280736960,-80462.5698861445,-80503.6601983156,-2416.7844460632
5529127117,6890,0,0,-6719.7200797411,-80197.5209462504,-35638.4052618004,-12640.3631737260,-80540.2727980558,-41283.2310042029,-80474.5550675151,-80462.4968799636,-80503.7575398902,-2417.4780047821
5529127117,6890,0,0,-6719.8052536189,-80199.3217653802,-35620.0563749915,-12640.5213537847,-80543.1687098997,-41380.6942557546,-80475.2972970213,-80464.4193760616,-80505.5826944136,-2417.8795387773
5529127117,6890,0,0,-6719.0751918095,-80196.8882260156,-35621.1514677055,-12639.1707394374,-80542.0492817920,-41262.1808886992,-80474.7375829674,-80462.9714201397,-80504.1834092790,-2416.4437505522
5529127117,6890,0,0,-6719.1968687777,-80198.2145049693,-35643.1019927741,-12639.8156273690,-80540.9785244715,-41086.6861974219,-80475.4919801705,-80463.7623204331,-80504.2929185504,-2416.3707443712
5529181361,6891,0,0,-6718.3207946065,-80197.4722754631,-35654.2962738512,-12639.1950748310,-80539.0438606767,-41085.2017384095,-80473.6546579502,-80462.2656937239,-80504.4145955186,-2416.0908873443
5529181361,6891,0,0,-6719.1360302936,-80198.0928280010,-35641.1186581920,-12640.8012108116,-80540.5039842954,-41262.5702549975,-80474.6524090897,-80462.7524015969,-80505.3636758708,-2417.1129738774
5529181361,6891,0,0,-6720.1216137363,-80197.3749338885,-35620.8229398913,-12640.6917015402,-80543.4242315329,-41380.1953801849,-80474.4212228500,-80463.6649788586,-80505.5461913231,-2417.2711539361
5529181361,6891,0,0,-6720.1581168268,-80198.9080636882,-35621.6990140625,-12641.5434403178,-80543.9717778900,-41281.1624957430,-80475.7109987133,-80465.3319533233,-80506.6777871277,-2418.0133834423
5529181361,6891,0,0,-6719.3915519269,-80198.4821942994,-35640.1695778398,-12640.5700245720,-80541.0636983493,-41098.5253664306,-80474.5185644246,-80463.4702957094,-80505.3636758708,-2417.0156323028
5529181361,6891,0,0,-6719.5253965920,-80198.6282066612,-35654.5517954845,-12640.4118445133,-80539.9321025448,-41071.6104210583,-80475.4919801705,-80464.2125252156,-80504.9013033915,-2417.1008061806
5529181361,6891,0,0,-6718.8926763572,-80197.0099029838,-35642.5666141139,-12639.9859751245,-80539.7860901829,-41231.2141002848,-80474.6645767865,-80463.3121156507,-80504.0982354012,-2416.1395581316
5529181361,6891,0,0,-6719.6470735602,-80198.2631757566,-35621.4921632166,-12640.0468136086,-80542.2561326380,-41371.3007938073,-80474.6159059992,-80463.4702957094,-80504.6457817582,-2417.1859800584
5529201139,6892,0,0,-6718.9048440540,-80197.6182878249,-35618.2190527712,-12639.5236026452,-80542.5116542712,-41304.0742688606,-80474.3725520627,-80462.6185569318,-80503.6358629219,-2416.8087814569
5529201139,6892,0,0,-6719.6227381665,-80197.7886355805,-35638.0767339862,-12640.6551984498,-80541.4530646476,-41117.1541102665,-80474.5063967278,-80463.4337926189,-80504.4145955186,-2417.7213587186
5529201139,6892,0,0,-6720.2311230077,-80197.4966108567,-35653.1890134403,-12641.0323970513,-80539.0316929799,-41061.4747296048,-80474.6159059992,-80463.0565940174,-80503.7332044965,-2416.9426261219
5529201139,6892,0,0,-6720.0242721617,-80198.7012128422,-35645.7302152879,-12641.0689001417,-80540.7595059287,-41211.1495682238,-80475.4068062927,-80464.2246929124,-80505.1933281153,-2417.8795387773
5529201139,6892,0,0,-6720.4744769441,-80198.4335235121,-35625.5926770459,-12641.4095956528,-80543.0592006283,-41366.5675597432,-80475.7840048942,-80464.0178420664,-80505.7408744723,-2418.1958988947
5529201139,6892,0,0,-6719.1968687777,-80197.2289215266,-35617.7323448983,-12639.6696150071,-80542.9131882664,-41321.1455475032,-80474.1900366104,-80463.8596620077,-80503.7818752838,-2417.0764707870
5529201139,6892,0,0,-6719.8782597998,-80198.4578589057,-35635.3633375947,-12640.1563228800,-80542.1952941538,-41139.4940016335,-80474.4333905469,-80464.4072083648,-80504.7309556360,-2417.1859800584
5529201139,6892,0,0,-6719.9512659808,-80197.0342383774,-35653.5053735577,-12640.2779998482,-80538.6544943784,-41060.0024382892,-80473.9710180676,-80462.1196813620,-80503.5263536505,-2416.6019306109
5529224722,6893,0,0,-6719.1360302936,-80197.0707414679,-35650.0254122664,-12640.4118445133,-80539.5427362464,-41190.5739928962,-80475.0296076912,-80462.7158985064,-80504.5484401837,-2418.1593958042
5529224722,6893,0,0,-6720.2067876140,-80197.6426232186,-35629.5350108165,-12641.5191049242,-80541.5017354349,-41363.4039585692,-80474.3238812755,-80462.7767369905,-80504.3415893377,-2418.3784143470
5529224722,6893,0,0,-6720.6813277901,-80198.1901695756,-35622.7576036861,-12641.1540740195,-80543.2173806870,-41349.4354426165,-80475.1269492658,-80463.2147740761,-80505.3758435676,-2418.2445696820
5529224722,6893,0,0,-6718.7223286016,-80197.5331139472,-35636.5922749738,-12639.3289194961,-80541.3678907699,-41166.4454500963,-80473.9953534612,-80462.1683521493,-80504.1225707948,-2416.7357752759
5529224722,6893,0,0,-6719.9634336776,-80198.1780018788,-35657.7397320521,-12640.7890431148,-80540.8690152001,-41062.3751391697,-80474.5307321214,-80462.7767369905,-80504.3780924281,-2416.7601106696
5529224722,6893,0,0,-6719.1360302936,-80198.3848527248,-35656.9853348491,-12640.4605153006,-80539.8225932734,-41173.8190743710,-80474.5428998183,-80463.2756125602,-80505.2054958121,-2416.4802536426
5529224722,6893,0,0,-6719.1968687777,-80197.8373063678,-35636.2029086755,-12639.4140933738,-80540.8568475033,-41350.2020075164,-80474.2752104882,-80462.2048552398,-80503.8305460711,-2417.0643030901
5529224722,6893,0,0,-6719.6227381665,-80198.0198218201,-35624.4975843318,-12640.4726829974,-80543.0348652346,-41360.8852453269,-80475.1147815689,-80463.8353266141,-80503.6723660124,-2416.8452845473
5529255423,6894,0,0,-6718.9778502349,-80197.0950768616,-35635.7527038930,-12639.9251366404,-80541.5625739190,-41190.5496575025,-80473.9710180676,-80462.2778614207,-80504.1590738853,-2416.7357752759
5529255423,6894,0,0,-6718.8075024794,-80196.2920088712,-35656.9488317586,-12640.2414967578,-80540.0902826035,-41063.5919088520,-80473.9710180676,-80462.1196813620,-80503.6845337092,-2417.1008061806
5529255423,6894,0,0,-6719.3185457460,-80197.7764678836,-35657.4477073284,-12640.1928259705,-80539.0316929799,-41146.5390980939,-80473.5451486788,-80462.5577184477,-80503.9035522520,-2415.7745272269
5529255423,6894,0,0,-6719.9025951935,-80198.0928280010,-35638.7824604020,-12641.0567324449,-80542.1952941538,-41334.7733679449,-80475.7840048942,-80463.3851218316,-80505.3636758708,-2417.0764707870
5529255423,6894,0,0,-6720.2919614918,-80198.4700266025,-35624.0473795494,-12640.9107200830,-80544.4098149756,-41376.8614312554,-80475.5893217451,-80463.5067987999,-80505.0594834502,-2418.0620542296
5529255423,6894,0,0,-6720.0607752522,-80197.8008032773,-35632.2484072080,-12640.1684905768,-80543.3025545647,-41216.5398579163,-80474.8714276325,-80463.1417678952,-80504.0860677044,-2416.5532598236
5529255423,6894,0,0,-6719.6835766507,-80197.4357723726,-35653.4080319831,-12640.4726829974,-80540.2484626622,-41070.0894589554,-80474.0805273390,-80462.2656937239,-80504.1347384917,-2417.1373092711
5529255423,6894,0,0,-6719.5862350761,-80196.4136858395,-35655.6103851081,-12640.1076520927,-80538.4354758355,-41126.5110691234,-80474.0683596422,-80462.5942215382,-80502.9301365062,-2416.2003966157
5529287294,6895,0,0,-6719.2333718682,-80196.5718658982,-35637.1276536340,-12640.0833166991,-80539.6279101242,-41310.7421667196,-80472.8029191726,-80461.4869611273,-80503.1734904427,-2416.7844460632
5529287294,6895,0,0,-6718.3329623033,-80196.6935428664,-35619.2654746980,-12640.8985523862,-80542.0127787015,-41375.9975247810,-80472.9002607472,-80462.0345074843,-80503.5628567410,-2417.5631786599
5529287294,6895,0,0,-6719.3915519269,-80197.9711510328,-35626.2862357648,-12640.7160369339,-80542.6333312395,-41234.2438567937,-80474.7740860579,-80463.5798049808,-80504.5119370932,-2417.8552033836
5529287294,6895,0,0,-6719.5740673793,-80197.2167538298,-35646.0100723148,-12640.8985523862,-80539.9686056352,-41068.1061243733,-80475.0052722976,-80462.8984139587,-80504.1347384917,-2417.1859800584
5529287294,6895,0,0,-6719.4523904110,-80196.4380212331,-35652.3007715722,-12640.3023352419,-80538.1799542023,-41095.7146284645,-80473.5086455883,-80461.7546504574,-80503.7697075870,-2416.2490674030
5529287294,6895,0,0,-6720.0729429490,-80197.1072445584,-35635.4728468661,-12640.7038692370,-80540.8203444128,-41279.1548257672,-80474.4212228500,-80462.7645692937,-80504.6336140614,-2417.4658370853
5529287294,6895,0,0,-6719.0021856286,-80196.9247291060,-35616.9657799984,-12640.3266706355,-80542.9496913569,-41371.0209367804,-80474.7375829674,-80462.4847122667,-80505.1689927216,-2416.6992721854
5529287294,6895,0,0,-6719.5497319856,-80198.2631757566,-35619.9103626296,-12639.9616397308,-80543.2538837774,-41247.9203480227,-80474.5185644246,-80463.9326681887,-80504.5971109709,-2417.9160418677
5529342513,6896,0,0,-6719.0751918095,-80198.6282066612,-35639.9018885097,-12639.8156273690,-80541.6234124032,-41077.6577663793,-80475.4554770800,-80462.8132400810,-80504.3537570345,-2416.5775952172
5529342513,6896,0,0,-6718.9778502349,-80197.8251386709,-35649.7698906331,-12639.1099009532,-80539.9199348479,-41084.1188133923,-80475.0539430848,-80462.9349170492,-80503.1126519585,-2415.6528502587
5529342513,6896,0,0,-6719.9999367681,-80197.2897600107,-35636.8721320008,-12640.3875091196,-80539.4940654591,-41259.5039953981,-80473.8006703121,-80462.2778614207,-80503.9157199489,-2417.4536693885
5529342513,6896,0,0,-6719.4767258047,-80196.5231951109,-35617.2213016317,-12641.8598004352,-80541.1853753175,-41376.7397542872,-80473.8736764930,-80461.8641597288,-80503.0883165649,-2418.0377188360
5529342513,6896,0,0,-6719.8052536189,-80195.5497793650,-35616.7224260620,-12639.4627641611,-80539.8834317575,-41278.8506333466,-80471.7199941554,-80459.9903344180,-80501.5795221588,-2418.0012157455
5529342513,6896,0,0,-6718.9656825381,-80194.9900653112,-35636.3124179469,-12639.7791242785,-80537.5959047548,-41097.5641183816,-80471.4644725221,-80459.7834835720,-80501.7133668239,-2416.6506013982
5529342513,6896,0,0,-6719.3063780491,-80194.9535622207,-35650.4147785647,-12640.0711490023,-80536.4034704661,-41074.2994820561,-80472.0850250600,-80460.6473900465,-80502.2365777873,-2415.4703348063
5529342513,6896,0,0,-6719.5010611983,-80195.8539717856,-35639.2448328812,-12640.9593908703,-80538.3381342610,-41243.0289338999,-80472.7664160821,-80461.2557748876,-80501.7133668239,-2416.6749367918
5529365245,6897,0,0,-6718.6979932080,-80194.3330096827,-35617.7445125951,-12639.8642981563,-80539.4575623687,-41377.2142944633,-80471.6469879744,-80459.9416636307,-80501.1901558605,-2416.8574522441
5529365245,6897,0,0,-6719.7809182252,-80195.6349532428,-35615.8341841939,-12641.3365894718,-80540.5039842954,-41300.6551460533,-80472.8637576567,-80460.8907439829,-80502.6016086920,-2418.4757559216
5529365245,6897,0,0,-6719.0508564159,-80194.8683883429,-35632.7594504746,-12640.4118445133,-80539.3115500068,-41113.2482795864,-80471.4644725221,-80459.7348127848,-80501.4213421002,-2417.4293339948
5529365245,6897,0,0,-6719.2698749587,-80195.8539717856,-35647.4580282367,-12640.7038692370,-80536.3547996788,-41061.5355680889,-80472.4135528743,-80460.1241790831,-80500.6669448971,-2417.0643030901
5529365245,6897,0,0,-6719.9025951935,-80194.8927237366,-35638.7824604020,-12640.9837262640,-80537.0361907009,-41210.0179724192,-80471.7686649426,-80460.2580237481,-80500.9589696209,-2417.2711539361
5529365245,6897,0,0,-6719.5132288951,-80194.8562206461,-35615.9680288589,-12640.5700245720,-80539.3358854004,-41361.6883133172,-80471.9633480918,-80460.9880855575,-80501.6890314303,-2418.1715635010
5529365245,6897,0,0,-6718.6614901175,-80193.2744200592,-35608.0711936209,-12640.6795338434,-80539.4332269750,-41312.5551535462,-80470.6735722286,-80459.9659990244,-80501.7377022175,-2416.7844460632
5529365245,6897,0,0,-6719.2455395650,-80193.4082647242,-35623.9378702780,-12640.6186953593,-80537.7662525103,-41122.7999215924,-80471.8051680331,-80459.5157942419,-80502.1027331222,-2417.3441601171
5529407656,6898,0,0,-6719.0873595063,-80194.4790220446,-35639.3665098495,-12640.1198197895,-80535.9897687741,-41044.7076433827,-80470.8682553777,-80459.7834835720,-80501.1049819828,-2417.3198247234
5529407656,6898,0,0,-6718.5276454525,-80193.9801464749,-35631.7495316383,-12640.7525400243,-80535.4665578108,-41177.9682589876,-80470.3328767175,-80459.4184526674,-80500.1193985401,-2415.9935457697
5529407656,6898,0,0,-6719.8660921030,-80194.6737051938,-35610.6507453473,-12640.8377139021,-80538.7518359529,-41344.9698978825,-80471.8173357299,-80460.4527068973,-80500.9954727114,-2418.0255511391
5529407656,6898,0,0,-6720.2676260982,-80195.7444625142,-35601.2329480064,-12641.1905771100,-80540.5404873859,-41321.7661000411,-80472.4622236616,-80461.2801102813,-80502.9788072935,-2418.4514205280
5529407656,6898,0,0,-6719.1847010809,-80195.5741147587,-35614.1915451228,-12640.3631737260,-80539.2263761290,-41139.0681322447,-80472.1215281505,-80460.2945268386,-80502.2730808778,-2416.5897629140
5529407656,6898,0,0,-6718.2721238192,-80194.1504942304,-35632.2240718144,-12639.6331119166,-80536.6954951899,-41037.7720561937,-80470.8074168936,-80459.6983096943,-80500.1559016306,-2415.6406825619
5529407656,6898,0,0,-6718.4668069684,-80195.0752391889,-35629.9487125085,-12638.9273855009,-80537.7175817230,-41147.7558677762,-80471.9633480918,-80460.4162038068,-80501.5795221588,-2416.0787196475
5529407656,6898,0,0,-6719.5740673793,-80195.8783071793,-35607.9130135622,-12639.6331119166,-80539.2750469163,-41326.7913588290,-80473.0827761995,-80460.8664085893,-80502.7841241443,-2416.9791292124
5529415149,6899,0,0,-6719.0143533254,-80195.3672639127,-35596.6335586073,-12639.6209442198,-80539.9077671511,-41337.8639629379,-80472.7542483853,-80461.5477996114,-80502.8449626284,-2416.4924213395
5529415149,6899,0,0,-6719.1725333841,-80195.4037670032,-35609.2514602127,-12640.2414967578,-80539.5549039433,-41163.5982090397,-80472.8637576567,-80460.9272470734,-80502.6989502666,-2417.4293339948
5529415149,6899,0,0,-6719.5984027729,-80196.2068349935,-35629.3159922737,-12640.7403723275,-80537.9244325690,-41040.3394402233,-80472.6690745075,-80461.3896195527,-80503.4533474696,-2417.1251415743
5529415149,6899,0,0,-6719.1116949000,-80197.2289215266,-35631.0559729194,-12640.1563228800,-80538.5449851070,-41129.8571857497,-80473.3504655296,-80461.6938119733,-80502.5651056015,-2417.0277999997
5529415149,6899,0,0,-6719.6835766507,-80197.2410892234,-35612.2812167216,-12641.0080616576,-80540.4066427209,-41314.8548482457,-80473.4721424979,-80462.8375754746,-80503.8913845552,-2418.5852651930
5529415149,6899,0,0,-6718.8683409635,-80195.6349532428,-35598.6412285831,-12639.3897579802,-80540.7716736256,-41350.0438274577,-80472.9976023218,-80461.1462656162,-80503.1126519585,-2416.8939553346
5529415149,6899,0,0,-6720.1216137363,-80196.7300459569,-35609.0689447603,-12640.7160369339,-80540.8203444128,-41192.4843212974,-80473.4599748010,-80462.0831782716,-80503.1369873522,-2417.3684955107
5529415149,6899,0,0,-6718.9535148413,-80195.5862824555,-35631.1411467972,-12639.8399627626,-80537.1822030628,-41049.8424114420,-80472.2188697251,-80460.3431976259,-80501.6525283398,-2417.0521353933
5529442609,6900,0,0,-6719.2577072619,-80194.5398605287,-35634.0735617315,-12639.8156273690,-80536.4643089502,-41110.7904048281,-80470.6857399254,-80459.1264279436,-80500.1193985401,-2416.8087814569
5529442609,6900,0,0,-6719.9390982839,-80194.3695127732,-35617.4646555682,-12640.4118445133,-80537.3768862119,-41301.4217109532,-80471.5253110062,-80459.9538313276,-80500.7886218654,-2417.7213587186
5529442609,6900,0,0,-6719.8904274966,-80194.4911897414,-35602.5835623537,-12640.6308630561,-80539.6765809115,-41365.8496656307,-80471.6469879744,-80459.3332787896,-80500.9833050145,-2416.8696199410
5529442609,6900,0,0,-6719.6227381665,-80195.6592886365,-35610.3587206236,-12641.2879186845,-80539.1655376449,-41220.4700239901,-80471.9633480918,-80461.1340979194,-80501.9323853667,-2417.8552033836
5529442609,6900,0,0,-6718.8440055699,-80193.8584695067,-35631.2506560686,-12640.2414967578,-80537.5472339675,-41061.4138911206,-80470.8439199841,-80459.8321543593,-80501.2509943446,-2416.9061230314
5529442609,6900,0,0,-6719.2577072619,-80195.2212515508,-35639.3786775463,-12640.3145029387,-80536.4764766470,-41100.1923408954,-80471.3062924634,-80459.1750987309,-80501.8715468826,-2416.8574522441
5529442609,6900,0,0,-6718.5276454525,-80194.8440529493,-35623.7675225225,-12639.8399627626,-80538.4354758355,-41282.2454207602,-80471.3427955538,-80460.6595577433,-80502.4434286333,-2416.4194151585
5529442609,6900,0,0,-6718.6249870271,-80195.5497793650,-35605.5768157722,-12639.7426211880,-80540.1754564812,-41369.0132668046,-80472.1336958473,-80461.2557748876,-80502.3460870587,-2417.0521353933
5529472504,6901,0,0,-6718.9048440540,-80194.0896557463,-35609.8841804475,-12639.6574473103,-80539.6400778210,-41243.7346603156,-80471.5618140967,-80459.7226450879,-80501.5795221588,-2417.8795387773
5529472504,6901,0,0,-6719.8660921030,-80195.4524377905,-35630.8612897702,-12640.5700245720,-80538.2042895959,-41068.5198260652,-80472.0971927569,-80460.2093529609,-80502.2852485746,-2417.8552033836
5529472504,6901,0,0,-6719.5132288951,-80195.3550962159,-35640.1939132334,-12640.8012108116,-80536.7319982803,-41074.6401775672,-80471.6469879744,-80460.1363467799,-80501.7742053080,-2416.8817876378
5529472504,6901,0,0,-6720.2676260982,-80196.2190026903,-35627.6003470217,-12641.2027448068,-80538.5206497133,-41257.7518470556,-80473.0462731091,-80461.6694765796,-80502.7841241443,-2418.0498865328
5529472504,6901,0,0,-6719.5740673793,-80195.0387360985,-35608.1685351954,-12640.4483476038,-80539.2142084322,-41375.3891399398,-80471.6469879744,-80460.0268375085,-80501.2509943446,-2417.0277999997
5529472504,6901,0,0,-6719.7200797411,-80195.6471209396,-35610.6385776505,-12639.7791242785,-80541.3192199826,-41276.1980754392,-80471.7808326395,-80460.3431976259,-80502.1270685159,-2418.4149174375
5529472504,6901,0,0,-6718.5033100588,-80194.8683883429,-35631.7616993351,-12640.5578568752,-80537.9000971753,-41099.3162667241,-80472.1580312410,-80460.6595577433,-80502.2365777873,-2416.8939553346
5529472504,6901,0,0,-6718.3572976970,-80194.6493698001,-35644.7567995420,-12639.0733978628,-80536.1114457424,-41081.4054170007,-80471.6591556712,-80459.2237695182,-80501.1049819828,-2416.0787196475
5529527517,6902,0,0,-6720.1824522204,-80194.9778976144,-35635.1929898392,-12640.4483476038,-80537.7662525103,-41247.2389570006,-80472.5960683266,-80461.2314394940,-80502.1149008191,-2417.9768803519
5529527517,6902,0,0,-6718.6371547239,-80194.5641959224,-35613.4979864039,-12640.1806582737,-80538.8491775275,-41377.9565239695,-80471.3062924634,-80459.5766327261,-80500.8616280463,-2416.9791292124
5529527517,6902,0,0,-6719.9390982839,-80195.9878164507,-35613.0599493183,-12640.7768754180,-80540.8933505938,-41300.0589289090,-80472.5230621457,-80461.0732594353,-80502.0175592445,-2417.3076570266
5529527517,6902,0,0,-6720.0607752522,-80195.6227855460,-35632.9297982301,-12640.9837262640,-80538.8613452243,-41112.7129009262,-80472.6812422044,-80461.3166133717,-80502.6867825697,-2418.1472281074
5529527517,6902,0,0,-6721.0828617853,-80196.1703319030,-35647.8108914446,-12640.6186953593,-80538.0339418404,-41064.0907844217,-80472.8515899599,-80461.0489240416,-80502.3947578460,-2418.1837311978
5529527517,6902,0,0,-6719.3307134428,-80195.0752391889,-35639.0623174289,-12639.8399627626,-80537.5228985738,-41216.4303486449,-80472.2797082092,-80459.8443220562,-80502.0175592445,-2416.6140983077
5529527517,6902,0,0,-6718.6979932080,-80195.5619470619,-35617.9026926538,-12639.6696150071,-80539.0803637672,-41366.3242058067,-80472.8029191726,-80460.4892099878,-80501.8350437921,-2416.4194151585
5529527517,6902,0,0,-6719.3063780491,-80195.2577546413,-35612.1838751470,-12639.3410871929,-80539.8590963638,-41308.4789751105,-80472.2918759060,-80460.7690670147,-80501.9202176699,-2417.1251415743
5529532937,6903,0,0,-6718.9900179317,-80194.2965065923,-35627.8558686550,-12639.5236026452,-80539.5305685496,-41121.2302887022,-80471.8051680331,-80460.3188622323,-80501.7377022175,-2416.5167567331
5529532937,6903,0,0,-6719.1847010809,-80194.3573450764,-35645.3043458991,-12640.0224782150,-80536.4643089502,-41049.3922066596,-80471.5496463998,-80460.2945268386,-80501.8958822763,-2416.5289244299
5529532937,6903,0,0,-6719.8174213157,-80196.1946672967,-35639.4273483336,-12641.1297386259,-80537.5350662706,-41185.7434172575,-80472.5595652361,-80460.7082285306,-80501.9932238508,-2417.4171662980
5529532937,6903,0,0,-6720.1946199172,-80197.0342383774,-35619.1559654266,-12641.1905771100,-80541.2827168921,-41353.2682671157,-80473.7154964343,-80462.3021968144,-80504.2685831567,-2418.3784143470
5529532937,6903,0,0,-6720.4623092473,-80197.0950768616,-35611.0157762520,-12641.2757509877,-80541.3678907699,-41331.3907482281,-80473.1557823805,-80462.4968799636,-80502.9058011126,-2418.1958988947
5529532937,6903,0,0,-6719.2577072619,-80195.6592886365,-35625.6170124395,-12640.2293290610,-80539.7982578797,-41148.4372587983,-80471.6591556712,-80460.3553653227,-80502.2000746968,-2417.4536693885
5529532937,6903,0,0,-6718.7953347826,-80195.0752391889,-35643.1019927741,-12640.0711490023,-80536.8658429454,-41049.7937406547,-80471.4279694316,-80460.3066945354,-80502.1027331222,-2416.0422165570
5529532937,6903,0,0,-6719.5618996824,-80195.0387360985,-35641.6053660649,-12640.1928259705,-80537.5472339675,-41166.8591517883,-80472.5352298425,-80460.5378807751,-80502.4190932396,-2416.8817876378
5529572285,6904,0,0,-6719.4037196237,-80195.2699223381,-35620.2388904438,-12641.1905771100,-80539.1655376449,-41343.5949481415,-80471.6956587617,-80460.2093529609,-80502.4677640269,-2416.8452845473
5529572285,6904,0,0,-6719.9756013744,-80195.2334192476,-35608.4118891319,-12640.7160369339,-80540.6013258700,-41342.6093646988,-80471.4279694316,-80460.1363467799,-80502.4799317237,-2417.1008061806
5529572285,6904,0,0,-6719.8904274966,-80195.7687979078,-35622.3317342973,-12641.4339310464,-80539.9686056352,-41167.4310335389,-80473.2531239550,-80461.9858366970,-80502.5407702079,-2418.0620542296
5529572285,6904,0,0,-6719.6470735602,-80195.8661394824,-35642.2867570870,-12641.1419063227,-80538.4111404419,-41046.1069285174,-80472.6325714171,-80461.0002532543,-80502.6746148729,-2417.5875140535
5529572285,6904,0,0,-6720.0121044649,-80196.1094934189,-35642.4206017520,-12640.7647077212,-80536.9875199136,-41136.4764128214,-80472.4743913584,-80460.7934024084,-80501.4821805843,-2417.8187002932
5529572285,6904,0,0,-6719.6592412570,-80195.4524377905,-35621.6503432753,-12639.8764658531,-80539.3480530973,-41321.6079199824,-80472.6569068107,-80460.9637501639,-80501.8593791858,-2417.1129738774
5529572285,6904,0,0,-6718.6493224207,-80194.8927237366,-35607.5966534448,-12640.1563228800,-80540.2606303590,-41353.3656086903,-80472.0971927569,-80460.7934024084,-80501.5430190684,-2417.3198247234
5529572285,6904,0,0,-6718.5519808461,-80195.0022330080,-35617.8296864729,-12640.1563228800,-80539.6157424274,-41185.1106970227,-80471.8538388204,-80460.1728498704,-80501.9445530635,-2417.2468185425
5529601455,6905,0,0,-6719.0630241127,-80194.8805560398,-35637.9915601085,-12639.8034596721,-80537.4012216056,-41041.9212408103,-80472.5839006298,-80460.1485144767,-80501.6525283398,-2417.2954893298
5529601455,6905,0,0,-6719.4037196237,-80195.7931333015,-35640.3764286858,-12640.8498815989,-80537.2430415469,-41110.0481753219,-80472.2310374219,-80459.9051605403,-80501.8837145794,-2417.9282095646
5529601455,6905,0,0,-6719.7565828316,-80195.6349532428,-35621.7720202435,-12640.6917015402,-80538.8370098307,-41294.3036083118,-80472.6812422044,-80460.9637501639,-80502.6137763888,-2417.5753463567
5529601455,6905,0,0,-6718.8196701762,-80194.7710467684,-35604.1653629407,-12638.9273855009,-80540.8690152001,-41349.0217409245,-80472.4013851774,-80460.8299054988,-80502.5529379047,-2416.7479429727
5529601455,6905,0,0,-6719.9147628903,-80195.8053009983,-35612.2447136311,-12640.5821922688,-80540.2727980558,-41202.2063110589,-80473.0584408059,-80460.6473900465,-80503.0274780808,-2417.4780047821
5529601455,6905,0,0,-6719.2820426555,-80196.0243195411,-35632.6864442937,-12640.4240122101,-80538.1677865054,-41044.7441464732,-80472.5352298425,-80460.7082285306,-80502.6016086920,-2416.4194151585
5529601455,6905,0,0,-6717.9800990954,-80194.7467113747,-35637.8820508371,-12639.4019256770,-80536.9023460359,-41080.6875228882,-80471.9755157886,-80460.6352223497,-80501.9567207604,-2416.0787196475
5529601455,6905,0,0,-6719.6835766507,-80196.0729903284,-35622.2222250259,-12640.5091860879,-80540.3336365399,-41267.8145323282,-80472.5352298425,-80461.5112965209,-80502.9423042030,-2417.4901724789
5529656409,6906,0,0,-6719.4523904110,-80196.6570397759,-35605.2239525643,-12640.6917015402,-80540.8081767160,-41354.3633598298,-80472.9732669281,-80461.0245886480,-80502.7232856602,-2417.3198247234
5529656409,6906,0,0,-6719.6105704697,-80195.6592886365,-35610.4438945013,-12640.0346459118,-80541.2827168921,-41223.5484512863,-80472.9489315345,-80461.3409487654,-80502.4677640269,-2417.4780047821
5529656409,6906,0,0,-6717.8705898240,-80195.0995745826,-35630.0217186894,-12639.6331119166,-80537.8270909944,-41051.9474229924,-80471.3792986443,-80459.5644650292,-80501.3726713129,-2416.3829120681
5529656409,6906,0,0,-6720.0729429490,-80196.1216611157,-35640.3277578985,-12641.2879186845,-80537.8514263880,-41066.2201313657,-80472.2188697251,-80460.5378807751,-80502.6259440856,-2417.5875140535
5529656409,6906,0,0,-6720.2797937950,-80195.8904748761,-35625.9212048601,-12640.8985523862,-80538.0947803245,-41243.1871139586,-80472.2432051187,-80460.7934024084,-80502.5286025110,-2418.0863896233
5529656409,6906,0,0,-6719.8417567094,-80195.0387360985,-35607.5601503543,-12640.5213537847,-80540.7960090192,-41350.9442370226,-80472.8880930504,-80461.9006628192,-80502.6867825697,-2416.9791292124
5529656409,6906,0,0,-6719.2698749587,-80195.2334192476,-35608.7404169461,-12641.0932355354,-80540.9298536843,-41247.1172800324,-80472.0120188791,-80461.5477996114,-80503.2951674109,-2416.9669615156
5529656409,6906,0,0,-6719.7200797411,-80196.3650150522,-35630.3015757164,-12640.3875091196,-80539.0438606767,-41068.2399690383,-80473.6059871629,-80461.8641597288,-80502.1514039095,-2417.5266755694
5529664451,6907,0,0,-6719.0508564159,-80195.8296363920,-35641.2403351602,-12639.6696150071,-80537.9609356594,-41052.1299384447,-80472.3770497838,-80461.0854271321,-80502.2365777873,-2416.9669615156
5529664451,6907,0,0,-6719.8052536189,-80195.7687979078,-35630.2164018386,-12640.4726829974,-80539.4697300655,-41224.8625625432,-80473.2774593487,-80462.0223397875,-80502.5651056015,-2416.8209491537
5529664451,6907,0,0,-6718.8926763572,-80195.7566302110,-35610.2127082617,-12640.2414967578,-80540.0416118162,-41354.0226643188,-80471.7078264585,-80459.7104773911,-80502.0418946381,-2416.5775952172
5529664451,6907,0,0,-6719.5497319856,-80195.2212515508,-35608.7769200366,-12640.5213537847,-80540.4553135082,-41269.4571713993,-80472.6569068107,-80461.4261226431,-80502.6502794793,-2418.6826067676
5529664451,6907,0,0,-6720.6691600933,-80196.2190026903,-35628.3669119215,-12641.2635832909,-80538.6058235911,-41085.2139061063,-80472.5595652361,-80461.6451411860,-80503.7332044965,-2418.4635882248
5529664451,6907,0,0,-6719.6957443475,-80196.2676734776,-35643.5643652534,-12640.8863846894,-80537.7784202071,-41044.4034509622,-80472.6690745075,-80460.4040361100,-80502.6016086920,-2416.5167567331
5529664451,6907,0,0,-6718.9291794476,-80195.1969161572,-35633.8302077950,-12639.9494720340,-80537.5228985738,-41199.1522191563,-80471.7808326395,-80460.7082285306,-80501.7011991271,-2416.5897629140
5529664451,6907,0,0,-6719.7444151348,-80196.1216611157,-35613.4371479198,-12640.0589813054,-80540.9420213811,-41345.2862579999,-80473.5573163756,-80462.5942215382,-80502.6381117824,-2417.1251415743
5529693584,6908,0,0,-6719.8782597998,-80196.8030521378,-35607.8521750780,-12640.4240122101,-80541.5990770095,-41291.2008456219,-80473.8371734025,-80461.6938119733,-80502.7111179634,-2417.8673710805
5529693584,6908,0,0,-6719.9147628903,-80196.1703319030,-35625.5805093491,-12640.7038692370,-80540.5526550827,-41103.8061468518,-80472.8150868694,-80462.3630352985,-80503.3681735918,-2417.7456941122
5529693584,6908,0,0,-6719.3185457460,-80196.0486549348,-35641.6662045490,-12639.3289194961,-80538.2529603832,-41032.7833004963,-80472.8272545662,-80461.3287810686,-80502.8084595380,-2416.6506013982
5529693584,6908,0,0,-6720.2067876140,-80196.8882260156,-35636.2759148564,-12641.3000863814,-80540.3093011463,-41174.3666207280,-80473.6303225565,-80461.7546504574,-80504.2807508535,-2417.2468185425
5529693584,6908,0,0,-6720.4501415505,-80196.8395552283,-35616.3695628541,-12641.2027448068,-80540.5526550827,-41338.7035340187,-80472.9610992313,-80461.8641597288,-80503.3681735918,-2417.4536693885
5529693584,6908,0,0,-6718.3816330906,-80195.2699223381,-35606.7327469703,-12639.0977332564,-80540.4431458113,-41307.1526961568,-80472.2067020283,-80460.7812347115,-80501.5065159779,-2416.8452845473
5529693584,6908,0,0,-6719.2820426555,-80196.8882260156,-35622.4655789624,-12640.5456891783,-80540.3336365399,-41123.2866294653,-80473.3504655296,-80461.7181473669,-80502.8449626284,-2416.9304584251
5529693584,6908,0,0,-6719.8660921030,-80196.6327043823,-35641.6297014585,-12640.7890431148,-80539.0073575862,-41029.6196993223,-80473.9101795835,-80461.8884951224,-80503.4655151664,-2415.7136887428
5529737522,6909,0,0,-6719.5132288951,-80196.2920088712,-35637.3831752673,-12640.3875091196,-80538.3381342610,-41147.8532093508,-80473.2409562582,-80461.7059796701,-80503.1734904427,-2416.8939553346
