steady_timestamp,sequence,battery,flags,EEG-ch1,EEG-ch2,EEG-ch3,EEG-ch4,EEG-ch5,EEG-ch6,EEG-ch7,EEG-ch8,EEG-ch9,EEG-ch10
5557595898,7292,-2,0,-6720.0486075553,-80313.2114076429,-36785.9042460816,-12640.1198197895,-80538.3624696546,-41388.8587803228,-80473.1192792900,-80461.8398243351,-80502.8571303253,-2416.3464089776
5557595898,7292,-2,0,-6719.7809182252,-80313.6129416380,-36763.8198763480,-12639.4262610706,-80540.1389533907,-41565.4728997078,-80473.8250057057,-80462.0101720907,-80502.8814657189,-2416.9426261219
5557595898,7292,-2,0,-6719.8052536189,-80314.1361526014,-36744.7530954265,-12639.5236026452,-80541.0880337429,-41597.5712839268,-80472.1093604537,-80461.3774518558,-80502.8206272348,-2416.2247320094
5557595898,7292,-2,0,-6720.1459491299,-80313.6372770317,-36756.8842891589,-12640.3875091196,-80541.4287292540,-41443.0537019722,-80473.0827761995,-80461.7546504574,-80503.0518134744,-2418.2689050756
5557595898,7292,-2,0,-6719.7079120443,-80313.6859478190,-36783.0448373282,-12640.6186953593,-80539.6644132147,-41305.4735539952,-80472.4865590552,-80461.4869611273,-80503.5750244378,-2416.3950797649
5557595898,7292,-2,0,-6719.3307134428,-80312.9802214033,-36789.4328781603,-12639.4627641611,-80538.1799542023,-41366.5675597432,-80472.2553728156,-80460.5865515624,-80502.0783977286,-2415.6650179555
5557595898,7292,-2,0,-6719.1360302936,-80313.1384014620,-36768.3827626566,-12640.5335214815,-80540.4309781145,-41547.3308637448,-80473.5816517693,-80461.0610917385,-80503.0031426871,-2416.3829120681
5557595898,7292,-2,0,-6718.6006516334,-80313.6251093349,-36749.1212985859,-12640.1928259705,-80541.7815924618,-41606.3928641234,-80473.4843101947,-80462.1561844525,-80502.7111179634,-2417.1859800584
5557672357,7293,-2,0,-6719.0995272032,-80313.9901402396,-36758.9649653156,-12640.4848506942,-80542.1831264570,-41470.6013675794,-80473.2166208646,-80462.3508676017,-80504.1712415821,-2416.8696199410
5557672357,7293,-2,0,-6719.7930859221,-80314.1848233887,-36786.1110969276,-12641.0080616576,-80540.2484626622,-41328.5435071715,-80474.2508750945,-80463.1661032888,-80503.8913845552,-2417.0886384838
5557672357,7293,-2,0,-6720.4258061569,-80314.5133512029,-36797.7190796967,-12640.7647077212,-80539.9564379384,-41372.5662342769,-80473.9101795835,-80463.2999479539,-80503.3925089855,-2416.6019306109
5557672357,7293,-2,0,-6719.9877690712,-80313.7467863031,-36780.1124223939,-12640.7890431148,-80540.6256612637,-41551.3462036964,-80472.6569068107,-80461.7424827605,-80503.6723660124,-2416.7479429727
5557672357,7293,-2,0,-6719.3185457460,-80314.0144756332,-36759.4395054917,-12639.9129689436,-80542.0127787015,-41635.9116966159,-80473.3869686201,-80461.9371659097,-80503.2343289268,-2417.5996817503
5557672357,7293,-2,0,-6720.8273401520,-80313.9901402396,-36765.6571985683,-12639.9738074277,-80542.4629834839,-41515.3663241910,-80473.8371734025,-80462.6185569318,-80503.6967014061,-2417.0399676965
5557672357,7293,-2,0,-6718.7588316921,-80313.1505691588,-36790.5888093585,-12638.4406776280,-80538.7275005593,-41348.1334990565,-80472.6934099012,-80460.3431976259,-80501.8472114890,-2416.0787196475
5557672357,7293,-2,0,-6719.2942103523,-80314.4038419315,-36805.7619272967,-12640.6917015402,-80540.1389533907,-41361.7856548918,-80474.2508750945,-80462.9714201397,-80504.2929185504,-2417.0521353933
5557688674,7294,-2,0,-6719.8660921030,-80313.6007739412,-36790.7469894172,-12639.5722734325,-80539.3602207941,-41539.6043762623,-80473.8006703121,-80462.2048552398,-80502.7962918412,-2416.8209491537
5557688674,7294,-2,0,-6719.0143533254,-80314.3673388411,-36768.4801042312,-12639.9251366404,-80542.4264803935,-41645.4390032282,-80473.5451486788,-80463.0079232301,-80503.5141859537,-2417.2103154520
5557688674,7294,-2,0,-6720.0121044649,-80314.2091587824,-36769.5630292484,-12640.4240122101,-80542.1344556697,-41540.7968105509,-80474.1900366104,-80463.2634448634,-80505.0716511470,-2417.0034646060
5557688674,7294,-2,0,-6720.4866446410,-80314.5498542934,-36793.5333919896,-12640.7160369339,-80541.1732076207,-41365.0587653372,-80474.8349245420,-80463.4702957094,-80504.4024278218,-2416.5775952172
5557688674,7294,-2,0,-6719.9512659808,-80315.4502638583,-36808.4023175073,-12640.0954843959,-80540.6743320510,-41347.0749094329,-80475.5528186546,-80463.2512771666,-80504.5849432741,-2416.5045890363
5557688674,7294,-2,0,-6719.2577072619,-80314.5863573839,-36794.8231678529,-12640.4970183911,-80540.6013258700,-41507.8831906449,-80474.1291981263,-80463.0079232301,-80503.4290120759,-2416.4680859458
5557688674,7294,-2,0,-6719.8782597998,-80314.8783821076,-36769.8063831849,-12639.4992672516,-80541.8789340364,-41637.5300002933,-80473.3626332265,-80462.1561844525,-80503.8670491616,-2416.5289244299
5557688674,7294,-2,0,-6719.2942103523,-80313.0653952810,-36766.6914527982,-12639.4992672516,-80541.3557230731,-41564.1831238446,-80472.3770497838,-80461.7303150637,-80502.3704224523,-2417.0764707870
5557698658,7295,-2,0,-6720.2067876140,-80313.6859478190,-36790.5401385712,-12640.1198197895,-80539.2628792195,-41387.2404766454,-80471.8173357299,-80460.8907439829,-80502.9544718999,-2417.3441601171
5557698658,7295,-2,0,-6720.4744769441,-80313.5399354571,-36810.3734843926,-12640.8377139021,-80538.5693205006,-41345.0794071539,-80472.8880930504,-80461.6938119733,-80502.6989502666,-2417.6483525376
5557698658,7295,-2,0,-6719.7079120443,-80312.6030228017,-36800.1526190613,-12640.5821922688,-80538.2164572927,-41496.1048601202,-80473.3504655296,-80460.9029116798,-80502.3460870587,-2417.2103154520
5557698658,7295,-2,0,-6719.9634336776,-80312.5178489240,-36775.4156914203,-12640.7282046307,-80541.1367045302,-41639.1483039708,-80473.1922854709,-80462.5333830540,-80503.2099935331,-2417.6848556281
5557698658,7295,-2,0,-6720.0364398585,-80313.8076247872,-36767.3363407298,-12641.2879186845,-80542.0736171856,-41586.6203567861,-80473.6668256470,-80462.6672277191,-80503.4046766823,-2417.3076570266
5557698658,7295,-2,0,-6720.3771353696,-80314.9878913790,-36787.8754129670,-12640.6308630561,-80541.8424309460,-41410.6024545454,-80474.4698936373,-80463.2026063793,-80505.9720607119,-2417.7821972027
5557698658,7295,-2,0,-6720.2432907045,-80315.3407545869,-36809.3757332531,-12641.3244217750,-80540.3214688431,-41342.4390169433,-80474.9444338134,-80463.7623204331,-80504.9621418756,-2416.9912969092
5557698658,7295,-2,0,-6718.7466639953,-80313.5886062444,-36801.5397364991,-12639.5601057357,-80539.9321025448,-41470.3336782493,-80474.2022043072,-80462.4725445699,-80503.8792168584,-2415.8475334078
5557724895,7296,-2,0,-6719.8052536189,-80313.6737801222,-36776.4134425597,-12640.4118445133,-80542.7550082077,-41629.1586248791,-80474.6645767865,-80463.4702957094,-80504.9621418756,-2417.3076570266
5557724895,7296,-2,0,-6719.6835766507,-80314.5741896871,-36766.2777511062,-12640.6917015402,-80543.2782191711,-41602.4383626559,-80474.0926950358,-80463.4459603158,-80504.5362724868,-2417.4536693885
5557724895,7296,-2,0,-6720.1702845236,-80315.9004686408,-36783.5072098075,-12640.6430307529,-80543.0105298410,-41424.2911134712,-80474.3360489723,-80464.1881898220,-80506.0328991961,-2417.7213587186
5557724895,7296,-2,0,-6719.6349058634,-80316.3020026359,-36805.5794118443,-12640.2293290610,-80542.4021449998,-41331.8044499201,-80476.0881973148,-80465.3197856265,-80505.9720607119,-2416.4559182490
5557724895,7296,-2,0,-6717.8584221272,-80314.2821649633,-36801.5762395896,-12638.5015161121,-80540.3458042367,-41442.2749693756,-80474.2752104882,-80463.0444263206,-80503.5385213473,-2416.1517258284
5557724895,7296,-2,0,-6718.7588316921,-80314.2213264792,-36776.9853243104,-12640.2658321514,-80542.0614494888,-41606.9282427836,-80472.8029191726,-80463.1417678952,-80504.4632663059,-2416.7236075791
5557724895,7296,-2,0,-6719.7444151348,-80313.2844138238,-36761.4958462548,-12639.7182857944,-80542.9131882664,-41603.9714924556,-80473.9466826740,-80462.5212153572,-80503.0761488681,-2417.0034646060
5557724895,7296,-2,0,-6718.5033100588,-80312.8342090414,-36775.0263251219,-12639.5357703420,-80540.2606303590,-41435.1446990373,-80472.5839006298,-80461.9249982129,-80503.8305460711,-2415.9205395888
5557775568,7297,-2,0,-6719.7930859221,-80313.8197924840,-36799.1305325282,-12640.0224782150,-80540.0902826035,-41321.5592491951,-80474.0561919454,-80463.4094572253,-80504.1469061885,-2416.5410921267
5557775568,7297,-2,0,-6720.1581168268,-80314.1969910855,-36800.3107991200,-12640.5578568752,-80540.7960090192,-41412.2207582229,-80473.5208132852,-80462.8010723841,-80503.9157199489,-2416.7114398823
5557775568,7297,-2,0,-6718.5519808461,-80313.4060907921,-36775.3061821489,-12640.0468136086,-80540.8203444128,-41585.8416241894,-80473.5694840724,-80462.1683521493,-80503.6601983156,-2415.9692103761
5557775568,7297,-2,0,-6719.1238625968,-80314.1361526014,-36758.2227358094,-12639.9981428213,-80542.8401820854,-41611.6614768477,-80474.3847197596,-80463.4581280126,-80503.4168443791,-2416.9912969092
5557775568,7297,-2,0,-6720.5961539124,-80313.6494447285,-36768.9181413168,-12641.0323970513,-80541.8424309460,-41449.8676121931,-80473.8128380089,-80462.3752029953,-80503.9400553425,-2416.6019306109
5557775568,7297,-2,0,-6719.6835766507,-80313.5277677603,-36791.4892189234,-12639.9373043372,-80540.4431458113,-41317.3370583976,-80473.4721424979,-80462.2900291176,-80503.0883165649,-2416.0057134665
5557775568,7297,-2,0,-6719.5862350761,-80313.2479107334,-36797.2323718238,-12639.7669565817,-80538.9830221926,-41385.2328066696,-80473.2409562582,-80461.9371659097,-80502.5286025110,-2415.6893533491
5557775568,7297,-2,0,-6719.3793842301,-80312.3353334716,-36774.3571017967,-12639.5722734325,-80539.4088915814,-41561.4453920594,-80472.6690745075,-80461.7668181542,-80502.9788072935,-2417.3806632075
5557799988,7298,-2,0,-6719.7444151348,-80313.5642708508,-36753.7815264691,-12640.1928259705,-80542.1709587602,-41613.0364265887,-80473.9831857644,-80462.6307246286,-80503.5871921346,-2417.2589862393
5557799988,7298,-2,0,-6720.1824522204,-80313.3330846111,-36762.3597527292,-12640.6186953593,-80542.6333312395,-41469.8104672859,-80473.8128380089,-80462.2291906335,-80503.1734904427,-2416.2977381903
5557799988,7298,-2,0,-6719.2942103523,-80313.2844138238,-36788.3377854462,-12640.1563228800,-80539.6522455178,-41319.5394115225,-80473.3991363169,-80462.2778614207,-80503.4776828632,-2416.3220735839
5557799988,7298,-2,0,-6719.5984027729,-80312.9315506160,-36796.8308378286,-12640.6795338434,-80539.2385438259,-41362.5157167012,-80472.9610992313,-80461.9736690002,-80503.1978258363,-2416.4680859458
5557799988,7298,-2,0,-6719.3915519269,-80313.7832893936,-36778.6644664720,-12640.4483476038,-80540.7716736256,-41544.8364858961,-80473.6303225565,-80462.6550600223,-80503.1004842617,-2416.8087814569
5557799988,7298,-2,0,-6720.2311230077,-80313.7589539999,-36756.5922644352,-12639.8764658531,-80542.3048034252,-41623.9265152453,-80473.1192792900,-80461.4747934304,-80502.6016086920,-2417.4658370853
5557799988,7298,-2,0,-6719.2455395650,-80312.9923891001,-36761.8608771595,-12640.6065276625,-80540.8325121097,-41496.5185618122,-80471.9268450013,-80461.5477996114,-80502.1879070000,-2416.6384337013
5557799988,7298,-2,0,-6719.2942103523,-80313.1140660683,-36787.8510775733,-12640.3266706355,-80539.3480530973,-41335.8562929621,-80472.3648820870,-80461.9980043938,-80502.9423042030,-2417.0277999997
5557816394,7299,-2,0,-6720.1581168268,-80313.2965815207,-36800.6271592374,-12640.7890431148,-80539.3358854004,-41356.0059989009,-80473.6789933438,-80462.4482091763,-80503.0518134744,-2417.2468185425
5557816394,7299,-2,0,-6721.2288741472,-80312.9802214033,-36785.2836935437,-12641.3365894718,-80540.4431458113,-41530.2352497086,-80474.0075211581,-80462.9105816555,-80503.1126519585,-2418.0985573201
5557816394,7299,-2,0,-6719.7809182252,-80312.2866626843,-36761.7148647976,-12640.2049936673,-80541.9032694301,-41631.9450274516,-80473.0584408059,-80461.9249982129,-80503.0153103840,-2417.4658370853
5557816394,7299,-2,0,-6719.7444151348,-80312.5786874081,-36763.6981993798,-12640.2901675451,-80541.8059278555,-41529.8945541976,-80472.9854346249,-80461.2192717971,-80502.3704224523,-2416.6140983077
5557816394,7299,-2,0,-6719.5497319856,-80313.4790969730,-36788.9096671969,-12640.8133785085,-80540.7960090192,-41358.2326874195,-80473.8006703121,-80461.8033212447,-80503.1978258363,-2416.6384337013
5557816394,7299,-2,0,-6719.6349058634,-80314.3673388411,-36805.3117225142,-12639.6209442198,-80540.2971334495,-41346.7828847091,-80473.6424902534,-80463.4702957094,-80503.8548814647,-2416.8939553346
5557816394,7299,-2,0,-6719.0995272032,-80313.7832893936,-36792.2679515200,-12639.3045841024,-80540.3093011463,-41514.8917840149,-80473.3748009233,-80463.1174325015,-80503.5871921346,-2416.1638935252
5557816394,7299,-2,0,-6718.8683409635,-80313.9049663618,-36767.8960547837,-12639.7182857944,-80542.0127787015,-41639.2334778485,-80473.8371734025,-80461.8276566383,-80503.5385213473,-2415.8718688015
5557843961,7300,-2,0,-6719.4402227142,-80314.1118172078,-36765.7788755365,-12639.6696150071,-80542.9010205696,-41556.4566363620,-80474.1778689136,-80463.1539355920,-80504.1955769758,-2416.8939553346
5557843961,7300,-2,0,-6719.5132288951,-80313.8076247872,-36788.9340025906,-12639.9008012467,-80540.0659472098,-41380.9741127816,-80474.8349245420,-80462.8010723841,-80504.1469061885,-2416.7601106696
5557843961,7300,-2,0,-6719.2698749587,-80313.4669292762,-36808.6700068374,-12640.9472231735,-80540.0659472098,-41344.4223515255,-80473.4964778915,-80461.5234642177,-80503.1734904427,-2416.8452845473
5557843961,7300,-2,0,-6719.0143533254,-80313.0167244937,-36798.9601847727,-12639.9616397308,-80539.5062331560,-41494.1093578413,-80473.3504655296,-80462.1075136652,-80502.1392362127,-2416.3585766744
5557843961,7300,-2,0,-6719.6105704697,-80312.4935135303,-36773.6513753809,-12639.6817827039,-80541.8911017333,-41637.0676278140,-80473.4234717106,-80462.0101720907,-80502.6137763888,-2416.4315828553
5557843961,7300,-2,0,-6719.2090364746,-80312.4083396526,-36766.2655834094,-12639.6087765230,-80541.3800584667,-41582.1426443553,-80473.2409562582,-80460.9029116798,-80502.4069255428,-2415.7015210460
5557843961,7300,-2,0,-6719.2942103523,-80313.5156000635,-36788.2891146589,-12639.6817827039,-80540.8446798065,-41402.6204454296,-80473.1557823805,-80462.1926875430,-80502.7476210539,-2416.3342412808
5557843961,7300,-2,0,-6718.9413471445,-80313.4182584889,-36808.8525222897,-12639.1707394374,-80538.7518359529,-41338.3993415981,-80473.2409562582,-80461.7181473669,-80503.1369873522,-2415.8231980142
5557891943,7301,-2,0,-6720.7665016679,-80313.7832893936,-36803.8515988955,-12640.3753414228,-80541.0636983493,-41478.0479980350,-80474.1170304295,-80463.4702957094,-80504.0739000076,-2417.0886384838
5557891943,7301,-2,0,-6719.6349058634,-80314.5133512029,-36777.7153861198,-12639.6939504007,-80542.9983621441,-41632.9549462879,-80474.2630427914,-80464.0786805505,-80505.1933281153,-2418.0742219264
5557891943,7301,-2,0,-6719.5740673793,-80313.7589539999,-36766.2777511062,-12639.4505964643,-80542.6211635426,-41599.2260906947,-80472.6934099012,-80462.3995383890,-80503.9035522520,-2416.3950797649
5557891943,7301,-2,0,-6720.1459491299,-80314.2456618728,-36785.5270474801,-12640.6795338434,-80541.5139031318,-41423.8895794761,-80474.5428998183,-80462.5090476604,-80504.1104030980,-2417.6605202345
5557891943,7301,-2,0,-6719.7930859221,-80315.0487298631,-36808.8281868961,-12640.6186953593,-80540.2849657526,-41338.6913663219,-80474.1900366104,-80463.4216249221,-80503.8183783743,-2416.9182907283
5557891943,7301,-2,0,-6720.0972783426,-80315.5841085234,-36805.3968963920,-12641.0080616576,-80541.3192199826,-41454.6616847413,-80474.9200984198,-80463.6163080713,-80504.7187879392,-2416.9182907283
5557891943,7301,-2,0,-6719.2212041714,-80314.2699972665,-36779.2485159195,-12640.0954843959,-80541.8789340364,-41621.2617896410,-80475.4433093832,-80463.3121156507,-80504.4024278218,-2416.7601106696
5557891943,7301,-2,0,-6719.2333718682,-80314.6836989585,-36766.2777511062,-12640.1319874864,-80543.4363992298,-41616.0783507945,-80474.2995458818,-80463.3851218316,-80504.3050862472,-2417.0399676965
5557910250,7302,-2,0,-6718.7953347826,-80313.3209169143,-36780.7816457192,-12639.5357703420,-80541.3557230731,-41444.3921486227,-80473.9345149771,-80462.6185569318,-80504.0373969171,-2416.5654275204
5557910250,7302,-2,0,-6720.4744769441,-80314.2456618728,-36806.4919891061,-12641.3730925623,-80540.5161519923,-41336.6715286492,-80474.6889121802,-80463.4581280126,-80504.5727755773,-2417.2954893298
5557910250,7302,-2,0,-6720.5596508219,-80313.6981155158,-36805.6889211157,-12641.1784094131,-80540.3458042367,-41432.9301782155,-80473.6911610407,-80463.0322586238,-80503.9400553425,-2417.8187002932
5557910250,7302,-2,0,-6719.2698749587,-80313.2600784302,-36781.9010738269,-12639.5479380389,-80540.1632887844,-41606.6362180599,-80473.3139624392,-80462.0345074843,-80503.2099935331,-2416.7601106696
5557910250,7302,-2,0,-6719.9269305871,-80313.1627368556,-36765.9005525047,-12640.6430307529,-80542.0857848824,-41627.1996256906,-80473.4964778915,-80463.0079232301,-80503.7210367997,-2417.0034646060
5557910250,7302,-2,0,-6719.6470735602,-80313.5764385476,-36778.2507647800,-12640.1563228800,-80542.2074618507,-41468.5085237258,-80473.9345149771,-80462.4482091763,-80503.7940429806,-2416.6019306109
5557910250,7302,-2,0,-6719.6227381665,-80314.1726556919,-36804.1436236192,-12639.8886335499,-80540.0172764225,-41339.7256205518,-80474.6280736960,-80462.9835878365,-80503.9643907361,-2416.5897629140
5557910250,7302,-2,0,-6719.3672165333,-80313.4425938825,-36807.8791065439,-12639.3775902833,-80539.1168668576,-41410.8336407851,-80473.4234717106,-80462.0953459684,-80502.9179688094,-2416.6627690950
5557940306,7303,-2,0,-6720.0972783426,-80314.7445374426,-36786.0380907467,-12640.7160369339,-80543.9839455868,-41593.4951054911,-80474.8714276325,-80463.7744881300,-80505.6191975041,-2417.5266755694
5557940306,7303,-2,0,-6720.0972783426,-80314.9270528949,-36766.7766266760,-12641.4339310464,-80543.4607346234,-41643.9180411253,-80475.2121231435,-80463.5798049808,-80505.5705267168,-2418.2689050756
5557940306,7303,-2,0,-6720.8030047584,-80314.7810405331,-36775.1236666965,-12640.2536644546,-80543.1322068092,-41495.6789907314,-80475.0904461753,-80464.5167176362,-80504.9499741788,-2417.4901724789
5557940306,7303,-2,0,-6719.6470735602,-80314.5011835061,-36800.6514946310,-12640.0224782150,-80540.8203444128,-41350.3845229687,-80473.7398318280,-80462.6550600223,-80503.7575398902,-2416.6992721854
5557940306,7303,-2,0,-6719.5010611983,-80313.7467863031,-36809.4609071309,-12639.9494720340,-80538.7518359529,-41401.9390544075,-80474.1900366104,-80462.0710105748,-80504.6457817582,-2416.4680859458
5557940306,7303,-2,0,-6719.0508564159,-80312.8220413446,-36789.7492382777,-12639.0125593787,-80539.8225932734,-41581.7289426633,-80472.8515899599,-80461.7911535478,-80503.0518134744,-2415.6163471682
5557940306,7303,-2,0,-6719.5862350761,-80314.4646804157,-36769.6482031262,-12640.2293290610,-80542.8645174791,-41658.2029171955,-80473.5938194661,-80463.1539355920,-80504.6457817582,-2417.3928309044
5557940306,7303,-2,0,-6719.2090364746,-80314.1483202982,-36776.4499456502,-12639.7912919753,-80542.7550082077,-41531.8778887797,-80473.7641672216,-80462.9470847460,-80505.0229803597,-2417.3563278139
5557970305,7304,-2,0,-6719.2333718682,-80314.2456618728,-36802.5131522450,-12639.5479380389,-80540.9906921684,-41374.0385255925,-80473.7154964343,-80462.6428923254,-80504.1834092790,-2416.3342412808
5557970305,7304,-2,0,-6719.9877690712,-80314.2334941760,-36814.6321782806,-12640.2293290610,-80539.9442702416,-41395.5875166659,-80474.2752104882,-80462.6185569318,-80503.8062106774,-2416.8817876378
5557970305,7304,-2,0,-6719.9634336776,-80313.6616124253,-36797.9137628459,-12641.0932355354,-80541.2948845889,-41573.6860950633,-80474.0683596422,-80462.6428923254,-80504.0495646139,-2416.9426261219
5557970305,7304,-2,0,-6720.3162968855,-80313.3452523079,-36775.5982068726,-12640.6673661466,-80542.6089958458,-41672.6581410211,-80474.0196888549,-80462.2778614207,-80503.5385213473,-2417.0886384838
5557970305,7304,-2,0,-6719.7444151348,-80313.0775629778,-36777.8613984817,-12639.5722734325,-80541.7572570682,-41560.5449824945,-80473.3382978328,-80461.3774518558,-80503.1248196554,-2417.0764707870
5557970305,7304,-2,0,-6719.7687505284,-80313.6616124253,-36801.8439289197,-12639.8886335499,-80540.3944750240,-41392.3265739174,-80473.1192792900,-80462.3508676017,-80504.0495646139,-2417.0521353933
5557970305,7304,-2,0,-6719.0143533254,-80312.8828798287,-36816.7736929214,-12639.4749318579,-80539.2507115227,-41387.5081659755,-80472.8880930504,-80461.0489240416,-80503.0883165649,-2416.4924213395
5557970305,7304,-2,0,-6719.3672165333,-80313.1262337651,-36803.2675494480,-12640.1076520927,-80540.1024503003,-41552.1857747772,-80473.2166208646,-80462.4847122667,-80504.0252292203,-2416.6384337013
5558000544,7305,-2,0,-6720.2554584013,-80313.7832893936,-36780.0880870003,-12640.1806582737,-80542.8888528727,-41672.2931101165,-80474.5672352119,-80462.7402339000,-80503.8913845552,-2418.0620542296
5558000544,7305,-2,0,-6720.4866446410,-80314.2456618728,-36777.8979015721,-12640.2414967578,-80543.3512253520,-41589.0903992412,-80474.2752104882,-80463.2512771666,-80504.0130615234,-2417.4049986012
5558000544,7305,-2,0,-6720.0486075553,-80314.6106927775,-36801.8804320102,-12640.7282046307,-80541.4652323445,-41413.0116585164,-80474.3482166691,-80462.4968799636,-80504.6214463646,-2416.9547938187
5558000544,7305,-2,0,-6719.7687505284,-80313.3574200048,-36817.6619347895,-12639.7304534912,-80538.7275005593,-41380.8402681165,-80473.6789933438,-80462.3630352985,-80503.7575398902,-2416.7479429727
5558000544,7305,-2,0,-6719.2942103523,-80313.1140660683,-36806.6380014679,-12639.5114349484,-80539.6157424274,-41537.9495694943,-80472.8880930504,-80461.7303150637,-80504.1104030980,-2416.4194151585
5558000544,7305,-2,0,-6719.5618996824,-80313.9171340586,-36781.4752044381,-12639.9494720340,-80541.5017354349,-41676.0529284347,-80474.7254152706,-80463.4216249221,-80503.3925089855,-2416.9426261219
5558000544,7305,-2,0,-6719.5010611983,-80314.0631464205,-36774.6491265204,-12639.8764658531,-80543.7649270440,-41611.1017627939,-80474.3968874564,-80463.7014819490,-80504.5606078805,-2416.6262660045
5558000544,7305,-2,0,-6719.9999367681,-80314.6350281712,-36795.0056833052,-12639.9859751245,-80542.3169711221,-41431.2875391444,-80474.4212228500,-80463.6771465554,-80505.5583590200,-2416.6262660045
5558043549,7306,-2,0,-6719.2577072619,-80314.3430034474,-36813.4275762951,-12640.1563228800,-80540.6621643541,-41371.1547814455,-80474.4577259405,-80463.6406434649,-80505.2176635089,-2416.4072474617
5558043549,7306,-2,0,-6720.4258061569,-80314.6715312616,-36805.7010888126,-12640.8498815989,-80542.0006110047,-41506.2648869674,-80475.3459678086,-80464.0786805505,-80505.3636758708,-2418.0985573201
5558043549,7306,-2,0,-6719.7322474379,-80314.2213264792,-36778.3967771419,-12639.6452796135,-80542.8888528727,-41655.7328747404,-80473.7276641311,-80463.7136496459,-80505.1689927216,-2416.8939553346
5558043549,7306,-2,0,-6719.9390982839,-80314.4281773252,-36767.2511668521,-12640.1806582737,-80543.3025545647,-41617.5141390196,-80474.2995458818,-80463.5189664967,-80505.1324896312,-2416.8939553346
5558043549,7306,-2,0,-6719.3915519269,-80314.1361526014,-36784.4806255534,-12639.9738074277,-80541.2827168921,-41436.9090150766,-80474.4212228500,-80463.8839974014,-80504.6336140614,-2416.4924213395
5558043549,7306,-2,0,-6719.9634336776,-80314.9270528949,-36805.6645857221,-12640.3631737260,-80540.8325121097,-41353.4629502649,-80475.2242908404,-80464.3463698806,-80504.6092786678,-2417.4049986012
5558043549,7306,-2,0,-6720.1581168268,-80314.5498542934,-36800.2986314232,-12639.3532548897,-80540.1146179971,-41478.3156873651,-80474.7132475738,-80464.1395190347,-80504.9621418756,-2416.0787196475
5558043549,7306,-2,0,-6719.4037196237,-80315.1582391346,-36776.6689641930,-12640.5091860879,-80542.4751511808,-41645.4755063187,-80474.9687692071,-80463.9570035823,-80505.1324896312,-2416.8696199410
5558068831,7307,-2,0,-6719.5375642888,-80315.0365621663,-36763.5886901084,-12639.4992672516,-80542.9740267505,-41634.7557654177,-80473.5451486788,-80463.4946311031,-80503.9400553425,-2416.1760612221
5558068831,7307,-2,0,-6720.4379738537,-80314.9757236822,-36780.6599687510,-12640.8742169926,-80542.6941697236,-41466.1114874517,-80474.4455582437,-80464.3098667902,-80504.8526326042,-2417.2468185425
5558068831,7307,-2,0,-6720.1702845236,-80314.1969910855,-36804.3626421620,-12639.8034596721,-80540.9541890779,-41363.8176602612,-80474.4090551532,-80462.8740785651,-80503.7697075870,-2416.8452845473
5558068831,7307,-2,0,-6719.8052536189,-80314.8175436235,-36804.8615177318,-12640.5943599656,-80539.7617547892,-41462.6193584635,-80475.0174399944,-80463.5067987999,-80504.0617323107,-2417.3563278139
5558068831,7307,-2,0,-6719.2820426555,-80314.4403450220,-36780.1002546971,-12640.2779998482,-80541.9154371269,-41636.6782615157,-80474.5794029087,-80464.0421774601,-80504.9256387852,-2417.1008061806
5558068831,7307,-2,0,-6720.3771353696,-80315.4745992520,-36764.8662982748,-12641.3609248655,-80544.6288335184,-41657.1929983592,-80475.6501602292,-80464.1273513378,-80504.5606078805,-2417.6361848408
5558068831,7307,-2,0,-6718.6614901175,-80314.5985250807,-36776.6446287994,-12639.4505964643,-80542.0979525792,-41491.4933030244,-80473.5329809820,-80462.2291906335,-80504.2320800663,-2415.7745272269
5558068831,7307,-2,0,-6718.5519808461,-80314.3186680538,-36802.0994505530,-12639.0003916818,-80539.8104255765,-41366.0808518703,-80473.0341054122,-80461.8641597288,-80503.1004842617,-2415.5433409873
5558160156,7308,-2,0,-6720.3406322791,-80313.6981155158,-36806.2608028664,-12640.5821922688,-80540.6134935669,-41446.8135202905,-80474.2387073977,-80463.4216249221,-80505.0838188439,-2417.4049986012
5558160156,7308,-2,0,-6719.8295890125,-80314.0631464205,-36784.4562901597,-12641.1905771100,-80542.1709587602,-41624.5714031769,-80474.6402413929,-80463.2756125602,-80504.8282972106,-2418.0012157455
5558160156,7308,-2,0,-6719.3915519269,-80313.6372770317,-36763.9293856194,-12639.3289194961,-80542.0492817920,-41661.7802200614,-80472.0971927569,-80462.0588428779,-80503.1856581395,-2416.7844460632
5558160156,7308,-2,0,-6719.9756013744,-80314.8540467140,-36773.2863444762,-12641.2514155941,-80543.0835360219,-41513.0787971883,-80474.7010798770,-80462.8254077778,-80505.4245143549,-2417.2103154520
5558160156,7308,-2,0,-6720.1094460395,-80313.2357430365,-36797.7312473935,-12640.3023352419,-80539.7982578797,-41368.9037575332,-80473.4599748010,-80463.1174325015,-80504.3659247313,-2416.8817876378
5558160156,7308,-2,0,-6719.0995272032,-80313.5764385476,-36803.8515988955,-12639.9373043372,-80539.5184008528,-41418.1829296661,-80474.1535335199,-80462.4238737826,-80503.3560058950,-2415.7866949237
5558160156,7308,-2,0,-6719.7200797411,-80314.5498542934,-36784.1764331328,-12640.1198197895,-80541.2827168921,-41599.0557429392,-80474.9809369039,-80464.3220344870,-80504.7431233328,-2417.2346508457
5558160156,7308,-2,0,-6719.0143533254,-80314.1361526014,-36761.5931878294,-12639.7547888849,-80541.2948845889,-41668.1804285903,-80473.9588503708,-80462.8984139587,-80504.4876016995,-2416.3342412808
5558166539,7309,-2,0,-6720.0364398585,-80314.1483202982,-36767.7743778155,-12639.7426211880,-80542.1344556697,-41534.4452728093,-80472.7177452948,-80462.8984139587,-80503.4411797728,-2417.0277999997
5558166539,7309,-2,0,-6720.1581168268,-80314.2578295697,-36792.9858456326,-12640.2779998482,-80541.2948845889,-41378.5284057202,-80473.1314469868,-80462.2535260271,-80504.0252292203,-2417.5631786599
5558166539,7309,-2,0,-6720.0851106458,-80313.8076247872,-36803.6082449590,-12640.6186953593,-80540.1754564812,-41406.3315929606,-80473.8371734025,-80462.9105816555,-80503.8183783743,-2417.6240171440
5558166539,7309,-2,0,-6720.8516755457,-80314.1726556919,-36785.0160042136,-12641.2514155941,-80541.0393629556,-41581.4490856364,-80474.0440242485,-80463.6163080713,-80504.0860677044,-2417.6970233249
5558166539,7309,-2,0,-6718.8318378731,-80312.0798118384,-36760.1573996043,-12639.2315779215,-80540.6499966573,-41671.7455637594,-80472.3283789965,-80461.9493336065,-80501.9688884572,-2416.8087814569
5558166539,7309,-2,0,-6719.2942103523,-80313.3817553984,-36762.0677280055,-12639.9251366404,-80542.2196295475,-41559.9852684407,-80473.4356394074,-80462.5577184477,-80504.4754340027,-2417.6726879313
5558166539,7309,-2,0,-6719.5375642888,-80313.5399354571,-36786.0015876562,-12639.7061180976,-80540.6621643541,-41390.9272887827,-80473.5938194661,-80461.4869611273,-80504.1712415821,-2416.5045890363
5558166539,7309,-2,0,-6718.8805086603,-80312.9315506160,-36798.5464830807,-12638.8665470168,-80540.0902826035,-41389.3941589831,-80472.6812422044,-80462.3752029953,-80502.6259440856,-2415.4703348063
5558175380,7310,-2,0,-6720.0121044649,-80313.2357430365,-36784.4319547661,-12639.5357703420,-80540.6013258700,-41561.1533673357,-80473.1314469868,-80461.9736690002,-80503.1978258363,-2417.6240171440
5558175380,7310,-2,0,-6720.4136384600,-80313.7467863031,-36762.5301004848,-12640.8133785085,-80542.1466233665,-41677.9997599264,-80474.5794029087,-80463.6528111617,-80504.0373969171,-2417.9038741709
5558175380,7310,-2,0,-6720.2797937950,-80313.5642708508,-36759.0744745871,-12640.1319874864,-80542.1709587602,-41583.5297617931,-80473.0827761995,-80462.5090476604,-80503.5506890442,-2417.1859800584
5558175380,7310,-2,0,-6719.8539244062,-80313.8076247872,-36782.9231603600,-12640.8012108116,-80540.4066427209,-41406.8669716208,-80473.7519995248,-80462.1926875430,-80504.1104030980,-2417.6118494472
5558175380,7310,-2,0,-6720.3771353696,-80314.2699972665,-36800.3716376041,-12641.3852602591,-80540.2971334495,-41382.2152178575,-80473.9953534612,-80461.8641597288,-80504.0495646139,-2416.7601106696
5558175380,7310,-2,0,-6719.8904274966,-80312.5786874081,-36787.8145744828,-12640.1198197895,-80538.7396682561,-41538.6917990005,-80472.8515899599,-80461.9249982129,-80503.3195028045,-2416.8452845473
5558175380,7310,-2,0,-6718.9535148413,-80312.3718365621,-36763.9537210131,-12639.6696150071,-80541.0636983493,-41673.4490413146,-80472.7542483853,-80462.4603768731,-80503.0031426871,-2416.7844460632
5558175380,7310,-2,0,-6718.6979932080,-80313.0167244937,-36758.1132265380,-12639.6209442198,-80541.0880337429,-41609.6781422656,-80472.6082360234,-80461.5112965209,-80502.7232856602,-2416.2612350998
5558192583,7311,-2,0,-6720.4866446410,-80313.5277677603,-36780.0759193035,-12640.4118445133,-80541.7815924618,-41433.2465383329,-80473.2166208646,-80462.8010723841,-80504.0373969171,-2417.7943648995
5558192583,7311,-2,0,-6719.6227381665,-80313.4182584889,-36800.8948485675,-12640.4970183911,-80539.6522455178,-41380.2318832754,-80474.0318565517,-80462.2291906335,-80503.8183783743,-2417.3198247234
5558192583,7311,-2,0,-6719.5253965920,-80312.8342090414,-36791.6230635884,-12640.1806582737,-80539.8469286670,-41523.6890288179,-80473.5694840724,-80462.6063892350,-80503.5750244378,-2416.3950797649
5558192583,7311,-2,0,-6719.6227381665,-80313.2965815207,-36766.6792851014,-12640.2658321514,-80541.3678907699,-41673.9479168844,-80473.0341054122,-80461.9371659097,-80503.8183783743,-2416.9791292124
5558192583,7311,-2,0,-6720.0972783426,-80313.2235753397,-36758.3930835650,-12640.2414967578,-80542.5116542712,-41626.1045329766,-80473.3869686201,-80462.8862462619,-80504.0982354012,-2416.8939553346
5558192583,7311,-2,0,-6720.3041291886,-80314.0266433300,-36777.8492307849,-12640.6186953593,-80542.2804680316,-41445.9496138161,-80474.4942290310,-80463.0809294111,-80504.5727755773,-2417.2711539361
5558192583,7311,-2,0,-6720.7178308806,-80314.4403450220,-36799.9336005185,-12641.0567324449,-80541.3313876794,-41368.5752297190,-80474.9200984198,-80463.8109912204,-80504.9986449661,-2417.6118494472
5558192583,7311,-2,0,-6719.9634336776,-80312.9802214033,-36793.7037397451,-12639.8399627626,-80539.6522455178,-41491.7366569608,-80474.1535335199,-80462.3873706922,-80504.3050862472,-2416.1882289189
5558248008,7312,-2,0,-6718.9656825381,-80313.3695877016,-36769.5265261580,-12640.0346459118,-80541.5747416159,-41661.4638599440,-80473.4113040137,-80462.4360414795,-80504.7066202423,-2416.5897629140
5558248008,7312,-2,0,-6720.0121044649,-80314.8783821076,-36761.3254984993,-12640.8012108116,-80544.2029641296,-41657.8622216844,-80475.1999554467,-80464.7357361790,-80504.8039618169,-2417.6240171440
5558248008,7312,-2,0,-6719.2577072619,-80314.5133512029,-36779.0051619830,-12639.5357703420,-80542.5846604522,-41488.9502543884,-80474.5307321214,-80463.2391094698,-80505.3028373867,-2416.3464089776
5558248008,7312,-2,0,-6718.6128193302,-80313.5399354571,-36802.7443384846,-12639.0247270755,-80540.7351705351,-41388.0435446357,-80473.6303225565,-80461.7059796701,-80503.6480306188,-2415.4581671095
5558248008,7312,-2,0,-6719.4158873206,-80314.2699972665,-36802.5009845481,-12639.1585717405,-80539.9442702416,-41494.8272519538,-80474.1413658231,-80462.6793954159,-80504.5484401837,-2415.9813780729
5558248008,7312,-2,0,-6719.3428811396,-80313.8319601809,-36780.4287825113,-12640.3388383324,-80541.5504062222,-41666.3066032796,-80473.9101795835,-80462.9714201397,-80504.8161295138,-2416.8817876378
5558248008,7312,-2,0,-6718.8318378731,-80313.7346186063,-36764.1119010718,-12639.7182857944,-80543.0226975378,-41673.3516997400,-80474.2995458818,-80462.6915631127,-80503.2708320172,-2417.6605202345
5558248008,7312,-2,0,-6719.2212041714,-80313.0897306747,-36777.2286782469,-12640.4970183911,-80542.3778096062,-41509.7083451683,-80474.0805273390,-80462.7158985064,-80504.2685831567,-2416.8574522441
5558253571,7313,-2,0,-6719.5618996824,-80312.8220413446,-36802.8538477560,-12639.5114349484,-80540.2727980558,-41392.1318907682,-80473.6181548597,-80461.9980043938,-80504.3172539440,-2416.5045890363
5558253571,7313,-2,0,-6719.8295890125,-80313.1262337651,-36806.8448523139,-12640.4240122101,-80539.6887486083,-41472.4995282837,-80474.4455582437,-80462.9835878365,-80504.3172539440,-2416.7479429727
5558253571,7313,-2,0,-6720.5718185187,-80315.0730652568,-36784.8821595485,-12640.8255462053,-80542.3534742125,-41649.6611940258,-80474.6159059992,-80463.4094572253,-80505.4488497485,-2418.2689050756
5558253571,7313,-2,0,-6719.3428811396,-80313.3087492175,-36765.9492232920,-12639.9129689436,-80543.6919208631,-41684.1931176093,-80474.4090551532,-80463.4094572253,-80504.4024278218,-2417.6483525376
5558253571,7313,-2,0,-6719.4767258047,-80314.1969910855,-36776.5107841343,-12640.1563228800,-80542.8401820854,-41528.1789089455,-80474.1778689136,-80463.2512771666,-80504.4632663059,-2417.2224831488
5558253571,7313,-2,0,-6719.0630241127,-80313.3452523079,-36800.9678547484,-12640.3631737260,-80540.9541890779,-41388.5910909927,-80473.7763349184,-80462.0345074843,-80504.3050862472,-2415.7988626206
5558253571,7313,-2,0,-6719.2820426555,-80313.4060907921,-36808.9620315611,-12639.8034596721,-80539.7860901829,-41452.3254869513,-80473.5938194661,-80462.6550600223,-80504.0373969171,-2416.9304584251
5558253571,7313,-2,0,-6719.7930859221,-80313.1262337651,-36789.3598719794,-12640.2658321514,-80540.3579719336,-41636.7877707871,-80474.2387073977,-80461.9006628192,-80504.4145955186,-2416.9669615156
5558282909,7314,-2,0,-6719.4037196237,-80312.5300166208,-36770.7067927498,-12640.3388383324,-80541.9519402174,-41701.8606133962,-80473.0949438963,-80461.9128305161,-80502.9423042030,-2417.2103154520
5558282909,7314,-2,0,-6720.9003463330,-80314.1361526014,-36778.2507647800,-12640.7038692370,-80542.2561326380,-41567.9794452534,-80473.0097700186,-80462.0345074843,-80503.8548814647,-2417.0886384838
5558282909,7314,-2,0,-6719.4158873206,-80312.8463767382,-36804.9953623968,-12640.6308630561,-80539.8347609702,-41412.7439691863,-80472.9976023218,-80461.6451411860,-80502.7111179634,-2416.6384337013
5558282909,7314,-2,0,-6719.7687505284,-80312.3961719558,-36814.7416875520,-12640.1563228800,-80538.4963143197,-41442.7008387644,-80472.3162112997,-80462.1561844525,-80503.0761488681,-2416.7966137600
5558282909,7314,-2,0,-6719.4523904110,-80312.9558860096,-36795.5045588749,-12640.1076520927,-80540.6986674446,-41621.0427710982,-80474.1657012168,-80462.6550600223,-80503.0031426871,-2417.1129738774
5558282909,7314,-2,0,-6719.2698749587,-80313.5764385476,-36772.8483073906,-12639.9251366404,-80541.3070522858,-41712.1788203021,-80473.1192792900,-80462.5455507509,-80503.8913845552,-2417.1008061806
5558282909,7314,-2,0,-6718.9170117508,-80312.8950475255,-36776.8514796454,-12639.8034596721,-80541.7329216746,-41591.8889695104,-80473.0827761995,-80461.4869611273,-80503.3560058950,-2417.3076570266
5558282909,7314,-2,0,-6718.6858255112,-80312.0798118384,-36800.4081406946,-12639.4019256770,-80540.0902826035,-41423.0256730017,-80472.7299129917,-80461.8519920320,-80502.8206272348,-2416.5654275204
5558316594,7315,-2,0,-6720.4258061569,-80313.2600784302,-36814.2793150727,-12640.0954843959,-80539.1777053417,-41430.3019557018,-80473.7154964343,-80462.0345074843,-80503.6845337092,-2416.8939553346
5558316594,7315,-2,0,-6719.8782597998,-80312.6030228017,-36798.7655016235,-12640.5335214815,-80540.7108351414,-41600.9782390372,-80473.5573163756,-80461.4504580368,-80503.7697075870,-2417.4049986012
5558316594,7315,-2,0,-6719.2090364746,-80312.7368674668,-36772.9821520557,-12639.7912919753,-80541.5625739190,-41708.4676727711,-80472.6812422044,-80461.3896195527,-80502.4677640269,-2416.9791292124
5558316594,7315,-2,0,-6720.6083216092,-80313.7711216967,-36772.9334812684,-12640.8377139021,-80543.2782191711,-41613.7543207013,-80473.6668256470,-80463.0565940174,-80504.1712415821,-2417.6726879313
5558316594,7315,-2,0,-6720.0242721617,-80314.0509787237,-36796.0764406256,-12640.0468136086,-80541.6355801000,-41436.1911209641,-80474.1900366104,-80462.9714201397,-80504.7187879392,-2416.7601106696
5558316594,7315,-2,0,-6719.0021856286,-80313.0045567969,-36812.0161234637,-12639.7791242785,-80540.0537795130,-41409.2883432886,-80474.2995458818,-80462.3021968144,-80503.6236952251,-2415.8475334078
5558316594,7315,-2,0,-6718.9413471445,-80312.8585444350,-36798.2422906601,-12639.3410871929,-80541.2340461048,-41566.8721848425,-80473.8615087962,-80462.7524015969,-80504.3902601250,-2415.9935457697
5558316594,7315,-2,0,-6718.2964592128,-80313.7954570904,-36771.8383885543,-12639.9494720340,-80541.5382385254,-41696.4581560068,-80473.7154964343,-80462.6793954159,-80504.2199123694,-2416.6262660045
5558363023,7316,-2,0,-6719.8539244062,-80314.4160096284,-36767.4215146076,-12639.9129689436,-80543.5094054107,-41622.9530994994,-80474.5915706056,-80463.2026063793,-80503.9887261298,-2417.3198247234
5558363023,7316,-2,0,-6719.8174213157,-80313.2235753397,-36788.8974995001,-12640.4726829974,-80541.3922261635,-41444.3799809259,-80473.6546579502,-80462.1440167557,-80503.9765584330,-2417.1129738774
5558363023,7316,-2,0,-6720.4258061569,-80312.9437183128,-36808.3658144168,-12640.5943599656,-80539.2993823100,-41396.1350630230,-80473.9953534612,-80462.4117060858,-80504.6214463646,-2417.8430356868
5558363023,7316,-2,0,-6719.9877690712,-80312.2623272907,-36797.3175457016,-12639.9494720340,-80539.7495870924,-41538.3754388832,-80472.8637576567,-80461.6208057923,-80503.1734904427,-2416.9182907283
5558363023,7316,-2,0,-6719.3793842301,-80313.0167244937,-36770.1470786959,-12639.1464040437,-80540.7960090192,-41683.6334035554,-80473.3748009233,-80462.2535260271,-80504.0130615234,-2416.8331168505
5558363023,7316,-2,0,-6718.9656825381,-80312.8098736477,-36761.5931878294,-12639.4140933738,-80542.9375236600,-41637.8706958043,-80472.7420806885,-80462.1440167557,-80503.8548814647,-2416.8452845473
5558363023,7316,-2,0,-6719.5253965920,-80312.5665197113,-36782.1200923697,-12639.3410871929,-80541.3435553762,-41460.0763098275,-80473.4478071042,-80462.4238737826,-80503.4533474696,-2416.1760612221
5558363023,7316,-2,0,-6719.9147628903,-80312.8342090414,-36802.8295123624,-12640.0833166991,-80538.9708544958,-41384.3080617111,-80474.4820613342,-80463.0079232301,-80503.6115275283,-2416.5532598236
5558367837,7317,-2,0,-6720.8881786361,-80313.7954570904,-36797.8529243618,-12641.0932355354,-80540.7351705351,-41514.7214362594,-80474.3603843659,-80463.9448358855,-80504.4632663059,-2417.7700295059
5558367837,7317,-2,0,-6720.9976879075,-80313.4912646698,-36773.4323568381,-12641.0080616576,-80542.2683003348,-41676.5639717013,-80474.7375829674,-80464.4315437584,-80505.0594834502,-2418.1472281074
5558367837,7317,-2,0,-6718.9535148413,-80312.3840042589,-36760.3399150566,-12638.9760562882,-80542.2683003348,-41652.2164103586,-80473.2166208646,-80462.1075136652,-80503.3438381982,-2417.6240171440
5558367837,7317,-2,0,-6720.4988123378,-80314.1118172078,-36778.5062864133,-12640.1076520927,-80542.1222879729,-41477.8411471890,-80474.1170304295,-80462.2656937239,-80504.8404649074,-2417.8552033836
5558367837,7317,-2,0,-6719.0995272032,-80312.9072152223,-36800.9191839612,-12639.5357703420,-80539.1533699481,-41383.7970184445,-80473.6303225565,-80461.7303150637,-80502.9788072935,-2416.2490674030
5558367837,7317,-2,0,-6719.3793842301,-80313.0653952810,-36800.8705131739,-12640.6430307529,-80540.4066427209,-41492.5275572543,-80474.7132475738,-80462.3508676017,-80503.8670491616,-2416.6749367918
5558367837,7317,-2,0,-6719.7809182252,-80313.9536371491,-36775.8050577186,-12640.2293290610,-80541.8180955523,-41663.9704054896,-80473.8615087962,-80463.1904386825,-80505.1446573280,-2416.7844460632
5558367837,7317,-2,0,-6718.9291794476,-80314.2334941760,-36761.7148647976,-12639.7547888849,-80544.2394672201,-41670.8816572850,-80474.4820613342,-80464.0786805505,-80504.6214463646,-2416.9061230314
5558420375,7318,-2,0,-6719.9877690712,-80313.9171340586,-36776.7298026771,-12639.9251366404,-80542.3899773030,-41503.8191799060,-80474.3360489723,-80463.7014819490,-80505.6070298072,-2416.8939553346
5558420375,7318,-2,0,-6719.8052536189,-80313.7832893936,-36802.1967921276,-12639.8521304594,-80540.9420213811,-41386.1210485377,-80474.6524090897,-80463.9448358855,-80504.4754340027,-2416.7722783664
5558420375,7318,-2,0,-6720.6204893060,-80313.9779725427,-36805.4212317856,-12640.6917015402,-80539.7009163051,-41476.0038249687,-80474.1535335199,-80463.1296001984,-80503.3316705014,-2417.4293339948
5558420375,7318,-2,0,-6719.3672165333,-80313.7589539999,-36784.9064949422,-12641.0932355354,-80540.9055182906,-41656.3899303689,-80473.8980118867,-80463.0444263206,-80504.0739000076,-2417.2103154520
5558420375,7318,-2,0,-6719.3672165333,-80313.4060907921,-36766.5697758300,-12639.6209442198,-80542.8036789950,-41686.9673524849,-80473.9953534612,-80463.2877802571,-80505.2419989026,-2416.8817876378
5558420375,7318,-2,0,-6719.5497319856,-80313.4669292762,-36778.4576156260,-12640.2779998482,-80543.4242315329,-41534.0315711174,-80475.0539430848,-80463.3364510443,-80504.1469061885,-2416.7601106696
5558420375,7318,-2,0,-6719.3793842301,-80314.0023079364,-36804.6303314921,-12640.7525400243,-80540.8811828970,-41398.4225900257,-80475.1512846594,-80463.6771465554,-80505.1811604184,-2416.6506013982
5558420375,7318,-2,0,-6719.8295890125,-80313.5642708508,-36810.3491489989,-12640.2536644546,-80540.1754564812,-41460.1371483116,-80473.7885026153,-80463.6041403744,-80504.2199123694,-2416.6384337013
5558471382,7319,-2,0,-6719.5375642888,-80314.5985250807,-36788.9461702874,-12640.5578568752,-80541.9641079142,-41641.4479986703,-80475.6866633196,-80464.4680468489,-80504.9621418756,-2417.2224831488
5558471382,7319,-2,0,-6720.5109800346,-80315.6206116138,-36770.0254017277,-12641.8111296479,-80544.1542933423,-41704.0386311275,-80474.8592599357,-80464.6505623012,-80506.8968056705,-2418.5974328898
5558471382,7319,-2,0,-6720.0364398585,-80314.5133512029,-36777.3138521246,-12639.8521304594,-80543.2295483838,-41562.8325094973,-80474.1900366104,-80464.1273513378,-80504.8404649074,-2416.7114398823
5558471382,7319,-2,0,-6719.8660921030,-80314.8053759267,-36803.6812511400,-12640.5943599656,-80541.3678907699,-41408.9719831712,-80474.0561919454,-80462.7767369905,-80504.1104030980,-2416.9791292124
5558471382,7319,-2,0,-6719.5984027729,-80314.3430034474,-36812.6366760016,-12640.0103105181,-80540.1876241781,-41447.1907188920,-80473.7033287375,-80463.1417678952,-80503.4776828632,-2415.9935457697
5558471382,7319,-2,0,-6719.5862350761,-80314.4038419315,-36794.9205094274,-12640.3145029387,-80541.1488722271,-41624.5470677832,-80474.7254152706,-80463.0322586238,-80505.3515081740,-2417.9282095646
5558471382,7319,-2,0,-6719.5618996824,-80313.2600784302,-36770.6702896593,-12639.7426211880,-80541.9519402174,-41705.8637856509,-80473.9345149771,-80462.8740785651,-80503.6358629219,-2417.0156323028
5558471382,7319,-2,0,-6719.4037196237,-80314.0631464205,-36774.0042385888,-12639.3045841024,-80542.9496913569,-41584.5153452357,-80474.5672352119,-80462.8619108682,-80503.9887261298,-2416.6992721854
5558477991,7320,-2,0,-6719.9634336776,-80314.8662144108,-36799.7024142789,-12640.3875091196,-80542.0979525792,-41422.5146297351,-80475.5649863514,-80463.6528111617,-80504.9013033915,-2417.4415016916
5558477991,7320,-2,0,-6719.1360302936,-80313.7711216967,-36811.6632602558,-12640.0224782150,-80540.0051087257,-41430.4114649732,-80474.5550675151,-80463.2756125602,-80504.0617323107,-2416.6871044886
5558477991,7320,-2,0,-6719.7809182252,-80313.5764385476,-36795.3220434226,-12639.7182857944,-80541.1245368334,-41600.8322266753,-80475.2851293245,-80462.9227493524,-80505.3271727803,-2417.1129738774
5558477991,7320,-2,0,-6719.9269305871,-80313.2357430365,-36771.8262208575,-12640.1198197895,-80542.7063374204,-41708.3703311965,-80474.5550675151,-80463.6771465554,-80504.9621418756,-2416.4924213395
5558477991,7320,-2,0,-6718.3572976970,-80312.9437183128,-36770.2930910578,-12639.3897579802,-80541.2705491953,-41603.9349893652,-80473.7641672216,-80462.9227493524,-80504.1104030980,-2415.8231980142
5558477991,7320,-2,0,-6719.5132288951,-80314.0388110269,-36794.4946400386,-12639.4870995548,-80540.8933505938,-41429.8152478289,-80474.4942290310,-80463.3121156507,-80504.6822848487,-2416.3707443712
5558477991,7320,-2,0,-6719.6592412570,-80313.4547615793,-36810.0084534879,-12638.6231930803,-80538.8978483148,-41413.5348694798,-80473.1192792900,-80462.4725445699,-80503.4168443791,-2416.4194151585
5558477991,7320,-2,0,-6719.8539244062,-80312.9680537064,-36797.5000611539,-12640.1563228800,-80540.3458042367,-41575.8519450978,-80473.8493410994,-80462.4117060858,-80503.8913845552,-2416.6627690950
5558499654,7321,-2,0,-6719.4280550174,-80311.8972963860,-36771.0839913513,-12639.4992672516,-80540.1389533907,-41700.1936389315,-80472.5960683266,-80460.1606821736,-80501.7377022175,-2417.1251415743
5558499654,7321,-2,0,-6720.9976879075,-80313.5399354571,-36768.6382842899,-12641.1905771100,-80542.5238219680,-41625.8976821306,-80474.0196888549,-80463.1417678952,-80503.8670491616,-2417.8795387773
5558499654,7321,-2,0,-6720.4014707632,-80312.2136565034,-36790.4549646934,-12640.4240122101,-80539.7982578797,-41445.2317197035,-80472.4865590552,-80462.0345074843,-80502.4677640269,-2416.8452845473
5558499654,7321,-2,0,-6720.5839862156,-80312.0189733542,-36808.1224604803,-12640.5335214815,-80538.6058235911,-41397.9115467591,-80473.6789933438,-80461.7911535478,-80502.8814657189,-2417.2468185425
5558499654,7321,-2,0,-6719.4037196237,-80312.7733705573,-36796.9890178873,-12639.7669565817,-80539.1412022513,-41544.5566288692,-80473.3261301360,-80461.5599673082,-80502.7597887507,-2416.0178811634
5558499654,7321,-2,0,-6719.2333718682,-80312.4691781367,-36771.4855253465,-12640.2901675451,-80541.8180955523,-41689.9849412970,-80473.5816517693,-80462.4360414795,-80504.2929185504,-2417.1251415743
5558499654,7321,-2,0,-6719.5984027729,-80313.3817553984,-36764.0267271940,-12640.8498815989,-80542.8888528727,-41635.3641502588,-80474.4820613342,-80463.0444263206,-80503.7697075870,-2417.1616446647
5558499654,7321,-2,0,-6719.7079120443,-80313.0045567969,-36783.6775575630,-12640.4240122101,-80541.7694247650,-41456.1826468442,-80473.8736764930,-80463.1782709856,-80502.9544718999,-2416.6019306109
5558528763,7322,-2,0,-6720.7299985774,-80313.9779725427,-36805.4455671793,-12641.0932355354,-80541.1732076207,-41391.6451828953,-80474.6280736960,-80463.0322586238,-80505.1203219343,-2417.1616446647
5558528763,7322,-2,0,-6720.1702845236,-80313.4304261857,-36798.6438246553,-12640.5091860879,-80540.5891581732,-41522.9102962212,-80473.7276641311,-80461.8276566383,-80502.6746148729,-2416.8939553346
5558528763,7322,-2,0,-6719.4402227142,-80312.5056812272,-36773.6513753809,-12640.4605153006,-80541.3435553762,-41679.4720512420,-80473.9223472803,-80462.9714201397,-80504.8161295138,-2417.1738123615
5558528763,7322,-2,0,-6718.8683409635,-80312.7368674668,-36760.6441074772,-12639.6817827039,-80542.0979525792,-41653.0438137426,-80473.5208132852,-80461.8763274256,-80503.5141859537,-2416.7479429727
5558528763,7322,-2,0,-6719.3672165333,-80313.3695877016,-36778.7131372593,-12639.9008012467,-80542.3656419094,-41476.3566881766,-80474.2995458818,-80462.4482091763,-80504.5484401837,-2415.9083718920
5558528763,7322,-2,0,-6719.7687505284,-80315.1339037409,-36802.2697983085,-12640.5335214815,-80541.5504062222,-41382.1422116766,-80475.4311416863,-80464.4802145457,-80505.2663342962,-2416.5410921267
5558528763,7322,-2,0,-6719.6714089538,-80315.1460714377,-36799.2035387091,-12639.1950748310,-80540.5891581732,-41494.7420780761,-80476.0030234370,-80464.5410530298,-80505.1568250248,-2416.4680859458
5558528763,7322,-2,0,-6719.8295890125,-80315.1095683473,-36774.1015801634,-12639.8034596721,-80544.5314919438,-41664.4327779688,-80475.6014894419,-80465.6239780471,-80506.5926132499,-2416.9182907283
5558585205,7323,0,0,-6719.6592412570,-80315.3894253742,-36759.1474807680,-12640.2658321514,-80545.2372183596,-41663.6905484626,-80476.1977065862,-80464.9182516313,-80505.2906696899,-2417.5388432662
5558585205,7323,0,0,-6720.1946199172,-80314.4890158093,-36774.2840956157,-12640.6673661466,-80543.4850700171,-41495.9101769711,-80475.2121231435,-80464.1760221251,-80505.2298312057,-2417.2589862393
5558585205,7323,0,0,-6719.2455395650,-80312.8098736477,-36796.7213285572,-12640.2414967578,-80539.6157424274,-41382.7019257304,-80473.6059871629,-80462.3021968144,-80503.5385213473,-2416.2977381903
5558585205,7323,0,0,-6719.2942103523,-80311.7634517210,-36797.9137628459,-12639.9129689436,-80538.7275005593,-41472.2075035600,-80473.4234717106,-80462.2413583303,-80503.0396457776,-2416.5654275204
5558585205,7323,0,0,-6719.8660921030,-80312.3231657748,-36773.2620090826,-12640.0103105181,-80540.1267856939,-41648.0428903483,-80473.4113040137,-80461.5112965209,-80503.4533474696,-2417.2711539361
5558585205,7323,0,0,-6719.7444151348,-80313.8319601809,-36756.4097489828,-12640.3023352419,-80543.2295483838,-41678.2187784692,-80473.6668256470,-80462.5455507509,-80504.2077446726,-2417.5875140535
5558585205,7323,0,0,-6719.8295890125,-80312.7490351636,-36767.7622101186,-12640.0833166991,-80541.0636983493,-41521.0973093946,-80472.3648820870,-80461.9006628192,-80503.2708320172,-2417.7213587186
5558585205,7323,0,0,-6719.2577072619,-80312.9680537064,-36793.1440256913,-12639.9981428213,-80538.7883390434,-41387.9827061516,-80473.1679500773,-80461.5356319146,-80503.3195028045,-2416.5410921267
5558597612,7324,0,0,-6719.3307134428,-80312.7855382541,-36798.5829861711,-12640.4361799069,-80538.6666620752,-41459.4192541991,-80473.3991363169,-80462.3265322080,-80502.9909749903,-2416.6019306109
5558597612,7324,0,0,-6720.4136384600,-80314.3186680538,-36778.4941187165,-12641.3852602591,-80542.0249463983,-41644.3925813014,-80474.3847197596,-80463.3851218316,-80503.4776828632,-2418.3540789534
5558597612,7324,0,0,-6719.9269305871,-80314.5011835061,-36760.0478903329,-12640.9837262640,-80543.5094054107,-41697.4680748431,-80475.0782784785,-80463.4824634062,-80505.1811604184,-2417.8917064741
5558597612,7324,0,0,-6719.0021856286,-80314.5498542934,-36768.7112904708,-12640.2293290610,-80542.6211635426,-41554.9235065624,-80474.2265397009,-80463.5676372840,-80505.3271727803,-2416.8331168505
5558597612,7324,0,0,-6719.5253965920,-80314.9878913790,-36795.2003664544,-12640.6917015402,-80541.7329216746,-41410.8701438755,-80474.7132475738,-80463.7866558268,-80504.9864772693,-2417.5145078726
5558597612,7324,0,0,-6719.5132288951,-80313.6494447285,-36805.0440331841,-12640.3145029387,-80540.1389533907,-41452.3741577386,-80474.0561919454,-80463.3607864380,-80504.2199123694,-2416.0787196475
5558597612,7324,0,0,-6719.2820426555,-80313.6251093349,-36787.1453511576,-12639.5479380389,-80541.7694247650,-41633.3078094957,-80474.4698936373,-80463.1052648047,-80504.2807508535,-2416.0787196475
5558597612,7324,0,0,-6720.2432907045,-80314.0631464205,-36766.5941112236,-12640.0954843959,-80543.0226975378,-41715.7196200775,-80474.4212228500,-80463.1052648047,-80504.0373969171,-2416.7114398823
5558630288,7325,0,0,-6720.1702845236,-80315.4867669488,-36772.4832764859,-12640.3145029387,-80543.5702438948,-41591.1345723074,-80475.0661107817,-80464.6018915139,-80505.2541665994,-2418.4270851343
5558630288,7325,0,0,-6720.3041291886,-80315.4867669488,-36796.7456639509,-12640.7525400243,-80542.7550082077,-41426.4204604153,-80475.1147815689,-80463.6528111617,-80504.5849432741,-2416.8574522441
5558630288,7325,0,0,-6720.0851106458,-80312.8585444350,-36808.2319697517,-12640.4240122101,-80539.0195252830,-41440.1577901284,-80475.1391169626,-80463.7744881300,-80504.4267632154,-2416.7236075791
5558630288,7325,0,0,-6720.5596508219,-80314.0631464205,-36791.4527158329,-12640.8742169926,-80541.4165615572,-41612.1238493270,-80474.8349245420,-80464.8087423599,-80505.3515081740,-2417.1738123615
5558630288,7325,0,0,-6718.4059684842,-80312.8098736477,-36766.4480988618,-12639.3654225865,-80541.8545986428,-41710.9012121356,-80473.2044531678,-80462.5577184477,-80503.1126519585,-2416.3464089776
5558630288,7325,0,0,-6719.1481979904,-80314.3551711442,-36766.3507572872,-12639.6087765230,-80543.0957037187,-41608.9724158499,-80474.7862537547,-80462.8010723841,-80504.8891356947,-2416.7357752759
5558630288,7325,0,0,-6719.0751918095,-80313.8562955745,-36790.4671323902,-12639.5722734325,-80541.1975430144,-41441.2528828424,-80473.7033287375,-80462.0831782716,-80503.9522230393,-2415.7136887428
5558630288,7325,0,0,-6719.2090364746,-80313.3087492175,-36806.7475107393,-12639.4992672516,-80538.8005067402,-41429.9247571003,-80473.1436146836,-80461.7789858510,-80503.0396457776,-2415.5798440777
5558671715,7326,0,0,-6719.9390982839,-80313.5886062444,-36792.8763363612,-12639.9373043372,-80540.9420213811,-41595.8556386747,-80474.6037383024,-80462.7280662032,-80504.9134710883,-2416.8087814569
5558671715,7326,0,0,-6719.3428811396,-80313.2722461270,-36768.3462595661,-12639.7061180976,-80541.3192199826,-41718.2505010167,-80473.0219377154,-80461.8033212447,-80503.2343289268,-2416.5897629140
5558671715,7326,0,0,-6720.1094460395,-80313.7224509095,-36764.7811243970,-12640.5213537847,-80543.5094054107,-41632.3952322340,-80473.8006703121,-80462.9227493524,-80503.7818752838,-2417.5631786599
5558671715,7326,0,0,-6719.5497319856,-80313.7954570904,-36786.5613017101,-12639.4627641611,-80540.8811828970,-41451.1452203595,-80473.9588503708,-80462.4968799636,-80503.2099935331,-2417.2103154520
5558671715,7326,0,0,-6719.3793842301,-80313.5521031539,-36803.3892264162,-12640.7403723275,-80539.7009163051,-41413.4496956020,-80474.7984214516,-80463.4824634062,-80504.7431233328,-2416.3220735839
5558671715,7326,0,0,-6719.5375642888,-80314.4038419315,-36792.1949453391,-12640.4605153006,-80541.2705491953,-41565.0591980159,-80475.6258248355,-80463.9083327950,-80505.4366820517,-2416.6627690950
5558671715,7326,0,0,-6719.0995272032,-80313.5521031539,-36765.1826583922,-12638.8422116231,-80541.7937601587,-41702.7853583547,-80474.2022043072,-80463.1782709856,-80503.6967014061,-2416.6749367918
5558671715,7326,0,0,-6719.0995272032,-80315.0974006504,-36758.8919591347,-12640.3510060292,-80544.3489764915,-41645.0618046267,-80474.9931046007,-80464.7235684822,-80505.7773775628,-2417.2468185425
5558718675,7327,0,0,-6719.6957443475,-80314.6106927775,-36778.9929942862,-12640.5213537847,-80542.6211635426,-41466.6712015056,-80475.5284832609,-80464.4072083648,-80504.9499741788,-2417.0156323028
5558718675,7327,0,0,-6719.8174213157,-80315.3650899806,-36799.4955634329,-12640.7160369339,-80541.0028598652,-41402.8516316692,-80475.2972970213,-80463.4824634062,-80505.8747191374,-2416.5289244299
5558718675,7327,0,0,-6718.9778502349,-80313.7346186063,-36790.6009770553,-12640.2658321514,-80541.1732076207,-41536.5746197534,-80473.3382978328,-80462.2413583303,-80503.4898505601,-2416.9791292124
5558718675,7327,0,0,-6720.0851106458,-80314.1239849046,-36765.7788755365,-12641.1054032322,-80542.6454989363,-41696.4094852195,-80474.8105891484,-80464.3828729711,-80504.8648003010,-2418.1107250169
5558718675,7327,0,0,-6719.5740673793,-80314.4403450220,-36755.0591346355,-12640.6186953593,-80543.7527593472,-41663.9217347023,-80475.1999554467,-80464.2855313965,-80505.1324896312,-2416.9304584251
5558718675,7327,0,0,-6718.7709993889,-80314.2334941760,-36771.1813329259,-12639.5966088262,-80543.1443745060,-41485.8596593953,-80474.7132475738,-80462.7889046873,-80504.6944525455,-2417.5875140535
5558718675,7327,0,0,-6719.3307134428,-80314.1604879951,-36793.3995473246,-12639.4262610706,-80541.4408969508,-41399.8462105540,-80474.7984214516,-80463.5311341935,-80504.3659247313,-2415.8597011047
5558718675,7327,0,0,-6719.9147628903,-80315.7909593693,-36791.8420821312,-12640.4605153006,-80543.2417160806,-41517.9702113111,-80476.4775636131,-80465.1981086583,-80506.6656194308,-2417.0886384838
5558730106,7328,0,0,-6719.8052536189,-80315.4380961615,-36766.0709002602,-12639.7182857944,-80543.8257655281,-41683.4022173158,-80476.2463773735,-80464.8939162377,-80506.0937376802,-2416.9304584251
5558730106,7328,0,0,-6718.6858255112,-80315.8274624598,-36751.6035087378,-12639.6087765230,-80544.3368087947,-41678.9123371881,-80475.2972970213,-80464.5167176362,-80505.1081542375,-2416.1273904348
5558730106,7328,0,0,-6719.9269305871,-80315.5719408265,-36767.9082224805,-12640.2049936673,-80543.3633930488,-41507.0557872609,-80476.4288928258,-80464.1273513378,-80505.9963961056,-2417.4780047821
5558730106,7328,0,0,-6719.3672165333,-80313.8806309682,-36790.6618155394,-12639.6939504007,-80540.5283196891,-41392.5212570665,-80474.4577259405,-80462.8497431714,-80504.3415893377,-2416.1030550411
5558730106,7328,0,0,-6719.5132288951,-80314.4038419315,-36790.6496478426,-12640.0833166991,-80541.4408969508,-41487.1737706522,-80475.4311416863,-80463.5433018903,-80504.4997693964,-2416.8574522441
5558730106,7328,0,0,-6719.9999367681,-80314.5863573839,-36767.0443160061,-12640.0103105181,-80541.7937601587,-41663.1064990151,-80475.0174399944,-80464.2246929124,-80504.4267632154,-2416.6384337013
5558730106,7328,0,0,-6718.9656825381,-80314.4646804157,-36749.3646525223,-12638.9152178041,-80543.7284239535,-41684.3026268807,-80473.8615087962,-80463.2391094698,-80504.4389309122,-2415.8840364983
5558730106,7328,0,0,-6719.1116949000,-80314.5498542934,-36760.9361322010,-12640.2414967578,-80543.6675854694,-41523.6281903337,-80474.6159059992,-80464.2733636997,-80504.1590738853,-2416.4437505522
5558773070,7329,0,0,-6719.9390982839,-80315.1947422250,-36786.3301154704,-12640.3875091196,-80541.7329216746,-41395.6483551500,-80475.5649863514,-80463.7014819490,-80505.1081542375,-2417.3076570266
5558773070,7329,0,0,-6721.3870542059,-80315.9004686408,-36791.7690759503,-12641.9206389193,-80542.6089958458,-41467.7297911291,-80476.1125327084,-80465.1859409614,-80505.3880112644,-2417.1494769679
5558773070,7329,0,0,-6718.8561732667,-80314.1239849046,-36768.1637441138,-12639.5357703420,-80542.0249463983,-41643.4435009493,-80475.2121231435,-80463.2756125602,-80504.4754340027,-2416.5532598236
5558773070,7329,0,0,-6720.0121044649,-80316.0708163963,-36748.9266154367,-12640.7038692370,-80544.4219826724,-41695.0345354785,-80475.6379925323,-80464.3220344870,-80505.6557005945,-2418.0498865328
5558773070,7329,0,0,-6718.4668069684,-80314.3308357506,-36755.1686439069,-12638.9638885914,-80542.3169711221,-41548.5111303367,-80473.7154964343,-80462.7767369905,-80504.3780924281,-2416.1395581316
5558773070,7329,0,0,-6720.3406322791,-80314.8297113203,-36781.3291920762,-12639.9494720340,-80541.9884433078,-41401.2333279918,-80474.7619183611,-80464.2855313965,-80505.1689927216,-2416.6140983077
5558773070,7329,0,0,-6719.5010611983,-80314.5985250807,-36788.8123256223,-12639.7304534912,-80540.6499966573,-41448.1032961537,-80474.8714276325,-80463.6649788586,-80504.1225707948,-2416.4194151585
5558773070,7329,0,0,-6720.0364398585,-80314.6106927775,-36768.2002472043,-12640.5943599656,-80542.2683003348,-41630.1807114122,-80474.9566015103,-80463.8839974014,-80505.7043713818,-2416.4072474617
5558790553,7330,0,0,-6719.4767258047,-80314.8540467140,-36747.6490072703,-12639.6817827039,-80544.3368087947,-41703.8196125847,-80475.0174399944,-80463.7501527363,-80505.2541665994,-2416.5532598236
5558790553,7330,0,0,-6719.5132288951,-80315.6692824011,-36752.1997258821,-12640.2901675451,-80544.0082809805,-41575.6694296455,-80476.0638619211,-80463.8231589173,-80505.4001789613,-2416.6992721854
5558790553,7330,0,0,-6719.7322474379,-80314.3551711442,-36776.9488212200,-12639.8399627626,-80541.9154371269,-41417.2825201012,-80473.8858441898,-80462.6063892350,-80504.1104030980,-2416.0178811634
5558790553,7330,0,0,-6719.7565828316,-80312.9072152223,-36786.7073140720,-12640.1441551832,-80539.9199348479,-41436.5683195656,-80475.1026138721,-80463.0444263206,-80503.5020182569,-2416.0178811634
5558790553,7330,0,0,-6720.2554584013,-80313.6616124253,-36770.2200848769,-12640.0589813054,-80541.6355801000,-41609.3861175418,-80474.7375829674,-80463.1904386825,-80504.4997693964,-2417.0886384838
5558790553,7330,0,0,-6719.6592412570,-80314.7323697458,-36747.6611749671,-12640.5578568752,-80543.8744363154,-41708.8692067662,-80474.8470922389,-80464.8087423599,-80505.7773775628,-2417.1494769679
5558790553,7330,0,0,-6718.3451300001,-80314.1848233887,-36748.5129137447,-12639.6939504007,-80542.3778096062,-41599.4816123280,-80474.4212228500,-80463.5311341935,-80504.6822848487,-2416.5410921267
5558790553,7330,0,0,-6719.6835766507,-80315.1095683473,-36772.9091458747,-12640.4118445133,-80542.1952941538,-41428.0996025768,-80474.5915706056,-80463.3486187412,-80504.9621418756,-2416.1152227379
5558836075,7331,0,0,-6719.0508564159,-80314.8297113203,-36787.0236741894,-12639.5236026452,-80539.9686056352,-41424.7656536473,-80475.5041478673,-80463.5311341935,-80504.9134710883,-2416.8817876378
5558836075,7331,0,0,-6719.4767258047,-80314.0753141173,-36774.2719279189,-12639.8521304594,-80542.5116542712,-41593.3247577356,-80474.6402413929,-80463.6406434649,-80505.1324896312,-2417.4171662980
5558836075,7331,0,0,-6719.4645581078,-80315.3285868901,-36749.9365342730,-12639.5114349484,-80544.2881380074,-41709.8912932993,-80475.5771540482,-80464.6627299980,-80505.4853528390,-2417.2468185425
5558836075,7331,0,0,-6719.2212041714,-80315.2799161028,-36746.5295791626,-12639.5236026452,-80543.8135978313,-41624.0846953040,-80475.1999554467,-80463.9935066728,-80504.7431233328,-2417.2711539361
5558836075,7331,0,0,-6719.6349058634,-80316.1438225772,-36770.4391034197,-12638.9760562882,-80543.0226975378,-41450.4151585501,-80476.0273588307,-80464.6140592108,-80505.2419989026,-2417.1373092711
5558836075,7331,0,0,-6718.7831670858,-80314.6958666553,-36788.9948410747,-12639.7547888849,-80541.1488722271,-41415.9440734507,-80475.1999554467,-80463.9570035823,-80505.5826944136,-2415.1661423858
5558836075,7331,0,0,-6719.7079120443,-80315.0000590759,-36778.6888018656,-12639.8642981563,-80543.0348652346,-41568.3566438549,-80476.4775636131,-80464.7235684822,-80505.8503837437,-2416.4194151585
5558836075,7331,0,0,-6719.5132288951,-80314.2213264792,-36753.1366385375,-12639.4505964643,-80543.0592006283,-41702.6271782960,-80475.5041478673,-80463.8718297046,-80504.6457817582,-2417.1981477552
5558848856,7332,0,0,-6719.5740673793,-80314.7688728362,-36747.2231378815,-12641.0810678386,-80544.3489764915,-41636.7025969093,-80476.5018990068,-80464.4558791521,-80505.3636758708,-2417.6483525376
5558848856,7332,0,0,-6719.7200797411,-80314.5498542934,-36768.5774458058,-12640.5335214815,-80542.1587910634,-41452.6783501592,-80474.7984214516,-80463.5554695872,-80504.1955769758,-2417.5266755694
5558848856,7332,0,0,-6719.3793842301,-80313.8927986650,-36787.4738789718,-12639.5844411293,-80539.9807733321,-41396.5852678054,-80474.3603843659,-80462.5090476604,-80504.1104030980,-2416.6262660045
5558848856,7332,0,0,-6719.8782597998,-80314.4160096284,-36781.7185583745,-12639.6087765230,-80541.4530646476,-41544.6783058374,-80474.7132475738,-80463.6284757681,-80504.6701171519,-2417.1129738774
5558848856,7332,0,0,-6719.3915519269,-80313.1992399461,-36757.6265186651,-12640.0346459118,-80542.8523497823,-41704.3184881544,-80473.9588503708,-80463.3364510443,-80504.7796264233,-2416.9912969092
5558848856,7332,0,0,-6719.0508564159,-80313.6737801222,-36750.0825466349,-12640.6430307529,-80542.2317972443,-41674.4832955446,-80474.1413658231,-80462.4238737826,-80504.0252292203,-2416.6262660045
5558848856,7332,0,0,-6720.7299985774,-80313.8197924840,-36770.6946250530,-12640.5700245720,-80541.4043938603,-41500.4122247956,-80474.2630427914,-80463.5919726776,-80504.8282972106,-2417.1129738774
5558848856,7332,0,0,-6720.0364398585,-80313.8441278777,-36792.5843116374,-12640.8863846894,-80540.9663567747,-41412.9994908196,-80474.7619183611,-80463.4337926189,-80504.5727755773,-2417.8795387773
5558878044,7333,0,0,-6720.3406322791,-80315.0487298631,-36788.6541455636,-12640.7282046307,-80541.2583814985,-41532.0969073225,-80474.3482166691,-80463.4581280126,-80504.4754340027,-2417.0521353933
5558878044,7333,0,0,-6719.8052536189,-80315.2434130123,-36764.5864412478,-12640.8133785085,-80543.6797531662,-41699.5730863935,-80475.2607939308,-80463.9326681887,-80505.3636758708,-2417.1616446647
5558878044,7333,0,0,-6719.5862350761,-80314.7810405331,-36750.9707885030,-12639.9129689436,-80543.9596101932,-41687.5148988419,-80475.2851293245,-80464.2611960029,-80505.3150050835,-2418.3540789534
5558878044,7333,0,0,-6719.9512659808,-80314.7080343521,-36767.1294898838,-12640.1563228800,-80543.6919208631,-41512.7867724645,-80475.4068062927,-80463.4946311031,-80505.0959865407,-2417.6970233249
5558878044,7333,0,0,-6718.1139437605,-80313.3330846111,-36789.3355365857,-12639.0733978628,-80540.9176859874,-41404.3482583784,-80474.9687692071,-80462.8132400810,-80504.3659247313,-2416.6992721854
5558878044,7333,0,0,-6720.1581168268,-80315.5354377361,-36791.4648835297,-12641.2635832909,-80542.1709587602,-41502.0791992603,-80475.9908557402,-80464.3463698806,-80504.9743095725,-2417.5388432662
5558878044,7333,0,0,-6719.3793842301,-80313.8441278777,-36767.4093469108,-12639.8521304594,-80541.9397725205,-41672.9623334417,-80474.8470922389,-80463.8961650982,-80504.7187879392,-2416.5167567331
5558878044,7333,0,0,-6719.4280550174,-80313.9171340586,-36751.4209932854,-12640.3388383324,-80542.9496913569,-41692.5888284171,-80473.8980118867,-80462.6307246286,-80503.9035522520,-2416.8452845473
5558900065,7334,0,0,-6720.4744769441,-80314.7202020489,-36765.9978940793,-12641.0810678386,-80543.0835360219,-41537.1465015040,-80475.3581355054,-80463.9935066728,-80505.2785019930,-2417.3928309044
5558900065,7334,0,0,-6720.2797937950,-80314.8418790172,-36791.7325728598,-12640.9350554767,-80540.9663567747,-41413.8877326876,-80474.7740860579,-80463.5676372840,-80504.8161295138,-2417.3684955107
5558900065,7334,0,0,-6719.3185457460,-80312.8707121318,-36794.4703046450,-12639.2924164056,-80539.5549039433,-41491.4689676307,-80473.7033287375,-80461.7546504574,-80503.2099935331,-2416.0543842538
5558900065,7334,0,0,-6720.3771353696,-80313.4912646698,-36774.8924804569,-12639.7791242785,-80541.2462138016,-41673.5585505860,-80473.8128380089,-80462.6307246286,-80503.5871921346,-2417.6848556281
5558900065,7334,0,0,-6719.5862350761,-80312.8098736477,-36757.3101585477,-12639.9859751245,-80541.2583814985,-41715.6952846839,-80473.3504655296,-80462.4360414795,-80503.6967014061,-2418.0377188360
5558900065,7334,0,0,-6720.0972783426,-80314.1969910855,-36766.9956452188,-12640.2293290610,-80542.3778096062,-41567.1763772631,-80473.8736764930,-80463.1174325015,-80505.1689927216,-2417.8065325963
5558900065,7334,0,0,-6719.3185457460,-80314.0144756332,-36791.5257220138,-12640.0468136086,-80541.3678907699,-41426.3961250216,-80473.6303225565,-80461.9980043938,-80503.5506890442,-2416.3707443712
5558900065,7334,0,0,-6719.1968687777,-80313.6859478190,-36799.9822713058,-12639.3167517992,-80540.1754564812,-41477.4639485875,-80473.9710180676,-80462.7524015969,-80504.0617323107,-2416.5654275204
5558953433,7335,0,0,-6719.8174213157,-80314.1239849046,-36779.0173296799,-12640.8377139021,-80542.0492817920,-41655.9518932832,-80475.0782784785,-80463.5554695872,-80505.2419989026,-2417.5996817503
5558953433,7335,0,0,-6721.2288741472,-80315.7787916725,-36759.6098532473,-12641.9814774035,-80544.9451936358,-41726.8043918832,-80476.2950481608,-80465.4901333820,-80506.1667438611,-2419.2058177310
5558953433,7335,0,0,-6719.8295890125,-80313.6372770317,-36764.4404288860,-12640.6065276625,-80542.1101202761,-41590.8182121900,-80474.1657012168,-80462.7037308096,-80503.5628567410,-2416.1638935252
5558953433,7335,0,0,-6719.6592412570,-80313.8562955745,-36789.7005674904,-12640.6065276625,-80540.5404873859,-41431.4943899904,-80474.4333905469,-80462.8497431714,-80503.5385213473,-2416.8452845473
5558953433,7335,0,0,-6719.2455395650,-80312.9558860096,-36799.8119235503,-12640.1076520927,-80539.7617547892,-41457.7279443407,-80473.8736764930,-80462.3508676017,-80504.1590738853,-2416.9304584251
5558953433,7335,0,0,-6718.5276454525,-80313.7711216967,-36781.4630367413,-12639.5236026452,-80540.6378289605,-41634.0500390019,-80473.7154964343,-80462.8497431714,-80503.8792168584,-2417.0399676965
5558953433,7335,0,0,-6718.9778502349,-80314.1969910855,-36758.8919591347,-12639.6452796135,-80543.2538837774,-41724.4438586996,-80474.0318565517,-80463.7501527363,-80504.9864772693,-2416.4924213395
5558953433,7335,0,0,-6719.7687505284,-80314.4281773252,-36760.2790765725,-12640.1319874864,-80542.7306728140,-41607.0985905391,-80474.2143720041,-80463.4094572253,-80505.3028373867,-2417.1859800584
5558976381,7336,0,0,-6719.6227381665,-80314.8905498044,-36783.7505637440,-12641.1297386259,-80542.2561326380,-41439.0505297175,-80475.2121231435,-80464.0421774601,-80505.5096882327,-2417.1008061806
5558976381,7336,0,0,-6719.3428811396,-80313.7589539999,-36797.1228625524,-12640.3023352419,-80540.2849657526,-41436.3736364164,-80474.2995458818,-80463.8596620077,-80504.6336140614,-2416.4802536426
5558976381,7336,0,0,-6719.6592412570,-80312.7003643763,-36780.4531179050,-12640.2536644546,-80540.6134935669,-41601.3919407292,-80474.0196888549,-80462.8254077778,-80503.9765584330,-2416.6384337013
5558976381,7336,0,0,-6720.5718185187,-80313.9901402396,-36755.6431840830,-12641.0689001417,-80542.9618590537,-41717.3135883613,-80474.7862537547,-80463.8718297046,-80504.2442477631,-2417.1373092711
5558976381,7336,0,0,-6718.9656825381,-80314.1118172078,-36752.3822413344,-12639.8034596721,-80542.6698343299,-41623.6223228247,-80474.5672352119,-80463.5189664967,-80503.8792168584,-2416.4924213395
5558976381,7336,0,0,-6720.0729429490,-80314.0266433300,-36775.8050577186,-12640.8498815989,-80541.6964185841,-41443.5282421483,-80474.5307321214,-80463.2877802571,-80503.9887261298,-2417.0643030901
5558976381,7336,0,0,-6719.8782597998,-80312.4691781367,-36792.0245975836,-12639.3532548897,-80538.7153328625,-41414.4839498320,-80474.2508750945,-80461.9371659097,-80503.4533474696,-2416.6140983077
5558976381,7336,0,0,-6719.1847010809,-80311.4470916036,-36779.9299069416,-12639.7304534912,-80538.5571528038,-41571.1308787305,-80473.3382978328,-80461.8276566383,-80502.5772732983,-2416.0787196475
5559005285,7337,0,0,-6720.3893030664,-80312.4448427430,-36754.8036130022,-12640.3023352419,-80541.6964185841,-41704.6105128782,-80474.9931046007,-80462.8254077778,-80504.2199123694,-2417.3928309044
5559005285,7337,0,0,-6720.9368494234,-80313.8927986650,-36749.4619940969,-12641.5191049242,-80543.7162562567,-41638.7832730661,-80474.8835953293,-80464.3585375775,-80504.9986449661,-2418.3905820438
5559005285,7337,0,0,-6719.6957443475,-80314.1361526014,-36769.0154828914,-12640.0833166991,-80542.2439649411,-41459.4435895927,-80474.7254152706,-80463.8353266141,-80504.2564154599,-2416.9791292124
5559005285,7337,0,0,-6719.1116949000,-80313.1262337651,-36788.3864562335,-12639.4505964643,-80540.4918165986,-41402.0607313757,-80474.4698936373,-80463.7379850395,-80503.6115275283,-2415.6528502587
5559005285,7337,0,0,-6718.6858255112,-80313.5764385476,-36779.4431990687,-12639.1950748310,-80540.1632887844,-41542.5124558029,-80474.2873781850,-80462.8010723841,-80504.7917941201,-2416.3829120681
5559005285,7337,0,0,-6719.7687505284,-80313.3574200048,-36755.6188486893,-12640.4240122101,-80542.9375236600,-41696.5798329750,-80475.3703032022,-80463.4581280126,-80504.6701171519,-2417.3076570266
5559005285,7337,0,0,-6720.1337814331,-80313.1505691588,-36745.9455297151,-12640.0833166991,-80542.7671759045,-41655.7207070436,-80473.2774593487,-80461.4626257336,-80504.1225707948,-2416.9669615156
5559005285,7337,0,0,-6718.7831670858,-80311.9581348701,-36764.3309196146,-12639.1585717405,-80540.8568475033,-41473.5824533010,-80473.0341054122,-80462.2170229366,-80502.2122423937,-2416.2977381903
5559029255,7338,0,0,-6719.0021856286,-80312.1771534129,-36785.6973952356,-12640.2293290610,-80539.6157424274,-41397.0841433751,-80473.4599748010,-80462.2291906335,-80502.9666395967,-2416.7357752759
5559029255,7338,0,0,-6718.3086269097,-80311.3619177258,-36781.6698875873,-12639.9251366404,-80538.4719789260,-41522.5696007102,-80473.3382978328,-80462.0101720907,-80503.4533474696,-2416.3099058871
5559029255,7338,0,0,-6718.2599561224,-80311.9581348701,-36756.2759043178,-12638.4041745375,-80539.3358854004,-41684.3026268807,-80472.3040436029,-80462.0223397875,-80502.7354533570,-2415.9083718920
5559029255,7338,0,0,-6719.4037196237,-80312.3475011685,-36746.1158774706,-12640.7768754180,-80542.5603250585,-41674.1426000335,-80473.3382978328,-80463.2512771666,-80503.6236952251,-2416.7966137600
5559029255,7338,0,0,-6719.5132288951,-80313.6616124253,-36764.0997333749,-12639.9616397308,-80541.7694247650,-41504.0260307520,-80473.0706085027,-80462.5942215382,-80503.4290120759,-2417.6848556281
5559029255,7338,0,0,-6719.5862350761,-80313.1262337651,-36789.1895242238,-12640.2293290610,-80539.9929410289,-41402.5961100359,-80473.9953534612,-80462.8497431714,-80503.9887261298,-2417.1251415743
5559029255,7338,0,0,-6719.0873595063,-80313.4547615793,-36788.3256177494,-12639.7669565817,-80539.7374193956,-41507.5668305275,-80474.3968874564,-80462.9470847460,-80503.6480306188,-2416.1395581316
5559029255,7338,0,0,-6719.9634336776,-80313.1627368556,-36766.4602665586,-12639.9738074277,-80542.0492817920,-41682.7208262937,-80474.4455582437,-80462.4360414795,-80503.8427137679,-2416.6140983077
5559064402,7339,0,0,-6720.3771353696,-80313.9901402396,-36752.5039183027,-12640.7160369339,-80542.5846604522,-41697.1760501194,-80473.7519995248,-80464.0543451569,-80504.6214463646,-2417.8795387773
5559064402,7339,0,0,-6719.8417567094,-80314.0144756332,-36766.1195710475,-12640.6917015402,-80542.3048034252,-41532.0482365352,-80474.2143720041,-80463.0809294111,-80504.5727755773,-2417.6605202345
5559064402,7339,0,0,-6720.6083216092,-80314.0388110269,-36790.9538402632,-12639.6817827039,-80540.7595059287,-41410.1157466725,-80473.9345149771,-80463.5067987999,-80504.4024278218,-2417.6483525376
5559064402,7339,0,0,-6719.9756013744,-80313.6737801222,-36794.7501616719,-12641.0932355354,-80540.3214688431,-41492.0651847750,-80474.2022043072,-80463.7623204331,-80504.8039618169,-2416.9304584251
5559064402,7339,0,0,-6719.5740673793,-80312.8828798287,-36772.0452394003,-12640.0224782150,-80540.4431458113,-41667.4260313873,-80474.4820613342,-80463.6893142522,-80504.0860677044,-2417.1251415743
5559064402,7339,0,0,-6719.7079120443,-80313.4060907921,-36754.1100542833,-12640.1198197895,-80542.2804680316,-41708.7718651916,-80473.8858441898,-80462.6428923254,-80504.8282972106,-2417.3563278139
5559064402,7339,0,0,-6719.3307134428,-80313.0653952810,-36764.5986089447,-12639.4749318579,-80541.4530646476,-41560.4598086168,-80473.8128380089,-80462.2170229366,-80504.1104030980,-2416.6019306109
5559064402,7339,0,0,-6718.7466639953,-80313.4304261857,-36790.6374801458,-12639.7182857944,-80540.2606303590,-41418.3532774217,-80473.7885026153,-80462.9349170492,-80503.2708320172,-2415.5555086841
5559096083,7340,0,0,-6719.6470735602,-80315.0487298631,-36796.4293038335,-12640.2658321514,-80539.8834317575,-41475.4319432181,-80473.9588503708,-80463.0200909269,-80504.6336140614,-2417.1129738774
5559096083,7340,0,0,-6719.3185457460,-80313.9901402396,-36775.6590453567,-12640.6308630561,-80541.5139031318,-41656.0614025546,-80474.2022043072,-80463.9326681887,-80505.3515081740,-2417.3441601171
5559096083,7340,0,0,-6718.2964592128,-80313.2722461270,-36753.9275388309,-12639.3167517992,-80543.5215731075,-41717.7881285374,-80475.0417753880,-80463.1296001984,-80504.4145955186,-2416.9426261219
5559096083,7340,0,0,-6720.2311230077,-80314.5741896871,-36761.1794861374,-12641.2149125036,-80543.2052129901,-41578.9182046972,-80474.3238812755,-80463.6649788586,-80504.6336140614,-2417.6361848408
5559096083,7340,0,0,-6719.9634336776,-80313.5886062444,-36786.5247986196,-12640.4848506942,-80541.0028598652,-41425.9580879360,-80474.7984214516,-80463.1539355920,-80504.0130615234,-2416.1638935252
5559096083,7340,0,0,-6719.6349058634,-80312.6273581954,-36795.5410619654,-12639.7182857944,-80539.2872146132,-41456.4868392647,-80473.9345149771,-80462.7158985064,-80503.8913845552,-2416.6140983077
5559096083,7340,0,0,-6719.5740673793,-80313.1870722492,-36777.0096597041,-12639.5357703420,-80540.5769904764,-41632.8454370165,-80473.5573163756,-80463.5554695872,-80504.2685831567,-2416.4559182490
5559096083,7340,0,0,-6718.2234530319,-80313.4304261857,-36755.0226315450,-12639.0368947723,-80541.5260708286,-41722.3996856333,-80473.7519995248,-80462.6063892350,-80503.5750244378,-2415.9205395888
5559127980,7341,0,0,-6719.6957443475,-80314.0874818141,-36758.7337790760,-12640.3631737260,-80542.9618590537,-41607.1229259328,-80474.7132475738,-80462.6185569318,-80504.8891356947,-2417.6848556281
5559127980,7341,0,0,-6718.3572976970,-80313.1140660683,-36783.0691727219,-12640.0103105181,-80540.2484626622,-41437.0915305290,-80473.1922854709,-80462.6672277191,-80503.9522230393,-2416.2977381903
5559127980,7341,0,0,-6719.0143533254,-80313.2844138238,-36797.4027195793,-12639.8521304594,-80539.6522455178,-41440.0726162506,-80474.0561919454,-80462.6793954159,-80503.4655151664,-2416.2247320094
5559127980,7341,0,0,-6719.0386887190,-80312.8707121318,-36782.3026078221,-12639.9373043372,-80540.2971334495,-41612.6227248967,-80473.0462731091,-80462.9714201397,-80503.3681735918,-2416.8574522441
5559127980,7341,0,0,-6719.6714089538,-80313.8076247872,-36760.4129212376,-12640.3388383324,-80542.7671759045,-41724.2978463377,-80474.7862537547,-80463.7014819490,-80504.1712415821,-2416.3585766744
5559127980,7341,0,0,-6719.5862350761,-80315.2312453155,-36759.5003439759,-12640.3753414228,-80543.7040885599,-41626.9806071478,-80475.5284832609,-80464.3707052743,-80505.3636758708,-2417.4049986012
5559127980,7341,0,0,-6719.6349058634,-80314.0388110269,-36783.3003589615,-12640.3388383324,-80541.7085862809,-41453.6882689955,-80474.2873781850,-80463.0687617142,-80504.3050862472,-2416.7236075791
5559127980,7341,0,0,-6719.1968687777,-80313.9536371491,-36799.8240912471,-12639.9494720340,-80540.4553135082,-41430.4723034573,-80474.0805273390,-80463.8839974014,-80504.7309556360,-2416.4924213395
5559181584,7342,0,0,-6719.9999367681,-80313.2479107334,-36787.5103820623,-12640.0346459118,-80541.2583814985,-41589.1025669380,-80474.5428998183,-80463.7501527363,-80504.1834092790,-2416.4072474617
5559181584,7342,0,0,-6720.6326570028,-80314.0023079364,-36763.2844976878,-12640.7038692370,-80542.5359896649,-41722.7890519317,-80475.7475018038,-80463.4824634062,-80504.9378064820,-2417.6240171440
5559181584,7342,0,0,-6719.5375642888,-80314.7080343521,-36759.3664993108,-12640.6430307529,-80544.2759703106,-41652.1190687840,-80474.2995458818,-80464.5897238171,-80504.9864772693,-2417.0399676965
5559181584,7342,0,0,-6719.5497319856,-80313.5521031539,-36780.7329749319,-12640.5091860879,-80542.3778096062,-41469.0439023860,-80474.2508750945,-80463.6284757681,-80504.6092786678,-2417.0399676965
5559181584,7342,0,0,-6720.3527999759,-80314.6715312616,-36800.5663207533,-12640.3388383324,-80540.6134935669,-41420.2636058229,-80474.3482166691,-80463.8839974014,-80505.5583590200,-2417.1859800584
5559181584,7342,0,0,-6719.8417567094,-80313.7467863031,-36791.0025110505,-12640.5456891783,-80541.1975430144,-41567.7482590137,-80474.2630427914,-80463.4946311031,-80505.4245143549,-2416.6627690950
5559181584,7342,0,0,-6719.9147628903,-80314.4038419315,-36765.9492232920,-12640.3023352419,-80542.7185051172,-41716.0603155886,-80474.6159059992,-80463.3364510443,-80504.5362724868,-2417.0643030901
5559181584,7342,0,0,-6718.5884839366,-80313.7467863031,-36757.1884815795,-12639.1950748310,-80542.6820020267,-41669.0078319743,-80473.3626332265,-80462.5698861445,-80503.8670491616,-2415.1174715985
5559191884,7343,0,0,-6718.9900179317,-80313.3087492175,-36777.2773490342,-12639.4140933738,-80542.3778096062,-41493.9025069953,-80473.8371734025,-80462.9105816555,-80504.6336140614,-2416.8817876378
5559191884,7343,0,0,-6719.9634336776,-80313.4912646698,-36799.6172404011,-12640.3875091196,-80540.9906921684,-41420.2879412165,-80474.4698936373,-80462.8254077778,-80504.1955769758,-2417.1981477552
5559191884,7343,0,0,-6719.9269305871,-80313.7102832126,-36795.5653973591,-12641.4460987432,-80541.5747416159,-41545.1893491040,-80474.9200984198,-80463.1296001984,-80504.4997693964,-2417.4536693885
5559191884,7343,0,0,-6719.3307134428,-80313.4060907921,-36770.8771405053,-12640.6186953593,-80542.7550082077,-41707.0562199396,-80475.3216324149,-80463.1904386825,-80504.8648003010,-2417.2711539361
5559191884,7343,0,0,-6719.6227381665,-80313.6129416380,-36758.9527976188,-12639.7669565817,-80543.6797531662,-41688.1962898640,-80474.2387073977,-80462.9105816555,-80504.8404649074,-2416.8452845473
5559191884,7343,0,0,-6719.3672165333,-80313.3452523079,-36775.5252006917,-12639.6696150071,-80542.3656419094,-41511.5456673886,-80473.0341054122,-80463.1782709856,-80503.6115275283,-2416.1638935252
5559191884,7343,0,0,-6719.4158873206,-80313.2965815207,-36798.9480170758,-12639.3775902833,-80539.2993823100,-41414.3136020764,-80473.3748009233,-80462.7280662032,-80503.3681735918,-2415.4216640190
5559191884,7343,0,0,-6719.1603656873,-80311.5687685718,-36798.2666260538,-12639.4384287675,-80538.9343514053,-41523.5551841528,-80472.6325714171,-80461.2801102813,-80502.7476210539,-2416.1517258284
5559222124,7344,0,0,-6720.4988123378,-80312.4813458335,-36774.4666110681,-12640.6551984498,-80541.3557230731,-41694.1462936105,-80473.9345149771,-80462.3873706922,-80503.2343289268,-2417.5510109631
5559222124,7344,0,0,-6720.1581168268,-80312.9558860096,-36758.9771330125,-12640.3996768165,-80542.7185051172,-41701.8119426089,-80474.2630427914,-80463.4216249221,-80503.9522230393,-2417.2711539361
5559222124,7344,0,0,-6720.5596508219,-80313.9901402396,-36772.8239719970,-12640.2414967578,-80542.9010205696,-41536.3556012105,-80475.0417753880,-80464.3098667902,-80504.9743095725,-2417.6361848408
5559222124,7344,0,0,-6719.9025951935,-80313.5277677603,-36797.1471979460,-12639.7791242785,-80540.6378289605,-41416.2847689617,-80474.3847197596,-80462.9105816555,-80504.2199123694,-2416.7479429727
5559222124,7344,0,0,-6719.3550488364,-80313.4547615793,-36798.8020047140,-12639.9129689436,-80539.7617547892,-41500.2905478273,-80473.6303225565,-80463.1904386825,-80504.3294216408,-2416.3829120681
5559222124,7344,0,0,-6718.9291794476,-80312.5300166208,-36776.4621133470,-12640.3266706355,-80540.3823073272,-41681.2972057654,-80473.3748009233,-80461.9615013033,-80502.7597887507,-2416.3342412808
5559222124,7344,0,0,-6720.0851106458,-80312.9437183128,-36761.0091383819,-12640.0103105181,-80541.8545986428,-41717.3014206645,-80473.8250057057,-80462.0101720907,-80503.5871921346,-2416.4802536426
5559222124,7344,0,0,-6719.5132288951,-80313.0775629778,-36772.5319472732,-12639.9616397308,-80541.1853753175,-41561.3602181817,-80473.4478071042,-80461.9006628192,-80503.3073351077,-2416.8209491537
5559255203,7345,0,0,-6720.0972783426,-80314.0388110269,-36798.9723524695,-12640.8255462053,-80539.8590963638,-41428.0022610022,-80473.5208132852,-80462.1926875430,-80503.8305460711,-2416.9912969092
5559255203,7345,0,0,-6719.9756013744,-80313.9536371491,-36806.3338090474,-12641.0810678386,-80539.5184008528,-41493.4036314256,-80473.2774593487,-80462.4238737826,-80503.3925089855,-2417.4171662980
5559255203,7345,0,0,-6719.4645581078,-80313.1018983715,-36785.2471904532,-12640.8742169926,-80540.8933505938,-41671.1128435246,-80473.2896270455,-80462.5455507509,-80503.6236952251,-2416.6992721854
5559255203,7345,0,0,-6719.6835766507,-80313.0653952810,-36766.0709002602,-12640.9593908703,-80542.0249463983,-41733.1194265343,-80473.1314469868,-80462.2291906335,-80503.9400553425,-2417.3563278139
5559255203,7345,0,0,-6719.6957443475,-80313.3209169143,-36774.8681450632,-12640.7890431148,-80542.4021449998,-41595.7582971001,-80474.4820613342,-80462.4117060858,-80504.0495646139,-2417.4536693885
5559255203,7345,0,0,-6719.2577072619,-80312.7003643763,-36800.6028238438,-12640.2049936673,-80540.1876241781,-41443.9297761435,-80473.3991363169,-80462.1196813620,-80503.4898505601,-2416.3099058871
5559255203,7345,0,0,-6720.3771353696,-80313.0288921905,-36810.2153043339,-12639.7061180976,-80539.4575623687,-41478.4251966365,-80473.1314469868,-80461.2557748876,-80503.3560058950,-2416.2734027966
5559255203,7345,0,0,-6718.8318378731,-80311.7512840241,-36791.3067034710,-12639.5601057357,-80539.1290345545,-41658.3124264669,-80472.3405466933,-80461.5964703987,-80502.4190932396,-2415.9205395888
5559298876,7346,0,0,-6718.9048440540,-80312.6881966795,-36770.1957494832,-12640.0589813054,-80541.1002014398,-41741.6368143104,-80472.1945343314,-80461.6329734891,-80502.2487454841,-2417.1616446647
5559298876,7346,0,0,-6719.9269305871,-80312.3840042589,-36774.6612942172,-12640.4361799069,-80541.5990770095,-41617.8304991370,-80473.2166208646,-80462.0223397875,-80502.2730808778,-2417.6848556281
5559298876,7346,0,0,-6720.2067876140,-80312.7612028604,-36798.9358493790,-12640.5821922688,-80541.0758660461,-41451.6927667165,-80473.7033287375,-80462.1683521493,-80503.0883165649,-2417.9890480487
5559298876,7346,0,0,-6720.4744769441,-80312.4935135303,-36811.9431172827,-12640.5456891783,-80539.4088915814,-41459.7234466197,-80473.5208132852,-80462.3143645112,-80503.7575398902,-2417.0399676965
5559298876,7346,0,0,-6719.5618996824,-80312.8950475255,-36794.6771554910,-12640.3510060292,-80541.0150275620,-41629.9981959599,-80473.2774593487,-80462.8619108682,-80502.6381117824,-2417.2589862393
5559298876,7346,0,0,-6719.5132288951,-80313.0532275842,-36768.9059736200,-12640.1198197895,-80542.4873188776,-41739.4101257918,-80473.8250057057,-80462.1683521493,-80503.5263536505,-2417.1616446647
5559298876,7346,0,0,-6719.8295890125,-80313.3695877016,-36769.5143584611,-12640.2901675451,-80542.3291388189,-41642.6891037462,-80474.0196888549,-80463.6406434649,-80504.0739000076,-2417.1129738774
5559298876,7346,0,0,-6719.2212041714,-80313.8684632713,-36793.4725535055,-12639.5236026452,-80541.0150275620,-41467.1335739848,-80473.6181548597,-80462.5212153572,-80503.3438381982,-2416.4315828553
5559308784,7347,0,0,-6720.7421662743,-80314.0144756332,-36809.4730748277,-12640.7647077212,-80541.1488722271,-41447.9207807014,-80473.8128380089,-80463.0200909269,-80504.3294216408,-2417.1616446647
5559308784,7347,0,0,-6720.1824522204,-80312.5665197113,-36795.6627389336,-12639.8156273690,-80540.6986674446,-41609.4469560260,-80473.6059871629,-80462.5212153572,-80503.6480306188,-2417.4536693885
5559308784,7347,0,0,-6719.9999367681,-80312.3840042589,-36769.7942154881,-12639.9859751245,-80541.6964185841,-41734.3240285198,-80474.1413658231,-80462.6185569318,-80503.9035522520,-2417.6118494472
5559308784,7347,0,0,-6720.1094460395,-80313.6494447285,-36765.2069937858,-12640.8498815989,-80543.0835360219,-41655.4651854103,-80474.4698936373,-80463.5919726776,-80504.4510986091,-2417.7213587186
5559308784,7347,0,0,-6719.5618996824,-80313.4790969730,-36785.6000536611,-12640.7768754180,-80541.5017354349,-41476.6852159908,-80475.1391169626,-80462.4847122667,-80503.9157199489,-2417.3076570266
5559308784,7347,0,0,-6719.1360302936,-80313.3695877016,-36803.5717418686,-12639.6574473103,-80539.8590963638,-41429.6327323765,-80473.7276641311,-80462.7158985064,-80503.9765584330,-2416.5410921267
5559308784,7347,0,0,-6719.3428811396,-80313.4425938825,-36792.2192807327,-12639.8277950658,-80540.8446798065,-41572.0556236891,-80475.3703032022,-80463.2634448634,-80504.8648003010,-2416.5410921267
5559308784,7347,0,0,-6719.8904274966,-80313.6616124253,-36766.7401235855,-12640.3145029387,-80543.0835360219,-41716.4618495837,-80474.5550675151,-80463.7744881300,-80504.7796264233,-2416.7479429727
5559344670,7348,0,0,-6719.9877690712,-80314.3795065379,-36758.0158849635,-12640.6795338434,-80544.1056225550,-41666.7081372747,-80475.4554770800,-80464.3950406679,-80505.2541665994,-2417.8795387773
5559344670,7348,0,0,-6720.3649676727,-80314.6715312616,-36778.1290878118,-12640.9593908703,-80542.8645174791,-41486.2733610873,-80474.6889121802,-80463.6041403744,-80504.6701171519,-2418.2202342883
5559344670,7348,0,0,-6720.9003463330,-80315.0487298631,-36798.2057875696,-12640.2293290610,-80542.7063374204,-41415.8223964825,-80474.8105891484,-80464.2855313965,-80505.4245143549,-2417.1494769679
5559344670,7348,0,0,-6719.6227381665,-80313.6981155158,-36791.0025110505,-12639.7791242785,-80540.6986674446,-41547.3917022289,-80474.7984214516,-80463.4094572253,-80504.1347384917,-2415.9813780729
5559344670,7348,0,0,-6719.9877690712,-80315.0000590759,-36767.5796946663,-12641.0445647481,-80544.0934548582,-41706.4113320080,-80475.5893217451,-80464.3585375775,-80506.0085638024,-2418.5000913152
5559344670,7348,0,0,-6719.9147628903,-80313.9049663618,-36754.3534082198,-12640.6551984498,-80544.3003057042,-41680.0926037800,-80474.7862537547,-80464.2125252156,-80505.0473157534,-2417.6605202345
5559344670,7348,0,0,-6719.4402227142,-80313.1140660683,-36771.4611899528,-12639.2072425278,-80542.9618590537,-41507.1287934418,-80474.2873781850,-80464.1395190347,-80505.2298312057,-2416.9547938187
5559344670,7348,0,0,-6719.1481979904,-80314.5863573839,-36794.6528200973,-12640.0103105181,-80541.3435553762,-41413.4618632988,-80475.0904461753,-80464.2855313965,-80504.8039618169,-2416.4559182490
5559398795,7349,0,0,-6719.7200797411,-80314.9878913790,-36791.7569082535,-12640.2658321514,-80541.7085862809,-41524.8571277129,-80476.5505697941,-80464.7600715726,-80505.2785019930,-2416.6506013982
5559398795,7349,0,0,-6719.6592412570,-80315.3894253742,-36766.4967696490,-12640.4726829974,-80543.6067469853,-41695.9227773466,-80476.4775636131,-80464.4923822425,-80505.0838188439,-2417.8917064741
5559398795,7349,0,0,-6719.3915519269,-80314.5620219902,-36751.5548379505,-12639.6696150071,-80543.7040885599,-41697.8817765351,-80474.8957630261,-80464.5775561203,-80504.8526326042,-2416.5045890363
5559398795,7349,0,0,-6719.1968687777,-80313.5764385476,-36765.6206954778,-12639.6939504007,-80543.0592006283,-41526.4510959967,-80475.1391169626,-80463.8231589173,-80504.7187879392,-2416.8817876378
5559398795,7349,0,0,-6719.3915519269,-80314.5620219902,-36790.3941262093,-12639.9494720340,-80541.7572570682,-41412.1720874356,-80475.3338001118,-80464.0543451569,-80505.7287067755,-2417.0399676965
5559398795,7349,0,0,-6720.4258061569,-80316.0829840931,-36793.5333919896,-12641.3487571687,-80542.0857848824,-41503.8435152996,-80475.5649863514,-80464.6870653917,-80507.1523273038,-2417.1616446647
5559398795,7349,0,0,-6719.5862350761,-80314.7567051394,-36768.9059736200,-12639.9373043372,-80542.7915112982,-41676.4422947331,-80475.1026138721,-80464.2611960029,-80505.0351480566,-2416.3585766744
5559398795,7349,0,0,-6719.1116949000,-80312.8828798287,-36749.9730373635,-12639.1099009532,-80542.8158466918,-41702.7123521738,-80474.9931046007,-80463.1417678952,-80504.3780924281,-2417.2468185425
5559436537,7350,0,0,-6719.9756013744,-80314.7323697458,-36762.3475850324,-12640.6673661466,-80543.2782191711,-41548.9004966350,-80474.5672352119,-80463.8961650982,-80504.6457817582,-2417.4171662980
5559436537,7350,0,0,-6719.7444151348,-80313.9536371491,-36787.0480095830,-12641.0323970513,-80540.6986674446,-41413.8390619003,-80474.1048627327,-80463.9205004918,-80504.0739000076,-2417.8552033836
5559436537,7350,0,0,-6719.5984027729,-80313.0410598874,-36791.0633495346,-12639.7426211880,-80539.8955994543,-41476.1133342402,-80473.0219377154,-80462.6063892350,-80503.3803412886,-2416.7479429727
5559436537,7350,0,0,-6719.3185457460,-80313.1262337651,-36768.8573028327,-12639.5722734325,-80541.4287292540,-41658.1907494987,-80473.9588503708,-80462.8497431714,-80504.1712415821,-2416.7114398823
5559436537,7350,0,0,-6719.7565828316,-80312.2014888066,-36749.2186401605,-12639.4749318579,-80542.7671759045,-41713.1887391384,-80473.5694840724,-80462.5698861445,-80503.2586643204,-2416.7601106696
5559436537,7350,0,0,-6719.5132288951,-80312.7246997700,-36756.3245751051,-12639.3289194961,-80542.1222879729,-41567.4684019868,-80472.2797082092,-80461.2071041003,-80502.6989502666,-2417.1008061806
5559436537,7350,0,0,-6718.7588316921,-80312.4083396526,-36781.0249996556,-12638.9517208945,-80539.7982578797,-41417.4407001599,-80473.0827761995,-80461.5599673082,-80503.3803412886,-2416.3464089776
5559436537,7350,0,0,-6718.5033100588,-80312.1893211098,-36789.2868657984,-12639.6939504007,-80538.4598112292,-41458.6770246929,-80472.0728573632,-80460.7934024084,-80502.1514039095,-2415.4094963222
5559441840,7351,0,0,-6719.9634336776,-80312.5543520145,-36771.2786745005,-12640.5821922688,-80540.8933505938,-41637.2379755696,-80472.7542483853,-80461.7546504574,-80502.6624471761,-2417.4780047821
5559441840,7351,0,0,-6720.5596508219,-80312.5543520145,-36749.0847954954,-12641.3365894718,-80542.5724927553,-41718.9805628261,-80473.0706085027,-80461.8276566383,-80503.9522230393,-2417.7456941122
5559441840,7351,0,0,-6719.5618996824,-80312.2379918971,-36752.8446138137,-12640.4118445133,-80541.7815924618,-41595.0160675939,-80473.6059871629,-80461.4017872495,-80502.7597887507,-2416.9791292124
5559441840,7351,0,0,-6719.8904274966,-80312.8828798287,-36776.8879827358,-12640.0711490023,-80540.5526550827,-41429.4502169242,-80474.4942290310,-80462.2170229366,-80504.2807508535,-2416.6749367918
5559441840,7351,0,0,-6719.3915519269,-80313.1384014620,-36789.0678472556,-12639.9616397308,-80539.3358854004,-41441.0703673901,-80473.9588503708,-80462.9714201397,-80503.8670491616,-2415.4825025032
5559441840,7351,0,0,-6719.9025951935,-80313.7589539999,-36772.0817424908,-12640.2049936673,-80540.7838413224,-41616.4312140023,-80474.9079307230,-80463.2756125602,-80504.0982354012,-2416.4802536426
5559441840,7351,0,0,-6718.9291794476,-80313.4547615793,-36748.1357151432,-12638.9760562882,-80541.9762756110,-41720.3311771734,-80474.5794029087,-80463.4702957094,-80504.2564154599,-2416.0422165570
5559441840,7351,0,0,-6719.1116949000,-80313.9901402396,-36748.7562676812,-12639.9616397308,-80543.0957037187,-41616.4555493960,-80475.1634523563,-80463.4337926189,-80504.5606078805,-2416.9182907283
5559475441,7352,0,0,-6720.1946199172,-80313.9901402396,-36772.2764256399,-12639.5722734325,-80541.2827168921,-41445.9861169065,-80474.3238812755,-80464.3828729711,-80504.9134710883,-2417.4415016916
5559475441,7352,0,0,-6720.0607752522,-80314.5133512029,-36788.6784809573,-12640.4483476038,-80540.6013258700,-41433.4777245726,-80474.8105891484,-80463.8718297046,-80504.9621418756,-2417.9282095646
5559475441,7352,0,0,-6720.5839862156,-80314.1969910855,-36775.4400268139,-12640.9837262640,-80541.4287292540,-41595.9529802493,-80474.6889121802,-80463.0079232301,-80504.0982354012,-2417.4536693885
5559475441,7352,0,0,-6719.6957443475,-80314.1726556919,-36749.1334662827,-12640.3753414228,-80542.8401820854,-41719.6984569386,-80474.2387073977,-80463.1052648047,-80504.5484401837,-2417.5266755694
5559475441,7352,0,0,-6719.3185457460,-80313.2600784302,-36746.3227283166,-12639.6939504007,-80542.3048034252,-41640.7422722546,-80474.3603843659,-80463.4581280126,-80504.6701171519,-2416.5289244299
5559475441,7352,0,0,-6719.3063780491,-80312.6151904986,-36768.1880795074,-12638.9152178041,-80540.6013258700,-41461.4512595685,-80473.8371734025,-80462.1075136652,-80503.7575398902,-2416.2490674030
5559475441,7352,0,0,-6718.8075024794,-80313.0167244937,-36787.0115064925,-12639.6209442198,-80539.0073575862,-41419.7160594658,-80473.2166208646,-80462.3752029953,-80502.9301365062,-2416.2490674030
5559475441,7352,0,0,-6719.5253965920,-80313.1384014620,-36776.9244858263,-12639.4384287675,-80540.4796489018,-41570.2548045593,-80473.9710180676,-80461.9858366970,-80503.7332044965,-2415.8597011047
5559507627,7353,0,0,-6718.8318378731,-80314.0874818141,-36751.0194592903,-12640.1076520927,-80541.9641079142,-41708.2851573187,-80473.9223472803,-80463.6893142522,-80504.9621418756,-2416.6262660045
5559507627,7353,0,0,-6719.9877690712,-80315.3164191933,-36744.5705799741,-12641.0202293544,-80545.2128829659,-41648.2862442848,-80476.4410605227,-80464.6383946044,-80505.3150050835,-2418.4514205280
5559507627,7353,0,0,-6720.0486075553,-80314.5741896871,-36764.2335780400,-12640.6673661466,-80544.1786287360,-41467.9244742783,-80475.5163155641,-80463.4094572253,-80505.5096882327,-2416.9547938187
5559507627,7353,0,0,-6719.0630241127,-80314.2699972665,-36785.1255134850,-12639.6452796135,-80541.1367045302,-41404.8471339482,-80474.4698936373,-80463.5798049808,-80504.6579494551,-2416.2247320094
5559507627,7353,0,0,-6718.9170117508,-80314.0509787237,-36778.7618080466,-12639.9859751245,-80540.9906921684,-41543.8752378471,-80475.6988310165,-80464.0178420664,-80504.7917941201,-2416.2734027966
5559507627,7353,0,0,-6720.4136384600,-80315.0974006504,-36755.9960472908,-12640.1441551832,-80543.4363992298,-41708.9908837344,-80475.6136571387,-80464.0056743696,-80504.9378064820,-2417.7578618090
5559507627,7353,0,0,-6720.8638432425,-80315.9734748217,-36747.9288642972,-12641.5556080147,-80545.9551124721,-41686.3954707342,-80476.7209175496,-80465.8186611962,-80507.5660289957,-2418.0985573201
5559507627,7353,0,0,-6719.6592412570,-80314.9392205917,-36766.1804095316,-12639.7791242785,-80542.6698343299,-41507.0192841704,-80475.4676447768,-80464.5653884235,-80505.2663342962,-2417.2346508457
5559537960,7354,0,0,-6720.0607752522,-80314.9635559854,-36789.2990334952,-12640.4726829974,-80542.3656419094,-41414.7759745557,-80475.9543526497,-80464.7235684822,-80506.3005885262,-2418.0012157455
5559537960,7354,0,0,-6720.5109800346,-80315.8761332471,-36787.0723449766,-12641.2635832909,-80543.0348652346,-41529.7972126230,-80475.7840048942,-80465.4292948979,-80506.3492593134,-2417.1129738774
5559537960,7354,0,0,-6719.4037196237,-80313.7832893936,-36759.6463563377,-12640.0103105181,-80543.0348652346,-41693.1850455614,-80475.8083402879,-80464.0421774601,-80505.9477253183,-2416.7844460632
5559537960,7354,0,0,-6719.3063780491,-80313.6251093349,-36745.0694555438,-12639.4749318579,-80543.7040885599,-41687.0038555754,-80474.8957630261,-80463.5433018903,-80504.8161295138,-2416.8331168505
5559537960,7354,0,0,-6718.9413471445,-80314.2334941760,-36761.0699768660,-12639.5357703420,-80542.5846604522,-41518.9071239664,-80474.2022043072,-80463.2147740761,-80504.9134710883,-2416.2368997062
5559537960,7354,0,0,-6719.3185457460,-80314.4038419315,-36784.8091533676,-12639.5844411293,-80540.5039842954,-41406.8426362271,-80474.1535335199,-80463.4946311031,-80505.5705267168,-2416.5897629140
5559537960,7354,0,0,-6719.6714089538,-80314.0509787237,-36785.8920783848,-12640.5091860879,-80541.9032694301,-41495.1801151617,-80475.6136571387,-80463.9570035823,-80505.1324896312,-2416.8817876378
5559537960,7354,0,0,-6719.9025951935,-80314.4525127188,-36761.8973802500,-12640.2779998482,-80542.4873188776,-41668.0587516221,-80475.2121231435,-80463.8596620077,-80505.9112222278,-2417.3563278139
5559569287,7355,0,0,-6720.1581168268,-80314.6471958680,-36744.2055490694,-12640.1319874864,-80543.8744363154,-41692.6983376885,-80475.2364585372,-80464.3342021838,-80504.9864772693,-2417.4901724789
5559569287,7355,0,0,-6720.6569923965,-80314.4890158093,-36756.3732458924,-12640.4970183911,-80543.1808775965,-41533.0703230683,-80473.3869686201,-80463.2756125602,-80504.4632663059,-2418.1593958042
5559569287,7355,0,0,-6719.9269305871,-80313.4790969730,-36781.5968814063,-12640.4483476038,-80540.9906921684,-41403.8372151119,-80474.2387073977,-80462.4360414795,-80502.7232856602,-2416.9791292124
5559569287,7355,0,0,-6719.9390982839,-80313.2114076429,-36786.5856371037,-12640.1319874864,-80540.0902826035,-41479.0944199618,-80473.9223472803,-80463.5798049808,-80504.0495646139,-2417.0521353933
5559569287,7355,0,0,-6719.9512659808,-80314.1361526014,-36765.8275463238,-12640.0224782150,-80543.2173806870,-41656.9739798164,-80475.7840048942,-80464.0421774601,-80505.4001789613,-2417.5510109631
5559569287,7355,0,0,-6718.9048440540,-80314.3795065379,-36745.7630142628,-12640.0468136086,-80543.6797531662,-41704.0873019148,-80474.0075211581,-80463.5798049808,-80504.0982354012,-2416.2247320094
5559569287,7355,0,0,-6720.1581168268,-80315.8517978535,-36755.1321408164,-12640.5578568752,-80544.4949888534,-41560.7761687342,-80474.8835953293,-80464.2611960029,-80506.4222654944,-2417.2589862393
5559569287,7355,0,0,-6719.0873595063,-80314.5133512029,-36778.7739757434,-12640.3631737260,-80541.2827168921,-41414.0702481400,-80475.4068062927,-80464.5410530298,-80505.1811604184,-2416.6262660045
5559593899,7356,0,0,-6719.4888935015,-80314.4890158093,-36786.0989292308,-12639.5844411293,-80539.9686056352,-41459.0055525071,-80475.0296076912,-80463.2391094698,-80503.6601983156,-2416.5532598236
5559593899,7356,0,0,-6719.2698749587,-80313.6129416380,-36766.2534157126,-12639.8521304594,-80541.0028598652,-41639.7688565087,-80474.3847197596,-80463.6041403744,-80504.0617323107,-2416.3342412808
5559593899,7356,0,0,-6719.7079120443,-80314.2213264792,-36745.9576974119,-12640.4605153006,-80542.0979525792,-41715.5736077157,-80473.7763349184,-80463.6649788586,-80504.9013033915,-2417.7456941122
5559593899,7356,0,0,-6719.1116949000,-80312.4326750462,-36750.9221177157,-12639.2802487088,-80541.3313876794,-41585.4644255879,-80472.8150868694,-80461.4382903400,-80503.6115275283,-2416.9061230314
5559593899,7356,0,0,-6720.0729429490,-80313.7589539999,-36776.4986164375,-12641.0080616576,-80541.1002014398,-41428.1969441514,-80475.2242908404,-80462.9835878365,-80503.2343289268,-2416.6384337013
5559593899,7356,0,0,-6720.2676260982,-80313.6616124253,-36788.4959655049,-12639.9251366404,-80539.4818977623,-41449.3565689265,-80474.6037383024,-80463.3121156507,-80504.1225707948,-2416.6992721854
5559593899,7356,0,0,-6719.3307134428,-80313.6372770317,-36772.5319472732,-12640.2414967578,-80541.1123691366,-41621.0671064919,-80473.1557823805,-80463.4581280126,-80504.9013033915,-2416.3585766744
5559593899,7356,0,0,-6718.6128193302,-80313.7832893936,-36747.9897027813,-12639.5844411293,-80542.5116542712,-41714.7218689380,-80473.6789933438,-80462.3143645112,-80503.9278876457,-2415.5676763809
5559621257,7357,0,0,-6719.6835766507,-80314.2699972665,-36749.6445095493,-12639.9616397308,-80542.0736171856,-41606.0034978251,-80474.3482166691,-80464.1760221251,-80504.7066202423,-2416.8574522441
5559621257,7357,0,0,-6720.2676260982,-80312.7125320731,-36773.0673259334,-12640.2293290610,-80541.4287292540,-41432.2244517998,-80474.8105891484,-80463.4094572253,-80503.7332044965,-2416.9791292124
5559621257,7357,0,0,-6719.1360302936,-80312.4570104399,-36786.6099724974,-12639.3654225865,-80539.2020407354,-41418.7426437200,-80473.4843101947,-80461.9493336065,-80504.0860677044,-2415.9448749824
5559621257,7357,0,0,-6719.5862350761,-80313.5764385476,-36770.4269357229,-12639.5479380389,-80541.6355801000,-41582.4225013822,-80474.5307321214,-80462.4725445699,-80504.8648003010,-2416.1152227379
5559621257,7357,0,0,-6719.9877690712,-80313.6616124253,-36744.9356108788,-12639.8277950658,-80542.9010205696,-41701.2157254646,-80474.3603843659,-80462.7037308096,-80504.2077446726,-2417.2711539361
5559621257,7357,0,0,-6718.7588316921,-80312.6881966795,-36740.8837678368,-12639.7304534912,-80542.0249463983,-41611.9778369651,-80474.4455582437,-80462.4725445699,-80504.4267632154,-2416.6992721854
5559621257,7357,0,0,-6719.0751918095,-80313.4182584889,-36763.5886901084,-12640.3875091196,-80541.7085862809,-41436.8481765925,-80473.6911610407,-80463.1539355920,-80502.9666395967,-2416.6992721854
5559621257,7357,0,0,-6719.4037196237,-80313.1505691588,-36781.8889061301,-12639.6452796135,-80539.4940654591,-41408.2540890586,-80474.0318565517,-80462.5942215382,-80503.0639811712,-2415.8718688015
5559658267,7358,0,0,-6719.2455395650,-80312.0676441415,-36771.6193700115,-12640.1076520927,-80540.9055182906,-41565.7770921284,-80474.3603843659,-80463.6406434649,-80504.1590738853,-2417.1981477552
5559658267,7358,0,0,-6720.5596508219,-80314.3673388411,-36748.1357151432,-12640.9350554767,-80542.9618590537,-41708.1756480473,-80475.8570110752,-80463.6284757681,-80505.4001789613,-2418.1715635010
5559658267,7358,0,0,-6720.7786693647,-80314.3186680538,-36742.6602515729,-12640.9350554767,-80544.5558273375,-41644.8671214775,-80474.7862537547,-80464.0056743696,-80504.5119370932,-2417.9038741709
5559658267,7358,0,0,-6719.2212041714,-80312.9558860096,-36762.5179327879,-12640.1198197895,-80541.9641079142,-41455.5985973967,-80474.6402413929,-80463.2269417729,-80504.0617323107,-2416.8939553346
5559658267,7358,0,0,-6719.5497319856,-80313.7589539999,-36782.2782724284,-12639.9129689436,-80540.6134935669,-41390.2458977607,-80473.5208132852,-80463.1296001984,-80504.2807508535,-2416.3829120681
5559658267,7358,0,0,-6719.3428811396,-80312.5786874081,-36774.5031141585,-12639.9981428213,-80540.6378289605,-41532.0725719289,-80474.6402413929,-80463.1661032888,-80504.3537570345,-2417.0277999997
5559658267,7358,0,0,-6718.2842915160,-80313.9414694523,-36749.5106648842,-12639.5236026452,-80542.7185051172,-41690.9705247397,-80474.5428998183,-80463.1417678952,-80504.1955769758,-2416.2734027966
5559658267,7358,0,0,-6718.7466639953,-80314.0023079364,-36740.5065692352,-12640.3388383324,-80543.8622686186,-41658.9573143985,-80474.6645767865,-80463.8961650982,-80504.2929185504,-2416.3342412808
5559690157,7359,0,0,-6720.2919614918,-80314.6228604744,-36760.2060703916,-12640.1928259705,-80542.9131882664,-41482.9515798546,-80474.9931046007,-80464.0178420664,-80505.9233899246,-2417.4049986012
5559690157,7359,0,0,-6720.2189553109,-80314.8905498044,-36784.2494393137,-12641.0567324449,-80541.4043938603,-41395.5875166659,-80476.0151911338,-80464.8209100567,-80506.2275823452,-2417.9647126550
5559690157,7359,0,0,-6719.5253965920,-80314.7932082299,-36779.9542423352,-12640.4483476038,-80541.5747416159,-41508.6619232415,-80475.3946385959,-80464.3098667902,-80505.1446573280,-2416.9304584251
5559690157,7359,0,0,-6719.8539244062,-80314.5498542934,-36754.4629174912,-12640.8255462053,-80543.8379332249,-41675.5418851682,-80476.1368681021,-80464.0786805505,-80505.4001789613,-2416.7844460632
5559690157,7359,0,0,-6720.5718185187,-80315.0487298631,-36741.4191464970,-12640.4361799069,-80545.9794478658,-41672.9623334417,-80475.7961725910,-80465.0885993868,-80506.2032469516,-2417.4658370853
5559690157,7359,0,0,-6718.3086269097,-80314.0388110269,-36757.2979908509,-12639.9129689436,-80543.5702438948,-41501.6776652652,-80474.7010798770,-80462.8862462619,-80505.4610174454,-2416.7601106696
5559690157,7359,0,0,-6719.2090364746,-80314.7688728362,-36782.0957569761,-12639.9129689436,-80541.3557230731,-41394.6627717074,-80475.6866633196,-80463.3729541348,-80505.0838188439,-2416.1517258284
5559690157,7359,0,0,-6718.9535148413,-80312.8585444350,-36783.0813404187,-12638.9517208945,-80539.6157424274,-41493.0872713082,-80474.3725520627,-80463.1052648047,-80504.2320800663,-2415.6163471682
5559720656,7360,0,0,-6720.5231477314,-80314.2091587824,-36760.7901198391,-12639.9981428213,-80542.5846604522,-41669.2025151234,-80475.4919801705,-80464.5410530298,-80505.5218559295,-2417.1373092711
5559720656,7360,0,0,-6719.5010611983,-80313.5521031539,-36744.6800892455,-12640.3388383324,-80543.8257655281,-41688.0867805926,-80475.4068062927,-80463.0444263206,-80504.8039618169,-2417.6118494472
5559720656,7360,0,0,-6718.8561732667,-80313.6372770317,-36756.5435936479,-12638.6961992613,-80542.7793436013,-41528.8116291803,-80474.6645767865,-80463.6163080713,-80504.3294216408,-2415.9327072856
5559720656,7360,0,0,-6719.6470735602,-80314.4160096284,-36782.8866572695,-12640.3145029387,-80541.2827168921,-41402.6934516105,-80474.2630427914,-80464.3220344870,-80504.4389309122,-2416.8817876378
5559720656,7360,0,0,-6720.1216137363,-80314.4038419315,-36786.4274570450,-12639.9008012467,-80541.3922261635,-41472.1710004695,-80475.4919801705,-80463.0565940174,-80503.4046766823,-2416.7357752759
5559720656,7360,0,0,-6720.1581168268,-80313.5521031539,-36764.3552550082,-12640.0589813054,-80542.2074618507,-41649.4421754830,-80475.1999554467,-80464.2368606092,-80504.5484401837,-2417.1616446647
5559720656,7360,0,0,-6719.5497319856,-80313.1870722492,-36745.3979833581,-12639.6574473103,-80542.9131882664,-41696.2634728576,-80474.7010798770,-80462.7037308096,-80503.3803412886,-2416.7479429727
5559720656,7360,0,0,-6719.5010611983,-80312.9437183128,-36754.4264144007,-12639.9981428213,-80542.7428405109,-41548.5232980335,-80474.5307321214,-80463.0322586238,-80503.6967014061,-2416.5775952172
5559770619,7361,0,0,-6719.8417567094,-80313.1749045524,-36779.7352237924,-12640.2536644546,-80541.2218784080,-41406.7817977430,-80474.7132475738,-80463.4459603158,-80504.9499741788,-2417.2224831488
5559770619,7361,0,0,-6720.3162968855,-80313.0897306747,-36788.3256177494,-12641.2879186845,-80540.0051087257,-41458.2389876073,-80474.1170304295,-80463.0444263206,-80504.4024278218,-2417.2954893298
5559770619,7361,0,0,-6719.3185457460,-80312.7977059509,-36768.2489179916,-12640.0346459118,-80540.7595059287,-41634.8531069923,-80473.7154964343,-80462.6915631127,-80503.3681735918,-2417.1738123615
5559770619,7361,0,0,-6719.1116949000,-80312.6760289827,-36745.8603558373,-12640.2049936673,-80541.9519402174,-41700.9115330440,-80473.0584408059,-80462.3143645112,-80503.8062106774,-2416.7357752759
5559770619,7361,0,0,-6720.1702845236,-80313.3209169143,-36751.2749809235,-12640.7525400243,-80542.4508157871,-41571.5689158161,-80473.9831857644,-80462.7645692937,-80503.4046766823,-2417.9160418677
5559770619,7361,0,0,-6719.6957443475,-80313.4790969730,-36776.4621133470,-12640.3875091196,-80541.0880337429,-41416.3577751427,-80474.5672352119,-80463.5189664967,-80503.9400553425,-2418.0012157455
5559770619,7361,0,0,-6718.8196701762,-80311.9581348701,-36786.9263326148,-12639.2315779215,-80539.1533699481,-41438.7463372969,-80474.1900366104,-80462.3021968144,-80504.1712415821,-2415.9692103761
5559770619,7361,0,0,-6719.0751918095,-80313.1140660683,-36770.2809233610,-12639.9129689436,-80541.3557230731,-41616.6502325451,-80473.2287885614,-80462.3752029953,-80504.1347384917,-2415.9935457697
5559784141,7362,0,0,-6719.4888935015,-80313.1749045524,-36748.4520752606,-12639.4870995548,-80542.9253559632,-41712.3856711480,-80473.8736764930,-80462.4238737826,-80503.2951674109,-2416.9547938187
5559784141,7362,0,0,-6720.3162968855,-80312.7125320731,-36751.0316269871,-12640.7890431148,-80543.3390576552,-41596.5613650905,-80473.9588503708,-80462.8862462619,-80504.3172539440,-2417.5266755694
5559784141,7362,0,0,-6720.8030047584,-80312.4691781367,-36774.5517849458,-12640.7282046307,-80540.1997918749,-41425.7390693932,-80473.8493410994,-80462.2048552398,-80503.2221612299,-2417.0643030901
5559784141,7362,0,0,-6720.4136384600,-80311.9459671733,-36789.0435118620,-12640.7403723275,-80539.3602207941,-41425.4713800631,-80472.7177452948,-80462.5455507509,-80502.6137763888,-2416.2977381903
5559784141,7362,0,0,-6718.8196701762,-80311.0333899116,-36773.9068970142,-12639.2437456183,-80539.5062331560,-41593.2882546451,-80471.9390126982,-80461.0489240416,-80502.4069255428,-2416.8939553346
5559784141,7362,0,0,-6719.3915519269,-80311.6904455400,-36750.2163913000,-12640.4240122101,-80542.1587910634,-41709.9399640866,-80472.8759253535,-80462.4238737826,-80502.8814657189,-2417.4780047821
5559784141,7362,0,0,-6718.8196701762,-80311.7634517210,-36748.0992120528,-12638.7327023517,-80540.8690152001,-41619.2297842716,-80472.2310374219,-80461.4382903400,-80502.3704224523,-2416.4802536426
5559784141,7362,0,0,-6718.5641485429,-80311.7877871146,-36771.5220284369,-12639.2315779215,-80539.3967238846,-41441.8125968963,-80472.3283789965,-80460.6838931369,-80502.7597887507,-2417.1251415743
5559815379,7363,0,0,-6720.2067876140,-80312.2623272907,-36790.0899337887,-12640.6430307529,-80539.3480530973,-41411.5758702913,-80473.9223472803,-80461.7303150637,-80503.6358629219,-2417.5875140535
5559815379,7363,0,0,-6719.7322474379,-80313.2600784302,-36779.3580251909,-12640.7768754180,-80540.1267856939,-41570.9848663686,-80473.5086455883,-80462.5455507509,-80503.8062106774,-2417.7456941122
5559815379,7363,0,0,-6719.6227381665,-80313.7467863031,-36755.2294823910,-12640.0954843959,-80542.5846604522,-41710.2198211136,-80474.8105891484,-80463.2877802571,-80503.8305460711,-2417.5388432662
5559815379,7363,0,0,-6718.8196701762,-80313.8684632713,-36749.9000311826,-12640.3145029387,-80543.1443745060,-41642.5795944748,-80474.3360489723,-80463.7136496459,-80503.7453721933,-2416.6749367918
5559815379,7363,0,0,-6719.6957443475,-80315.2555807091,-36772.6779596351,-12641.5069372274,-80543.6310823789,-41462.8262093095,-80475.6744956228,-80464.7114007853,-80506.3127562230,-2417.5145078726
5559815379,7363,0,0,-6719.3793842301,-80314.8418790172,-36791.2823680774,-12639.5236026452,-80540.9176859874,-41405.7962143004,-80474.4090551532,-80463.7623204331,-80504.7552910296,-2416.2734027966
5559815379,7363,0,0,-6719.0021856286,-80313.8806309682,-36784.1277623455,-12639.3532548897,-80541.5747416159,-41545.6273861896,-80474.5672352119,-80464.0300097633,-80505.4366820517,-2416.3707443712
5559815379,7363,0,0,-6720.1946199172,-80314.5255188998,-36759.2569900394,-12640.5578568752,-80542.2074618507,-41698.5631675572,-80475.0417753880,-80463.6041403744,-80504.6214463646,-2418.2080665915
5559852916,7364,0,0,-6720.2554584013,-80314.5376865966,-36751.6035087378,-12640.7160369339,-80542.9983621441,-41664.1042501546,-80474.3603843659,-80463.9813389760,-80504.7796264233,-2418.2932404693
5559852916,7364,0,0,-6720.2797937950,-80313.2357430365,-36769.9645632436,-12640.3145029387,-80541.9519402174,-41483.9128279037,-80473.2896270455,-80463.3242833475,-80504.3415893377,-2417.9403772614
5559852916,7364,0,0,-6719.7200797411,-80311.3619177258,-36791.3675419551,-12639.7547888849,-80538.2529603832,-41399.2499934096,-80472.7299129917,-80461.8154889415,-80501.7377022175,-2416.6749367918
5559852916,7364,0,0,-6720.5596508219,-80311.5322654813,-36787.8024067860,-12640.8012108116,-80539.3358854004,-41522.1315636245,-80472.4378882679,-80461.4382903400,-80502.6016086920,-2416.3829120681
5559852916,7364,0,0,-6719.9390982839,-80311.4227562099,-36761.2403246215,-12640.4240122101,-80539.3358854004,-41686.6023215802,-80472.2432051187,-80461.1584333130,-80502.1879070000,-2416.0300488602
5559852916,7364,0,0,-6719.0508564159,-80311.0333899116,-36748.9387831335,-12639.9129689436,-80541.1245368334,-41675.4688789872,-80471.9633480918,-80461.9006628192,-80501.9932238508,-2416.5775952172
5559852916,7364,0,0,-6717.8462544304,-80311.2524084544,-36765.1461553017,-12639.4262610706,-80540.1876241781,-41504.4519001408,-80471.2697893729,-80460.8542408925,-80502.3582547555,-2416.1030550411
5559852916,7364,0,0,-6718.6006516334,-80311.3010792417,-36789.4693812508,-12639.4749318579,-80538.2042895959,-41404.0927367452,-80472.0850250600,-80461.5599673082,-80502.1392362127,-2416.3099058871
5559891131,7365,0,0,-6719.8660921030,-80312.3840042589,-36790.7226540235,-12640.2414967578,-80539.9807733321,-41504.0990369329,-80472.8515899599,-80461.7303150637,-80502.9301365062,-2416.9547938187
5559891131,7365,0,0,-6720.7299985774,-80312.8828798287,-36767.4458500012,-12641.2879186845,-80541.4652323445,-41675.3106989285,-80473.4113040137,-80462.3630352985,-80503.4776828632,-2417.9647126550
5559891131,7365,0,0,-6720.6569923965,-80313.3574200048,-36751.6765149187,-12640.8377139021,-80541.9884433078,-41690.7271708032,-80473.5938194661,-80462.2170229366,-80503.5750244378,-2416.7844460632
5559891131,7365,0,0,-6720.5596508219,-80313.3574200048,-36765.1218199081,-12640.5943599656,-80541.7937601587,-41526.9134684759,-80473.3748009233,-80462.3143645112,-80503.6115275283,-2417.6605202345
5559891131,7365,0,0,-6718.5154777557,-80311.9216317797,-36787.3156989131,-12639.7547888849,-80538.9465191021,-41401.2819987791,-80472.7420806885,-80462.0101720907,-80502.3825901492,-2415.8962041951
5559891131,7365,0,0,-6718.5519808461,-80311.8729609924,-36790.6374801458,-12639.6817827039,-80538.8735129212,-41480.3841958250,-80472.6569068107,-80462.1075136652,-80502.6624471761,-2416.4680859458
5559891131,7365,0,0,-6719.2212041714,-80312.9558860096,-36768.8938059232,-12639.9251366404,-80541.6477477968,-41659.4318545746,-80474.5185644246,-80463.4216249221,-80503.0153103840,-2416.4437505522
5559891131,7365,0,0,-6719.2212041714,-80313.7954570904,-36749.2794786446,-12639.9738074277,-80542.8158466918,-41696.8718576988,-80474.1900366104,-80462.7280662032,-80504.2442477631,-2416.7601106696
5559916454,7366,0,0,-6719.8295890125,-80313.0045567969,-36760.3034119662,-12640.0103105181,-80543.0105298410,-41548.2434410066,-80474.4333905469,-80463.4702957094,-80504.4389309122,-2417.9282095646
5559916454,7366,0,0,-6719.4158873206,-80313.0167244937,-36785.8312399007,-12640.3388383324,-80540.1754564812,-41409.2396725013,-80472.9245961408,-80462.1440167557,-80503.1613227458,-2416.6871044886
5559916454,7366,0,0,-6720.1216137363,-80312.5421843176,-36792.9858456326,-12640.4605153006,-80540.0659472098,-41461.4999303558,-80473.7033287375,-80462.4968799636,-80503.7575398902,-2417.0277999997
5559916454,7366,0,0,-6719.8660921030,-80312.2136565034,-36773.1768352048,-12640.3996768165,-80540.3944750240,-41638.5520868264,-80473.6911610407,-80461.9128305161,-80502.4920994206,-2417.1738123615
5559916454,7366,0,0,-6719.4523904110,-80311.3740854226,-36750.8612792316,-12639.8156273690,-80540.8811828970,-41703.9047864625,-80472.4743913584,-80461.6086380955,-80502.6867825697,-2416.4437505522
5559916454,7366,0,0,-6719.1481979904,-80312.5908551049,-36757.2128169731,-12639.6331119166,-80541.3557230731,-41565.4485643142,-80472.9610992313,-80461.2801102813,-80502.1635716064,-2416.3950797649
5559916454,7366,0,0,-6720.7421662743,-80314.1118172078,-36783.5437128980,-12641.0689001417,-80540.6864997478,-41410.3834360026,-80474.7375829674,-80464.0178420664,-80503.4776828632,-2417.5388432662
5559916454,7366,0,0,-6719.2212041714,-80313.2479107334,-36792.8276655739,-12640.1076520927,-80539.2750469163,-41439.5859083777,-80473.8493410994,-80462.8862462619,-80504.2685831567,-2416.7479429727
5559938275,7367,0,0,-6719.9147628903,-80312.7003643763,-36776.1700886233,-12640.6673661466,-80540.9055182906,-41616.7232387261,-80473.6181548597,-80463.2877802571,-80503.7453721933,-2416.7236075791
