steady_timestamp,sequence,battery,flags,EEG-ch1,EEG-ch2,EEG-ch3,EEG-ch4,EEG-ch5,EEG-ch6,EEG-ch7,EEG-ch8,EEG-ch9,EEG-ch10
3040363045,8050,-2,0,53164.4029023582,47979.4187582884,68671.8404784741,70880.3017872317,64885.8007735315,74730.4165836438,74669.4929256513,78361.1234709447,78516.7969840974,63888.4876711359
3040363045,8050,-2,0,53161.8841891159,47935.5663789386,68663.1284075488,70880.7154889237,64879.1572110662,74721.9113635646,74667.6556034311,78356.4267399710,78510.5792910209,63873.0711992613
3040363045,8050,-2,0,53187.7405448646,47988.1186615168,68655.7669509710,70888.1742870761,64881.6759243086,74712.2137091967,74661.6204258069,78353.5308281271,78507.8293915389,63869.2140393684
3040363045,8050,-2,0,53203.7410661868,48027.3108129835,68651.3257416306,70882.5406434471,64878.2202984109,74729.2728201425,74656.8263532587,78352.1193752957,78503.1448282620,63865.9409289230
3040363045,8050,-2,0,53211.6622368185,48011.1399439058,68663.5299415440,70889.9507708123,64887.5407541772,74747.8650608879,74668.5073422087,78365.4186679231,78514.2174323709,63884.0464617956
3040363045,8050,-2,0,53215.1056950194,47993.1682556984,68665.1360775246,70895.6330852286,64890.6435168671,74727.5206718000,74672.6078560380,78367.9373811655,78518.2206046257,63893.0505574445
3040363045,8050,-2,0,53216.5171478509,47979.3822551980,68659.8431294067,70890.4131432915,64886.5064999473,74728.0073796729,74671.0747262383,78366.1852328230,78513.1466750505,63889.6801054246
3040363045,8050,-2,0,53228.3806522533,47984.5413586509,68664.4546865025,70892.0314469690,64889.7309396054,74736.7072829013,74673.7394518426,78370.1153988968,78518.8654925573,63890.7630304418
3040368879,8051,-2,0,53254.8940636305,48040.7926210634,68667.1315798036,70900.8530271656,64894.4033351854,74722.4589099216,74673.6177748743,78370.3587528333,78519.7172313349,63895.5571029901
3040368879,8051,-2,0,53259.3109375772,48072.4651358935,68658.4560119688,70896.1684638888,64888.9035362214,74719.7576812269,74666.1833121155,78366.6111022118,78513.9862461313,63888.7918635565
3040368879,8051,-2,0,53246.6687005781,48025.7168446997,68661.9359732602,70892.0801177563,64888.4168283485,74737.6441955566,74671.9629681064,78371.2226593077,78515.4707051437,63885.5917592921
3040368879,8051,-2,0,53245.4275955022,47993.6549635713,68665.2334190992,70900.9138656498,64893.2230685935,74729.1389754774,74682.0499887726,78377.4281846874,78519.3522004302,63892.1866509701
3040368879,8051,-2,0,53265.2244382331,48040.8777949411,68659.6849493480,70904.7710255426,64894.0018011902,74714.7567578327,74680.1396603714,78369.8355418699,78512.7816441458,63895.4962645059
3040368879,8051,-2,0,53281.0667794966,48081.5057346329,68658.2248257292,70903.9679575523,64893.3204101681,74727.5206718000,74682.7557151884,78369.4705109652,78513.3170228060,63883.8639463432
3040368879,8051,-2,0,53283.1231202597,48073.0856884314,68662.0698179253,70904.9048702077,64891.0450508622,74722.9577854914,74685.7368009100,78372.8896337724,78515.8235683515,63871.7327526107
3040368879,8051,-2,0,53270.5903925321,48056.6714654173,68656.5578512645,70898.2978108328,64883.4402403479,74712.6152431919,74681.1495792077,78366.7449468769,78510.1290862384,63877.1230423033
3040400232,8052,-2,0,53272.1356900286,48046.0977368782,68665.9269778181,70916.6466976418,64892.0671373954,74748.2544271863,74705.8013329710,78380.1050779885,78526.8231662795,63893.5250976206
3040400232,8052,-2,0,53293.4534948624,48042.9098003105,68674.6268810465,70928.6197113156,64899.0027245844,74741.9028894447,74711.6904982333,78387.9167393488,78531.7267480991,63901.4949390397
3040400232,8052,-2,0,53307.3368369373,48093.9167853923,68669.7232992269,70921.9639811534,64895.0725585106,74720.9866186060,74699.6809814691,78376.5399428193,78520.7149824744,63906.4715270402
3040400232,8052,-2,0,53289.6936765441,48123.2652701293,68656.0224726042,70897.8597737472,64879.4857388804,74706.7747487168,74683.7291309342,78360.1622228956,78505.5540322330,63892.9167127795
3040400232,8052,-2,0,53254.8332251463,48061.4777056624,68647.1278862267,70871.2246854018,64861.4167090984,74715.1826272215,74662.5208353718,78350.4037300436,78495.9658871365,63877.6219178730
3040400232,8052,-2,0,53257.5222861442,48026.1427140885,68655.4505908536,70895.1098742652,64869.4717243952,74725.2331447972,74669.5537641355,78358.7264346705,78511.4188621016,63889.1690621580
3040400232,8052,-2,0,53294.7189353319,48072.5138066808,68660.9260544239,70919.7737957253,64880.5078254136,74729.0416339028,74678.8742199018,78366.9031269356,78520.3986223570,63904.2935093089
3040400232,8052,-2,0,53297.6513502663,48115.8186396736,68663.6029477249,70929.3011023377,64887.3825741185,74757.0638396861,74699.6566460754,78372.5124351709,78526.9813463382,63904.0623230693
3040409040,8053,-2,0,53286.6030815510,48124.8349030194,68664.9292266786,70928.9239037362,64888.4289960453,74738.5202697279,74710.2303746146,78374.9703099292,78529.5487303678,63900.2051631764
3040409040,8053,-2,0,53323.1305074135,48137.2581214756,68672.3758571343,70978.8357961039,64899.9883080271,74738.3620896692,74753.3283567614,78390.8613219799,78543.9431157094,63903.2714227758
3040409040,8053,-2,0,53314.7591319993,48097.0682188695,68667.5331137988,70962.2147222437,64891.0328831654,74714.5864100772,74746.4292726628,78386.8946528157,78555.5754338721,63879.5444139711
3040409040,8053,-2,0,53264.5308795142,48048.7746301792,68654.0148026285,70893.2360489545,64869.5690659697,74707.6508228881,74688.1338371841,78364.0802212726,78530.6559907787,63866.6709907324
3040409040,8053,-2,0,53259.6516330882,48107.2039103230,68655.6452740027,70894.0756200353,64869.0215196127,74703.3921290001,74667.9841312453,78350.9756117943,78506.6734603407,63885.6282623825
3040409040,8053,-2,0,53257.7899754743,48155.1081327149,68650.6443506085,70883.2342021660,64859.6767284527,74702.2118624082,74651.0466972678,78335.9241708243,78488.7382752237,63888.0861371408
3040409040,8053,-2,0,53224.2192999398,48110.1363252573,68649.5127548040,70874.7046466931,64852.4977873272,74731.5968502356,74669.1157270498,78338.2968717048,78493.2159876545,63886.1879764364
3040409040,8053,-2,0,53202.0132532380,48081.1285360314,68658.2856642133,70907.6791050833,64866.1864462530,74727.2894855603,74722.4589099216,78354.9909517459,78514.5094570947,63896.8590465501
3040456741,8054,-2,0,53215.7992537383,48102.5193470461,68654.2946596554,70917.9851442923,64870.0922769331,74726.2673990272,74717.1659618036,78356.4145722742,78519.9727529682,63888.9622113120
3040456741,8054,-2,0,53248.7980475222,48126.5627159683,68660.1838249177,70926.4781966748,64875.0932003274,74721.6923450218,74703.6111475429,78358.9332855165,78522.4062923328,63876.3686451003
3040456741,8054,-2,0,53242.6168575361,48132.9142537098,68652.8345360366,70882.5771465376,64860.8813304382,74689.5452900156,74645.5590660006,78344.0400246052,78509.4598629132,63868.8125053732
3040456741,8054,-2,0,53205.7852392531,48132.3910427465,68640.3504790963,70844.5044231786,64844.2115857907,74689.0342467490,74602.1690591300,78327.1512614150,78497.7058677822,63870.5403183221
3040456741,8054,-2,0,53168.6129254590,48090.9843704580,68638.3671445142,70831.5093229717,64841.8632203039,74720.6459230950,74603.7021889297,78326.5672119675,78498.6427804375,63871.6840818234
3040456741,8054,-2,0,53167.0919633561,48072.4286328030,68654.5136781982,70858.9596470042,64859.8105731177,74735.7338671554,74636.1899394470,78343.4073043705,78514.9839972708,63883.0608783529
3040456741,8054,-2,0,53186.9496445711,48135.5424762236,68660.0378125558,70887.5537345382,64869.4838920920,74714.4769008058,74658.1039614251,78345.7800052509,78518.0015860828,63890.6900242609
3040456741,8054,-2,0,53186.0370673094,48177.0951608739,68650.2671520070,70885.4122198973,64859.6158899686,74710.0843622527,74653.8574352339,78334.5492210833,78510.4089432653,63883.3163999862
3040470374,8055,-2,0,53168.6372608526,48141.7723369969,68653.3334116064,70879.9367563270,64858.2287725308,74732.7527814338,74652.4338147056,78339.5014736903,78516.7726487037,63883.0243752624
3040470374,8055,-2,0,53160.7404256145,48115.1737517420,68665.9878163022,70887.2008713303,64867.3180420575,74727.9952119761,74657.8606074886,78345.7921729478,78528.3319606855,63893.6711099825
3040470374,8055,-2,0,53159.0126126657,48121.5009540899,68667.2532567718,70888.6123241618,64872.3433008454,74734.6631098350,74656.9115271364,78347.0941165078,78528.9403455267,63900.1808277828
3040470374,8055,-2,0,53165.1207964708,48137.0391029328,68671.7309692027,70889.3667213648,64879.0963725821,74743.4725223348,74662.2896491322,78351.9125244497,78531.8605927642,63906.6540424926
3040470374,8055,-2,0,53178.4322567951,48170.6097784673,68674.2010116577,70896.0467869206,64883.8539420399,74729.9907142550,74667.3027402232,78352.1072075989,78531.1183632580,63912.1173383661
3040470374,8055,-2,0,53170.0122105936,48184.3106050900,68662.2523333776,70888.8556780982,64870.6276555933,74716.5819123561,74659.3450665010,78343.8453414561,78520.3986223570,63901.5679452206
3040470374,8055,-2,0,53137.7313109224,48121.8173142073,68655.4384231567,70870.1417603845,64859.2995298512,74724.1988905673,74653.3950627546,78339.0999396951,78514.1687615836,63886.1393056491
3040470374,8055,-2,0,53120.8060446416,48070.2384473749,68660.3785080669,70869.7767294798,64860.3337840811,74736.0137241824,74656.9967010142,78341.1197773677,78520.9218333204,63895.7031153519
3040504322,8056,-2,0,53143.0242590403,48119.1647562999,68667.3505983464,70886.5438157019,64872.2702946644,74730.0637204360,74665.0152132205,78347.3009673538,78528.7334946807,63911.3994442535
3040504322,8056,-2,0,53158.0270292230,48164.9761348383,68665.0995744342,70879.3162037890,64870.9318480139,74729.4066648075,74654.9038571606,78343.3464658863,78526.2512845288,63911.4967858281
3040504322,8056,-2,0,53151.4321375450,48140.1662010163,68661.0598990889,70870.6041328638,64865.1521920230,74731.2074839373,74649.1850396539,78344.2590431481,78522.3332861518,63903.9041430106
3040504322,8056,-2,0,53149.4609706597,48114.8208885341,68665.9391455149,70880.8736689824,64868.0724392605,74734.1155634780,74658.9313648090,78349.8196805961,78528.3197929887,63904.3300123994
3040504322,8056,-2,0,53151.7606653592,48105.0258925917,68667.8981447034,70891.6055775802,64872.1729530899,74733.1543154290,74670.2716582480,78353.1049587383,78527.5653957857,63900.4363494161
3040504322,8056,-2,0,53152.2960440194,48088.1614647951,68663.3109230012,70881.5307246108,64867.2085327861,74726.7297715065,74666.6943553821,78349.1139541804,78522.7469878438,63896.1168170439
3040504322,8056,-2,0,53168.6859316399,48121.2941032439,68658.4681796657,70882.6014819312,64869.3865505174,74716.4237322974,74658.2256383933,78346.6074086349,78521.0800133790,63906.4593593434
3040504322,8056,-2,0,53176.8261208145,48147.5763283815,68651.4960893861,70874.7168143900,64863.9232546439,74715.2069626151,74643.3080420884,78342.0810254168,78517.7703998432,63918.4202053204
3040532921,8057,-2,0,53167.2623111116,48096.3381570601,68655.5357647313,70870.0200834163,64864.7871611183,74737.6563632535,74644.1476131692,78349.3208050264,78523.7690743769,63921.0119247437
3040532921,8057,-2,0,53169.0144594541,48047.4118481350,68664.9657297691,70880.0219302048,64870.1531154172,74732.3877505291,74652.0322807104,78358.0207082548,78530.9966862898,63914.3561945815
3040532921,8057,-2,0,53189.6508732658,48084.5354911418,68663.1770783361,70887.4685606604,64874.8498463909,74711.7635044143,74653.6749197815,78355.5384981029,78525.1075210274,63904.7558817882
3040532921,8057,-2,0,53202.9866689838,48128.3270320076,68657.3730869516,70883.9642639754,64874.2901323370,74724.8072754084,74651.0466972678,78351.6813382101,78517.7825675400,63888.5850127105
3040532921,8057,-2,0,53210.7374918600,48133.3157877050,68666.7665488989,70891.3013851596,64886.5795061282,74741.2093307258,74666.0859705409,78363.6786872775,78525.3873780544,63897.4917667849
3040532921,8057,-2,0,53214.8623410830,48129.9088325946,68672.1568385915,70899.8431083293,64894.5006767600,74732.9109614925,74673.5326009966,78366.8057853610,78529.4635564901,63916.0231690462
3040532921,8057,-2,0,53209.6789022364,48108.0313137069,68666.9977351385,70893.6010798592,64889.9986289355,74727.6301810714,74671.9873035000,78364.1653951504,78529.3662149155,63913.5652942880
3040532921,8057,-2,0,53208.6689834001,48085.7400931273,68667.3627660432,70887.0061881811,64888.6601822849,74743.5211931221,74673.3379178474,78363.7151903679,78529.1715317663,63902.5291932696
3040588385,8058,-2,0,53251.3775992486,48151.2874759125,68689.6418189260,70929.1185868853,64917.1690959411,74776.0576144267,74718.1150421558,78389.6080492072,78553.9571301946,63920.1115151788
3040588385,8058,-2,0,53291.1051293755,48217.2972311769,68704.5594152310,70951.5193167364,64934.5445670043,74764.2671162052,74737.9727233709,78402.9195095315,78563.0950705087,63928.7992507103
3040588385,8058,-2,0,53266.3195309472,48160.6566024662,68690.2502037672,70911.9377989713,64914.5895442146,74746.9768190198,74698.9752550533,78387.9167393488,78549.2238961305,63916.1083429240
3040588385,8058,-2,0,53250.0634879917,48094.2209778129,68676.8657372619,70910.8062031668,64899.6111094256,74735.1984884952,74680.9183929681,78376.9779799050,78537.5429071805,63908.6130416811
3040588385,8058,-2,0,53251.7182947597,48110.4040145874,68658.4925150593,70909.3339118512,64890.4244983243,74715.1704595247,74665.9277904822,78361.6588496049,78524.7668255164,63898.5016856212
3040588385,8058,-2,0,53247.3379239034,48141.2856291240,68651.8002818067,70885.6677415306,64885.4965811110,74724.1137166895,74647.4572267050,78355.0152871395,78512.6599671776,63889.5462607595
3040588385,8058,-2,0,53252.1684995421,48154.5605863579,68666.5353626593,70884.2927917896,64893.2960747745,74732.9231291893,74651.1440388424,78360.5515891940,78516.9673318529,63892.0528063051
3040588385,8058,-2,0,53260.2113471421,48164.8544578701,68684.3245354144,70891.2283789787,64904.1861634310,74739.4936854737,74659.6857620121,78369.5800202366,78525.8132474432,63898.5260210149
3040596539,8059,-2,0,53250.4406865933,48134.3865450254,68687.9991798549,70883.3923822247,64903.2127476852,74743.9348948141,74657.6415889458,78369.9693865349,78529.6217365488,63897.4674313913
3040596539,8059,-2,0,53240.2806597461,48095.1700581651,68679.0924257805,70876.1160995246,64896.3745020707,74734.0182219034,74651.6550821089,78364.5669291456,78527.6505696634,63895.4962645059
3040596539,8059,-2,0,53252.0103194834,48135.8466686442,68669.1635851730,70887.5537345382,64891.5804295224,74719.8306874079,74654.1616276544,78357.6800127438,78520.9705041077,63903.2957581694
3040596539,8059,-2,0,53268.6678964340,48201.6374053658,68673.4222790611,70927.8896495062,64899.8666310589,74745.5288630979,74692.7818973705,78368.0103873464,78524.0124283134,63912.4945369676
3040596539,8059,-2,0,53279.9230159952,48187.5837155353,68693.1339479142,70954.0258622819,64913.7013023466,74770.8863432769,74725.0871324354,78385.6535477397,78539.7939310927,63916.7045600683
3040596539,8059,-2,0,53272.5250563269,48148.4645702496,68704.8636076515,70944.4742202759,64917.6071330267,74757.9155784637,74724.5760891688,78394.0370908507,78547.8002756022,63923.8348304066
3040596539,8059,-2,0,53263.0950912891,48153.6966798834,68694.1073636600,70935.2024352968,64909.1992545221,74736.5612705394,74723.2254748215,78385.3858584096,78539.5992479436,63917.7266466015
3040596539,8059,-2,0,53267.3781205708,48167.8720466822,68682.8157410084,70942.3570410287,64899.3190847018,74735.6973640650,74722.5927545867,78372.4029258995,78526.1782783479,63903.6607890741
3040630474,8060,-2,0,53262.4745387512,48175.4281864092,68676.9630788365,70916.3425052212,64888.4898345294,74716.5332415688,74686.5885396876,78360.6124276781,78515.2151835104,63896.9442204279
3040630474,8060,-2,0,53227.6140873534,48174.3330936951,68661.2059114508,70863.5347010097,64866.2351170403,74700.2650309166,74627.7698932455,78338.7592441841,78498.9348051613,63887.4655846028
3040630474,8060,-2,0,53195.2723491980,48134.2648680572,68658.9183844481,70838.6274256131,64858.2409402276,74728.5062552426,74606.7927839227,78337.5911452891,78499.1781590978,63884.0829648860
3040630474,8060,-2,0,53187.7162094710,48100.8645402782,68671.8404784741,70851.7198673946,64869.4838920920,74737.3278354393,74625.6283786046,78351.8516859656,78510.6401295050,63892.2961602415
3040630474,8060,-2,0,53204.2764448470,48148.6349180051,68678.3258608807,70883.0273513200,64883.7931035558,74733.3976693654,74653.2003796054,78360.1743905925,78520.7879886553,63902.6508702378
3040630474,8060,-2,0,53226.7258454854,48210.4346501688,68684.1420199621,70918.8612184636,64894.5980183345,74742.9614790683,74689.6669669838,78370.3222497428,78528.1494452332,63904.1231615534
3040630474,8060,-2,0,53216.8091725746,48183.9455741853,68688.0843537327,70947.5526475721,64895.1455646916,74746.3684341787,74724.3205675355,78377.6715386239,78529.4878918837,63900.0713185114
3040630474,8060,-2,0,53195.1020014425,48138.0611894660,68687.0135964123,70964.5509200337,64894.7318629996,74738.1552388232,74731.4265024801,78375.5178562862,78529.1836994631,63911.1439226202
3040681852,8061,-2,0,53191.8897294813,48136.5888981504,68684.5800570477,70930.0676672375,64891.8846219430,74749.3738552940,74694.4123687447,78370.9184668871,78527.7722466317,63920.6347261421
3040681852,8061,-2,0,53204.3616187248,48159.5980128426,68698.0618651275,70915.1744063262,64904.4051819738,74755.9930823656,74699.4011244421,78383.7918901258,78540.9376945941,63923.0074270226
3040681852,8061,-2,0,53197.9735778927,48178.7986384292,68687.6341489503,70889.8777646313,64892.2861559382,74720.3295629776,74680.3100081269,78367.3289963244,78525.8497505336,63905.7901360182
3040681852,8061,-2,0,53182.5206029276,48196.3079541574,68670.7818888505,70890.2549632329,64877.6240812665,74714.1483729915,74673.6786133584,78354.0297036969,78508.8028072847,63894.7175319093
3040681852,8061,-2,0,53158.7570910324,48154.9621203530,68665.3307606738,70901.4005735227,64871.1508665567,74744.2025841442,74686.3451857511,78353.5308281271,78504.7022934554,63884.0099587051
3040681852,8061,-2,0,53140.6393904630,48096.1678093046,68661.7169547174,70878.4766327082,64863.9475900375,74718.0785390653,74654.5144908623,78352.8981078924,78504.4224364284,63874.9450245720
3040681852,8061,-2,0,53147.5263068648,48124.2143504814,68654.9152121934,70858.0714051362,64859.1900205798,74691.5529599913,74620.3597658803,78339.2459520570,78499.7013700611,63881.3574007977
3040681852,8061,-2,0,53156.3965578487,48173.1041563160,68651.8367848972,70853.1313202260,64858.9223312497,74702.3213716796,74617.3178416746,78334.3667056310,78496.1727379825,63888.6701865883
3040690771,8062,-2,0,53154.8634280491,48161.1433103391,68661.1815760572,70866.1994266139,64864.9575088738,74727.0704670175,74640.8258319365,78345.7800052509,78505.5905353234,63896.2749971026
3040690771,8062,-2,0,53154.1211985429,48136.6375689377,68670.1613363125,70888.7948396141,64873.3532196817,74723.9068658435,74661.1458856308,78355.8183551299,78515.3611958723,63900.7648772303
3040690771,8062,-2,0,53145.4091276176,48118.4103590969,68668.7377157842,70884.8403381466,64871.4063881900,74723.9433689340,74657.9944521537,78352.9954494669,78511.4675328889,63894.4620102760
3040690771,8062,-2,0,53153.2572920684,48114.0908267248,68678.2041839125,70888.9165165823,64881.2500549198,74750.4689480080,74668.1909820913,78364.4087490869,78521.3598704060,63893.0870605350
3040690771,8062,-2,0,53167.5543358354,48146.4812356674,68683.2659457908,70894.7935141478,64890.4123306274,74736.8411275663,74669.5780995291,78365.8323696151,78525.8497505336,63896.9077173374
3040690771,8062,-2,0,53168.0045406178,48179.6868802972,68678.1676808220,70892.4816517515,64886.5186676441,74725.2209771004,74664.0661328683,78359.2131425434,78522.9173355993,63902.0911561840
3040690771,8062,-2,0,53150.6047341610,48135.2869545903,68677.5349605872,70893.2117135608,64879.9359436629,74747.7312162229,74678.4726859067,78362.8756192872,78523.5622235309,63903.9893168884
3040690771,8062,-2,0,53146.4677172412,48078.8531767255,68682.6818963433,70913.7751211916,64886.1171336489,74746.7578004770,74710.0478591622,78372.4272612932,78528.2467868078,63907.6396259352
3040721977,8063,-2,0,53172.0320482662,48111.9493120839,68684.1906907494,70939.4489614880,64898.0414765354,74719.5873334714,74723.2498102151,78376.3939304574,78535.7420880507,63906.2403408006
3040721977,8063,-2,0,53180.3304174995,48148.2333840099,68665.9148101213,70913.1424009568,64881.0675394674,74704.5845632887,74680.2004988555,78356.0982121568,78511.6257129476,63885.3605730524
3040721977,8063,-2,0,53154.8999311395,48129.8236587168,68654.2703242617,70867.8664010786,64860.0539270542,74700.5570556403,74632.4544565223,78334.6830657484,78489.0789707347,63874.3853105181
3040721977,8063,-2,0,53129.4937801732,48103.9794706649,68645.3027317032,70846.1957330370,64845.5865355317,74687.1604214383,74608.8612923826,78320.5563697370,78477.3858140879,63884.3628219130
3040721977,8063,-2,0,53118.5428530326,48076.4926435419,68638.3914799078,70847.8505398049,64842.5202759323,74700.0460123738,74612.6211107009,78318.4513581866,78475.4633179898,63891.2740737084
3040721977,8063,-2,0,53135.6019639783,48062.7674815256,68649.3302393516,70887.8822623524,64860.2121071129,74730.5747637025,74659.1260479582,78341.5091436661,78495.2236576303,63904.2205031280
3040721977,8063,-2,0,53173.2609856453,48107.9339721323,68660.5488558224,70927.5854570856,64882.1139613942,74722.6414253740,74690.6038796392,78357.0229571153,78512.9398242045,63909.0024079794
3040721977,8063,-2,0,53184.6256144780,48151.0319542792,68656.8498759882,70905.5740935329,64878.4149815600,74712.6639139792,74672.8512099745,78348.8219294567,78507.7685530548,63889.6436023341
3040751443,8064,-2,0,53165.4249888914,48109.8564682304,68660.2446634018,70877.6248939306,64869.3378797301,74728.6766029981,74658.4203215425,78347.8728491045,78501.9037231861,63884.2898157320
3040751443,8064,-2,0,53150.8724234911,48050.0887414361,68666.0364870895,70874.7289820868,64868.7659979794,74719.0884579017,74653.2247149991,78352.0463691147,78501.5995307655,63887.3925784219
3040751443,8064,-2,0,53151.5659822100,48064.3006113253,68654.9760506775,70876.1160995246,64862.1711063014,74690.6403827296,74637.8812493053,78340.0733554410,78489.2249830966,63878.1329611396
3040751443,8064,-2,0,53157.5038182596,48106.8510471151,68643.6722603290,70875.5685531676,64861.8304107904,74714.9149378914,74639.5725591637,78333.7096500026,78484.5282521229,63875.6385832909
3040751443,8064,-2,0,53176.0717236114,48142.1738709921,68658.8210428735,70900.2081392340,64884.6935131207,74736.7072829013,74671.7926203509,78350.0752022294,78500.1759102372,63894.1334824618
3040751443,8064,-2,0,53181.0361439152,48163.9297129115,68665.0630713437,70911.3780849175,64894.6588568186,74731.1588131500,74685.4569438831,78356.9256155407,78510.9929927128,63897.1875743643
3040751443,8064,-2,0,53184.6986206589,48158.6124293999,68671.0252427869,70943.2209475031,64907.1429137590,74745.8695586090,74729.4188325043,78372.5854413519,78518.2449400193,63896.8833819438
3040751443,8064,-2,0,53179.4665110250,48118.9822408476,68668.6403742096,70932.2821880593,64900.2316619636,74713.8320128741,74721.1204632711,78365.7471957374,78510.1655893289,63881.7954378833
3040816899,8065,-2,0,53175.3903325894,48129.0935969074,68650.3644935816,70891.3013851596,64877.8430998093,74676.9517238038,74666.7673615630,78340.4262186488,78486.8522822161,63867.3523817545
3040816899,8065,-2,0,53181.2916655485,48166.4362584571,68637.1017040446,70868.2801027706,64867.2815389670,74690.1901779472,74635.7519023613,78327.7474785593,78478.2983913496,63868.2041205321
3040816899,8065,-2,0,53186.6576198474,48139.3996361165,68647.3955755568,70872.9403306538,64876.0301129827,74726.3647406018,74646.3621339909,78347.3618058379,78492.3764165737,63879.4349046997
3040816899,8065,-2,0,53173.8937058801,48078.4029719431,68651.8732879876,70870.3729466242,64878.0377829585,74712.3110507713,74644.4639732866,78350.9026056134,78500.9059720466,63885.6282623825
3040816899,8065,-2,0,53167.3109818989,48073.4628870330,68646.5316690824,70868.3044381643,64873.9981076133,74704.0005138412,74639.9254223716,78345.1472850161,78496.3187503444,63882.0996303039
3040816899,8065,-2,0,53184.4796021161,48097.2750697154,68651.2040646624,70884.3171271833,64882.6128369639,74722.0330405328,74655.5244096986,78352.0707045084,78502.6824557828,63877.9261102936
3040816899,8065,-2,0,53202.6703088664,48120.1016689553,68663.1770783361,70904.3451561538,64895.8026203200,74729.6621864408,74676.4650159309,78365.5768479819,78513.6698860139,63887.8306155075
3040816899,8065,-2,0,53198.7158073989,48128.8380752742,68656.5578512645,70901.1693872830,64888.4898345294,74698.0991808821,74673.4839302093,78358.3370683722,78507.9023977198,63881.3695684945
3040821989,8066,-2,0,53172.9811286184,48084.1461248435,68640.2044667344,70885.9232631639,64873.2072073198,74698.9387519629,74676.8057114419,78351.7908474815,78494.7491174542,63864.2861221551
3040821989,8066,-2,0,53162.4560708666,48032.8106119475,68637.0286978636,70890.5469879566,64873.5600705277,74709.5246481988,74687.0387444700,78353.8228528509,78495.3575022954,63861.3050364335
3040821989,8066,-2,0,53186.8888060870,48073.4507193361,68643.5019125734,70908.4700053768,64881.3595641912,74703.7328245111,74691.8084816246,78355.3194795601,78502.9501451129,63873.3997270755
3040821989,8066,-2,0,53210.9808457965,48141.0544428844,68645.5339179429,70906.9733786676,64880.8120178341,74706.6044009613,74673.0945639109,78346.8142594809,78498.4967680757,63877.1473776970
3040821989,8066,-2,0,53194.8464798092,48130.3347019834,68652.5911821002,70885.0958597799,64876.0422806795,74729.8690372868,74658.5785016012,78348.9922772122,78498.2047433519,63870.8688461363
3040821989,8066,-2,0,53202.2079363871,48103.5901043666,68669.1514174762,70907.7156081738,64890.3514921433,74742.0854048970,74681.3442623569,78368.4484244321,78511.2120112556,63882.6350089641
3040821989,8066,-2,0,53216.9795203302,48105.7681220979,68672.2298447724,70922.7792168406,64894.2208197330,74722.0817113201,74685.1405837656,78369.5313494493,78512.1732593047,63900.3755109319
3040821989,8066,-2,0,53207.3183690528,48100.2318200434,68665.7322946690,70904.1991437919,64885.1437179031,74725.9023681225,74671.1842355097,78358.5560869150,78506.6612926439,63901.6166160079
3040850429,8067,-2,0,53209.5328898745,48116.3175152434,68664.0774879010,70919.3600940333,64888.7331884659,74744.0809071760,74695.8359892730,78368.5092629162,78521.0191748949,63902.5291932696
3040850429,8067,-2,0,53203.4247060694,48149.3649798145,68661.4736007809,70943.2209475031,64895.1820677820,74730.1732297074,74726.5594237510,78371.6485286965,78532.6149899672,63904.2813416121
3040850429,8067,-2,0,53148.8160827281,48094.1358039351,68635.2522141275,70881.7862462441,64864.3369563359,74679.7867971636,74670.4176706099,78342.7989195293,78496.4039242221,63880.6760097756
3040850429,8067,-2,0,53116.9245493551,48022.4680696480,68625.3233735200,70843.5066720391,64844.2237534876,74684.0454910516,74629.8749047958,78325.7154731899,78470.0365252068,63866.7561646102
3040850429,8067,-2,0,53161.5069905144,48069.3380378100,68643.5992541480,70888.8435104014,64865.4928875341,74705.7161590933,74655.1107080066,78339.1486104824,78478.4930744988,63875.8576018337
3040850429,8067,-2,0,53197.3773607484,48140.3973872560,68647.6267617964,70899.5875866961,64874.8376786941,74694.0838409305,74658.1282968187,78342.5433978960,78481.6810110664,63873.0103607772
3040850429,8067,-2,0,53180.2939144090,48126.8304052984,68638.8295169934,70869.4725370593,64866.7948310941,74689.5452900156,74641.1300243571,78335.6443137974,78473.6624988601,63873.8499318579
3040850429,8067,-2,0,53145.6646492509,48088.6725080616,68633.2688795453,70846.5364285480,64861.5383860666,74691.1270906025,74634.3891203172,78332.0670109315,78473.6259957696,63877.8287687190
3040879097,8068,-2,0,53141.3816199692,48082.9171874644,68637.4667349493,70853.2651648911,64865.5658937150,74703.3191228191,74640.0957701271,78338.6619026095,78481.1091293157,63880.7733513502
3040879097,8068,-2,0,53168.7346024272,48089.2565575091,68651.6907725353,70878.6713158574,64880.8120178341,74727.6666841618,74656.8506886523,78352.9589463765,78494.0433910385,63885.1415545096
3040879097,8068,-2,0,53194.6031258728,48120.1868428330,68664.9535620723,70892.7493410816,64887.0418786075,74725.1844740099,74656.9358625301,78357.4123234137,78504.1669147952,63892.4421726034
3040879097,8068,-2,0,53179.2718278759,48158.0162122556,68662.0941533189,70885.1080274767,64877.3198888460,74704.5480601982,74647.0313573162,78347.4226443220,78502.1714125162,63889.5584284564
3040879097,8068,-2,0,53134.4825358706,48121.8173142073,68655.9372987265,70863.9849057921,64866.5149740672,74710.1452007368,74650.8763495122,78342.3973855341,78492.4737581483,63880.2258049932
3040879097,8068,-2,0,53104.5013308989,48056.8418131728,68654.9395475870,70857.1588278744,64863.7894099788,74705.5579790346,74652.8231810039,78344.5510678718,78488.3489089253,63872.9860253835
3040879097,8068,-2,0,53110.3904961612,48079.9239340459,68651.4839216893,70865.3720232299,64867.1233589083,74699.0482612343,74652.9205225785,78341.5699821502,78482.3624020884,63874.5556582737
3040879097,8068,-2,0,53137.5122923795,48146.5055710611,68659.7457878321,70876.3472857642,64878.3298076823,74718.3097253050,74649.8177598887,78343.0909442531,78484.6377613943,63877.6462532667
3040929145,8069,-2,0,53153.9873538778,48164.0270544861,68675.7706445479,70886.2152878876,64890.3758275370,74737.9605556740,74653.4680689355,78354.6015854476,78496.7567874300,63880.7855190470
3040929145,8069,-2,0,53155.7881730076,48159.6710190235,68687.2082795614,70899.3442327596,64900.0491465112,74734.6509421382,74665.9034550886,78366.6476053023,78508.1700870499,63892.9410481731
3040929145,8069,-2,0,53146.4798849380,48139.2536237546,68680.9175803040,70918.2528336224,64896.9950546087,74720.5364138236,74679.4582693493,78365.0779724121,78505.1768336315,63891.2740737084
3040929145,8069,-2,0,53123.7871303633,48103.1885703714,68673.8724838435,70918.8125476763,64887.2000586662,74726.1457220590,74681.4294362347,78359.8215273846,78498.7157866185,63874.9815276625
3040929145,8069,-2,0,53142.8417435880,48138.6452389135,68685.7238205490,70912.7286992648,64902.3366735139,74751.1138359396,74682.0134856822,78367.3289963244,78515.5923821119,63883.0000398688
3040929145,8069,-2,0,53180.5129329518,48213.8902760665,68700.5319075826,70915.8557973483,64919.2132690073,74748.5464519100,74682.6583736138,78378.7544636411,78529.3053764314,63900.4971879002
3040929145,8069,-2,0,53152.3203794131,48186.5372936086,68689.8121666816,70888.0891131984,64904.4173496706,74730.1367266169,74665.5749272744,78367.8400395909,78514.6919725470,63892.7098619335
3040929145,8069,-2,0,53106.5090008747,48114.0421559375,68676.1843462399,70874.1936034266,64889.3780763975,74702.8324149462,74663.9201205064,78357.4123234137,78498.7644574058,63886.5286719474
3040951456,8070,-2,0,53097.1155389274,48113.6892927296,68661.5344392650,70867.7690595041,64879.2910557313,74694.0351701432,74643.9407623232,78346.4127254857,78484.1632212182,63882.3916550276
3040951456,8070,-2,0,53110.7068562786,48151.1171281570,68662.1306564094,70866.1507558266,64881.7124273990,74714.3308884439,74637.8812493053,78343.7845029720,78486.6697667638,63874.5799936673
3040951456,8070,-2,0,53124.5050244758,48162.0315522071,68670.5628703077,70877.5153846592,64892.3104913318,74722.0452082296,74651.6915851994,78355.1004610173,78496.0023902270,63869.0315239160
3040951456,8070,-2,0,53127.0115700213,48159.9630437472,68673.1789251246,70891.3135528564,64900.6088605651,74721.9722020487,74666.7795292598,78364.7616122947,78501.9037231861,63879.3375631251
3040951456,8070,-2,0,53112.4590046211,48127.4509578363,68671.9256523518,70890.6443295312,64893.5880994982,74718.0177005812,74675.8687987866,78361.6223465144,78496.2214087698,63882.2334749689
3040951456,8070,-2,0,53097.3588928638,48075.9937679721,68673.7143037848,70886.9331820002,64887.9909589597,74724.6612630466,74677.4140962831,78362.3159052333,78497.5233523298,63883.5110831353
3040951456,8070,-2,0,53108.6991863028,48096.5571756029,68675.1865951004,70898.0666245932,64887.8206112042,74723.2863133056,74680.3708466111,78359.1158009689,78499.5553576993,63892.5273464811
3040951456,8070,-2,0,53116.9975555361,48150.2167185921,68665.9513132118,70884.9620151149,64875.8475975304,74717.9933651876,74655.7312605446,78346.1693715493,78498.9469728581,63887.0762183045
3040987682,8071,-2,0,53087.1501952294,48122.3770282612,68654.3676658363,70857.8037158061,64861.9034169713,74706.2758731471,74644.7438303135,78339.6474860522,78492.5467643293,63871.9396034567
3040987682,8071,-2,0,53063.0459878231,48058.4479491534,68652.8102006430,70850.6247746805,64852.7289735668,74693.9621639623,74639.2440313495,78336.3500402131,78483.6278425580,63876.1252911638
3040987682,8071,-2,0,53057.2054933481,48051.0134863946,68649.4032455326,70849.9677190521,64846.4139389157,74683.6804601469,74628.0740856661,78325.1435914392,78471.6791642779,63881.3574007977
3040987682,8071,-2,0,53069.4948671393,48073.6697378789,68650.0968042515,70853.5085188276,64847.7767209599,74704.0126815380,74626.0664156903,78324.8393990186,78471.3141333732,63884.2654803384
3040987682,8071,-2,0,53091.5549014793,48094.1966424192,68661.9846440475,70867.9029041691,64858.8006542814,74713.9901929328,74641.0691858730,78334.1720224818,78477.1424601514,63888.9378759184
3040987682,8071,-2,0,53093.3313852154,48106.7050347532,68658.2369934260,70867.9150718659,64858.5086295577,74696.8459081093,74640.7771611492,78332.2130232933,78476.4854045230,63890.5683472927
3040987682,8071,-2,0,53071.9649095943,48072.8058314045,68649.5492578944,70858.4364360409,64848.1904226518,74698.2208578503,74638.8911681417,78328.5383788528,78472.1415367572,63885.8107778349
3040987682,8071,-2,0,53053.2144887902,48015.6419917303,68652.3234927701,70871.0908407367,64844.3210950621,74713.6738328154,74653.6992551752,78333.2107744328,78477.0207831832,63886.3461564951
3041010507,8072,-2,0,53083.4512153952,48042.5691047995,68659.3320861401,70894.4893217272,64853.5198738603,74699.6444783786,74662.1193013766,78337.4086298367,78485.0757984800,63895.3989229314
3041010507,8072,-2,0,53092.4431433474,48098.5283424882,68647.7971095519,70866.8199791519,64844.8443060255,74690.2875195217,74636.9321689531,78324.3040203584,78475.2808025375,63886.2974857078
3041010507,8072,-2,0,53078.4259566073,48085.2168821639,68644.8403592240,70845.7455282545,64839.1863270029,74706.7017425359,74629.0475014119,78323.1967599475,78477.4466525720,63880.9071960152
3041010507,8072,-2,0,53068.2537620634,48041.3036643299,68652.5546790097,70856.5017722460,64845.4161877762,74714.9757763755,74643.5392283280,78331.3126137285,78486.3047358591,63890.4831734149
3041010507,8072,-2,0,53071.4538663278,48040.9508011221,68654.1486472935,70874.3396157884,64853.0331659874,74705.4849728536,74657.3860673125,78334.1355193914,78484.5160844261,63894.3646687014
3041010507,8072,-2,0,53072.7923129783,48049.3343442331,68650.5470090339,70867.4283639930,64847.8740625344,74704.4020478364,74653.5167397228,78332.0791786283,78477.9941989290,63886.5895104315
3041010507,8072,-2,0,53080.9811729401,48068.5471375165,68652.7980329462,70862.8046392003,64849.2490122754,74710.7900886684,74644.6951595262,78332.0670109315,78478.3105590464,63883.6327601036
3041010507,8072,-2,0,53096.2881355434,48110.3310084065,68660.7313712747,70869.1926800323,64856.1602640709,74723.7486857848,74642.6144833695,78337.8101638319,78492.3034103928,63888.6215158010
3041047616,8073,-2,0,53089.3890514448,48093.7707730304,68664.8805558913,70869.3751954847,64860.7231503795,74729.1511431742,74650.3288031552,78345.2567942875,78499.2998360660,63885.2632314779
3041047616,8073,-2,0,53074.4227843526,48031.5451714779,68668.6525419065,70869.3143570006,64864.0814347026,74729.4066648075,74654.8308509797,78352.8494371051,78499.9568916944,63880.7976867438
3041047616,8073,-2,0,53084.2177802951,48049.3465119299,68668.1536663367,70877.5032169624,64867.0260173338,74708.8189217831,74654.9160248575,78349.0652833931,78497.3651722711,63883.7422693750
3041047616,8073,-2,0,53097.2250481988,48109.6861204748,68659.9039678908,70878.3062849527,64864.6411487565,74711.0456103017,74656.0354529652,78345.5853221018,78493.3011615323,63878.5223274379
3041047616,8073,-2,0,53101.3985682090,48117.6316265002,68661.2910853286,70885.9475985575,64869.8002522094,74730.5990990962,74671.6344402922,78352.6304185622,78497.8518801441,63882.0874626071
3041047616,8073,-2,0,53093.7207515138,48087.3583968048,68666.7300458084,70890.8268449835,64874.5943247576,74731.3291609055,74680.6750390316,78359.6268442354,78505.5296968393,63889.6314346373
3041047616,8073,-2,0,53090.9951874254,48078.9383506033,68671.0860812710,70893.1143719862,64879.5344096677,74744.0930748728,74681.6849578679,78364.3479106027,78520.8366594426,63893.1965698064
3041047616,8073,-2,0,53089.5107284130,48066.6854799026,68669.2365913540,70878.8173282193,64876.3586407969,74737.6441955566,74668.8967085070,78363.8246996394,78525.3995457512,63882.5863381768
3041062046,8074,-2,0,53097.9916130986,48076.5413143292,68665.8904747277,70871.7722317588,64869.5082274856,74714.4890685026,74660.6105069706,78351.3284750022,78509.6180429718,63877.1473776970
3041062046,8074,-2,0,53113.1282279464,48118.6902161238,68661.7169547174,70870.9813314653,64860.7474857731,74705.2781220076,74650.2314615806,78341.5091436661,78495.0533098748,63876.2834712225
3041062046,8074,-2,0,53103.4305735785,48097.6157652265,68660.5001850351,70862.1475835719,64854.8339851172,74727.1434731984,74643.6974083867,78339.0634366047,78491.9627148818,63880.4204881423
3041062046,8074,-2,0,53091.0316905159,48029.4279922307,68664.0166494169,70862.5004467797,64854.9799974790,74731.9010426562,74649.3797228030,78343.7114967910,78500.7477919879,63883.4380769544
3041062046,8074,-2,0,53104.4526601116,48036.9719642609,68665.2577544928,70876.4689627325,64860.0782624479,74720.2443890998,74656.5099931413,78344.5510678718,78504.2764240666,63885.3727407493
3041062046,8074,-2,0,53119.9543058640,48090.7410165215,68660.3420049764,70877.7344032020,64860.8813304382,74714.4038946248,74655.5487450923,78340.8277526440,78500.8207981689,63878.3033088951
3041062046,8074,-2,0,53121.9984789303,48096.0948031236,68661.5222715682,70870.3607789273,64863.5095529519,74732.4364213164,74659.5154142565,78342.8354226198,78500.5044380515,63870.7228337744
3041062046,8074,-2,0,53121.0128954876,48077.0645252925,68662.3010041649,70876.0674287373,64865.0670181453,74727.0704670175,74665.6844365458,78346.2302100334,78505.7973861694,63874.6164967578
3041095979,8075,-2,0,53117.0705617170,48061.6115503274,68661.6804516269,70879.6203962096,64865.1521920230,74724.7464369243,74675.4185940041,78348.8219294567,78508.8393103752,63876.5998313399
3041095979,8075,-2,0,53106.3751562096,48035.4510021581,68660.2446634018,70879.4743838477,64865.4320490499,74732.9717999766,74685.1405837656,78350.6714193738,78509.8127261210,63870.9296846204
3041095979,8075,-2,0,53123.2760870967,48066.5759706312,68665.5376115198,70903.6515974349,64878.8651863425,74728.5549260299,74699.7539876500,78356.0617090663,78512.6599671776,63884.8982005732
3041095979,8075,-2,0,53153.9751861810,48128.6798952155,68658.2856642133,70891.2162112819,64874.9715233591,74713.0167771870,74667.5095910692,78346.5587378476,78503.2421698366,63890.1424779038
3041095979,8075,-2,0,53149.8990077453,48112.7280446806,68653.7106102079,70863.5955394938,64864.2396147613,74723.7243503912,74641.7019061077,78341.2292866392,78498.7401220121,63881.4425746754
3041095979,8075,-2,0,53122.3635098350,48038.7971187844,68651.9827972590,70843.1294734376,64858.9101635528,74718.2488868209,74628.1105887565,78339.0147658174,78499.1051529168,63877.0257007287
3041095979,8075,-2,0,53114.1138113890,48030.6204265194,68645.9719550285,70842.7522748361,64856.6469719438,74698.9022488724,74622.7081313671,78332.2251909902,78495.8685455619,63872.0247773345
3041095979,8075,-2,0,53120.5505230084,48064.6534745331,68637.2598841033,70843.4336658582,64852.5829612049,74703.3556259096,74621.7590510149,78324.0971695124,78487.8987041429,63861.2441979494
3041125329,8076,-2,0,53130.0778296207,48079.4128907794,68640.8980254533,70849.5661850569,64859.6767284527,74725.5130018242,74634.0849278966,78332.3347002616,78494.4449250336,63866.9873508498
3041125329,8076,-2,0,53143.7178177592,48089.8649423503,68657.2757453770,70867.6230471422,64871.2847112218,74735.9528856983,74649.4770643776,78345.6339928891,78512.8424826299,63894.4376748823
3041125329,8076,-2,0,53142.9025820721,48078.1596180066,68665.4889407325,70878.9633405812,64877.1008703031,74735.2836623730,74663.2752325748,78353.7011758827,78520.3986223570,63905.3520989325
3041125329,8076,-2,0,53127.8268057085,48034.6601018646,68665.5984500039,70869.1561769419,64875.9692744986,74736.8289598695,74660.2211406723,78352.1315429925,78518.2936108066,63898.7085364672
3041125329,8076,-2,0,53131.9516549315,48053.1550010355,68664.1018232947,70868.4382828293,64878.4149815600,74728.8834538441,74654.3441431068,78353.2388034034,78517.0403380338,63891.8946262464
3041125329,8076,-2,0,53152.6002364400,48122.7055560754,68662.3375072553,70872.2467719349,64882.6858431449,74722.8482762199,74649.8907660696,78348.1040353441,78516.3832824054,63893.6102714984
3041125329,8076,-2,0,53145.8836677937,48117.3639371701,68660.0743156463,70865.2868493522,64877.2955534523,74734.3467497176,74649.2458781380,78348.3717246742,78513.0615011727,63889.1447267644
3041125329,8076,-2,0,53128.8732276352,48057.9734089773,68663.6394508154,70864.9339861443,64876.8696840635,74732.8257876148,74653.7114228720,78354.2852253302,78517.7460644496,63890.8725397132
3041164112,8077,-2,0,53131.6596302077,48051.5366973580,68663.0554013679,70875.6658947422,64879.5222419709,74719.0397871144,74661.6934319878,78352.4844062004,78516.1155930753,63902.7847149029
3041164112,8077,-2,0,53136.8795721447,48072.2461173507,68653.5037593619,70869.4847047561,64870.5546494124,74710.8144240621,74653.3463919673,78342.9449318912,78506.2232555582,63897.3700898167
3041164112,8077,-2,0,53137.4271185018,48078.2691272780,68645.1445516445,70855.7473750430,64860.8813304382,74713.3939757885,74641.1908628412,78337.1044374162,78499.4580161247,63888.6336834978
3041164112,8077,-2,0,53140.6637258567,48093.5517544876,68643.8912788718,70858.5946160996,64862.1102678173,74711.0456103017,74641.6532353205,78335.7903261593,78499.9690593913,63891.7486138845
3041164112,8077,-2,0,53132.9372383741,48078.7436674541,68646.4221598109,70861.8555588481,64862.1954416950,74717.9690297940,74650.2314615806,78340.8155849472,78501.2953383449,63888.9135405247
3041164112,8077,-2,0,53117.3625864407,48025.4978261569,68651.1310584814,70858.5824484027,64863.5825591329,74727.4841687095,74655.6217512732,78346.1085330651,78506.7829696121,63883.3042322894
3041164112,8077,-2,0,53128.9097307257,48044.5037685944,68657.5677701008,70880.2652841412,64877.3198888460,74729.7716957122,74677.6452825227,78355.7088458584,78514.4242832169,63891.6391046131
3041164112,8077,-2,0,53154.5349002348,48119.1160855126,68658.1883226387,70909.6746073623,64885.1072148126,74714.1970437788,74694.1811825051,78354.4190699952,78516.1642638626,63899.2804182179
3041192901,8078,-2,0,53147.8791700727,48110.7690454921,68651.6177663543,70874.1571003361,64872.0999469089,74718.3462283955,74660.8295255134,78346.6560794222,78505.5175291425,63893.3547498651
3041192901,8078,-2,0,53131.6596302077,48055.1870064049,68655.3532492790,70846.7067763035,64866.1012723752,74724.9046169830,74633.0871767571,78346.3640546984,78507.7807207516,63903.6242859837
3041192901,8078,-2,0,53131.9759903251,48041.1941550585,68655.6939447900,70844.0785537898,64863.8502484630,74714.6715839549,74620.5909521199,78344.5632355686,78506.0650754995,63905.0965772992
3041192901,8078,-2,0,53139.3617822966,48050.0522383456,68654.1729826872,70851.0628117662,64864.9088380866,74724.7099338339,74629.1448429865,78345.8165083414,78502.1835802130,63895.8126246233
3041192901,8078,-2,0,53152.9165965574,48069.4110439909,68658.2126580324,70865.6883833473,64874.5699893640,74727.4720010127,74648.7226671746,78353.1536295256,78506.9654850644,63895.4232583250
3041192901,8078,-2,0,53158.4650663086,48104.1498184204,68656.0103049074,70871.7478963652,64877.4293981174,74716.1925460578,74652.7988456103,78350.9269410070,78509.6910491528,63900.0591508146
3041192901,8078,-2,0,53142.5253834706,48088.2831417633,68651.4109155083,70861.5391987307,64870.3964693537,74727.8978704015,74649.4527289840,78349.5763266597,78510.3481047812,63902.1519946681
3041192901,8078,-2,0,53134.5068712643,48031.8250285048,68662.1549918030,70867.7082210199,64877.9404413839,74746.3075956946,74661.2675625990,78361.8657004509,78516.7483133101,63905.1330803897
3041222899,8079,-2,0,53150.7507465229,48044.2847500515,68668.0563247621,70881.5915630949,64887.9544558692,74732.5337628910,74669.9796335243,78368.5579337035,78522.8321617216,63904.8045525755
3041222899,8079,-2,0,53168.9292855764,48109.8443005336,68661.0964021794,70881.3968799458,64887.4677479963,74722.7144315549,74666.8525354408,78362.5227560793,78517.0038349434,63890.7630304418
3041222899,8079,-2,0,53163.7823498203,48117.2787632924,68659.5754400765,70867.4648670835,64882.9535324750,74742.0367341097,74663.1778910002,78361.1113032478,78513.0006626886,63878.9238614331
3041222899,8079,-2,0,53156.0193592472,48088.7820173330,68670.4655287331,70872.9403306538,64891.5682618256,74746.0277386676,74673.0702285173,78371.5511871219,78522.3941246359,63898.1123193229
3041222899,8079,-2,0,53150.7264111293,48075.0690230136,68673.4952852420,70878.5009681019,64893.1622301094,74738.1674065200,74673.8732965076,78371.6971994838,78521.3233673155,63911.8253136423
3041222899,8079,-2,0,53153.9386830905,48073.7184086662,68676.4763709636,70882.0296001805,64898.9175507067,74756.2121009085,74677.1950777403,78376.6372843939,78526.8718370668,63911.5819597059
3041222899,8079,-2,0,53170.3650738015,48093.8681146050,68678.2041839125,70887.8700946556,64907.5931185414,74747.2931791372,74676.8178791388,78381.3826861549,78529.5365626710,63900.2538339637
3041222899,8079,-2,0,53175.3781648925,48133.8511663652,68666.9125612608,70879.9489240238,64899.3799231860,74718.2732222145,74660.2576437627,78365.5160094977,78518.1475984447,63886.9180382458
3041277411,8080,-2,0,53153.9021800000,48113.7744666074,68658.4803473625,70861.8920619386,64884.6935131207,74727.8248642205,74646.7393325924,78358.0085405580,78507.7442176611,63877.9626133841
3041277411,8080,-2,0,53132.0611642029,48041.3645028140,68662.8363828251,70859.1786655471,64880.9458624992,74740.9051383052,74653.9426091116,78361.7926942699,78510.6522972018,63883.7179339813
3041277411,8080,-2,0,53142.9269174657,48045.4285135529,68671.2807644202,70873.7433986441,64892.8458699920,74738.7514559675,74658.5176631170,78367.0248039038,78519.7172313349,63904.9262295437
3041277411,8080,-2,0,53168.3574038257,48107.4715996531,68671.5727891440,70884.4388041515,64898.9662214940,74732.6919429497,74659.1868864423,78366.3799159722,78516.9064933688,63909.5864574269
3041277411,8080,-2,0,53174.6602707800,48120.7343891901,68672.3515217406,70882.5163080535,64899.6354448192,74744.6892920171,74664.0052943842,78366.2217359135,78513.4873705615,63897.8446299928
3041277411,8080,-2,0,53163.7701821234,48096.7883618425,68672.1690062883,70878.6591481606,64895.9121295914,74733.2881600940,74667.1810632550,78366.9639654197,78515.1421773295,63889.1568944612
3041277411,8080,-2,0,53150.2275355595,48073.2682038838,68666.7422135053,70877.3328692069,64888.4411637421,74730.3314097661,74671.4275894462,78363.3136563728,78514.4607863074,63887.8306155075
3041277411,8080,-2,0,53143.6448115783,48045.2338304037,68666.3650149037,70870.6528036511,64884.7665193016,74744.7622981981,74668.4343360278,78362.9607931649,78513.6698860139,63892.5516818748
3041283707,8081,1,0,53159.8035129592,48064.1545989634,68672.5583725866,70870.4337851083,64892.5538452683,74735.4418424317,74657.4834088871,78363.1676440109,78517.1620150021,63906.6540424926
3041283707,8081,1,0,53177.9698843158,48129.4342924185,68667.7399646447,70867.0268299979,64893.6246025887,74723.0672947628,74645.1940350959,78354.9666163522,78510.2385955098,63912.5310400581
3041283707,8081,1,0,53169.7323535667,48131.9530056608,68665.5254438230,70858.3512621631,64890.5705106861,74736.9871399282,74645.2183704896,78354.3582315111,78507.6590437834,63901.8478022475
3041283707,8081,1,0,53154.3158816920,48069.1555223576,68673.4952852420,70866.3211035821,64891.3735786765,74748.1814210053,74662.2531460417,78366.1122266421,78516.0790899848,63894.2308240364
3041283707,8081,1,0,53157.0657811740,48058.2532660043,68676.0261661812,70880.1314394762,64895.9242972882,74736.5004320553,74670.6975276368,78368.3997536448,78519.2670265524,63895.7882892297
3041283707,8081,1,0,53172.2754022027,48102.5436824398,68673.6169622102,70881.8105816377,64898.5403521052,74737.9240525836,74666.6943553821,78366.4285867595,78516.2981085276,63897.9906423546
3041283707,8081,1,0,53180.8049576756,48122.5717114103,68675.6976383669,70879.4987192414,64901.9959780029,74752.1359224728,74667.9719635485,78371.2834977918,78515.3733635691,63902.6873733283
3041283707,8081,1,0,53182.6787829863,48125.5284617383,68682.2803623481,70884.3657979705,64909.3574345808,74746.6847942961,74672.1819866492,78376.1870796115,78523.6960681960,63913.8694867086
3041317026,8082,1,0,53174.9522955037,48104.1498184204,68678.8369041473,70884.3901333642,64904.6120328198,74743.8862240268,74670.6488568495,78371.9405534203,78522.6983170565,63913.2245987770
3041317026,8082,1,0,53165.2303057422,48053.4591934560,68679.2992766265,70883.5383945866,64901.6552824918,74758.7916526349,74680.9670637554,78374.7391236895,78526.7744954922,63904.6098694263
3041317026,8082,1,0,53177.8482073476,48056.7323039014,68686.6120624171,70895.0490357811,64905.4637715974,74754.3747786882,74689.0099113553,78379.1559976363,78533.2842132925,63913.0420833246
3041317026,8082,1,0,53193.0578283763,48119.0552470285,68681.5868036292,70892.6033287197,64905.0500699054,74731.4265024801,74674.8832153439,78369.7868710826,78526.7136570081,63917.0452555794
3041317026,8082,1,0,53177.6535241984,48114.8695593214,68668.1658340335,70869.8010648735,64889.1347224610,74734.7604514096,74654.3441431068,78358.2640621913,78513.6455506202,63904.0136522820
3041317026,8082,1,0,53154.0238569683,48050.7823001550,68665.0144005564,70859.9695658406,64881.3838995848,74739.0313129945,74650.7911756345,78358.2518944944,78517.3810335449,63898.5138533180
3041317026,8082,1,0,53149.8016661707,48038.7484479971,68666.7057104148,70869.3021893038,64885.1072148126,74738.1795742168,74658.0309552441,78360.9044524018,78520.3499515697,63900.9960634699
3041317026,8082,1,0,53166.3253984563,48076.7725005688,68673.3492728801,70879.7785762683,64894.1113104616,74752.0142455045,74667.9841312453,78363.9463766076,78524.8641670910,63908.8198925271
3041349191,8083,1,0,53180.3790882868,48102.6288563175,68680.0780092232,70882.6014819312,64903.8211325263,74754.5207910501,74669.4685902577,78372.0865657821,78527.6262342698,63915.6094673543
3041349191,8083,1,0,53183.1776585560,48121.2576001535,68676.7805633842,70878.1724402877,64901.0103945602,74737.4981831948,74661.5230842323,78367.0491392974,78524.6694839418,63916.9479140048
3041349191,8083,1,0,53168.5034161876,48105.7437867042,68671.1955905425,70873.0255045316,64895.3280801439,74738.2039096105,74663.9322882033,78363.2041471014,78519.6563928508,63910.0488299062
3041349191,8083,1,0,53150.2518709532,48046.1464076654,68669.8328084983,70869.4968724529,64890.6070137766,74751.0773328492,74666.5605107170,78364.3722459964,78519.9849206650,63904.1718323407
3041349191,8083,1,0,53157.3091351105,48041.6078567505,68671.7674722931,70876.6149750943,64893.4055840459,74734.2980789303,74666.3049890837,78362.7904454094,78518.1841015352,63903.3322612599
3041349191,8083,1,0,53177.2033194160,48101.8987945082,68668.8107219652,70876.0430933437,64890.1081382069,74731.9740488372,74651.6307467153,78353.2509711002,78514.6919725470,63897.6012760563
3041349191,8083,1,0,53176.8869592986,48118.1670051604,68671.9256523518,70869.3508600910,64891.0450508622,74754.8249834706,74648.4184747540,78355.0517902300,78520.5811378093,63897.9906423546
3041349191,8083,1,0,53162.9671141331,48079.5710708381,68684.2515292335,70885.2905429291,64898.8202091321,74765.6907367335,74675.3090847327,78368.7891199431,78530.3639660550,63914.5143746402
3041397510,8084,1,0,53166.5444169991,48076.4439727546,68693.9126805109,70919.1167400969,64911.5476200089,74765.3865443129,74704.3168739586,78377.4160169906,78538.4433167454,63935.9295210486
3041397510,8084,1,0,53175.1226432593,48094.3426547811,68691.9293459287,70902.6903493859,64909.8076393632,74757.9520815541,74695.1789336446,78375.4448501053,78535.9611065935,63932.0723611557
3041397510,8084,1,0,53185.5016886492,48111.7059581475,68685.9550067887,70874.7533174804,64905.0865729959,74749.7023831082,74670.4906767908,78371.0158084617,78531.0696924707,63920.6590615358
3041397510,8084,1,0,53195.0654983521,48144.1693732711,68677.9486622792,70869.2778539101,64898.6011905893,74730.3922482502,74652.9570256690,78363.0824701331,78521.2503611346,63914.5387100338
3041397510,8084,1,0,53176.8017854208,48128.1688519489,68662.8120474314,70858.5946160996,64882.2964768465,74724.1502197800,74644.0137685041,78348.9192710312,78505.7730507758,63894.2551594300
3041397510,8084,1,0,53158.8057618197,48063.2541893985,68665.1847483119,70867.1606746629,64880.3983161422,74748.1205825212,74661.7542704720,78354.5285792666,78513.4995382584,63892.8315389017
3041397510,8084,1,0,53171.0586325204,48064.7629838045,68675.4786198241,70887.5902376286,64892.4200006032,74738.2525803978,74681.2225853887,78365.0779724121,78520.8488271394,63907.4936135734
3041397510,8084,1,0,53185.3435085905,48129.3977893280,68669.3947714127,70883.8790900976,64891.8116157621,74727.9587088856,74669.7119441942,78359.1523040593,78514.0227492218,63908.7955571334
3041418856,8085,1,0,53181.2673301548,48148.0508685576,68666.3650149037,70870.4946235924,64890.5948460798,74744.8109689854,74663.6767665700,78359.6633473259,78512.7816441458,63907.0677441846
3041418856,8085,1,0,53167.5786712290,48114.6992115659,68669.3095975349,70872.5266289618,64889.9742935418,74739.6153624420,74672.3523344047,78364.3722459964,78515.3246927818,63909.0024079794
3041418856,8085,1,0,53160.5335747685,48093.3570713385,68661.7534578078,70875.6172239548,64882.3573153307,74722.0573759265,74669.4929256513,78359.0306270911,78511.0659988938,63907.3719366051
3041418856,8085,1,0,53154.0238569683,48077.6364070432,68652.0071326527,70865.4206940172,64875.2513803861,74731.8767072626,74654.0886214735,78350.1968791977,78503.4855237731,63892.3204956352
3041418856,8085,1,0,53164.7314301725,48088.9158619981,68653.1630638509,70868.8398168245,64881.1405456484,74733.3003277909,74654.3684785004,78351.8273505719,78503.4976914699,63893.0627251414
3041418856,8085,1,0,53175.5606803449,48130.9552545214,68650.7538598799,70866.0534142520,64878.4393169537,74707.6873259786,74642.2129493743,78340.5843987075,78496.9879736696,63895.3502521441
3041418856,8085,1,0,53162.3100585047,48125.5771325256,68647.1765570140,70852.1335690866,64865.2251982040,74712.4692308300,74634.2187725616,78331.9088308728,78488.9572937665,63882.3308165435
3041418856,8085,1,0,53142.7565697102,48062.2442705622,68653.7592809952,70846.2444038243,64861.9520877586,74725.7441880638,74641.3368752031,78339.5258090839,78494.4449250336,63875.7724279560
3041437505,8086,1,0,53144.5452211432,48052.5587838911,68653.1752315477,70854.0560651846,64868.8390041604,74715.8518505468,74645.9240969053,78343.3951366736,78498.4115941979,63884.3749896098
3041437505,8086,1,0,53163.6971759425,48111.2070825777,68647.2130601044,70861.7947203640,64873.1585365325,74714.5377392899,74648.2359593017,78341.0467711868,78495.2479930239,63889.8261177865
3041437505,8086,1,0,53175.9987174305,48140.4217226496,68658.0058071864,70870.8353191034,64880.7755147437,74745.5045277043,74664.4189960762,78351.4379842736,78504.1182440079,63900.3755109319
3041437505,8086,1,0,53178.5052629760,48129.3369508439,68672.7165526453,70885.8624246798,64891.7021064907,74738.8366298453,74684.4226896531,78359.7850242941,78514.1687615836,63919.0042547679
3041437505,8086,1,0,53158.5259047928,48099.4530874468,68662.3983457395,70866.8929853328,64876.1031191637,74707.6629905849,74660.0142898263,78344.5145647813,78502.0375678511,63916.1691814081
3041437505,8086,1,0,53139.6659747172,48062.5606306796,68652.8588714303,70844.7234417214,64863.1201866536,74720.3904014617,74639.1345220781,78333.1012651614,78493.8487078893,63902.2736716363
3041437505,8086,1,0,53152.1865347480,48069.4718824750,68658.3830057879,70853.0096432578,64870.4329724442,74727.5815102841,74641.7262415014,78339.2216166634,78498.1682402615,63899.3655920956
3041437505,8086,1,0,53179.4786787219,48136.0291840965,68661.4249299936,70870.1539280814,64881.0797071643,74719.7333458333,74648.7104994778,78341.2292866392,78499.8473824230,63902.3101747268
3041474129,8087,1,0,53176.9721331763,48149.2067997558,68661.7656255047,70873.0498399252,64882.9535324750,74736.0380595760,74660.3549853373,78345.3663035589,78501.4778537973,63902.7968825997
3041474129,8087,1,0,53156.9441042058,48091.2520597881,68671.8404784741,70876.8583290308,64888.0517974438,74756.8326534464,74673.1919054855,78357.8868635898,78513.8280660726,63911.3872765567
3041474129,8087,1,0,53159.4263143577,48082.0046102027,68678.8734072377,70896.7646810331,64895.6566079581,74732.1322288958,74674.8588799503,78362.9121223776,78518.0015860828,63921.0849309246
3041474129,8087,1,0,53163.6363374584,48119.5176195078,68664.9292266786,70870.9326606780,64883.3915695606,74720.1592152221,74646.8001710766,78347.3374704443,78505.2863429029,63909.3431034905
3041474129,8087,1,0,53166.3619015467,48138.1098602532,68660.4150111573,70847.0839749051,64878.2446338045,74727.4598333158,74638.3922925719,78344.1860369671,78498.5089357725,63891.2254029211
3041474129,8087,1,0,53167.2866465053,48139.6916608402,68659.7336201352,70847.0718072082,64880.1062914184,74724.5517537752,74641.0691858730,78346.7412532999,78501.0398167117,63886.8937028521
3041474129,8087,1,0,53165.1329641676,48129.8358264136,68659.3564215337,70858.0470697425,64884.7786869984,74730.4774221279,74646.0457738735,78351.6813382101,78506.0772431964,63897.0415620025
3041474129,8087,1,0,53155.9463530663,48086.5431611176,68663.0797367615,70860.2129197770,64884.3284822160,74737.7293694344,74649.5013997713,78352.1437106893,78504.0452378269,63900.2051631764
3041507962,8088,1,0,53160.9107733701,48081.6395792980,68669.7111315301,70866.7591406678,64890.1203059037,74735.8433764269,74653.0665349404,78356.1712183377,78505.8095538663,63905.7292975340
3041507962,8088,1,0,53189.3831839357,48153.7696860644,68677.0482527143,70884.3536302737,64901.1807423158,74738.2404127010,74661.3405687800,78361.1113032478,78510.4211109622,63913.4801204103
3041507962,8088,1,0,53195.9537402201,48179.0054892752,68678.5448794235,70882.9786805327,64902.6043628440,74748.8749797242,74666.6213492011,78364.2627367250,78512.0637500333,63908.1385015050
3041507962,8088,1,0,53177.7508657730,48128.5338828536,68684.9937587397,70878.4279619210,64904.2835050056,74766.1531092128,74673.8367934171,78373.4858509168,78522.4306277264,63904.4030185803
3041507962,8088,1,0,53170.2920676205,48112.8375539520,68681.1731019373,70877.8682478671,64904.5876974262,74737.8388787058,74671.3180801748,78372.3420874154,78521.7492367043,63902.6630379347
3041507962,8088,1,0,53171.6548496647,48140.6894119797,68669.0662435984,70872.9768337443,64898.5768551956,74731.3169932087,74663.3847418462,78360.5394214972,78507.8293915389,63897.4917667849
3041507962,8088,1,0,53185.9275580380,48162.4574215960,68673.1180866405,70877.7952416862,64900.0734819049,74741.1241568480,74665.2829025506,78363.5326749156,78509.7275522432,63896.4210094645
3041507962,8088,1,0,53195.9050694328,48176.2312543995,68678.2406870029,70884.9985182053,64902.0203133965,74732.9596322798,74668.8845408102,78364.4452521773,78508.4986148641,63902.8820564775
3041543488,8089,1,0,53184.9054715049,48160.8999564026,68672.0838324105,70877.5032169624,64893.9652980997,74730.0393850423,74661.9732890148,78359.2496456339,78506.3936033138,63905.6806267467
3041543488,8089,1,0,53161.1906303970,48100.9983849433,68673.7508068753,70865.9925757679,64887.0540463043,74752.6591334362,74662.0097921052,78361.4519987589,78509.3016828544,63904.0258199788
3041543488,8089,1,0,53174.7089415673,48101.1443973051,68688.1330245200,70886.1909524940,64902.9328906583,74752.6469657393,74680.7480452126,78373.9117203056,78521.1043487727,63917.8483235697
3041543488,8089,1,0,53194.4692812077,48174.1870813333,68682.9130825829,70891.6420806707,64902.3975119980,74728.6522676045,74679.8354679508,78366.8787915419,78518.1475984447,63910.5598731728
3041543488,8089,1,0,53191.0866614910,48198.0357671062,68672.1811739851,70874.5464666344,64894.6588568186,74734.6752775318,74665.2829025506,78359.6146765386,78505.5175291425,63890.5683472927
3041543488,8089,1,0,53173.5773457627,48148.4889056432,68673.8359807530,70866.8686499392,64893.8922919188,74746.5144465406,74664.3581575921,78362.3280729301,78508.3039317150,63894.3768363982
3041543488,8089,1,0,53168.6859316399,48121.2941032439,68681.3677850864,70874.8263236614,64898.6985321639,74739.5788593515,74670.8070369082,78364.7494445979,78514.8988233930,63907.4936135734
3041543488,8089,1,0,53171.3506572441,48115.5752857372,68676.0018307875,70875.9092486786,64893.5394287109,74733.4463401527,74671.2085709034,78360.0770490179,78511.1633404684,63906.4471916466
3041578408,8090,1,0,53179.3813371473,48119.3229363586,68675.2352658877,70873.5852185854,64889.5119210625,74737.4130093170,74668.9332115975,78355.5019950125,78503.7897161937,63899.9009707559
3041578408,8090,1,0,53188.1785819503,48150.7034264650,68673.0085773691,70871.8209025461,64889.2929025197,74726.5959268414,74654.8551863733,78349.8926867771,78501.9767293670,63898.2461639879
3041578408,8090,1,0,53176.0108851273,48152.7110964408,68663.9071401455,70859.8478888723,64880.1914652962,74721.5219972662,74640.5824780000,78341.4361374851,78493.9582171607,63893.2574082905
3041578408,8090,1,0,53152.6367395305,48089.6459238075,68661.9968117443,70849.4810111792,64873.9129337355,74732.6919429497,74643.3445451788,78342.6285717738,78492.0357210627,63890.1181425102
3041578408,8090,1,0,53152.6002364400,48064.1911020539,68664.2478356566,70859.7992180850,64878.3419753791,74722.2155559852,74654.2224661386,78345.4028066494,78494.0312233416,63891.2254029211
3041578408,8090,1,0,53176.4610899098,48116.4391922116,68659.0035583259,70871.8817410302,64881.7976012768,74710.4980639447,74653.3463919673,78338.9539273333,78488.6409336491,63893.9874700999
3041578408,8090,1,0,53175.8892081591,48131.0525960959,68653.0900576699,70858.4607714345,64878.7800124647,74720.3052275840,74644.7803334039,78332.2495263838,78480.7806015015,63888.4146649550
3041578408,8090,1,0,53160.6552517368,48094.8171949572,68658.9792229322,70851.4035072772,64881.8584397609,74731.2196516341,74646.3499662941,78341.0467711868,78488.1055549889,63888.2686525931
3041621154,8091,1,0,53154.8512603522,48077.8189224956,68662.2645010744,70859.1178270629,64886.6646800060,74723.5783380293,74652.6041624611,78345.7435021605,78491.6463547644,63894.7783703934
3041621154,8091,1,0,53152.5028948654,48073.4385516393,68661.1207375731,70859.9573981437,64888.6115114976,74730.1002235264,74657.3495642221,78345.5001482240,78491.6585224612,63896.8347111565
3041621154,8091,1,0,53160.4605685876,48079.0113567842,68662.9215567028,70857.8888896838,64887.9909589597,74725.3304863718,74650.9736910868,78346.1937069429,78491.1596468914,63895.0338920267
3041621154,8091,1,0,53173.4313334009,48121.0629170043,68660.3176695827,70860.2250874738,64886.2144752235,74715.0001117691,74640.1322732176,78341.4483051820,78488.9694614633,63894.8148734839
3041621154,8091,1,0,53165.8873613706,48132.0990180227,68657.4339254357,70854.9078039622,64881.6515889149,74723.9068658435,74636.6158088358,78339.3189582379,78486.9374560939,63889.1082236739
3041621154,8091,1,0,53143.2067744927,48068.1942743086,68661.5709423555,70851.5373519423,64880.0089498438,74736.3179166029,74646.0579415704,78345.1837881066,78492.3399134833,63886.9302059426
3041621154,8091,1,0,53136.8795721447,48039.9287145889,68657.4825962230,70856.8059646666,64879.1450433694,74715.2191303120,74649.5135674681,78342.3487147469,78490.9649637423,63891.4444214639
3041621154,8091,1,0,53153.0991120097,48089.2565575091,68651.1310584814,70857.8280511997,64879.6074158487,74708.8067540863,74644.1719485628,78337.6033129859,78486.0978850131,63894.7053642125
3041647842,8092,1,0,53163.5998343679,48114.2490067835,68648.9287053565,70853.7397050672,64879.2545526408,74723.8825304499,74642.4076325235,78338.1265239493,78484.7351029689,63892.5395141780
3041647842,8092,1,0,53167.1041310529,48099.4652551436,68659.8066263162,70865.0191600221,64884.8516931794,74733.6166879082,74657.5564150680,78348.1162030409,78493.1673168672,63898.6842010736
3041647842,8092,1,0,53161.9085245095,48083.4403984278,68658.8575459640,70872.1859334508,64881.8949428514,74716.1803783610,74663.7984435382,78347.9580229822,78492.1939011214,63896.2628294058
3041647842,8092,1,0,53142.9025820721,48049.3830150204,68648.7948606914,70856.3679275810,64870.6398232902,74713.4669819695,74650.7790079377,78336.5203879687,78480.6345891396,63877.6462532667
3041647842,8092,1,0,53144.6668981114,48047.8012144334,68650.7416921831,70854.0560651846,64874.2414615498,74723.5783380293,74653.4802366324,78340.7060756758,78483.7981903136,63880.3718173550
3041647842,8092,1,0,53171.1681417918,48113.3242618249,68657.7502855531,70865.3720232299,64887.5529218741,74724.2232259609,74652.9448579722,78343.7479998815,78489.9550449060,63900.8865541985
3041647842,8092,1,0,53180.6589453137,48142.2590448699,68661.7412901110,70872.7578152015,64892.6755222365,74739.1408222659,74659.5154142565,78349.6371651438,78495.5400177477,63905.7171298372
3041647842,8092,1,0,53167.2988142021,48084.9370251370,68669.9423177697,70879.2431976081,64893.9652980997,74743.6672054840,74671.3302478716,78358.3492360690,78501.7942139147,63901.0934050445
3041664402,8093,1,0,53155.5569867680,48047.6186989810,68667.2045859845,70876.6636458816,64889.7552749990,74725.3669894623,74665.4045795188,78357.6313419565,78500.0907363595,63900.4971879002
3041664402,8093,1,0,53160.2780531353,48084.8396835624,68661.0477313921,70872.5996351428,64889.9377904514,74720.2322214030,74660.4401592151,78350.7687609483,78496.8662967014,63897.5039344817
3041664402,8093,1,0,53161.2758042747,48110.9393932476,68659.7701232257,70864.1430858508,64889.9986289355,74729.5770125630,74659.8926128580,78350.6470839801,78495.1871545398,63882.9878721720
3041664402,8093,1,0,53159.0734511498,48111.0123994286,68662.0089794411,70864.6297937237,64892.4808390873,74731.7306949007,74660.1116314009,78354.5285792666,78498.7157866185,63881.1505499517
3041664402,8093,1,0,53158.1487061912,48105.0745633790,68662.1184887125,70867.6960533231,64894.4885090631,74730.9641300009,74659.1138802614,78355.2099702887,78499.1903267946,63888.4024972582
3041664402,8093,1,0,53153.5006460049,48070.4818013113,68668.1293309431,70871.8330702429,64899.0878984622,74750.7123019445,74664.8692008586,78363.3988302505,78506.5639510693,63897.3335867262
3041664402,8093,1,0,53162.0302014778,48061.3195256037,68675.8923215161,70883.4653884056,64907.8121370842,74744.8231366822,74679.6286171049,78370.9062991903,78512.5261225125,63908.2845138669
3041664402,8093,1,0,53177.7995365603,48116.2810121529,68671.5849568408,70886.0936109194,64906.7170443702,74721.3516495107,74677.4384316767,78364.1288920599,78507.4035221501,63905.8144714118
3041688075,8094,1,0,53173.9788797579,48131.8678317831,68664.3330095343,70874.9480006296,64897.9806380513,74738.2647480946,74666.5605107170,78359.9675397465,78502.2079156067,63893.0262220509
3041688075,8094,1,0,53159.8278483528,48070.7008198541,68673.6534653007,70876.6149750943,64900.9130529856,74757.1855166543,74669.9552981306,78369.0324738796,78511.8082284000,63895.3624198409
3041688075,8094,1,0,53153.0991120097,48026.8362728074,68678.5813825140,70877.8682478671,64898.4795136211,74742.7667959191,74664.6136792254,78366.1000589452,78513.4265320774,63899.6089460321
3041688075,8094,1,0,53163.5146604902,48045.9273891226,68675.0284150417,70880.1314394762,64899.0270599781,74741.4526846622,74660.9512024816,78361.6345142112,78511.5162036762,63900.9717280763
3041688075,8094,1,0,53175.4633387703,48070.6886521573,68678.9220780250,70879.0971852462,64903.5534431962,74757.6843922240,74664.5650084381,78365.0049662312,78515.5802144151,63900.6188648684
3041688075,8094,1,0,53184.7351237494,48093.0893820084,68686.0401806664,70884.1224440341,64910.0509932997,74756.5406287227,74668.1909820913,78370.6386098602,78524.9980117560,63911.6184627963
3041688075,8094,1,0,53176.8869592986,48094.8171949572,68683.6918151796,70883.8182516135,64909.1019129475,74749.5198676558,74669.9674658274,78370.8089576157,78527.1151910032,63910.3286869331
3041688075,8094,1,0,53150.0693555008,48038.3834170924,68678.8612395409,70872.8186536856,64900.9495560761,74756.8204857496,74673.8732965076,78369.6408587207,78526.0931044701,63904.1961677343
3041717908,8095,1,0,53146.9179220237,48019.3774746550,68681.2947789055,70878.2697818623,64905.7679640180,74747.3175145309,74682.0378210758,78374.3740927848,78526.8231662795,63908.4913647128
3041717908,8095,1,0,53164.4272377519,48085.7887639146,68676.3303586017,70880.7763274078,64907.0699075781,74730.8789561231,74675.7592895152,78368.1929027988,78521.5180504647,63908.5887062874
3041717908,8095,1,0,53169.8053597476,48122.1093389311,68671.7796399900,70872.4171196904,64904.3321757929,74740.7834613370,74665.3559087316,78365.1874816835,78517.4297043322,63901.1542435286
3041717908,8095,1,0,53153.9508507873,48067.6102248611,68671.8161430804,70865.4085263204,64900.4020097191,74745.6505400661,74663.6280957827,78367.6331887449,78517.8799091146,63898.3070024720
3041717908,8095,1,0,53152.1500316575,48027.9557009151,68675.1622597067,70883.1611959851,64903.6386170740,74743.6063669999,74679.7137909826,78375.4083470148,78521.2381934377,63908.0289922336
3041717908,8095,1,0,53157.1874581422,48027.3716514676,68671.6701307185,70884.9133443276,64903.9914802818,74738.0457295518,74676.2825004785,78374.1064034547,78521.2868642250,63911.0830841361
3041717908,8095,1,0,53157.5524890469,48030.3527371893,68668.3726848795,70868.5599597976,64899.7449540906,74734.4440912922,74660.6348423642,78369.7138649017,78517.6122197845,63908.3453523510
3041717908,8095,1,0,53155.7760053108,48056.2455960285,68660.4150111573,70857.2561694490,64892.3713298159,74715.9126890309,74646.0457738735,78358.4952484309,78508.9366519498,63905.8631421991
3041746589,8096,1,0,53146.9422574173,48071.3335400889,68652.0193003495,70852.6081092627,64884.9977055412,74719.4656565032,74642.6996572472,78350.6349162833,78501.9280585797,63900.9717280763
3041746589,8096,1,0,53129.5302832637,48030.0607124655,68660.4271788542,70859.1056593661,64886.4091583727,74748.1327502180,74663.6037603890,78360.1013844115,78509.9830738765,63899.3777597925
3041746589,8096,1,0,53134.4338650833,48016.1286996033,68670.8913981219,70873.6947278568,64895.2915770534,74741.3918461781,74678.7160398431,78367.6210210481,78519.5347158825,63904.7923848787
3041746589,8096,1,0,53158.6962525483,48072.8058314045,68666.4745241752,70876.4932981261,64897.2262408483,74724.6247599561,74668.0084666389,78361.9265389350,78513.6577183171,63903.7581306487
3041746589,8096,1,0,53170.6205954348,48100.1588138625,68664.1748294756,70869.4603693625,64894.1843166426,74743.7888824522,74660.7808547261,78361.5858434239,78512.7694764490,63897.3700898167
3041746589,8096,1,0,53170.8639493712,48067.8535787976,68672.1325031978,70872.2832750254,64900.3411712350,74749.0453274797,74666.4753368393,78371.5998579092,78522.4427954232,63901.8112991571
3041746589,8096,1,0,53154.9364342300,48037.9818830973,68671.2685967234,70870.7623129225,64896.2284897088,74740.1264057085,74665.6966042426,78370.6264421634,78523.4283788659,63902.5413609664
3041746589,8096,1,0,53149.6921568993,48037.0206350482,68669.6624607428,70869.1196738514,64896.3866697675,74743.7767147554,74666.1589767219,78369.9693865349,78520.9218333204,63902.6387025410
3041810820,8097,1,0,53155.2892974379,48050.4416046439,68669.1270820825,70867.5500409612,64897.3479178165,74744.4824411711,74666.3293244774,78368.3632505543,78519.3643681270,63902.3101747268
3041810820,8097,1,0,53169.9757075031,48105.2570788313,68668.7377157842,70874.1571003361,64902.0324810934,74735.9285503046,74663.3725741494,78366.3069097912,78514.6433017597,63905.8631421991
3041810820,8097,1,0,53165.9238644611,48136.9417613582,68669.3217652317,70872.7334798078,64903.7359586486,74745.7357139439,74666.4996722329,78367.0248039038,78517.6852259655,63903.8068014360
3041810820,8097,1,0,53141.7223154803,48079.7779216841,68674.7363903179,70868.0489165310,64902.8477167805,74756.6866410846,74676.4771836277,78373.9968941833,78522.3576215455,63895.0095566330
3041810820,8097,1,0,53133.3509400661,48031.3261529351,68673.5317883325,70867.3918609025,64899.7206186970,74735.9163826078,74673.4230917252,78369.9937219286,78518.5247970462,63894.4741779728
3041810820,8097,1,0,53153.9995215746,48067.2816970469,68666.0121516959,70879.3648745763,64902.1784934552,74732.4242536196,74674.0801473536,78365.0901401089,78513.7793952853,63900.6675356557
3041810820,8097,1,0,53175.3294941052,48102.5923532271,68667.2775921655,70887.1035297557,64910.8418935932,74751.8317300522,74685.3474346116,78370.7237837380,78518.4274554717,63904.0258199788
3041810820,8097,1,0,53174.5629292054,48093.1988912798,68677.0847558048,70884.0737732468,64915.7819785033,74754.8249834706,74682.6948767042,78376.6129490003,78524.4626330958,63909.7933082729
3041816779,8098,1,0,53158.0026938294,48078.6219904859,68674.4565332910,70872.7821505951,64907.6417893287,74739.3598408087,74665.4532503061,78368.1442320115,78523.6108943182,63910.4868669918
3041816779,8098,1,0,53141.3572845756,48059.6160480484,68668.4578587573,70858.4972745250,64897.6521102371,74740.6739520656,74652.0444484073,78360.7827754336,78516.7239779164,63900.6066971716
3041816779,8098,1,0,53150.9210942784,48060.1635944055,68674.8580672862,70871.2246854018,64905.4272685070,74759.9110807426,74667.0107154995,78369.9572188381,78522.1629383963,63900.2051631764
3041816779,8098,1,0,53177.6291888048,48126.6357221492,68685.7724913363,70910.1491475384,64924.4940494285,74757.0760073829,74700.8977511514,78379.9225625361,78529.9989351503,63907.7369675098
3041816779,8098,1,0,53180.7927899787,48155.5340021037,68681.8788283530,70906.6570185502,64919.7486476676,74745.2368383742,74696.7850696252,78372.8774660756,78524.0732667975,63902.9550626584
3041816779,8098,1,0,53155.0581111982,48086.1902979098,68674.2131793545,70865.3233524426,64901.9473072156,74747.7798870102,74662.3139845258,78364.4209167837,78517.5148782099,63897.1267358802
3041816779,8098,1,0,53147.6358161362,48046.8521340812,68673.0937512468,70853.0218109547,64898.6741967702,74740.8442998211,74644.3909671056,78362.4497498984,78518.3787846844,63899.4751013670
3041816779,8098,1,0,53160.4727362844,48090.0109547122,68671.8891492614,70858.8136346424,64901.3754254649,74735.9407180014,74641.1665274475,78359.8215273846,78513.6090475298,63902.0668207903
3041869272,8099,1,0,53173.5895134596,48125.5649648288,68677.4619544063,70869.9470772354,64910.0631609965,74758.9254973000,74657.9822844568,78367.4263378989,78517.9772506892,63903.4782736218
3041869272,8099,1,0,53176.0108851273,48127.3657839586,68687.8775028867,70881.7740785473,64915.6724692319,74759.5947206252,74674.5303521360,78374.7026205991,78527.1030233064,63913.2732695643
3041869272,8099,1,0,53161.5799966953,48104.9042156234,68683.1199334289,70875.5928885612,64905.6827901402,74740.9903121830,74666.0007966632,78366.9031269356,78524.0854344943,63914.6603870021
3041869272,8099,1,0,53134.5677097484,48047.5213574064,68671.7918076868,70855.3458410478,64886.8106923679,74739.1164868722,74653.0787026372,78355.2464733792,78510.1169185416,63903.5877828932
3041869272,8099,1,0,53132.5843751662,48019.0489468408,68670.5872057013,70855.9663935858,64884.3406499128,74737.0236430187,74655.0498695225,78355.4411565283,78506.0772431964,63901.1907466191
3041869272,8099,1,0,53156.7372533598,48075.5313954928,68665.3672637643,70868.2192642865,64887.7354373264,74725.8658650320,74659.4424080756,78352.4600708067,78505.3350136902,63900.6432002620
3041869272,8099,1,0,53169.0631302414,48117.1084155368,68658.9913906290,70872.1007595730,64888.4533314389,74739.3476731119,74664.4433314698,78353.6160020049,78506.9411496708,63891.2740737084
3041869272,8099,1,0,53160.9716118542,48078.6706612732,68667.5574491924,70874.1205972456,64892.6998576302,74753.2310151868,74672.6321914317,78362.1698928714,78514.7163079407,63891.2010675275
3041885458,8100,1,0,53152.9287642542,48044.1995761738,68668.9932374175,70874.9845037201,64892.9188761730,74728.8347830568,74671.3667509621,78360.4055768321,78510.2142601162,63898.3435055625
3041885458,8100,1,0,53154.4862294475,48065.9067473059,68663.9558109328,70874.8506590550,64889.5605918498,74729.2728201425,74668.9210439007,78355.0639579268,78501.0398167117,63905.4616082039
3041885458,8100,1,0,53164.3055607837,48090.4246564041,68667.8859770066,70876.8704967276,64896.1189804374,74741.9637279288,74678.1806611829,78356.6214231202,78498.9348051613,63894.4620102760
3041885458,8100,1,0,53170.6449308284,48101.0957265179,68673.1667574278,70882.4189664789,64903.2492507756,74740.6131135814,74685.0067391006,78363.0459670427,78503.3881821985,63892.1866509701
3041885458,8100,1,0,53160.6552517368,48090.9235319739,68667.3019275591,70874.4126219694,64896.1554835279,74723.6148411198,74669.9431304338,78354.5772500539,78497.0244767601,63889.4732545786
3041885458,8100,1,0,53140.3960365266,48029.7443523481,68663.7489600868,70866.1750912203,64886.1414690426,74736.5734382362,74664.6380146190,78352.6060831686,78493.8243724957,63884.6791820303
3041885458,8100,1,0,53139.9093286537,47994.6040439235,68669.4677775936,70869.7280586925,64892.0914727890,74738.7271205739,74668.0936405167,78359.7485212037,78500.7112888975,63891.5052599480
3041885458,8100,1,0,53156.4330609392,48053.9215659353,68668.1293309431,70873.1836845903,64895.6322725645,74722.4345745280,74662.2288106481,78355.5384981029,78499.3485068533,63896.2993324963
3041916501,8101,1,0,53168.1262175861,48104.9407187139,68665.0509036469,70871.5653809128,64897.3722532102,74737.7780402217,74663.1657233034,78354.8936101713,78499.4336807310,63897.0658973961
3041916501,8101,1,0,53161.1176242160,48075.1298614977,68669.7354669237,70870.8839898907,64896.7030298849,74739.9803933466,74671.8656265318,78361.8048619667,78505.7243799885,63899.1952443401
3041916501,8101,1,0,53144.4722149623,48033.3459906077,68657.6407762817,70861.0159877673,64883.6105881034,74707.3587981643,74659.6979297089,78350.3185561659,78498.0343955964,63896.9320527311
3041916501,8101,1,0,53138.3031926730,48025.5830000347,68640.9345285438,70856.3922629746,64869.0093519159,74698.7927396010,74655.4514035177,78336.9097542670,78481.8148557314,63885.1415545096
3041916501,8101,1,0,53147.0639343856,48028.6492596341,68640.5451622455,70860.2250874738,64869.3987182142,74715.0609502533,74657.5320796744,78336.7637419051,78476.9842800927,63880.6395066851
3041916501,8101,1,0,53163.6485051552,48052.7778024339,68649.2450654739,70869.9592449322,64878.1716276236,74715.9370244245,74665.2463994601,78342.3487147469,78481.2916447680,63890.6170180799
3041916501,8101,1,0,53163.7458467298,48061.1126747577,68646.4099921141,70869.0223322768,64875.5312374130,74706.2028669662,74659.5032465597,78339.4649705998,78479.2839747922,63886.2488149205
3041916501,8101,1,0,53143.2189421895,48000.5053768826,68640.1071251598,70859.0813239725,64867.6952406590,74712.6882493728,74656.4613223540,78338.6375672159,78474.4899022440,63873.5944102247
3041935895,8102,1,0,53131.4771147554,47955.3023831854,68639.4257341378,70856.4287660651,64867.1111912115,74709.5368158957,74654.1859630481,78336.4717171814,78474.1613744298,63873.8134287675
3041935895,8102,1,0,53153.4033044303,48013.7194956323,68644.0251235368,70869.8740710544,64876.8088455794,74709.8531760130,74658.3473153615,78340.2072001060,78480.9996200443,63884.8373620890
3041935895,8102,1,0,53167.7003481973,48060.6868053689,68645.2297255223,70869.6793879053,64876.7966778826,74717.2998064687,74657.6780920363,78339.8300015045,78482.0947127583,63885.4335792334
3041935895,8102,1,0,53161.9085245095,48036.3757471166,68651.6055986575,70871.5532132160,64877.7822613252,74729.4796709885,74667.6434357343,78348.5542401266,78486.7914437320,63890.9820489846
3041935895,8102,1,0,53156.0315269441,48010.0691865854,68654.8543737092,70882.4798049630,64881.1283779515,74722.4832453153,74680.5168589729,78352.9224432860,78492.9117952339,63899.9983123304
3041935895,8102,1,0,53157.3699735946,48011.0669377249,68658.8088751767,70890.7051680153,64889.1103870674,74734.7482837128,74694.4853749257,78359.6998504164,78498.4724326820,63903.0280688393
3041935895,8102,1,0,53164.5002439328,48014.5590667131,68659.1860737782,70888.6366595554,64894.2451551267,74733.7261971797,74692.8427358546,78362.8512838935,78500.7477919879,63896.3480032836
3041935895,8102,1,0,53177.4710087461,48047.6430343747,68654.9760506775,70885.0471889926,64893.9166273125,74712.1772061062,74676.2459973881,78355.3559826506,78495.9293840460,63889.8991239674
3042004147,8103,1,0,53168.9414532732,48061.5750472369,68646.2518120554,70866.6861344868,64885.3384010523,74715.2921364929,74653.0665349404,78343.5289813387,78488.8234491014,63886.6260135220
3042004147,8103,1,0,53149.3757967819,48008.6577337540,68654.6840259537,70857.4508525982,64887.6624311455,74743.8983917236,74655.9259436938,78353.6768404890,78498.4846003789,63892.2353217574
3042004147,8103,1,0,53143.6083084878,47971.2420660234,68663.6881216027,70864.6054583301,64894.5250121536,74736.1719042411,74663.6767665700,78362.3645760206,78506.4909448883,63897.3944252103
3042004147,8103,1,0,53158.5502401864,48020.7645920928,68656.5578512645,70870.0444188100,64893.7827826474,74714.2213791725,74658.8340232344,78357.4001557168,78499.3606745501,63890.2276517816
3042004147,8103,1,0,53164.1473807250,48064.7021453204,68647.6876002805,70862.0867450877,64887.4069095122,74717.0564525322,74650.8641818154,78348.8340971535,78488.0690518984,63877.3298931493
3042004147,8103,1,0,53160.7890964018,48058.2045952170,68650.4374997625,70860.4197706230,64889.0008777960,74728.1412243379,74655.6095835764,78351.2433011244,78493.9217140703,63880.2258049932
3042004147,8103,1,0,53158.1243707976,48049.2491703553,68656.8012052009,70872.2954427222,64897.0193900023,74738.5567728184,74665.0760517046,78358.1788883135,78499.0564821295,63896.6156926137
3042004147,8103,1,0,53165.7656844024,48042.5204340122,68666.9977351385,70885.2540398386,64909.6007885172,74753.8028969375,74682.9625660343,78368.5944367939,78510.6888002923,63903.1984165949
3042013092,8104,1,0,53175.3538294989,48035.6091822168,68674.4200302005,70889.9021000250,64915.6237984446,74751.1503390301,74693.6701392385,78375.0554838069,78515.8844068357,63905.2304219643
3042013092,8104,1,0,53181.6445287563,48075.1176938009,68667.1315798036,70883.1490282883,64911.3651045565,74716.6184154466,74678.1076550020,78366.0635558548,78508.2917640181,63902.6265348442
3042013092,8104,1,0,53168.6615962463,48097.1533927472,68648.7218545105,70858.6189514932,64893.1743978063,74710.8752625462,74650.5478216980,78349.1991280582,78491.3786654343,63888.6458511946
3042013092,8104,1,0,53142.6227250452,48038.2860755178,68649.8899534055,70848.6779431889,64887.9787912629,74735.6973640650,74651.7402559867,78351.4988227577,78492.7414474784,63879.6660909393
3042013092,8104,1,0,53136.4293673623,47987.4129351011,68655.3654169758,70856.8789708475,64894.7683660901,74726.0118773939,74660.8660286039,78357.9598697707,78499.8230470294,63884.3263188225
3042013092,8104,1,0,53148.4388841265,48015.4594762780,68650.7051890926,70863.5225333128,64894.5371798504,74715.6206643071,74660.7321839388,78352.1072075989,78496.6837812491,63887.4777522996
3042013092,8104,1,0,53164.0135360599,48054.5664538669,68652.9318776112,70866.0899173425,64897.3965886038,74730.6356021866,74662.7398539146,78353.2874741907,78494.4935958209,63886.4556657665
3042013092,8104,1,0,53170.6692662221,48057.5597072854,68660.8773836366,70871.9669149080,64903.0302322328,74732.4364213164,74668.0449697294,78359.3348195117,78497.2069922124,63893.4034206524
3042031284,8105,1,0,53165.2911442263,48046.2072461496,68661.4492653873,70877.3815399942,64902.0081456997,74727.2651501667,74674.2261597155,78361.2573156097,78498.9713082518,63901.7626283698
3042031284,8105,1,0,53145.6524815541,47996.5995462024,68655.1220630394,70868.0124134405,64891.5317587352,74725.0262939512,74666.9498770154,78353.4943250367,78491.1231438010,63890.2154840848
3042031284,8105,1,0,53136.9647460225,47952.6863283684,68653.1752315477,70864.5202844523,64886.7255184901,74723.2254748215,74663.6159280859,78352.0707045084,78489.3709954585,63880.7003451693
3042031284,8105,1,0,53158.3190539468,47999.6171350145,68655.9494664233,70878.6713158574,64897.5912717530,74735.8798795173,74676.5501898087,78358.7751054578,78496.0997318016,63891.8094523686
3042031284,8105,1,0,53189.7360471436,48067.5250509834,68672.3515217406,70908.0076328975,64920.7342311102,74757.3193613193,74706.7869164137,78378.0852403158,78512.3922778475,63914.7577285767
3042031284,8105,1,0,53179.1744863013,48029.3306506561,68675.2961043718,70891.1188697073,64917.4611206648,74747.7190485260,74694.7895673462,78376.8563029367,78514.0227492218,63914.6482193053
3042031284,8105,1,0,53154.7052479904,47975.3182444591,68665.2820898865,70866.1994266139,64899.8787987557,74720.0497059507,74664.9300393427,78362.1942282651,78499.9447239976,63907.7613029035
3042031284,8105,1,0,53148.6213995789,47986.9870657123,68651.7637787162,70851.9510536342,64887.2608971503,74709.4273066242,74641.5072229586,78347.2522965665,78489.4440016394,63894.5958549410
3042061918,8106,1,0,53152.2960440194,48010.2030312505,68648.4054943931,70849.7973712966,64883.7931035558,74730.2219004947,74641.3003721126,78345.2202911971,78487.3268223922,63883.6327601036
3042061918,8106,1,0,53168.4547454003,48031.2409790573,68661.3762592063,70868.2801027706,64897.3600855133,74746.8429743548,74663.3360710589,78360.0892167147,78503.9478962524,63899.7427906971
3042061918,8106,1,0,53170.1460552587,48036.1810639675,68664.4425188057,70877.6005585370,64897.7494518117,74729.9542111645,74672.4010051920,78360.6854338590,78507.9875715976,63912.9204063564
3042061918,8106,1,0,53148.7065734566,47984.6021971350,68652.4208343447,70866.8321468487,64881.1648810420,74717.6405019797,74669.5172610450,78352.1437106893,78497.3651722711,63898.3070024720
3042061918,8106,1,0,53136.0156656703,47939.2045202886,68644.0372912336,70860.6996276499,64873.1098657452,74716.6792539307,74666.5605107170,78348.1770415251,78490.7702805931,63885.3362376588
3042061918,8106,1,0,53154.1455339365,47993.9226529014,68640.8980254533,70869.5090401497,64877.1130380000,74708.5025616657,74664.2243129270,78342.4582240183,78485.2583139323,63888.4511680455
3042061918,8106,1,0,53179.0649770299,48061.3681963909,68645.3757378842,70880.1314394762,64883.4889111352,74725.6955172765,74670.2594905512,78347.5321535934,78487.6918532969,63900.3876786288
3042061918,8106,1,0,53176.8991269954,48042.9219680074,68660.0621479495,70884.7551642689,64894.1478135521,74749.3008491130,74683.4006031200,78360.4542476194,78498.1439048678,63912.7743939945
3042110417,8107,1,0,53164.6462562947,47997.1714279531,68663.5056061504,70885.1323628704,64894.7440306964,74724.0650459022,74687.3064338001,78362.5835945634,78501.5995307655,63915.9744982590
3042110417,8107,1,0,53153.7074968509,47980.0758139169,68647.5659233123,70872.9768337443,64879.6925897264,74708.2957108197,74672.4375082825,78348.0796999505,78491.0866407105,63895.5571029901
3042110417,8107,1,0,53165.3398150136,47989.0799095659,68649.9142887991,70879.7055700874,64882.4789922989,74739.0313129945,74687.9634894286,78352.3140584448,78495.0898129652,63883.4502446512
3042110417,8107,1,0,53184.5161052066,48027.0309559566,68661.7777932015,70889.8169261472,64894.4033351854,74735.0768115270,74694.8139027399,78361.9387066318,78501.4291830100,63894.0361408872
3042110417,8107,1,0,53178.4200890983,48056.8904839601,68654.2581565649,70879.1093529430,64888.7453561627,74715.1947949183,74679.5921140144,78353.0562879510,78494.6517758796,63900.4971879002
3042110417,8107,1,0,53144.9589228352,48011.1521116027,68642.0417889547,70856.4774368524,64872.5744870850,74711.2524611477,74661.0850471467,78342.0080192358,78482.4110728757,63890.6535211704
3042110417,8107,1,0,53127.8876441926,47965.0122052501,68642.3338136784,70852.5959415658,64869.9462645713,74721.4976618726,74657.5564150680,78342.5920686833,78483.8225257072,63891.3957506766
3042110417,8107,1,0,53149.9476785326,48014.7659175591,68648.2594820312,70866.9659915137,64878.6340001028,74714.1483729915,74662.7155185210,78344.8187572019,78489.9793802996,63898.6476979831
3042125815,8108,1,0,53165.4249888914,48061.5142087528,68645.7529364857,70869.2048477292,64878.7556770711,74722.2277236820,74660.4888300024,78343.7845029720,78486.9739591844,63892.9045450827
3042125815,8108,1,0,53162.8576048617,48034.1612262948,68652.9683807017,70872.9524983506,64883.5254142257,74729.6621864408,74671.3059124780,78350.9026056134,78491.0744730137,63891.8946262464
3042125815,8108,1,0,53150.1301939849,47989.8343067689,68651.2405677528,70872.6118028396,64882.4059861179,74711.2037903604,74674.0436442631,78350.0143637453,78489.0059645538,63899.0979027655
3042125815,8108,1,0,53136.1373426385,47967.7986078225,68642.1634659229,70864.4351105746,64876.0909514668,74708.3443816070,74672.2428251333,78343.4924782482,78481.0969616189,63898.5625241053
3042125815,8108,1,0,53138.0476710397,47959.0135307164,68642.6745091895,70858.3877652536,64874.7646725131,74715.7423412754,74665.7574427267,78344.6119063559,78482.6057560249,63893.6832776793
3042125815,8108,1,0,53156.0923654282,47990.4426916100,68645.8381103634,70859.5801995422,64882.0166198196,74714.3187207471,74655.7434282414,78345.0742788352,78486.7062698542,63895.2650782663
3042125815,8108,1,0,53167.7855220750,48025.0232859808,68644.1954712923,70857.8888896838,64883.0752094432,74708.1131953674,74645.4738921229,78345.0134403511,78484.1753889151,63890.3128256594
3042125815,8108,1,0,53149.8503369580,47975.6589399701,68641.2387209644,70849.8460420839,64878.1229568363,74721.2421402393,74649.2093750475,78343.7358321847,78480.1600489635,63881.4060715850
3042151894,8109,1,0,53147.6358161362,47928.5091147812,68651.4717539925,70861.9529004227,64888.0274620502,74727.7275226459,74664.5771761349,78353.3483126748,78487.4484993604,63891.2497383147
3042151894,8109,1,0,53162.0423691746,47966.3263165070,68650.2671520070,70874.3152803948,64893.3934163491,74706.1541961789,74672.1211481651,78350.2333822881,78483.8955318881,63899.6819522130
3042151894,8109,1,0,53163.4538220060,48007.2341132257,68639.8029327393,70860.7848015277,64886.4091583727,74703.0027627017,74662.0097921052,78339.9516784727,78472.5309030555,63892.3204956352
3042151894,8109,1,0,53151.3591313640,47987.9726491550,68636.4446484161,70851.0749794630,64879.9359436629,74707.2614565898,74655.8164344224,78337.5789775923,78468.6980785563,63885.0685483287
3042151894,8109,1,0,53143.3527868545,47961.1063745699,68635.7632573941,70852.8636308960,64879.4005650027,74701.6278129607,74650.7546725440,78337.2017789908,78470.3285499306,63881.7102640056
3042151894,8109,1,0,53136.2711873036,47937.6592227921,68635.6294127290,70852.7541216245,64879.1937141567,74717.8351851289,74649.8177598887,78340.7669141599,78473.3948095299,63882.2943134531
3042151894,8109,1,0,53146.9544251141,47934.2887707721,68652.2261511955,70865.5423709855,64897.2384085451,74738.6176113025,74667.5217587660,78357.6313419565,78491.6341870675,63898.5016856212
3042151894,8109,1,0,53169.1969749065,47981.3777574769,68660.6218620033,70876.8583290308,64910.3795211139,74723.2984810024,74673.5204332997,78362.7782777126,78499.8108793326,63907.8221413876
3042191775,8110,1,0,53167.5908389258,48019.7425055597,68647.7727741583,70865.5545386823,64899.2217431273,74702.8445826430,74660.7565193325,78349.7953452025,78487.3998285732,63894.8392088775
3042191775,8110,1,0,53141.6371416025,47970.3416564585,68635.2035433402,70850.6734454678,64885.6060903824,74713.9658575392,74655.3783973367,78345.9016822192,78476.8747708213,63875.6629186846
3042191775,8110,1,0,53126.4640236643,47917.5216845501,68636.1161206019,70851.2818303090,64885.4844134142,74715.0974533437,74660.3184822468,78348.8827679408,78477.4953233593,63878.5709982252
3042191775,8110,1,0,53145.6159784636,47958.6728352053,68649.5979286817,70873.0255045316,64899.0148922813,74724.0042074181,74679.2149154129,78357.5826711692,78484.5890906071,63898.1488224133
3042191775,8110,1,0,53171.5453403933,48013.5978186641,68658.8210428735,70887.1765359367,64908.3840188349,74734.7969545001,74696.1523493904,78363.8125319425,78490.1983988424,63901.9086407316
3042191775,8110,1,0,53176.8382885113,48022.5410758289,68662.5443581013,70881.7862462441,64910.6107073535,74734.7847868033,74692.4046987690,78366.6962760896,78494.7734528478,63901.3367589810
3042191775,8110,1,0,53166.8972802069,48017.3089661951,68658.3830057879,70872.5266289618,64904.6242005166,74717.7621789480,74672.3401667079,78360.5880922845,78493.5688508624,63900.7527095335
3042191775,8110,1,0,53146.1270217302,47983.6409490860,68647.8701157329,70856.9884801189,64891.5925972193,74719.2953087476,74654.9890310384,78351.7300089973,78485.3191524164,63888.7310250724
3042259164,8111,1,0,53142.9390851626,47950.5934845149,68650.9972138164,70857.1831632681,64890.7530261385,74728.3115720934,74656.4978254444,78353.7741820636,78486.5967605828,63881.0410406803
3042259164,8111,1,0,53163.2469711601,47984.9307249492,68652.1166419241,70866.0412465552,64894.5493475472,74713.0167771870,74656.3153099921,78349.1139541804,78485.3434878101,63885.5187531111
3042259164,8111,1,0,53173.5773457627,48026.9214466852,68649.4884194103,70865.9439049806,64893.8922919188,74722.2155559852,74655.9624467842,78345.9868560969,78483.7495195263,63885.9446224999
3042259164,8111,1,0,53164.2568899964,47990.6617101528,68657.7867886436,70867.3675255089,64897.4574270879,74745.5045277043,74665.5749272744,78355.8183551299,78490.2714050234,63893.2330728969
3042259164,8111,1,0,53155.9463530663,47945.4465487588,68669.0419082048,70874.5586343313,64906.6683735829,74744.5919504425,74676.8787176229,78366.9031269356,78505.4810260520,63903.4052674409
3042259164,8111,1,0,53157.1996258391,47967.4335769178,68664.0409848106,70874.9723360232,64906.3641811623,74723.7851888753,74670.5515152749,78361.2329802161,78500.5896119292,63900.9473926826
3042259164,8111,1,0,53162.7724309840,48000.9434139682,68655.3897523694,70869.1075061546,64902.0933195775,74733.0083030671,74665.0273809173,78357.1811371740,78492.6684412975,63893.8292900412
3042259164,8111,1,0,53174.3195752689,48017.8930156426,68659.5997754702,70875.4347085025,64906.9725660035,74733.9208803288,74674.2383274123,78359.0914655752,78494.7856205447,63898.0636485356
3042270428,8112,1,0,53171.1438063981,48013.5613155736,68656.6186897486,70874.8263236614,64900.1221526922,74710.9239333335,74668.2153174849,78350.2577176818,78484.9419538149,63897.9663069610
3042270428,8112,1,0,53148.4875549138,47954.3289674395,68650.2184812197,70863.7415518557,64889.7796103927,74722.7631023422,74665.4532503061,78345.2324588939,78479.0649562494,63889.3394099135
3042270428,8112,1,0,53142.9755882530,47896.0091965672,68656.8133728977,70870.1660957782,64895.0238877233,74741.0389829702,74678.2171642734,78355.2464733792,78488.7382752237,63887.3925784219
3042270428,8112,1,0,53163.2956419473,47926.6717925610,68659.7822909225,70879.2797006986,64902.7382075091,74721.9113635646,74676.4771836277,78354.9057778681,78492.9239629308,63896.6765310978
3042270428,8112,1,0,53173.9180412738,47974.4056671974,68651.2040646624,70869.5698786338,64897.1532346674,74713.9171867519,74662.3748230099,78343.6506583069,78486.2560650718,63897.6742822373
3042270428,8112,1,0,53152.9044288606,47938.1580983618,68643.9277819622,70853.6666988863,64885.5209165046,74713.5156527567,74655.4757389113,78338.2238655239,78478.3227267432,63888.2564848963
3042270428,8112,1,0,53132.2315119584,47886.2507037152,68642.4554906467,70851.3548364899,64877.9161059903,74711.3863058127,74653.6019136006,78332.9795881932,78479.7220118779,63888.1469756249
3042270428,8112,1,0,53132.1706734743,47889.8036711875,68642.8691923386,70854.9078039622,64876.6993363080,74719.0884579017,74652.0322807104,78331.6046384522,78483.4818301962,63891.8094523686
3042286603,8113,1,0,53149.0472689677,47913.9200462905,68653.6132686333,70865.8343957092,64885.3627364459,74742.0002310193,74665.9642935727,78342.3000439596,78495.9902225301,63902.1641623649
3042286603,8113,1,0,53166.2280568817,47941.8935812865,68662.1914948935,70873.6947278568,64893.7097764665,74726.9122869588,74677.4627670704,78347.0454457205,78499.7013700611,63907.4206073924
3042286603,8113,1,0,53161.8233506318,47957.7359225500,68646.6655137474,70865.4450294109,64882.1261290910,74702.7959118557,74664.9300393427,78337.4086298367,78488.4949212872,63901.3610943746
3042286603,8113,1,0,53134.3851942960,47910.2088987595,68630.1296137650,70845.3074911689,64862.9620065949,74711.4349766000,74651.6915851994,78327.6136338943,78477.2032986355,63881.9292825484
3042286603,8113,1,0,53124.1521612679,47861.0757389885,68635.9944436337,70842.4724178092,64862.9133358076,74724.9046169830,74652.0444484073,78332.2860294743,78486.5237544019,63882.0874626071
3042286603,8113,1,0,53147.6601515299,47905.7555217223,68642.5771676149,70857.6577034442,64872.9516856865,74715.4746519452,74662.2409783449,78337.0922697193,78494.7856205447,63896.7495372787
3042286603,8113,1,0,53165.5710012532,47969.8062777983,68637.7465919762,70860.0304043247,64874.2901323370,74714.8906024977,74661.8759474402,78335.4496306482,78491.7923671262,63901.9208084285
3042286603,8113,1,0,53161.1784627002,47960.2424680955,68641.8349381087,70855.3701764415,64875.7137528653,74727.6180133745,74661.8394443497,78338.7714118809,78496.3430857380,63904.8532233628
3042334380,8114,1,0,53148.3902133392,47928.4239409035,68642.5893353117,70858.7771315519,64874.0589460974,74713.9901929328,74661.5960904133,78339.3554613284,78496.8176259141,63904.5003601549
3042334380,8114,1,0,53148.0981886155,47931.2833496569,68642.5041614340,70864.9096507507,64876.1274545573,74718.9424455398,74661.5960904133,78338.5523933381,78497.0731475474,63899.6819522130
3042334380,8114,1,0,53150.3978833150,47940.9201655406,68645.1080485541,70860.8943107991,64877.8430998093,74727.3138209540,74658.9557002027,78339.8056661109,78494.9438006034,63889.4367514881
3042334380,8114,1,0,53160.6430840399,47978.3723363617,68648.0891342757,70859.6288703295,64882.6250046608,74718.8207685716,74655.8894406033,78338.4428840667,78497.6571969949,63890.4466703244
3042334380,8114,1,0,53161.5069905144,48014.6320728940,68642.1634659229,70854.6401146321,64876.3343054033,74708.9284310545,74651.6185790184,78329.9011608970,78493.7270309211,63898.6720333767
3042334380,8114,1,0,53141.3207814851,47969.3682407127,68639.9732804948,70847.2908257510,64868.6564887080,74727.2286470762,74652.6528332484,78328.2950249164,78495.6251916255,63897.4187606040
3042334380,8114,1,0,53132.7060521345,47907.8118624854,68647.1035508330,70855.5040211065,64874.6064924544,74730.2827389788,74664.3824929857,78336.9584250543,78500.9789782275,63900.7162064430
3042334380,8114,1,0,53145.4699661017,47930.6627971189,68641.5185779913,70860.8456400118,64874.4483123957,74700.6543972149,74657.1670487697,78330.8259058555,78494.5909373955,63895.0582274203
3042348034,8115,1,0,53158.8179295165,47978.4331748458,68628.4504716035,70851.7320350914,64865.9795954070,74703.6476506333,74640.3512917604,78319.8749787149,78483.8955318881,63884.8616974827
3042348034,8115,1,0,53160.1442084702,47976.6566911096,68632.5996562201,70848.5806016143,64863.9597577344,74718.4800730605,74643.5392283280,78324.2796849648,78486.6332636733,63884.0586294924
3042348034,8115,1,0,53151.5781499069,47955.2172093076,68637.5519088270,70848.8482909444,64865.6388998959,74714.0875345074,74647.0556927098,78326.6767212389,78491.7801994294,63896.7860403692
3042348034,8115,1,0,53145.2022767716,47938.8516570807,68639.0485355362,70849.1159802745,64863.0958512599,74718.3705637891,74647.7614191256,78328.9642482416,78493.9947202512,63903.8433045265
3042348034,8115,1,0,53141.9169986294,47922.6199495189,68642.7353476736,70845.1249757166,64862.2806155728,74725.6346787924,74648.6861640841,78329.7308131415,78495.9293840460,63900.0834862082
3042348034,8115,1,0,53155.9220176727,47956.8720160755,68641.4455718104,70849.2133218491,64863.6190622233,74712.4205600427,74648.6374932968,78329.3536145400,78498.2047433519,63897.7351207214
3042348034,8115,1,0,53169.0996333319,48011.3102916614,68634.4613138340,70852.1457367834,64863.0350127758,74706.0568546043,74649.0025242015,78325.6911377963,78491.6585224612,63898.5138533180
3042348034,8115,1,0,53154.2550432079,47979.6864476185,68627.3067081021,70846.0983914624,64856.2697733423,74711.6661628397,74649.8177598887,78325.6424670090,78488.1785611698,63889.7409439087
3042379176,8116,1,0,53136.7092243892,47917.3635044914,68628.7059932367,70842.4967532028,64855.8317362566,74710.3520515828,74650.6208278790,78327.8204847403,78488.6774367396,63885.0563806319
3042379176,8116,1,0,53142.9025820721,47937.6835581857,68628.0489376083,70845.0398018388,64858.3991202863,74696.8215727157,74645.4495567292,78326.1291748819,78486.0857173163,63885.0685483287
3042379176,8116,1,0,53156.6885825725,47984.8820541619,68626.0534353293,70841.4624989729,64857.6812261737,74708.5755678466,74640.9718442984,78322.6735489842,78482.9951223232,63883.5962570131
3042379176,8116,1,0,53163.9283621821,47992.4260261922,68631.3220480537,70841.6085113347,64858.9101635528,74714.3308884439,74643.0038496678,78325.3747776789,78486.0127111353,63886.7355227934
3042379176,8116,1,0,53160.5457424654,47981.5359375356,68632.1616191345,70842.8617841075,64855.6735561979,74704.9252587997,74641.8722538633,78321.6027916637,78486.6697667638,63895.8491277138
3042379176,8116,1,0,53147.9400085568,47952.5281483097,68630.2269553396,70845.1979818975,64850.3562726863,74710.5345670351,74649.1972073507,78320.1548357418,78486.9982945780,63897.1389035770
3042379176,8116,1,0,53137.5487954700,47914.6257727063,68629.9227629190,70839.8076922049,64847.7280501726,74712.2015414999,74650.5356540012,78319.8384756244,78487.4850024509,63885.6891008667
3042379176,8116,1,0,53147.7209900140,47943.6457296290,68626.6983232609,70835.5003275296,64846.6816282458,74689.4722838346,74641.5802291395,78314.8132168365,78484.2727304897,63876.4659866749
3042425784,8117,1,0,53156.2627131837,48004.3625367755,68619.7627360719,70825.6809961935,64841.9605618785,74693.7066423290,74622.2944296752,78304.6775253830,78475.9986966501,63874.8233476038
3042425784,8117,1,0,53153.0504412224,47993.9226529014,68631.1030295109,70824.4763942080,64850.2102603244,74724.6855984402,74626.6748005314,78316.9790668710,78482.2528928171,63885.2388960842
3042425784,8117,1,0,53152.5393979559,47951.4938940798,68645.2905640064,70844.3462431199,64865.4928875341,74733.2029862163,74650.0732815219,78333.6974823057,78497.9613894155,63904.9992357247
3042425784,8117,1,0,53166.6295908768,47963.7711001741,68644.1954712923,70859.7992180850,64870.1409477204,74709.7558344385,74660.6591777579,78334.7804073230,78497.7667062663,63911.3507734662
3042425784,8117,1,0,53172.9324578311,47985.7824637268,68632.2224576186,70850.0163898394,64860.1756040224,74702.9419242176,74650.0976169156,78322.6127105000,78488.6287659523,63893.7927869507
3042425784,8117,1,0,53172.0928867503,47990.9537348766,68627.5257266449,70835.2204705027,64855.1138421441,74706.1541961789,74636.8226596817,78319.9601525926,78482.7517683868,63883.7909401623
3042425784,8117,1,0,53171.6548496647,47999.5319611368,68627.3432111926,70834.1132100918,64854.6636373616,74701.4331298116,74631.1768483559,78317.4901101376,78482.3380666948,63894.4985133665
3042425784,8117,1,0,53160.6917548272,47974.6125180434,68628.7546640240,70833.5413283411,64854.2256002760,74712.2258768935,74634.2917787426,78319.6194570816,78483.8955318881,63897.7229530245
3042453806,8118,1,0,53152.5272302590,47931.2590142632,68633.2445441517,70835.9748677057,64855.5883823202,74715.5233227325,74644.7559980103,78325.5937962217,78489.1763123093,63897.4917667849
3042453806,8118,1,0,53167.2866465053,47964.7201805263,68634.5708231054,70850.6491100742,64863.6920684043,74704.8279172252,74657.8727751854,78329.2927760558,78491.1961499819,63900.7527095335
3042453806,8118,1,0,53182.0460627515,48026.3130618441,68628.4748069971,70849.7121974188,64862.0250939395,74702.3092039828,74653.3342242705,78323.4401138840,78486.9739591844,63892.4300049066
3042453806,8118,1,0,53171.4845019092,48006.8934177146,68625.7492429088,70837.5201652022,64858.4234556799,74715.8396828499,74644.5369794675,78322.8925675270,78484.8567799372,63886.2609826173
3042453806,8118,1,0,53158.4528986118,47959.3663939242,68627.7447451877,70836.5224140627,64856.5617980660,74709.9748529813,74641.3855459904,78325.8614855518,78489.0302999474,63894.2186563395
3042453806,8118,1,0,53157.2726320200,47956.8355129851,68622.2449462238,70837.1186312071,64852.5342904176,74693.8039839036,74634.5351326790,78320.7023820988,78484.4430782452,63894.5471841538
3042453806,8118,1,0,53167.7855220750,47973.8094500531,68620.0912638861,70835.9140292216,64850.3441049895,74703.8058306920,74640.3512917604,78319.1935876928,78477.6413357212,63882.6958474482
3042453806,8118,1,0,53191.1840030655,48004.0218412644,68631.9060975012,70854.3967606956,64863.7285714947,74724.6004245624,74659.4545757724,78328.1733479481,78489.5170078203,63891.1037259529
3042477935,8119,1,0,53204.1182647883,48037.5438460116,68637.2112133160,70861.4418571561,64868.7538302826,74704.5237248046,74663.0075432447,78329.4387884177,78490.8797898645,63900.7405418366
3042477935,8119,1,0,53175.5850157385,47996.2710183882,68623.4495482092,70835.1231289281,64851.1958437671,74698.7927396010,74643.0038496678,78315.5554463427,78476.6922553690,63890.9455458942
3042477935,8119,1,0,53156.1410362155,47935.8827390559,68625.3233735200,70826.8490950885,64848.5797889502,74717.8108497353,74638.9276712321,78318.2931781279,78481.0361231347,63886.4313303729
3042477935,8119,1,0,53176.4610899098,47970.1713087030,68633.4148919072,70845.3926650467,64866.0282661943,74710.6075732161,74646.8001710766,78325.0827529551,78488.5679274681,63889.0108820993
3042477935,8119,1,0,53194.6639643569,48036.2297347548,68628.5356454812,70848.9699679126,64872.6961640532,74697.7949884615,74650.4626478203,78319.6437924753,78482.7882714773,63885.5552562016
3042477935,8119,1,0,53185.1123223509,48019.3653069582,68620.9916734510,70837.4958298086,64865.6267321991,74699.2551120803,74642.2372847680,78316.8573899028,78475.3903118089,63886.1758087396
3042477935,8119,1,0,53163.0522880109,47969.7089362237,68614.9443281300,70828.7472557929,64859.6767284527,74691.0540844216,74632.5031273096,78313.7911303034,78471.3628041605,63892.5881849653
3042477935,8119,1,0,53162.0545368714,47961.6539209269,68617.2926936168,70835.0136196567,64863.8745838566,74706.4218855090,74630.8604882385,78316.4680236045,78477.4344848752,63899.4629336702
3042504117,8120,1,0,53178.8946292744,47973.1767298183,68630.7623339998,70848.2642414969,64876.5654916429,74717.2754710750,74646.0457738735,78326.7253920262,78485.7328541084,63899.4751013670
3042504117,8120,1,0,53192.8631452271,47998.1935144862,68631.9791036821,70854.4332637861,64877.3563919364,74699.4741306231,74654.2711369258,78325.5572931312,78483.0559608074,63894.2308240364
3042504117,8120,1,0,53189.7238794468,48028.0165393993,68616.3071101742,70842.9834610757,64863.7285714947,74676.6962021705,74640.5946456969,78307.9628035252,78469.7323327862,63885.2388960842
3042504117,8120,1,0,53165.8143551897,47991.5742874146,68608.4102749361,70822.9432644083,64847.5820378107,74695.1667659478,74630.8361528449,78300.7838623997,78463.0157641400,63876.7580113986
3042504117,8120,1,0,53148.7187411535,47927.2315066148,68616.7086441693,70819.6458185693,64848.7379690089,74710.4615608542,74630.6536373925,78307.5977726205,78472.7864246888,63882.5985058736
3042504117,8120,1,0,53158.8787680006,47947.5150572187,68619.0326742625,70831.8743538764,64858.2652756212,74701.3601236306,74635.6667284836,78314.0223165431,78480.7562661078,63892.5151787843
3042504117,8120,1,0,53178.0185551031,48008.3048705461,68617.6090537342,70834.9771165662,64865.4320490499,74702.5038871320,74635.9344178137,78312.9637269194,78478.8946084939,63889.0595528866
3042504117,8120,1,0,53177.6656918952,48012.3688812850,68624.3377900773,70831.6553353336,64867.5857313876,74715.3286395834,74635.4355422439,78318.7677183040,78480.1722166603,63891.6634400067
3042543258,8121,1,0,53178.5661014601,47995.7843105153,68636.9800270763,70841.9735422394,64873.8764306451,74718.5165761510,74643.4053836630,78328.6722235179,78487.9230395365,63904.0014845852
3042543258,8121,1,0,53172.0442159630,47983.3367566654,68637.4058964651,70842.6305978679,64869.8245876030,74710.0600268590,74644.2814578342,78325.2531007106,78486.1830588908,63901.2759204968
3042543258,8121,1,0,53159.4993205386,47964.0387895042,68632.5144823423,70831.1442920670,64864.7749934215,74708.3322139102,74637.5040507038,78319.9236495022,78479.6125026065,63882.6715120546
3042543258,8121,1,0,53162.4195677761,47985.5512774872,68628.0489376083,70830.6089134068,64863.8137453725,74701.4452975084,74632.1502641017,78316.4071851203,78474.8914362392,63874.7625091197
3042543258,8121,1,0,53179.5030141155,48044.5281039880,68627.9272606401,70841.9370391490,64868.8755072508,74704.4385509268,74636.9930074373,78317.3075946852,78478.1767143814,63885.1780576001
3042543258,8121,1,0,53171.9590420853,48024.9624474967,68628.6451547526,70840.0875492319,64867.1111912115,74721.2908110266,74643.1133589392,78323.4036107935,78482.9829546264,63894.2916625205
3042543258,8121,1,0,53160.0346991988,47963.7832678710,68638.9268585680,70842.8617841075,64872.1851207867,74732.1930673800,74654.0034475957,78336.5203879687,78494.0312233416,63906.7270486735
3042543258,8121,1,0,53166.4105723340,47972.2763202534,68638.8781877807,70848.6536077952,64874.9471879655,74710.1452007368,74650.1584553997,78333.4906314598,78497.6085262076,63908.6738801652
3042573364,8122,1,0,53170.0487136841,48010.5680621552,68628.6086516622,70838.5300840385,64870.8466741362,74711.6661628397,74640.9353412079,78324.0606664220,78488.8599521919,63894.4741779728
3042573364,8122,1,0,53170.3285707110,48014.4008866544,68631.8574267139,70836.7657679992,64872.2094561803,74725.4886664305,74648.4549778445,78330.1201794398,78492.7536151752,63893.3425821683
3042573364,8122,1,0,53168.9414532732,48006.8447469273,68635.1305371592,70846.5485962448,64875.5190697162,74720.6215877013,74653.5289074196,78334.1476870882,78497.5233523298,63897.9906423546
3042573364,8122,1,0,53156.0923654282,47983.3854274527,68632.5631531296,70841.7666913934,64869.2892089428,74713.5278204536,74647.9439345779,78331.8114892982,78490.2592373265,63897.3944252103
3042573364,8122,1,0,53146.2243633048,47946.0914366904,68632.8673455502,70836.1208800676,64865.2373659008,74717.1051233195,74645.9240969053,78332.9065820122,78486.4994190083,63890.9090428037
3042573364,8122,1,0,53162.0667045682,47969.6359300428,68632.3806376773,70847.6436889589,64869.3013766396,74705.7283267901,74651.9349391358,78334.6587303548,78487.1321392430,63887.6724354488
3042573364,8122,1,0,53173.7598612151,48032.6159287983,68620.3954563067,70847.5950181716,64866.7461603068,74697.3447836791,74647.6397421573,78326.2386841533,78480.0992104794,63885.7986101381
3042573364,8122,1,0,53166.3740692436,48021.4703185085,68619.1665189276,70839.9172014763,64864.6411487565,74719.4048180191,74648.2359593017,78329.2684406622,78482.0703773647,63891.8337877622
3042616610,8123,1,0,53153.5249813985,47964.8905282818,68627.4162173735,70839.7346860240,64869.1675319746,74717.3728126496,74656.6560055031,78338.5767287317,78491.0744730137,63900.7770449271
3042616610,8123,1,0,53151.9310131147,47961.9581133475,68625.2138642486,70838.3962393735,64867.6830729622,74701.9441730781,74646.6906618052,78333.1986067360,78488.7261075268,63903.8798076170
3042616610,8123,1,0,53160.2780531353,47993.1195849111,68618.7528172356,70831.4606521844,64865.4198813531,74703.2947874255,74634.3161141362,78326.0926717914,78480.9022784697,63893.5250976206
3042616610,8123,1,0,53170.9491232490,48012.3323781945,68623.5103866933,70836.0113707962,64869.3622151238,74718.8694393589,74640.6068133937,78329.9985024716,78482.5327498440,63890.8725397132
3042616610,8123,1,0,53176.9721331763,48030.1215509496,68628.6451547526,70844.6747709341,64875.2270449924,74709.3299650497,74646.6541587147,78332.8700789218,78485.8180279862,63899.7549583940
3042616610,8123,1,0,53162.9306110427,48007.6599826145,68626.6131493832,70843.8473675502,64870.6398232902,74715.9613598182,74651.9227714390,78333.9408362422,78485.5990094434,63901.0812373477
3042616610,8123,1,0,53153.4276398239,47963.8441063551,68633.0255256089,70845.4656712276,64874.5578216671,74730.2462358883,74661.8637797434,78343.1639504340,78491.6828578548,63903.2714227758
3042616610,8123,1,0,53168.8806147891,47991.4039396590,68638.3671445142,70853.4111772530,64886.8715308520,74724.1988905673,74663.0805494256,78345.1716204098,78497.3286691807,63912.4945369676
3042626148,8124,1,0,53186.8766383902,48062.7309784351,68634.5464877117,70855.2606671701,64888.3924929548,74714.2092114757,74659.5032465597,78338.8930888491,78496.3674211317,63915.5486288702
3042626148,8124,1,0,53174.7697800514,48048.4095992745,68626.3576277499,70840.6472632857,64875.1175357210,74712.0676968348,74647.3233820399,78332.0061724474,78489.2128153998,63903.4661059250
3042626148,8124,1,0,53155.2162912569,47981.0005588754,68617.4752090692,70831.3268075193,64859.3360329417,74695.7143123048,74634.2917787426,78320.3373511942,78479.8558565429,63890.8482043196
3042626148,8124,1,0,53147.9765116473,47961.5079085651,68609.7000507993,70827.7738400470,64851.9989117574,74688.2311787587,74622.1240819196,78311.9659757800,78468.6980785563,63883.6205924068
3042626148,8124,1,0,53151.3226282736,47975.6346045765,68607.7775547013,70823.6976616114,64850.6604651069,74698.3303671217,74619.7027102519,78309.2282439948,78467.2987934217,63884.7400205145
3042626148,8124,1,0,53157.7350044993,47995.7843105153,68611.9145716211,70824.7319158413,64856.1359286772,74702.3335393765,74625.9934095093,78312.0998204450,78471.2167917986,63891.5295953417
3042626148,8124,1,0,53167.1284664466,48032.6037611015,68620.3589532162,70837.6540098673,64864.4586333041,74703.5503090588,74636.9321689531,78316.6992098441,78477.5926649339,63904.1596646439
3042626148,8124,1,0,53159.2559666021,48014.9484330114,68622.2084431333,70834.2592224537,64863.3635405900,74711.4958150841,74640.5216395159,78321.9434871748,78478.7850992225,63901.3367589810
3042661213,8125,1,0,53144.1558548449,47957.3222208580,68625.4815535787,70827.8711816216,64863.5338883456,74718.9302778430,74641.4707198681,78327.5162923197,78483.0437931105,63896.4696802518
3042661213,8125,1,0,53151.3347959704,47967.4700800083,68624.1187715345,70830.0491993529,64867.1720296956,74694.9477474049,74637.7109015498,78325.3139391947,78481.4984956140,63900.9352249858
3042661213,8125,1,0,53161.0324503383,48023.8308516922,68614.0560862619,70821.6778239387,64862.4144602379,74688.8273959030,74622.1362496165,78311.9781434768,78468.2843768643,63895.4719291123
3042661213,8125,1,0,53151.9310131147,48019.1584561122,68614.6036326189,70812.0045049645,64856.5739657628,74709.0622757196,74616.3200905351,78312.1849943228,78468.5885692849,63891.4809245544
3042661213,8125,1,0,53142.3672034119,47979.0415596869,68624.2282808059,70816.3605404271,64859.2508590639,74714.1605406884,74623.1705038464,78319.7167986562,78478.2010497750,63899.2195797338
3042661213,8125,1,0,53138.4370373381,47968.3948249668,68623.7050698425,70822.6147365941,64859.8227408146,74705.9351776361,74627.6238808836,78321.2255930622,78483.3601532279,63901.8721376412
3042661213,8125,1,0,53137.3906154113,47966.4479934752,68618.4972956023,70820.0108494740,64854.1647617919,74707.1641150152,74632.7464812461,78316.0299865188,78481.0239554379,63892.4056695129
3042661213,8125,1,0,53151.3591313640,47986.9992334091,68620.0304254020,70823.4908107654,64855.3328606869,74707.8941768246,74632.5883011874,78316.3706820299,78482.0460419711,63889.9599624515
3042693806,8126,1,0,53169.1483041192,48035.8038653659,68620.2372762480,70829.6963361451,64860.4067902621,74701.3114528433,74626.7599744092,78315.2390862253,78479.2109686113,63892.9410481731
3042693806,8126,1,0,53160.0712022893,48021.8961878973,68621.3323689620,70823.6124877336,64861.4775475825,74713.1992926394,74625.0686645508,78318.2323396438,78478.9189438876,63893.2574082905
3042693806,8126,1,0,53141.8074893580,47957.3587239484,68628.0732730020,70826.7030827266,64865.2860366881,74720.8771093346,74635.5572192122,78327.0904229309,78481.6445079759,63898.9640581005
3042693806,8126,1,0,53144.1558548449,47958.6119967212,68626.6131493832,70832.5679125953,64863.8989192503,74688.7057189348,74633.0993444539,78321.5784562701,78474.5385730313,63901.7382929761
3042693806,8126,1,0,53147.2221144442,48003.0727609122,68608.8848151122,70816.8107452096,64848.8353105835,74680.1031572810,74612.3534213708,78302.4630045613,78460.0590138120,63890.6413534736
3042693806,8126,1,0,53146.7110711777,48003.5229656947,68610.1867586722,70809.9116611110,64846.6207897617,74704.8522526188,74609.9198820062,78307.4882633491,78460.8620818023,63884.3993250034
3042693806,8126,1,0,53148.8647535153,47979.8811307677,68617.9619169421,70821.5074761832,64852.4856196303,74706.7625810200,74624.4967828001,78315.9569803379,78472.3970583905,63893.4642591365
3042693806,8126,1,0,53143.4014576418,47965.0122052501,68614.0560862619,70824.6102388731,64851.4635330972,74695.0329212827,74627.7455578518,78315.1539123476,78472.1537044540,63892.3326633320
3042733261,8127,1,0,53138.4613727317,47948.9386777470,68613.3868629366,70821.1667806722,64851.6460485495,74704.5845632887,74627.3926946440,78316.2003342744,78472.4335614809,63885.2388960842
3042733261,8127,1,0,53150.1788647722,47971.1568921457,68616.3801163551,70824.4398911176,64857.5473815087,74700.1920247356,74631.8582393780,78320.4346927687,78476.2177151929,63888.7918635565
3042733261,8127,1,0,53160.7404256145,48029.3063152625,68613.4963722081,70828.9419389421,64859.6888961495,74697.7098145838,74632.8681582143,78319.2544261769,78475.6701688358,63895.5205998996
3042733261,8127,1,0,53154.7052479904,48019.9736917993,68614.7009741935,70830.3777271672,64858.8128219783,74713.7711743900,74644.5004763770,78323.7321386078,78477.1181247578,63894.9608858457
3042733261,8127,1,0,53142.3793711087,47956.2757989312,68623.7415729330,70835.5733337105,64865.6754029864,74724.5030829879,74659.1382156550,78334.4032087215,78486.8522822161,63899.9496415431
3042733261,8127,1,0,53150.3978833150,47962.0189518316,68626.7226586546,70843.9325414279,64871.7835867915,74704.1343585063,74664.0052943842,78335.7781584625,78489.7116909695,63906.4836947371
3042733261,8127,1,0,53156.5425702106,48006.6135606877,68611.1966775085,70826.3380518219,64861.5992245507,74681.7944671393,74636.1656040533,78319.1205815119,78470.3772207179,63887.6115969647
3042733261,8127,1,0,53147.4411329871,48010.1178573727,68598.5544405095,70805.3122717119,64847.4846962361,74685.4691115799,74613.8135449896,78308.8145423028,78456.7980710634,63871.5380694616
3042758955,8128,1,0,53142.5862219547,47997.1349248626,68599.1628253506,70804.5457068120,64846.6694605490,74686.1383349051,74608.6422738398,78307.3300832904,78455.3014443542,63880.0797926313
3042758955,8128,1,0,53135.0787530149,47977.3015790412,68600.7567936344,70807.2834385972,64845.5622001381,74690.5795442455,74612.4750983390,78310.3233367089,78457.6133067506,63887.8914539916
