steady_timestamp,sequence,battery,flags,EEG-ch1,EEG-ch2,EEG-ch3,EEG-ch4,EEG-ch5,EEG-ch6,EEG-ch7,EEG-ch8,EEG-ch9,EEG-ch10
7929761977,19148,-2,0,48363.0419037222,63166.0915107579,43717.1719027864,58945.1053151825,73251.4817056025,52875.1645811801,41601.1972575800,67434.8724194538,30608.8026061596,20538.0379828961
7929761977,19148,-2,0,48355.5344347824,63165.0207534374,43722.2214969680,58946.3342525616,73243.7308827263,52871.1614089253,41610.4325394686,67433.4487989255,30617.5633478721,20527.9144591395
7929761977,19148,-2,0,48356.0454780490,63156.9292350502,43716.7825364881,58935.0304622131,73252.1022581405,52865.4547591154,41597.7537993791,67435.7241582314,30603.6678381003,20527.6832728998
7929761977,19148,-2,0,48358.0531480247,63156.9048996565,43716.2228224342,58932.9862891468,73258.0765972805,52863.6782753792,41592.5338574421,67442.3920560904,30604.7264277239,20531.0172218293
7929761977,19148,-2,0,48349.4262509773,63161.4556182683,43712.9375442921,58940.8587889913,73250.7394760963,52862.5588472715,41601.4771146069,67440.1166967845,30615.3123239599,20523.4124113150
7929761977,19148,-2,0,48351.3244116817,63164.0108346011,43704.2984795478,58942.4405895782,73246.5537883892,52859.7116062150,41603.8254800938,67435.6876551409,30606.0892097681,20525.3105720193
7929761977,19148,-2,0,48362.5186927588,63168.0261745527,43704.8338582080,58941.6496892847,73253.7205618179,52870.5286886905,41600.1751710469,67440.1045290877,30601.2342987357,20533.4629288907
7929761977,19148,-2,0,48357.1649061567,63166.9310818387,43713.3269105904,58938.4252496267,73249.0238308443,52867.2920813356,41601.0269098245,67436.7584124613,30613.2073124095,20523.7531068260
7929800057,19149,-2,0,48344.4009921894,63151.7092931131,43707.3404037535,58924.5905783390,73239.1314933272,52848.9675299203,41590.6965352218,67426.8417395506,30600.6137461978,20517.6935938082
7929800057,19149,-2,0,48351.2027347134,63146.5623573570,43702.1326295133,58925.7951803245,73245.3735217974,52854.8080243953,41585.2575747419,67429.5064651549,30589.3099558493,20519.4214067570
7929800057,19149,-2,0,48354.9625530317,63154.9580681649,43701.9501140609,58939.8245347613,73243.1833363693,52864.5300141568,41597.5347808363,67432.3293708178,30605.4321541397,20510.1009509907
7929800057,19149,-2,0,48344.8755323655,63151.4537714799,43698.9690283393,58937.5978462427,73231.5388505097,52857.0590483076,41600.0778294723,67422.0476670024,30606.9166131521,20503.9197610046
7929800057,19149,-2,0,48347.1752270650,63142.9972221879,43691.2547085536,58924.8947707596,73227.5965167391,52860.4660034180,41583.7122772454,67419.5411214569,30588.3608754971,20513.5930799789
7929800057,19149,-2,0,48357.1162353694,63144.0071410242,43695.8419302558,58926.3183912878,73227.3531628026,52864.1041447680,41578.2246459783,67425.0652558145,30588.9814280350,20522.5363371437
7929800057,19149,-2,0,48355.0233915158,63146.5258542666,43694.9780237814,58932.5847551517,73237.0873202610,52851.9486156419,41590.2584981362,67430.2000238738,30596.6349093367,20522.5241694469
7929800057,19149,-2,0,48350.0711389089,63148.0589840663,43678.5759684641,58930.5284143886,73238.7664624225,52842.0197750344,41593.1665776769,67424.0918400687,30584.2968647582,20517.9004446542
7929827598,19150,-2,0,48343.3789056563,63147.2437483791,43671.3483565512,58925.6978387499,73236.5762769944,52847.8481018126,41593.3369254324,67421.2202636184,30583.2382751346,20515.4304021991
7929827598,19150,-2,0,48329.3982220067,63144.1774887797,43675.7043920138,58921.2201263190,73227.0368026852,52840.2919620855,41595.4054338923,67416.0003216814,30595.3329657766,20512.4979872648
7929827598,19150,-2,0,48328.6681601973,63134.5406728960,43674.1590945173,58912.8852539953,73223.7515245430,52841.7520857043,41587.0948969622,67411.6564539156,30586.8155780006,20521.8184430312
7929827598,19150,-2,0,48351.7259456768,63142.5226820118,43685.7792449832,58925.1259569992,73242.0152374743,52854.6011735493,41586.3283320624,67425.2112681764,30586.1828577658,20535.7382881966
7929827598,19150,-2,0,48360.2676688465,63157.7809738278,43693.7369187055,58946.4924326203,73243.9255658755,52855.7814401411,41601.7691393307,67428.6912294677,30601.7331743055,20527.8779560490
7929827598,19150,-2,0,48348.7570276520,63154.4470248983,43687.7869149590,58944.3874210699,73227.6086844359,52847.3248908492,41603.4239460986,67417.9593208699,30597.6691635666,20518.3749848303
7929827598,19150,-2,0,48356.3131673791,63151.9404793528,43688.5899829493,58934.5315866433,73221.0137927579,52861.1352267432,41590.6965352218,67421.1107543470,30584.1630200932,20534.2173260937
7929827598,19150,-2,0,48374.0536693469,63161.1027550605,43713.3025751967,58943.6938623510,73254.9373315002,52892.8077415733,41593.2639192514,67443.5723226822,30601.9035220610,20541.5057764907
7929875081,19151,-2,0,48378.3610340222,63172.8202471009,43736.0196651652,58956.3969378341,73262.2014465035,52888.7680662281,41604.2270140889,67449.2303017049,30622.2357434521,20539.6927896641
7929875081,19151,-2,0,48379.1275989221,63178.1131952189,43719.0457280972,58959.7552221573,73267.1171960200,52874.8117179722,41608.6073849452,67447.7580103893,30617.2348200579,20537.2957533899
7929875081,19151,-2,0,48375.7571469021,63182.7247523148,43701.7067601245,58957.4311920641,73263.8075824842,52878.8148902270,41610.8949119479,67444.8742662422,30622.2235757553,20531.0780603134
7929875081,19151,-2,0,48359.2212469197,63177.7359966174,43697.8009294443,58948.8529658039,73248.2207628540,52867.4745967880,41610.5177133464,67432.7917432971,30629.6093677268,20519.6404252999
7929875081,19151,-2,0,48354.4150066747,63163.2929404886,43688.8455045826,58933.4973324134,73241.7718835378,52862.7413627239,41593.7262917307,67426.0751746508,30609.8246926927,20527.5007574475
7929875081,19151,-2,0,48367.9333178450,63164.1325115694,43696.9613583635,58937.5978462427,73256.3244489380,52871.4777690427,41586.9367169035,67437.6466543294,30605.1888002032,20536.9915609694
7929875081,19151,-2,0,48365.0130706075,63173.1609426120,43706.1236340712,58955.1193296677,73251.1288423946,52867.6571122403,41604.7623927491,67437.2937911216,30619.7048625130,20525.9676276478
7929875081,19151,-2,0,48360.8395505972,63176.8842578398,43708.9465397341,58958.3924401131,73246.4442791178,52873.7409606518,41614.4965502075,67428.8980803137,30618.9017945227,20523.6192621610
7929909192,19152,-2,0,48373.0437505106,63180.5467345835,43714.2516555489,58956.6524594674,73264.4281350221,52883.0127456309,41609.2157697863,67438.8512563149,30611.0901331623,20531.2240726753
7929909192,19152,-2,0,48377.6553076065,63180.7170823390,43716.7825364881,58955.9589007485,73265.9490971250,52881.4187773471,41605.6141315267,67443.6574965599,30619.6926948161,20530.4331723818
7929909192,19152,-2,0,48369.0040751654,63173.3556257612,43709.0317136119,58947.7092023026,73254.8399899256,52865.1749020885,41602.1463379322,67432.9985941430,30619.9360487526,20523.5219205864
7929909192,19152,-2,0,48370.7197204174,63168.3181992765,43699.8694379042,58944.1684025271,73252.5524629229,52857.4970853932,41595.3445954082,67427.4014536045,30602.4267330244,20526.1501431001
7929909192,19152,-2,0,48370.3668572096,63176.8599224462,43709.4210799102,58952.0409023715,73254.9494991970,52872.9500603583,41603.1684244653,67432.7187371161,30608.6565937977,20529.4475889391
7929909192,19152,-2,0,48355.3275839364,63177.2371210477,43716.8312072754,58952.6371195159,73245.7263850053,52867.2190751547,41608.5587141579,67430.2973654484,30622.5521035695,20527.2695712078
7929909192,19152,-2,0,48353.7457833494,63170.7395709442,43707.8879501105,58942.5987696369,73233.7290359378,52865.1627343916,41594.6753720829,67428.2410246853,30614.8742868743,20541.3232610383
7929909192,19152,-2,0,48382.3885416706,63181.0821132437,43719.4715974860,58954.9489819122,73274.0406155122,52893.8054927128,41596.1719987921,67451.7976857345,30621.9802218189,20558.3945396809
7929920181,19153,-2,0,48380.9162503551,63195.8658648836,43730.3981892330,58963.9409098644,73274.7706773216,52886.5292100127,41610.4203717718,67454.1095481309,30639.2583513074,20536.3953438250
7929920181,19153,-2,0,48362.1536618541,63189.2953085992,43717.5125982975,58952.1260762493,73258.0035910996,52867.7787892086,41608.3153602214,67436.1865307107,30628.1735795017,20514.2501356073
7929920181,19153,-2,0,48361.6426185875,63181.6904980849,43706.4034910981,58942.9759682384,73261.2645338482,52870.6016948715,41597.6686255013,67435.6268166568,30611.3213194020,20510.5754911668
7929920181,19153,-2,0,48361.3749292574,63173.6476504849,43706.4521618854,58944.2170733144,73246.2495959686,52868.9833911940,41592.9475591340,67431.2586134974,30613.6088464047,20500.5858120751
7929920181,19153,-2,0,48364.4898596441,63162.6115494665,43708.5815088294,58946.0422278378,73245.9575712449,52869.5552729447,41592.7285405912,67429.6038067294,30612.2095612700,20500.3911289260
7929920181,19153,-2,0,48379.3587851617,63165.9576660928,43707.4012422376,58955.7277145089,73257.0666784442,52867.0973981865,41594.0669872418,67436.4055492535,30607.8170227170,20512.4006456902
7929920181,19153,-2,0,48372.6178811218,63175.7161589448,43706.4886649759,58962.2130969155,73255.3266977986,52862.9847166603,41604.5920449936,67435.6876551409,30618.3299127720,20514.6395019056
7929920181,19153,-2,0,48347.1022208841,63173.2339487929,43699.5044069995,58951.4690206209,73243.5727026676,52857.2537314567,41606.0765040060,67423.8606538290,30622.2479111490,20508.5313181005
7929975218,19154,-2,0,48348.1121397204,63166.3957031784,43695.8784333463,58937.4274984872,73244.9111493181,52867.3285844261,41597.0359052666,67424.2865232178,30608.3037305899,20516.8540227274
7929975218,19154,-2,0,48370.9995774444,63173.1122718247,43712.1953147859,58946.0787309283,73265.2068676188,52887.1862656412,41596.5370296968,67441.3212987699,30615.6286840773,20529.8004521470
7929975218,19154,-2,0,48374.4917064325,63179.8531758646,43717.3665859356,58960.7894763872,73262.4204650463,52879.8004736696,41611.1747689748,67445.6043280516,30632.1159132724,20528.8392040980
7929975218,19154,-2,0,48369.1135844368,63183.4791495179,43709.4575830007,58961.3005196538,73250.0580850742,52869.3362544019,41617.4654682323,67441.8566774302,30627.3096730273,20533.9374690668
7929975218,19154,-2,0,48377.3511151859,63185.6571672492,43706.9023666679,58961.5317058934,73266.4114696043,52877.8779775716,41616.2852016404,67451.5178287076,30617.7215279308,20546.6405445500
7929975218,19154,-2,0,48375.0514204864,63187.1537939584,43715.0303881456,58960.8624825682,73253.8179033925,52883.3047703546,41613.6569791267,67447.9405258416,30625.7643755308,20544.9005639043
7929975218,19154,-2,0,48373.0802536011,63183.9171866035,43716.4296732802,58956.9444841912,73254.6818098669,52875.9798168672,41608.9237450626,67441.2482925890,30622.2235757553,20535.8721328617
7929975218,19154,-2,0,48380.0888469711,63184.0753666622,43714.7018603314,58954.5109448266,73265.1338614378,52874.4101839771,41602.7303873797,67440.3965538114,30610.8589469227,20533.4629288907
7929991624,19155,-2,0,48373.4452845058,63188.5774144867,43714.1299785807,58956.6889625579,73261.0820183958,52879.3502688872,41609.0819251213,67437.9143436595,30620.3375827478,20527.1235588460
7929991624,19155,-2,0,48357.6637817264,63188.4435698216,43711.3557437051,58955.1193296677,73246.3347698464,52874.3006747057,41617.0274311466,67430.2365269642,30627.6016977511,20525.5295905622
7929991624,19155,-2,0,48359.2942531007,63180.8022562168,43704.4688273033,58945.4095076030,73254.5236298082,52870.9788934730,41606.8309012090,67431.1369365291,30613.9860450062,20537.8189643533
7929991624,19155,-2,0,48372.1676763394,63180.3642191312,43706.6711804282,58946.8574635250,73264.8540044109,52871.5386075268,41600.8687297658,67440.8224232002,30614.7282745124,20540.3255098989
7929991624,19155,-2,0,48366.3393495612,63180.6684115517,43706.8658635774,58951.2134989876,73255.7038964001,52858.9207059215,41607.7434784707,67436.9895987010,30618.0135526546,20517.3042275099
7929991624,19155,-2,0,48362.8350528762,63178.4782261236,43696.7788429112,58947.4171775788,73250.7273083995,52849.2960577345,41608.0598385881,67430.0540115119,30599.7741751170,20497.1788569647
7929991624,19155,-2,0,48374.0901724374,63182.7977584958,43697.7279232634,58950.5564433591,73257.4925478330,52857.2658991535,41609.0819251213,67437.2329526374,30594.5907362704,20501.9607618161
7929991624,19155,-2,0,48367.4709453657,63180.3033806471,43696.5963274588,58948.9746427722,73253.2581893387,52855.9031171094,41609.3861175418,67434.7507424856,30605.1279617191,20508.8963490052
7930035326,19156,-2,0,48367.0329082801,63173.3556257612,43691.0113546171,58943.8885455002,73248.6831353332,52859.6142646404,41602.2436795068,67430.7840733213,30603.3393102861,20515.7467623165
7930035326,19156,-2,0,48384.8220810352,63178.1740337030,43699.1028730044,58953.9755661664,73271.2907160303,52875.5782828721,41601.5501207879,67444.3753906725,30603.2906394988,20528.9730487631
7930035326,19156,-2,0,48382.7414048785,63182.9194354640,43707.6080930836,58965.3888657863,73263.6494024254,52869.1537389495,41612.6713956840,67440.7615847161,30615.0446346298,20519.1658851238
7930035326,19156,-2,0,48374.1996817088,63180.9117654882,43701.6459216404,58967.3356972780,73255.3997039795,52860.4173326307,41622.7219132598,67434.5560593364,30615.9328764979,20516.0266193434
7930035326,19156,-2,0,48378.3732017191,63180.0235236201,43696.3164704319,58960.3636069984,73257.5412186203,52868.3993417465,41612.9269173173,67438.2915422610,30607.3789856313,20520.9910396472
7930035326,19156,-2,0,48384.5057209178,63187.0199492933,43707.8757824137,58964.3911146468,73275.1600436200,52885.2394341495,41612.9025819237,67453.9757034658,30623.5498547090,20527.8171175649
7930035326,19156,-2,0,48375.9761654449,63193.2133069762,43716.9163811532,58969.8665782172,73268.5164811546,52886.7603962523,41622.5150624138,67455.9833734416,30643.0668404130,20525.3714105035
7930035326,19156,-2,0,48377.2659413082,63198.2994042482,43719.2039081559,58972.2757821881,73273.4565660647,52882.6842178167,41628.5502400380,67454.6205913974,30632.7242981135,20528.2186515600
7930043898,19157,-2,0,48389.2267872851,63204.2250726010,43720.9317211047,58976.6926561348,73266.6183204502,52880.5548708726,41630.8377670407,67453.3308155342,30622.0532279998,20537.8189643533
7930043898,19157,-2,0,48398.2430506309,63207.1939906258,43726.1881661322,58984.5529882824,73278.2019678257,52895.3994609966,41638.0653789535,67461.6413524643,30634.0992478545,20543.7689680998
7930043898,19157,-2,0,48395.4688157553,63198.7252736370,43719.0822311876,58979.8927603993,73278.8225203637,52896.7379076472,41631.6043319405,67458.1005526888,30635.4133591114,20542.7468815666
7930043898,19157,-2,0,48404.3999052233,63197.9952118276,43715.2007359011,58981.8030888005,73284.5900086577,52898.4778882928,41627.4308119303,67460.8139490803,30634.2574279132,20547.9424881100
7930043898,19157,-2,0,48396.3448899265,63198.3724104291,43710.2606509910,58985.8549318425,73270.9865236097,52879.7883059728,41634.2812252416,67451.6151702822,30641.8379030339,20534.0956491255
7930043898,19157,-2,0,48373.5547937772,63183.5034849115,43689.7459141475,58971.6917327406,73245.5073664625,52852.3136465466,41629.9495251726,67431.0030918641,30631.9699009105,20523.0960511976
7930043898,19157,-2,0,48367.2275914292,63168.6102240002,43679.9630859019,58950.4104309973,73243.1711686724,52860.7945312322,41611.0165889161,67425.4302867192,30611.1753070401,20528.3524962251
7930043898,19157,-2,0,48370.6102111460,63169.1090995700,43699.5530777868,58949.6073630070,73253.1851831577,52880.9320694742,41605.6262992235,67436.6245677963,30621.8950479411,20531.3214142499
7930080372,19158,-2,0,48364.7210458837,63166.9189141418,43701.9622817578,58950.3617602100,73238.6204500607,52855.9639555935,41607.2567705978,67429.9445022405,30625.2654999611,20529.1433965186
7930080372,19158,-2,0,48376.0735070195,63168.9387518144,43691.1086961917,58958.4411109004,73251.2748547565,52858.4826688358,41605.1639267443,67436.8800894296,30612.4285798128,20530.6643586214
7930080372,19158,-2,0,48390.7112462975,63182.9681062513,43698.2754696204,58977.9945996949,73260.7534905816,52873.8504699232,41618.3537101003,67445.5556572643,30623.4768485281,20525.6634352272
7930080372,19158,-2,0,48378.4827109905,63182.2380444419,43699.7720963296,58976.6074822571,73248.8413153919,52873.8504699232,41626.7250855145,67437.4763065739,30638.7838111313,20515.9779485562
7930080372,19158,-2,0,48371.1090867158,63167.3326158338,43690.9626838298,58957.2730120054,73230.8331240940,52855.1000491191,41611.0895950971,67424.1891816432,30623.3308361662,20524.5926779068
7930080372,19158,-2,0,48378.7260649269,63160.7620595494,43691.6805779424,58950.1305739703,73249.6200479886,52864.2988279172,41602.4261949591,67434.0328483730,30612.0878843018,20540.6783731067
7930080372,19158,-2,0,48374.9540789118,63167.5394666798,43699.8329348137,58960.4001100889,73246.3591052400,52870.9545580793,41614.6303948725,67435.9431767742,30626.9568098194,20533.1587364701
7930080372,19158,-2,0,48359.8783025482,63168.7319009684,43699.7112578455,58962.0305814632,73233.2058249744,52857.1928929726,41621.3104604283,67421.9259900342,30622.0653956966,20516.8296873338
7930107845,19159,-2,0,48357.5542724550,63161.6989722048,43688.4318028906,58951.5541944986,73229.9692176196,52853.7859378622,41606.9647458741,67413.6032854073,30599.8350136011,20512.6439996267
7930107845,19159,-2,0,48357.6394463328,63155.1527513140,43684.8423323279,58946.7966250408,73228.7402802404,52856.7913589774,41598.6298735504,67412.1553294854,30602.4875715085,20511.2447144920
7930107845,19159,-2,0,48355.4370932078,63152.8287212209,43681.9950912713,58945.5555199649,73227.8885414628,52851.4984108595,41596.7438805428,67412.1309940917,30610.2383943847,20518.4844941017
7930107845,19159,-2,0,48367.9819886323,63158.8760665419,43681.3137002492,58950.9579773543,73240.3604307063,52853.6155901067,41596.3910173349,67420.9769096820,30603.9476951273,20538.9018893706
7930107845,19159,-2,0,48380.2226916361,63174.0856875705,43690.6341560156,58962.8944879376,73235.9557244564,52859.6872708213,41605.7723115854,67426.5618825237,30611.3578224924,20541.9316458795
7930107845,19159,-2,0,48368.5782057766,63170.1798568904,43690.2691251109,58958.1004153894,73233.0233095221,52850.3546473581,41609.7146453561,67421.5122883422,30611.2483132210,20528.8027010075
7930107845,19159,-2,0,48356.4956828314,63156.7710549915,43681.4962157016,58936.8921198270,73227.4748397708,52846.9841953382,41593.5194408847,67414.4550241849,30597.4988158111,20521.5507537011
7930107845,19159,-2,0,48360.3285073306,63153.8264723603,43684.4407983327,58934.1300526482,73234.7754578646,52858.5191719263,41584.9412146245,67418.8475627380,30597.7665051412,20525.8094475891
7930156190,19160,-2,0,48351.5799333149,63154.6052049570,43692.1307827248,58938.4374173235,73227.7181937073,52854.4429934906,41593.9331425767,67415.5014461117,30614.1563927617,20522.3659893882
7930156190,19160,-2,0,48341.9552851280,63151.2104175434,43690.3664666855,58935.3954931178,73215.7695154272,52856.4749988600,41596.9020606015,67405.2319099931,30612.1122196955,20526.6490186699
7930156190,19160,-2,0,48350.2414866644,63149.7259585310,43693.6152417372,58932.1832211565,73222.1575562592,52859.0910536770,41589.8812995347,67407.7384555386,30602.6092484767,20535.8112943775
7930156190,19160,-2,0,48355.3519193301,63151.8066346877,43700.1857980216,58936.6609335873,73228.0588892183,52861.8287854621,41592.4243481707,67415.7326323513,30615.7503610455,20530.6400232278
7930156190,19160,-2,0,48359.0022283769,63151.7214608100,43698.7135067060,58942.5257634560,73230.9426333654,52860.6728542640,41597.7903024696,67418.0079916572,30621.2014892222,20534.6310277857
7930156190,19160,-2,0,48378.8234065015,63158.6327126054,43698.5674943442,58951.2986728653,73240.3969337968,52857.8499486010,41598.8245566995,67422.6195487531,30609.8611957832,20545.3872717772
7930156190,19160,-2,0,48389.5796504930,63169.8269936825,43706.2331433426,58964.0139160453,73237.9512267354,52863.8364554379,41611.1504335812,67425.3694482351,30614.0347157935,20551.2521016459
7930156190,19160,-2,0,48372.5448749409,63172.8689178882,43715.8212884391,58962.7728109694,73235.0674825884,52870.3948440255,41619.3271258462,67420.4902018091,30625.1438229928,20542.4061860556
7930167319,19161,-2,0,48359.9999795164,63166.2618585134,43708.3868256803,58947.4658483661,73236.9534755959,52870.4435148128,41606.0521686124,67417.3144329383,30617.5511801753,20552.3958651472
7930167319,19161,-2,0,48360.4380166020,63163.6214683028,43700.2588042025,58939.6906900963,73242.4776099535,52874.2276685247,41594.9795645035,67421.9868285183,30619.6561917257,20563.4928046497
7930167319,19161,-2,0,48351.9206288260,63165.0694242247,43699.5044069995,58939.2039822233,73237.4401834688,52871.4412659523,41600.9904067340,67422.5587102690,30634.0627447640,20550.3881951714
7930167319,19161,-2,0,48347.0657177936,63166.7120632958,43700.8671890437,58939.9340440327,73235.1283210725,52872.1348246712,41603.8498154874,67419.6993015156,30625.7157047435,20538.4638522849
7930167319,19161,-2,0,48355.9481364744,63172.1753591693,43704.3593180319,58945.8110415982,73241.7110450537,52867.4137583039,41605.0422497761,67423.8971569195,30612.5867598715,20530.5426816532
7930167319,19161,-2,0,48353.3685847479,63167.6854790417,43701.0253691024,58948.1594070850,73229.7867021672,52853.5182485321,41604.7258896586,67415.5379492021,30614.7282745124,20516.0752901307
7930167319,19161,-2,0,48352.4681751830,63157.6106260723,43690.5246467442,58942.3432480037,73227.1828150471,52843.4433955627,41599.8709786263,67410.6830381698,30609.8246926927,20514.0554524581
7930167319,19161,-2,0,48360.4745196925,63154.1550001746,43682.6643145966,58940.8709566881,73238.9246424812,52843.9544388292,41590.7817090996,67413.6762915882,30597.5596542952,20521.5020829138
7930204360,19162,-2,0,48366.9355667055,63164.5948840486,43692.5323167200,58954.2554231933,73240.8228031856,52856.1951418331,41603.0832505876,67419.4681152759,30609.8125249959,20523.3515728309
7930204360,19162,-2,0,48351.0080515643,63161.6137983270,43691.3033793409,58950.3252571195,73225.2481512522,52843.1635385358,41608.6560557325,67408.3955111671,30612.5137536906,20522.4998340532
7930204360,19162,-2,0,48343.5735888054,63146.9030528681,43683.6620657361,58928.6545890778,73214.0903732656,52840.8030053521,41585.7686180085,67398.6126829214,30590.4172162601,20535.3732572919
7930204360,19162,-2,0,48353.5024294130,63144.4208427162,43690.5368144410,58925.6491679626,73226.3675793600,52861.7557792812,41578.5531737925,67412.7150435392,30594.5420654831,20550.8870707412
7930204360,19162,-2,0,48361.3749292574,63154.8363911966,43707.5350869027,58940.4329196025,73233.5708558791,52871.3560920745,41590.6113613440,67419.9913262393,30619.8752102685,20541.0069009209
7930204360,19162,-2,0,48363.0297360253,63159.2289297497,43703.1425483496,58943.7425331383,73215.5383291875,52854.3213165224,41593.5072731879,67408.4076788639,30615.9450441947,20532.0758114529
7930204360,19162,-2,0,48374.5282095230,63159.7034699258,43700.6481705009,58946.3220848648,73230.3342485242,52858.6895196818,41595.1742476526,67412.8002174170,30607.2573086631,20537.7824612629
7930204360,19162,-2,0,48366.1933371993,63156.7832226883,43703.6292562225,58945.1418182729,73224.6154310174,52852.9341990846,41597.9119794378,67408.7240389813,30616.3709135835,20528.7053594329
7930231547,19163,-2,0,48354.8652114571,63142.2793280754,43695.0997007496,58934.3125681005,73213.9078578133,52842.3604705454,41589.2364116030,67397.9312918993,30607.0017870298,20523.7774422197
7930231547,19163,-2,0,48355.9116333839,63133.8227787834,43682.6399792029,58927.6568379384,73220.4054079167,52832.8696670235,41579.5144218415,67398.6735214055,30586.7790749101,20527.3790804792
7930231547,19163,-2,0,48353.2347400829,63140.6975274884,43680.7418184985,58936.2593995922,73218.1422163076,52829.4383765195,41592.1688265374,67403.1268984427,30591.5609797615,20519.3605682729
7930231547,19163,-2,0,48342.6366761501,63143.4352592735,43676.1302614026,58937.5005046681,73205.7068301546,52823.4640373794,41601.4771146069,67395.8627834394,30593.8363390674,20512.5831611425
7930231547,19163,-2,0,48349.4384186741,63137.6434355858,43675.4488703806,58927.7663472098,73210.8537659107,52831.9692574586,41589.4189270554,67394.0741320065,30582.3135301761,20524.3614916672
7930231547,19163,-2,0,48362.4091834874,63135.8426164560,43683.1875255600,58924.1282058597,73216.4630741461,52834.1837782804,41576.1074667311,67398.0408011707,30585.2337774136,20531.9176313942
7930231547,19163,-2,0,48353.5876032907,63133.6889341184,43679.7318996622,58920.5509029938,73207.6779970399,52828.8664947688,41573.6252565792,67388.1727990473,30592.2788738741,20524.3128208799
7930231547,19163,-2,0,48351.2757408944,63135.2220639181,43673.0153310160,58918.4215560498,73207.8483447954,52825.3865334774,41572.3963192001,67384.2426329735,30580.0868416575,20523.5097528896
7930273324,19164,-2,0,48359.1239053452,63147.3410899537,43681.6665634571,58930.3458989362,73223.2161458828,52847.9211079935,41583.3350786439,67395.3395724760,30586.6330625482,20527.3060742983
7930273324,19164,-2,0,48350.5213436913,63151.0887405752,43688.3101259224,58933.2783138706,73215.8668570018,52839.0751924032,41595.4419369827,67393.1493870479,30602.1590436943,20517.9369477446
7930273324,19164,-2,0,48343.0503778421,63137.1202246224,43678.2474406498,58918.8839285290,73209.3693068983,52830.2536122066,41583.6271033677,67385.3255579908,30592.3762154486,20520.1636362632
7930273324,19164,-2,0,48357.8341294819,63135.0152130721,43681.7639050317,58917.3629664262,73222.8267795845,52844.4776497926,41573.2358902809,67395.9357896204,30587.7159875655,20539.4129326371
7930273324,19164,-2,0,48362.4943573651,63142.6808620705,43693.8099248864,58930.1998865744,73223.6055121812,52854.4794965811,41583.9069603946,67400.7785329559,30604.9941170540,20541.1042424955
7930273324,19164,-2,0,48349.6331018233,63144.4816812003,43691.1938700695,58930.4189051172,73197.6274794642,52835.2545356008,41588.2386604636,67387.1628802110,30599.3361380314,20533.2195749543
7930273324,19164,-2,0,48357.3595893058,63138.4586712730,43680.2794460193,58924.2133797375,73213.7010069673,52837.5177272099,41580.0376328049,67393.8551134637,30580.2328540193,20539.8753051164
7930273324,19164,-2,0,48363.0540714190,63146.6718666285,43689.7580818443,58932.0250410978,73231.8917137176,52850.2573057835,41582.5928491377,67404.0638110981,30593.7998359769,20532.7572024750
7930289675,19165,-2,0,48350.2414866644,63148.1198225504,43696.0244457082,58933.1566369023,73227.2558212280,52844.3559728244,41589.4067593586,67398.4058320754,30607.0626255139,20519.3849036666
7930289675,19165,-2,0,48347.5767610602,63145.6497800953,43688.1032750764,58929.6766756110,73224.1043877509,52837.7610811464,41587.5329340478,67395.4612494443,30593.2766250135,20519.9202823268
7930289675,19165,-2,0,48353.9039634081,63149.5434430787,43685.4507171690,58935.6388470542,73227.5356782550,52843.3582216849,41589.7839579601,67397.9191242025,30591.9990168471,20522.0983000581
7930289675,19165,-2,0,48347.8444503903,63149.1175736899,43681.8490789094,58937.8046970887,73216.8159373540,52831.9327543682,41594.5901982051,67394.1228027937,30597.5353189016,20517.3285629035
7930289675,19165,-2,0,48342.5515022723,63138.6533544221,43674.5727962093,58926.5374098307,73211.3161383900,52834.4271322169,41584.9168792309,67392.7600207496,30587.2049442989,20525.0063795988
7930289675,19165,-2,0,48366.4731942262,63144.7737059241,43686.6796545481,58934.7749405798,73240.3604307063,52855.4407446301,41586.5595183020,67416.1950048306,30592.4370539328,20542.4305214492
7930289675,19165,-2,0,48371.7904777378,63160.4091963415,43705.3327337777,58952.1625793398,73245.6412111275,52858.4218303517,41606.0400009155,67423.8971569195,30616.4439197644,20539.8266343291
7930289675,19165,-2,0,48360.6448674480,63166.2131877261,43702.0717910292,58955.0828265773,73242.0517405647,52851.3402308008,41614.5573886916,67417.7768054176,30618.7192790703,20537.1619087249
7930326518,19166,-2,0,48363.2974253554,63165.3492812517,43695.7445886812,58948.1959101755,73233.9602221775,52852.7273482386,41607.1472613264,67412.0701556076,30601.6358327309,20543.1970863491
7930326518,19166,-2,0,48368.1280009941,63164.6435548359,43704.3228149414,58946.7479542536,73241.4555234204,52869.2754159178,41604.4095295413,67419.2490967331,30610.0437112356,20547.3949417530
7930326518,19166,-2,0,48353.2469077797,63156.2600117249,43704.8703612984,58937.9507094506,73236.8074632340,52853.1045468401,41599.9561525041,67412.3865157250,30615.8355349233,20537.5756104169
7930326518,19166,-2,0,48352.3708336084,63149.1175736899,43689.6120694825,58931.0637930488,73235.2378303439,52833.6362319234,41590.5626905567,67406.6920336118,30601.5506588531,20532.3313330862
7930326518,19166,-2,0,48360.0851533942,63153.3397644874,43676.1910998868,58940.1408948787,73232.8772971602,52829.5235503972,41594.5171920242,67407.1057353038,30601.8305158801,20523.8626160974
7930326518,19166,-2,0,48358.5155205040,63152.6583734653,43668.2090907709,58944.7524519746,73221.6343452958,52825.7272289885,41604.4216972381,67400.5716821099,30605.6146695920,20516.2578055831
7930326518,19166,-2,0,48362.2023326414,63146.3676742079,43664.4371047558,58939.8245347613,73224.4694186556,52839.1481985842,41597.8024701664,67403.0538922618,30600.5407400168,20528.2794900441
7930326518,19166,-2,0,48374.0049985596,63149.8598031961,43680.9851724350,58943.9007131970,73243.2806779438,52861.6462700098,41594.1278257259,67415.4041045371,30608.6687614946,20542.8442231412
7930354190,19167,-2,0,48369.2595967987,63154.0819939936,43691.4250563091,58946.1882401997,73235.9800598501,52849.9287779693,41597.9849856187,67412.2040002726,30621.9437187284,20528.9852164599
7930354190,19167,-2,0,48359.8417994577,63150.9427282133,43681.9829235745,58941.8565401307,73225.4306667046,52839.8417573031,41597.7537993791,67400.8880422273,30608.0968797439,20513.2402167710
7930354190,19167,-2,0,48367.2884299134,63157.1847566835,43681.4718803079,58941.9173786149,73233.7047005442,52841.9589365503,41595.9529802493,67405.2197422963,30596.4645615811,20510.8918512842
7930354190,19167,-2,0,48360.1094887878,63160.0685008305,43689.0158523381,58941.9782170990,73225.1264742840,52842.6646629660,41596.9507313888,67407.6289462672,30607.1477993917,20508.0446102276
7930354190,19167,-2,0,48352.0909765815,63149.5191076850,43688.5048090716,58933.9353694990,73226.4284178441,52841.7764210979,41592.7407082881,67404.6478605456,30605.6998434698,20515.7102592260
7930354190,19167,-2,0,48365.4511076931,63148.9837290248,43692.0821119375,58933.8136925308,73238.4987730924,52849.2838900377,41585.6834441308,67412.9583974757,30601.2829695230,20530.9442156484
7930354190,19167,-2,0,48366.8138897373,63155.0919128299,43699.7842640264,58941.1264783214,73231.9282168080,52850.9630321993,41591.2684169725,67409.4662684875,30611.3334870988,20524.6413486941
7930354190,19167,-2,0,48349.8277849724,63153.6561246048,43696.5476566716,58937.4761692745,73218.1787193981,52835.6317342023,41598.4473580980,67393.1615547447,30613.5236725269,20510.7336712255
7930389200,19168,-2,0,48347.1265562777,63145.2969168875,43682.1654390268,58924.8704353659,73216.2805586937,52828.7083147101,41584.0773081501,67386.2259675557,30593.0941095612,20517.2312213289
7930389200,19168,-2,0,48357.2379123376,63147.6452823743,43683.6864011297,58924.5054044612,73229.8475406513,52843.7962587705,41576.8131931468,67397.2133977868,30591.4879735806,20530.9077125579
7930389200,19168,-2,0,48352.6141875449,63150.6872065800,43687.0568531497,58928.9222784079,73225.9173745775,52849.8314363947,41581.4369179395,67399.5374278800,30609.0459600961,20534.3390030620
7930389200,19168,-2,0,48360.9125567781,63159.9589915591,43696.6449982461,58939.0579698615,73228.8132864214,52866.1726532279,41591.2562492757,67404.7086990297,30614.7526099060,20546.6405445500
7930389200,19168,-2,0,48376.8400719194,63173.1974457025,43708.9465397341,58948.4635995056,73227.8277029787,52866.7567026754,41594.0669872418,67407.7141201450,30612.9639584731,20554.2331873675
7930389200,19168,-2,0,48374.6012157039,63173.5016381230,43713.6554384046,58949.7412076720,73227.7181937073,52856.7913589774,41600.2968480151,67409.0403990987,30620.0455580240,20555.0727584483
7930389200,19168,-2,0,48367.1789206419,63157.7079676469,43701.0010337087,58938.3279080521,73224.6397664111,52835.7290757769,41591.6091124835,67401.0218868924,30613.2073124095,20546.0199920120
7930389200,19168,-2,0,48367.5196161530,63146.3068357238,43681.3502033397,58927.0362854004,73227.3166597121,52835.1206909358,41575.3652372249,67395.1570570237,30599.0562810044,20537.3444241772
7930418355,19169,-2,0,48361.6304508907,63145.9418048191,43676.3127768550,58926.2940558942,73216.9254466253,52831.0810155906,41575.7059327359,67389.8884442994,30607.2086378758,20522.9378711389
7930418355,19169,-2,0,48339.4122364920,63143.9219671465,43675.6313858329,58919.4801456733,73198.0898519434,52823.6708882254,41582.1669797489,67379.7649205427,30613.0491323508,20506.8156728485
7930418355,19169,-2,0,48338.9620317095,63139.8457887108,43671.1415057052,58907.7504859360,73203.2367876995,52827.1508495168,41572.4936607747,67378.6454924350,30596.3793877034,20510.9526897683
7930418355,19169,-2,0,48353.4294232320,63143.3014146085,43682.8833331394,58910.4517146307,73218.9452842980,52844.2342958562,41570.5346615862,67390.9348662261,30598.0220267745,20520.7720211044
7930418355,19169,-2,0,48353.0887277210,63149.2392506581,43692.5931552041,58920.6847476588,73220.4905817945,52847.8967725999,41580.5365083746,67393.3440701971,30611.3091517051,20523.0352127135
7930418355,19169,-2,0,48363.1514129936,63157.4037752263,43691.6562425487,58929.2143031317,73218.9331166011,52844.1491219784,41588.6888652460,67392.5410022068,30607.6223395678,20526.8680372127
7930418355,19169,-2,0,48381.1961073820,63167.9896714622,43690.6219883188,58937.2571507317,73225.5036728855,52849.9896164534,41595.0647383812,67399.4644216990,30602.1468759975,20534.6066923921
7930418355,19169,-2,0,48381.3177843502,63174.6940724117,43696.8518490921,58944.3874210699,73231.9768875953,52851.8512740673,41607.4149506565,67404.6113574551,30616.7846152755,20534.3511707588
7930451569,19170,-2,0,48366.6435419817,63163.3294435791,43688.5656475557,58931.5505009217,73225.6010144601,52840.7421668680,41597.3766007776,67395.2665662951,30611.5646733384,20531.2970788562
7930451569,19170,-2,0,48366.0716602311,63157.1117505025,43685.1465247485,58922.7532561187,73228.8132864214,52841.8494272789,41582.7631968932,67395.4612494443,30603.0837886528,20537.1010702408
7930451569,19170,-2,0,48359.7079547927,63159.9468238623,43685.3412078976,58926.5739129211,73223.4716675161,52845.7430902622,41586.3283320624,67396.1669758600,30613.7061879793,20531.0293895261
7930451569,19170,-2,0,48348.7570276520,63163.5362944250,43684.4773014232,58929.1047938603,73214.5284103512,52846.8990214604,41595.4784400732,67391.1173816785,30619.0113037941,20525.2740689289
7930451569,19170,-2,0,48359.6714517022,63166.4565416626,43684.7571584501,58930.4067374204,73226.0390515457,52859.9184570609,41594.5658628115,67395.1448893269,30612.0392135145,20537.1132379376
7930451569,19170,-2,0,48377.0590904622,63167.7949883131,43691.8144226074,58938.2549018711,73232.5731047397,52863.2280705968,41595.0769060781,67403.9664695235,30618.7801175544,20549.6216302716
7930451569,19170,-2,0,48373.8954892882,63159.7643084099,43687.9207596241,58936.5879274064,73223.8123630271,52845.5970779003,41595.4784400732,67397.6636025692,30619.8387071780,20547.9059850196
7930451569,19170,-2,0,48368.4808642020,63158.5353710308,43685.7184064991,58930.2363896648,73229.1174788419,52848.4929897442,41592.2905035056,67400.5473467163,30607.2938117536,20550.3151889905
7930513542,19171,-2,0,48370.9509066571,63170.8977510029,43708.6910181008,58933.9840402863,73241.1026602125,52870.1393223922,41598.0093210124,67409.3567592161,30609.7395188150,20546.7500538214
7930513542,19171,-2,0,48363.8936424998,63182.6882492244,43715.2494066884,58939.6663547026,73235.6515320359,52865.3209144503,41613.5961406426,67409.3324238224,30627.1393252718,20540.7392115908
7930513542,19171,-2,0,48366.9964051896,63175.0956064068,43693.7247510086,58934.0083756799,73233.2423280649,52845.7917610495,41607.9138262263,67404.5383512742,30618.6097697989,20546.0078243152
7930513542,19171,-2,0,48381.1717719883,63168.5250501225,43678.3447822244,58932.6577613326,73243.1103301883,52843.7840910737,41593.4099316133,67410.3545103556,30604.4587383938,20549.4634502129
7930513542,19171,-2,0,48373.4696198994,63166.4687093594,43678.0284221070,58935.3589900273,73225.0169650126,52836.9701808529,41592.2418327183,67405.1710715090,30613.5115048301,20535.4584311697
7930513542,19171,-2,0,48362.2510034287,63161.7598106889,43675.3271934123,58935.5658408733,73208.2255433970,52827.9539175071,41596.2815080635,67396.9578761535,30610.7129345608,20533.0005564114
7930513542,19171,-2,0,48372.2163471266,63160.7498918526,43676.8238201216,58940.0435533041,73230.1030622846,52842.7133337533,41594.9430614130,67405.8037917438,30601.2586341294,20538.8775539769
7930513542,19171,-2,0,48380.7945733868,63164.1568469630,43688.5169767684,58950.5564433591,73243.3050133375,52858.7625258628,41603.1075859812,67415.3432660530,30615.3123239599,20529.0338872472
7930535473,19172,-2,0,48365.7553001137,63161.2244320287,43692.0699442407,58944.9227997301,73237.4280157720,52856.1099679554,41605.5046222553,67411.0359013776,30626.5796112179,20511.6705838808
7930535473,19172,-2,0,48359.9878118196,63155.7368007615,43681.9950912713,58933.4243262324,73234.2644145980,52847.1058723064,41598.3500165234,67405.0128914503,30612.6475983557,20512.6196642330
7930535473,19172,-2,0,48365.0617413948,63161.3096059064,43683.4673825869,58933.5216678070,73233.5586881823,52852.8246898132,41600.4793634674,67406.3391704040,30611.8688657590,20520.6138410457
7930535473,19172,-2,0,48358.6493651691,63162.9887480680,43686.9960146655,58936.5514243159,73222.6929349194,52842.3969736359,41610.2986948036,67401.4964270685,30621.7855386697,20519.6404252999
7930535473,19172,-2,0,48355.6926148411,63153.6804599985,43677.9067451388,58928.1678812049,73221.5978422054,52838.0531058701,41598.4108550075,67397.1403916058,30609.3744879103,20526.0528015255
7930535473,19172,-2,0,48370.2086771509,63154.6903788348,43683.3943764060,58929.0804584666,73238.6934562416,52852.9950375687,41589.7109517791,67411.5469446442,30607.0869609076,20537.6121135073
7930535473,19172,-2,0,48372.2285148235,63164.4610393836,43697.3872277523,58944.4969303413,73247.4785333478,52863.1672321127,41604.6163803872,67420.3198540536,30630.3150941426,20533.1222333797
7930535473,19172,-2,0,48367.2884299134,63165.3857843421,43692.1794535121,58948.9016365912,73235.1161533757,52841.9224334598,41612.5253833222,67411.1819137395,30630.1690817807,20530.5548493500
7930540400,19173,-2,0,48375.3312775133,63167.6124728607,43683.3700410123,58948.9381396817,73242.1004113520,52847.1423753968,41611.4911290922,67413.9196455247,30617.5998509626,20538.8897216737
7930540400,19173,-2,0,48372.0338316743,63170.2650307681,43685.4993879563,58947.2955006106,73242.2220883203,52857.1563898821,41613.7056499140,67418.1783394127,30626.4822696433,20537.9163059279
7930540400,19173,-2,0,48368.9797397717,63171.5791420250,43687.9815981082,58947.0278112805,73241.3703495426,52860.0766371196,41618.5240578559,67419.5776245473,30637.5792091459,20535.9694744362
7930540400,19173,-2,0,48386.9027571919,63176.0203513654,43692.5688198104,58951.1891635939,73254.5844682924,52863.8729585284,41618.2928716162,67427.2311058490,30626.7986297607,20539.0479017325
7930540400,19173,-2,0,48400.9564470224,63188.5774144867,43706.9875405456,58962.5781278202,73260.4736335547,52862.3033256382,41623.5614843406,67432.4632154828,30629.8283862697,20534.5215185143
7930540400,19173,-2,0,48386.2091984730,63188.8451038168,43704.2011379732,58960.6434640254,73244.0350751469,52846.7043383112,41628.9761094268,67418.2148425032,30631.4588576439,20520.4799963806
7930540400,19173,-2,0,48379.6508098855,63179.0987786616,43690.5489821378,58944.6672780968,73235.1039856788,52842.9931907802,41615.1049350486,67408.0304802624,30615.4340009281,20528.2794900441
7930540400,19173,-2,0,48383.0821003895,63176.4340530574,43693.9194341578,58939.2891561011,73255.9107472461,52858.5435073199,41603.4604491891,67418.2148425032,30614.8864545711,20544.1948374886
7930574585,19174,-2,0,48373.7251415327,63176.3123760891,43699.9424440852,58943.1828190844,73254.9251638034,52856.1343033490,41605.9183239473,67420.9647419852,30629.5850323332,20535.4219280792
7930574585,19174,-2,0,48365.8283062946,63173.6476504849,43695.5134024416,58945.1296505761,73249.2306816903,52849.9774487566,41608.1936832532,67415.5379492021,30624.8517982691,20532.1974884211
7930574585,19174,-2,0,48373.4087814153,63178.0523567348,43696.6449982461,58950.3739279068,73256.4826289967,52856.9860421266,41609.0454220308,67420.0643324203,30617.1131430897,20536.1276544949
7930574585,19174,-2,0,48373.1897628725,63183.0411124322,43699.2123822758,58954.7664664599,73241.7718835378,52853.8711117399,41614.9102518995,67420.1008355107,30626.9811452131,20529.3259119709
7930574585,19174,-2,0,48365.9256478692,63174.8644201672,43691.6927456392,58946.3464202584,73232.1107322604,52843.0540292643,41606.3320256393,67410.8655536221,30620.2402411732,20523.8261130069
7930574585,19174,-2,0,48377.5457983351,63171.1897757267,43689.4903925142,58941.1021429277,73250.5326252503,52859.5290907626,41596.4883589095,67420.1860093885,30607.1477993917,20534.5458539080
7930574585,19174,-2,0,48387.7179928791,63188.8816069072,43702.7896851417,58957.6258752133,73261.7512417211,52871.3804274682,41608.5222110674,67431.1977750133,30626.1415741323,20528.9365456726
7930574585,19174,-2,0,48381.7923245263,63201.9740486887,43705.7586031665,58972.1054344326,73259.0621807232,52861.3785806797,41630.9716117057,67427.7421491155,30647.4837143597,20520.2366424442
7930628888,19175,-2,0,48375.6841407212,63190.0862088927,43686.5944806704,58960.6799671158,73254.2681081750,52846.3879781938,41622.1865345996,67417.3387683319,30631.0086528615,20527.8292852617
7930628888,19175,-2,0,48375.3069421197,63176.0933575463,43675.5583796520,58948.5244379897,73254.6331390797,52853.0802114464,41608.4978756738,67417.3022652415,30625.7522078340,20535.7504558934
7930628888,19175,-2,0,48362.3361773064,63165.1302627089,43671.4091950354,58941.9173786149,73244.2054229024,52853.1775530210,41605.3342744998,67410.9993982872,30632.9433166563,20535.5436050474
7930628888,19175,-2,0,48358.7953775309,63162.3195247428,43670.3749408054,58937.8655355728,73239.5816981097,52847.6412509666,41604.9327405046,67404.8668790884,30625.4358477166,20540.6540377131
7930628888,19175,-2,0,48370.6102111460,63171.2992849981,43676.5317953978,58945.4095076030,73235.5663581581,52854.3943227033,41603.9836601525,67405.8524625311,30618.8531237354,20545.3872717772
7930628888,19175,-2,0,48377.5579660319,63182.3232183197,43691.3155470377,58957.1148319467,73251.6642210549,52866.0023054724,41614.6060594789,67415.4406076275,30632.4201056929,20540.5810315321
7930628888,19175,-2,0,48372.9950797233,63182.9316031608,43690.1352804459,58949.6195307038,73249.8390665314,52849.7584302138,41610.3595332877,67413.6884592850,30629.0739890666,20536.5656915806
7930628888,19175,-2,0,48376.4628733179,63180.1208651947,43682.1654390268,58942.8907943607,73266.0464386996,52844.0761157975,41599.3721030566,67419.8453138774,30614.3754113045,20540.4715222607
7930648021,19176,-2,0,48377.7161460906,63185.3164717381,43684.2461151836,58949.7047045815,73264.6836566554,52848.5659959251,41604.5798772968,67420.5510402932,30621.1528184349,20525.6634352272
7930648021,19176,-2,0,48363.6137854728,63185.1339562858,43682.4209606601,58951.9800638874,73247.1500055335,52839.6835772444,41616.6745679388,67409.2594176415,30621.7247001856,20504.9053444473
7930648021,19176,-2,0,48362.2023326414,63179.5124803536,43673.0761695001,58945.4338429967,73247.6853841938,52841.1437008631,41611.8683276937,67407.1057353038,30604.9697816604,20511.8409316364
7930648021,19176,-2,0,48370.4641987841,63179.4759772631,43674.6823054807,58946.6262772853,73254.9008284098,52847.5439093920,41606.7213919376,67414.4671918817,30606.1865513427,20526.2231492811
7930648021,19176,-2,0,48362.4700219715,63174.0856875705,43677.2861926008,58944.5942719159,73232.9746387348,52840.1581174205,41604.7623927491,67408.5901943162,30616.1032242534,20528.6688563425
7930648021,19176,-2,0,48369.1622552241,63171.2262788172,43677.3470310849,58946.3585879552,73244.3514352643,52838.4546398653,41606.2955225488,67412.1674971822,30608.2307244089,20536.8698840011
7930648021,19176,-2,0,48377.9108292398,63177.5291457714,43674.8283178426,58953.0264858142,73251.8102334167,52847.0085307318,41609.3374467545,67419.1760905522,30608.5592522232,20540.9703978305
7930648021,19176,-2,0,48366.9233990087,63180.7170823390,43672.4312815685,58951.0553189289,73247.0283285653,52843.9422711324,41614.7034010535,67414.2481733389,30623.2334945916,20526.2109815842
7930666564,19177,-2,0,48349.8521203661,63168.3912054574,43660.1054046868,58933.2904815674,73236.0895691215,52834.5974799724,41603.9471570620,67401.8492902763,30615.2636531726,20518.5575002826
7930666564,19177,-2,0,48362.9323944507,63165.4587905231,43662.5389440514,58930.9664514742,73249.4010294458,52848.6755051965,41595.4784400732,67411.2549199205,30610.3844067466,20529.6787751788
7930666564,19177,-2,0,48374.5160418262,63178.0645244316,43679.5128811194,58944.8254581555,73256.8598275983,52860.4051649339,41607.8408200453,67420.9890773788,30628.4534365287,20528.6445209488
7930666564,19177,-2,0,48367.2275914292,63181.2889640897,43680.6809800144,58948.7434565325,73234.9336379233,52843.9179357388,41618.2320331321,67412.5811988741,30631.3493483725,20520.2488101410
7930666564,19177,-2,0,48368.3835226274,63181.1429517278,43673.5993804635,58942.0633909767,73236.8196309309,52845.3902270543,41611.5641352731,67410.2693364778,30614.3632436077,20529.7639490565
7930666564,19177,-2,0,48374.9175758213,63183.8685158162,43682.3722898728,58944.0102224684,73255.2658593144,52861.3420775892,41607.9868324072,67421.6096299168,30623.0266437456,20541.7247950335
7930666564,19177,-2,0,48367.3249330038,63184.1605405399,43691.7292487297,58945.0566443952,73252.0049165659,52867.5232675753,41608.3761987055,67422.3640271198,30643.4075359241,20538.0501505930
7930666564,19177,-2,0,48366.8747282214,63182.7612554053,43690.6098206220,58942.5500988496,73254.0855927226,52862.8630396921,41605.9304916441,67419.3951090950,30640.4264502024,20535.7504558934
7930692285,19178,-2,0,48377.5336306383,63190.4147367069,43691.3033793409,58950.8728034765,73256.7503183268,52864.5786849441,41609.8606577179,67420.4171956281,30636.3989425540,20525.2740689289
7930692285,19178,-2,0,48369.3812737669,63196.5594236025,43696.4381474001,58956.0440746263,73247.5028687414,52860.6120157799,41624.6200739642,67419.4194444887,30645.3543674157,20517.3894013876
7930692285,19178,-2,0,48361.4844385288,63193.8703626046,43688.6386537366,58948.5122702929,73252.0535873532,52857.3145699408,41621.0549387950,67420.1738416917,30637.8468984760,20531.6134389736
7930692285,19178,-2,0,48371.6444653760,63197.5815101356,43691.2790439472,58947.8308792708,73270.7918404605,52872.0861538839,41615.3482889851,67433.2541157763,30630.1325786902,20555.8636587418
7930692285,19178,-2,0,48373.4209491121,63201.2196514857,43705.5639200173,58956.0805777168,73272.1911255952,52864.6881942155,41619.9233429905,67436.8922571264,30641.3025243737,20553.3327778026
7930692285,19178,-2,0,48360.5475258734,63194.4544120521,43698.7621774933,58951.9922315842,73253.3798663069,52845.8769349273,41621.4564727902,67421.6461330072,30630.6192865631,20535.8599651648
7930692285,19178,-2,0,48367.2884299134,63190.4634074942,43690.8166714679,58946.8452958281,73254.8643253193,52846.1811273478,41616.7597418165,67420.7822265328,30608.7174322819,20532.8667117464
7930692285,19178,-2,0,48370.3303541191,63190.2443889514,43694.2601296688,58947.5996930312,73257.4195416521,52854.8810305762,41617.7209898656,67421.4636175549,30615.2636531726,20521.8184430312
7930746369,19179,0,0,48351.6164364054,63176.4948915415,43688.8820076731,58933.0836307214,73242.2099206234,52837.7002426622,41612.1603524175,67408.7727097686,30620.4835951096,20501.4375508527
7930746369,19179,0,0,48346.2869851970,63163.4267851536,43676.1302614026,58923.2521316885,73238.4866053956,52829.9494197860,41600.9904067340,67402.6280228730,30604.1545459732,20505.9030955868
7930746369,19179,0,0,48357.3230862154,63167.9531683718,43677.2010187231,58932.2440596406,73245.3248510101,52837.9070935082,41603.6673000351,67409.6001131525,30604.4830737875,20511.2203790984
7930746369,19179,0,0,48350.1563127867,63173.2217810961,43684.8910031152,58938.2670695680,73224.8587849539,52837.4203856353,41611.1139304907,67400.5473467163,30615.7260256519,20504.4673073616
7930746369,19179,0,0,48356.2401611981,63170.5205524014,43684.9640092961,58934.0935495577,73231.9647198985,52848.5538282283,41606.4050318202,67397.9434595962,30606.9774516362,20522.4754986596
7930746369,19179,0,0,48378.7260649269,63177.5169780746,43699.2975561535,58941.1508137150,73258.6484790312,52864.2744925236,41601.9273193894,67417.6307930557,30617.6728571435,20541.4692734002
7930746369,19179,0,0,48370.1235032731,63179.3177972044,43702.8991944131,58945.0566443952,73256.1906042730,52856.6940174029,41608.9480804562,67420.8795681074,30641.1321766182,20528.4498377997
7930746369,19179,0,0,48357.2622477313,63175.3754634338,43691.5223978837,58945.8232092950,73243.7308827263,52847.1545430937,41611.9169984810,67411.4496030696,30639.8789038454,20518.2533078620
7930772808,19180,0,0,48362.7985497857,63174.9130909545,43685.6332326214,58943.9007131970,73245.0328262863,52852.1676341847,41607.0864228423,67409.1742437637,30625.4480154134,20525.1645596575
7930772808,19180,0,0,48358.7710421373,63176.4705561478,43695.7810917717,58942.2702418227,73244.7773046531,52861.2204006210,41605.1395913506,67411.6686216124,30628.6602873747,20529.2407380932
7930772808,19180,0,0,48346.3599913779,63172.0293468075,43704.5661688779,58930.9907868678,73240.5551138555,52860.4173326307,41599.6276246898,67407.3612569371,30632.1280809692,20531.5404327927
7930772808,19180,0,0,48352.9183799655,63166.6755602054,43695.5012347448,58921.2931325000,73246.0549128195,52849.9287779693,41586.4256736369,67407.6776170545,30618.3664158624,20540.8365531654
7930772808,19180,0,0,48359.0265637706,63167.3204481370,43688.0911073796,58926.6225837084,73247.5150364382,52851.0968768643,41585.4644255879,67410.3788457492,30623.0023083520,20540.2160006275
7930772808,19180,0,0,48352.6993614227,63174.5480600498,43690.6584914092,58937.6586847268,73237.5618604371,52849.6002501551,41602.2071764163,67406.6433628246,30637.3845259967,20526.8437018190
7930772808,19180,0,0,48351.5069271340,63169.8878321666,43684.5138045137,58930.9542837774,73234.7876255614,52843.9544388292,41599.5059477216,67400.6933590781,30625.5818600785,20525.4809197749
7930772808,19180,0,0,48360.4988550862,63168.6832301812,43690.2326220204,58928.3625643541,73244.1689198119,52855.4650800237,41591.8402987232,67409.2594176415,30623.6836993741,20537.2957533899
7930795250,19181,0,0,48353.9891372859,63168.1965223082,43699.2975561535,58930.6622590536,73240.5551138555,52856.8887005520,41592.4851866548,67409.7461255144,30642.2272693322,20537.2957533899
7930795250,19181,0,0,48351.0080515643,63167.9775037654,43699.5652454836,58933.9353694990,73235.0431471947,52847.7994310253,41595.9529802493,67404.0273080076,30637.1290043634,20539.0357340356
7930795250,19181,0,0,48368.3470195370,63175.5579788861,43697.2290476936,58944.9714705174,73241.4798588141,52854.2848134319,41601.7813070275,67411.8146339743,30628.3560949541,20544.7788869361
7930795250,19181,0,0,48370.8170619920,63182.3840568038,43698.5796620410,58953.3306782348,73247.8922350397,52855.9274525030,41613.1824389506,67414.2846764294,30637.1533397571,20528.8392040980
7930795250,19181,0,0,48361.1680784114,63171.7738251742,43690.3421312919,58945.0931474856,73236.0043952437,52837.5907333908,41608.3883664024,67404.8060406043,30633.2110059864,20520.4556609870
7930795250,19181,0,0,48364.6845427932,63160.4578671288,43679.7562350559,58933.1323015087,73221.9142023228,52829.3166995512,41592.1688265374,67399.6956079387,30614.3024051236,20531.1632341912
7930795250,19181,0,0,48374.6498864912,63163.4146174568,43685.5237233500,58941.4185030451,73236.4911031166,52833.9039212535,41596.3301788508,67408.0913187465,30618.1352296228,20533.8279597954
7930795250,19181,0,0,48364.1248287394,63165.5074613104,43684.7449907533,58948.1229039946,73226.8177841424,52830.6064754145,41609.9336638989,67399.4157509117,30624.8517982691,20518.4601587080
7930829312,19182,0,0,48354.3785035842,63156.7710549915,43675.8625720725,58940.7736151135,73223.9340399954,52830.9836740160,41602.8885674384,67391.5432510673,30610.2992328688,20514.7855142675
7930829312,19182,0,0,48360.6448674480,63153.1329136414,43681.8855819999,58938.0480510252,73229.1783173261,52853.4939131384,41599.4694446311,67399.5009247895,30618.3055773783,20523.1812250753
7930829312,19182,0,0,48350.4361698136,63147.8521332203,43690.2326220204,58934.5437543401,73222.7537734035,52853.0558760528,41596.8047190269,67398.9777138261,30639.2461836106,20521.8306107280
7930829312,19182,0,0,48343.6222595927,63142.4983466182,43684.8058292374,58928.4355705350,73216.5725834175,52841.7520857043,41592.1688265374,67392.6018406909,30638.9663265837,20523.5462559800
7930829312,19182,0,0,48352.0423057942,63150.1761633135,43682.3966252665,58930.5162466918,73222.8754503718,52847.0572015191,41590.9398891583,67397.1890623931,30633.1501675023,20529.3259119709
7930829312,19182,0,0,48353.5024294130,63163.1834312172,43688.2492874383,58939.7271931867,73219.1034643567,52841.3992224964,41602.1828410227,67398.3449935913,30640.6333010484,20533.4872642844
7930829312,19182,0,0,48344.0967997688,63158.8760665419,43686.4849713990,58931.9885380073,73211.2674676027,52833.9890951312,41599.4937800248,67395.4004109602,30633.6368753752,20530.5183462596
7930829312,19182,0,0,48351.8841257355,63151.8553054750,43684.0635997312,58927.2796393369,73225.5036728855,52840.3528005696,41590.1489888648,67400.0119680561,30620.0942288113,20537.9163059279
7930872830,19183,0,0,48353.6606094717,63154.6660434411,43689.6729079666,58935.2373130591,73228.7767833309,52849.7584302138,41593.3855962197,67403.4067554697,30632.2984287247,20535.3367542015
7930872830,19183,0,0,48343.4032410499,63159.3627744148,43689.9527649935,58940.4694226929,73219.1764705376,52845.9134380177,41607.8894908326,67395.7289387744,30643.0668404130,20530.6400232278
7930872830,19183,0,0,48348.0391335395,63160.8594011240,43683.9662581566,58936.3324057731,73224.1287231445,52842.9323522961,41605.1517590475,67395.6924356839,30631.1911683138,20539.6076157863
7930872830,19183,0,0,48352.4803428798,63159.0099112069,43682.5548053252,58931.7451840709,73232.1350676540,52848.1036234459,41595.6244524351,67402.7983706285,30629.3051753063,20539.7292927545
7930872830,19183,0,0,48341.7727696756,63155.4812791283,43684.3312890613,58926.6590867989,73217.1322974713,52838.9535154350,41591.2562492757,67399.7199433323,30636.8856504270,20525.4930874717
7930872830,19183,0,0,48342.3568191231,63149.6286169564,43675.0230009918,58925.1016216055,73223.4351644256,52830.5213015367,41586.1214812164,67398.6005152246,30622.1384018776,20521.1248843123
7930872830,19183,0,0,48361.5939478002,63160.7742272462,43677.5660496278,58941.2481552896,73230.8331240940,52837.4690564226,41594.9308937162,67408.4563496512,30617.1009753929,20529.2042350027
7930872830,19183,0,0,48362.9445621476,63170.3867077364,43683.4308794964,58955.0706588805,73225.9417099712,52838.0409381733,41610.5907195273,67407.2760830593,30627.9058901716,20526.5395093985
7930891562,19184,0,0,48355.3640870269,63162.1005061999,43677.4200372659,58944.3265825858,73218.5924210901,52826.3964523137,41609.2036020895,67397.1768946963,30616.7237767913,20522.2078093295
7930891562,19184,0,0,48355.9968072617,63152.5975349812,43669.4988666341,58931.6965132836,73226.0147161521,52820.1544238436,41595.5879493446,67395.6072618061,30601.5263234595,20525.2010627479
7930891562,19184,0,0,48348.8056984393,63149.3852630200,43666.9071472109,58930.8447745060,73220.5514202786,52816.7718041268,41595.0404029876,67389.7545996343,30603.4609872543,20512.1572917537
7930891562,19184,0,0,48335.6280827801,63145.6741154890,43660.4095971074,58929.7131787014,73205.7798363355,52806.3440879495,41602.6330458051,67375.6765744102,30600.3825599581,20503.7980840364
7930891562,19184,0,0,48341.2982294996,63143.5934393322,43658.1099024079,58926.6590867989,73206.5707366290,52816.1999223761,41598.8975628805,67375.0925249627,30586.6939010323,20516.5985010941
7930891562,19184,0,0,48347.7349411189,63145.1995753129,43664.3640985749,58926.3427266815,73213.5549946054,52831.7259035222,41596.2328372762,67383.8897697657,30601.3559757040,20530.8590417706
7930891562,19184,0,0,48340.3126460569,63140.5271797329,43663.9260614892,58919.7721703971,73203.3462969710,52826.5059615851,41594.2495026941,67382.6121615992,30616.4317520676,20540.7392115908
7930891562,19184,0,0,48346.6033453144,63135.3437408863,43658.8156288236,58920.0520274240,73212.8979389770,52822.6731370859,41588.2021573731,67384.3399745481,30606.3082283109,20547.2002586038
7930919037,19185,0,0,48363.5407792919,63148.6065304233,43666.0675761301,58935.8943686875,73224.2382324159,52833.7214058011,41597.6929608950,67395.5220879284,30607.0869609076,20545.7157995914
7930919037,19185,0,0,48357.8706325724,63158.5840418181,43672.1635922384,58947.1981590360,73214.8204350750,52828.6231408323,41613.1459358601,67390.1561336295,30616.4925905517,20520.4921640775
7930919037,19185,0,0,48353.7457833494,63152.8895597050,43665.6417067413,58939.0458021646,73203.0299368535,52815.2386743271,41611.2842782462,67383.0136955944,30603.4609872543,20518.0829601065
7930919037,19185,0,0,48356.5200182251,63142.8147067356,43661.3100066723,58924.6635845199,73214.5892488353,52819.8137283325,41589.8447964442,67382.3444722691,30587.8011614432,20518.5818356763
7930919037,19185,0,0,48350.0346358184,63136.8160322019,43664.6561232986,58919.4071394924,73205.4999793086,52819.0228280390,41582.0696381743,67378.5359831636,30597.7056666571,20509.3100506972
7930919037,19185,0,0,48338.3779822620,63136.2806535417,43661.2126650977,58916.7667492818,73197.1529392881,52808.5707764681,41581.7532780569,67371.9532591824,30605.6998434698,20502.5204758700
7930919037,19185,0,0,48341.8822789471,63141.0868937867,43657.6475299286,58918.7379161671,73207.0939475924,52817.2706796965,41583.9677988787,67375.4940589578,30603.6921734940,20509.9062678415
7930919037,19185,0,0,48345.2283955734,63148.6795366042,43664.0355707607,58924.0673673756,73211.5229892360,52826.7858186121,41591.0128953392,67381.0181933154,30615.5313425027,20512.4614841743
7930948052,19186,0,0,48335.6889212642,63141.4640923882,43661.5898636992,58920.3075490573,73207.7023324336,52824.9241609982,41592.3878450802,67374.9830156913,30619.6926948161,20514.3353094851
7930948052,19186,0,0,48342.6975146342,63134.5528405928,43655.0314751117,58918.4823945339,73210.1602071918,52819.9354053007,41583.0795570106,67374.9100095103,30601.2951372199,20522.0739646644
7930948052,19186,0,0,48352.5290136671,63141.5249308723,43662.0157330880,58927.1092915813,73218.6532595742,52826.2139368614,41581.0232162476,67380.1664545378,30596.2577107352,20516.8296873338
7930948052,19186,0,0,48343.6222595927,63150.4073495531,43664.1207446384,58932.2440596406,73210.3305549473,52819.2905173691,41592.2296650215,67376.6743255497,30604.4344030002,20505.1608660806
7930948052,19186,0,0,48336.6136662227,63145.5159354303,43655.3843383195,58920.5995737811,73203.0907753377,52805.9790570448,41584.6126868103,67369.7509060574,30593.3496311945,20510.1496217780
7930948052,19186,0,0,48338.1467960224,63138.3248266079,43649.2518191208,58905.6211389920,73193.4661271507,52798.6662712542,41566.3003030918,67367.7432360816,30580.4275371685,20519.3484005761
7930948052,19186,0,0,48339.4244041888,63131.6934318394,43653.0968113168,58903.5647982289,73199.4891370781,52801.8420401250,41567.6995882264,67372.5129732362,30589.3951297270,20520.2731455347
7930948052,19186,0,0,48335.9566105943,63137.7651125541,43658.8886350045,58911.4129626797,73206.3638857830,52809.9457262091,41576.4724976358,67375.1655311436,30595.6736612877,20514.9315266294
7930986285,19187,0,0,48348.3068228696,63151.0887405752,43662.4294347800,58923.2642993853,73221.1233020293,52820.5194547483,41586.5595183020,67384.4251484259,30595.0166056592,20520.4678286838
7930986285,19187,0,0,48348.4163321410,63156.6737134169,43667.5642028393,58929.5306632491,73213.9321932069,52818.4266108947,41595.1255768654,67382.9285217166,30603.7286765844,20521.6480952756
7930986285,19187,0,0,48337.0395356115,63143.8732963592,43661.4438513374,58919.3706364019,73200.5598943985,52812.1602470309,41589.7717902633,67371.3692097349,30603.2541364084,20516.0996255244
7930986285,19187,0,0,48345.5325879939,63134.7231883483,43653.7416992484,58910.9505902005,73206.3517180862,52817.6965490853,41576.2656467898,67373.3038735297,30592.1328615122,20522.4511632660
7930986285,19187,0,0,48357.6516140296,63143.3865884863,43656.1144001289,58920.8672631112,73214.0417024783,52820.0814176626,41580.5973468588,67380.8356778631,30601.8791866674,20522.4146601755
7930986285,19187,0,0,48348.6231829870,63145.8079601540,43655.0436428085,58926.9997823099,73190.6188860941,52806.8307958224,41589.6501132950,67371.2110296762,30607.4884949027,20511.7922608491
7930986285,19187,0,0,48350.4361698136,63144.4208427162,43653.1698174978,58924.8460999723,73206.7532520814,52817.6843813885,41594.0669872418,67377.3192134813,30599.2509641536,20515.4425698959
7930986285,19187,0,0,48366.6557096786,63154.1915032650,43667.0166564823,58932.8402767849,73230.5776024607,52839.9512665745,41596.6708743619,67395.5707587157,30609.1676370643,20524.4588332417
7931014045,19188,0,0,48360.6935382353,63155.5056145219,43674.6336346934,58935.3103192400,73226.2215669981,52834.8286662120,41601.8664809053,67397.4810871169,30626.7499589735,20513.8364339153
7931014045,19188,0,0,48345.3500725416,63146.6475312348,43661.3465097628,58924.8582676691,73213.9443609037,52814.3504324590,41595.0769060781,67382.9650248071,30613.9738773094,20505.4528908043
7931014045,19188,0,0,48352.4195043957,63147.8764686139,43655.4938475909,58923.7023364709,73219.9187000438,52821.6267151591,41593.4586024006,67385.3985641717,30601.4289818849,20508.7138335529
7931014045,19188,0,0,48354.9382176381,63157.1604212898,43664.3032600908,58934.3004004037,73222.8146118877,52835.3518771754,41604.1053371207,67393.2710640161,30615.6651871678,20507.5335669610
7931014045,19188,0,0,48353.4780940193,63156.9535704438,43667.0774949664,58932.0128734010,73208.4080588493,52826.6033031597,41603.0102444066,67386.4449860985,30619.0843099750,20509.3952245749
7931014045,19188,0,0,48364.0274871648,63153.0720751573,43671.9810767860,58926.9997823099,73232.8042909793,52837.6759072686,41590.8668829773,67398.7100244960,30606.5272468537,20524.9698765083
7931014045,19188,0,0,48364.1248287394,63158.8030603609,43684.4529660295,58929.5306632491,73236.4911031166,52839.0143539191,41589.3215854808,67406.0593133771,30618.7192790703,20523.6679329483
7931014045,19188,0,0,48343.0868809325,63155.2622605854,43675.7165597107,58929.8348556697,73216.2440556033,52822.9773295065,41597.3400976871,67391.9204496688,30627.1149898781,20507.6309085356
7931044513,19189,0,0,48340.7993539298,63154.0211555095,43664.9968188097,58928.2408873859,73216.3779002683,52818.5361201661,41595.8799740684,67385.9217751351,30613.5723433142,20512.1451240569
7931044513,19189,0,0,48350.1563127867,63152.1108271083,43667.2113396314,58926.4765713465,73224.2504001128,52823.1233418684,41589.5771071141,67389.9736181771,30606.6975946092,20515.0897066881
7931044513,19189,0,0,48343.9264520133,63146.3798419047,43673.5507096762,58922.6072437568,73220.5270848849,52817.2585119997,41589.1390700285,67387.3818987538,30613.2073124095,20509.4195599686
7931044513,19189,0,0,48335.4942381150,63134.2121450818,43656.4550956400,58908.3345353835,73213.9808639942,52804.4824303356,41577.2512302324,67380.2637961124,30602.0495344229,20515.2965575341
7931044513,19189,0,0,48347.8444503903,63140.9165460312,43651.6731907885,58913.5788127142,73212.0583678962,52819.0471634327,41577.3972425943,67385.4472349590,30598.2045422268,20530.9563833452
7931044513,19189,0,0,48354.6583606111,63151.8674731718,43664.9238126287,58931.9155318264,73226.1485608171,52834.5974799724,41595.2350861368,67397.9921303834,30619.1086453686,20531.9054636974
7931044513,19189,0,0,48348.4893383219,63149.8233001056,43670.6182947419,58933.1201338119,73221.3788236626,52832.2491144856,41602.2436795068,67394.9502061777,30626.8716359417,20526.2474846747
7931044513,19189,0,0,48351.0080515643,63136.8647029892,43667.7345505948,58921.8528465538,73227.4626720740,52826.4816261915,41584.0894758469,67392.3706544513,30614.8012806933,20525.2984043225
7931077750,19190,0,0,48349.7791141851,63135.9034549401,43672.0297475733,58921.9501881284,73227.4140012867,52827.1265141231,41581.6437687855,67395.3882432633,30619.2303223369,20517.7787676859
7931077750,19190,0,0,48336.7110077973,63136.2198150575,43664.2789246971,58921.3539709841,73210.0020271331,52815.9809038333,41588.8470453047,67385.1065394480,30619.0721422782,20506.4749773374
7931077750,19190,0,0,48338.6578392890,63138.6533544221,43655.8953815861,58918.6284068957,73209.2476299301,52816.1269161952,41587.5451017447,67382.9771925039,30602.7187577481,20508.3366349513
7931077750,19190,0,0,48342.3568191231,63147.5479407997,43664.5952848145,58918.7865869544,73219.2859798090,52829.3045318544,41587.3017478082,67389.8397735121,30606.8071038806,20512.5223226584
7931077750,19190,0,0,48329.6415759432,63147.1829098950,43673.1735110747,58913.4449680492,73215.3314783416,52829.9737551797,41588.2751635540,67388.5743330425,30623.0631468361,20514.9436943262
7931077750,19190,0,0,48328.8871787402,63143.5691039386,43675.0108332949,58907.7139828456,73204.0520233867,52820.1300884499,41579.5022541447,67383.2205464404,30618.0743911387,20526.4421678239
7931077750,19190,0,0,48349.0368846789,63149.7746293183,43676.2519383709,58913.2502849000,73225.7835299125,52830.5213015367,41577.6649319244,67397.7487764470,30614.6187652410,20541.9803166668
7931077750,19190,0,0,48353.2834108701,63169.1942734477,43686.0225989197,58931.6843455868,73235.1769918598,52848.7363436807,41596.9994021761,67404.2463265504,30638.4796187108,20536.9063870916
7931109536,19191,0,0,48347.7714442094,63174.4385507784,43685.1343570516,58929.8713587601,73233.4005081236,52842.1049489122,41602.2315118100,67398.2598197136,30641.9595800021,20535.4219280792
7931109536,19191,0,0,48355.0720623031,63167.0770942005,43680.9730047382,58921.0741139572,73236.2234137865,52847.4344001206,41589.5406040236,67398.7708629801,30631.7752177613,20540.2646714147
7931109536,19191,0,0,48359.0752345579,63164.2663562344,43689.2227031841,58922.9357715711,73234.2644145980,52842.5064829073,41587.4964309574,67401.4112531907,30640.3777794151,20537.8432997470
7931109536,19191,0,0,48342.5393345755,63153.5466153334,43681.4353772175,58914.2723714331,73216.6334219016,52819.4852005183,41586.2553258814,67385.6054150177,30634.2939310037,20526.5395093985
7931109536,19191,0,0,48340.2761429664,63146.9760590490,43668.4037739201,58908.0546783566,73212.9466097643,52814.8006372415,41580.7798623111,67380.3976407775,30613.8035295538,20528.8878748853
7931109536,19191,0,0,48346.1896436224,63150.4560203404,43666.4447747316,58914.1871975554,73214.6379196226,52818.3657724106,41586.0484750354,67383.0988694722,30613.2803185905,20528.9852164599
7931109536,19191,0,0,48339.4852426729,63144.1896564766,43659.2780013029,58914.3453776141,73190.6797245783,52801.2579906775,41588.6158590651,67373.1700288646,30613.9738773094,20513.4105645265
7931109536,19191,0,0,48350.7038591437,63136.4753366908,43654.0702270627,58911.8631674622,73208.7122512699,52801.9880524869,41584.6978606881,67380.0812806601,30597.5109835079,20517.7544322923
7931153161,19192,0,0,48366.0959956247,63145.3455876747,43660.8598018899,58922.4612313950,73220.7704388214,52814.2044200971,41589.4310947522,67390.8983631357,30598.7642562807,20512.2546333283
7931153161,19192,0,0,48354.6583606111,63156.4790302677,43669.0729972453,58935.6145116606,73217.3026452269,52815.4698605667,41609.1305959086,67387.7590973554,30616.7602798818,20497.9575895614
7931153161,19192,0,0,48337.5384111813,63149.3974307168,43656.8444619383,58923.6049948963,73205.7068301546,52803.8497101008,41603.3509399177,67372.1722777252,30605.7485142571,20496.1932735220
7931153161,19192,0,0,48342.0039559153,63143.5082654545,43652.9994697422,58910.6707331735,73207.3373015289,52822.1377584257,41589.4919332363,67376.1024437990,30599.8106782075,20509.3830568781
7931153161,19192,0,0,48344.8511969719,63145.2604137970,43666.8219733331,58911.3399564988,73216.4265710556,52827.7470666611,41589.4919332363,67383.3665588023,30619.4371731829,20515.7467623165
7931153161,19192,0,0,48338.7186777731,63145.9418048191,43669.6692143897,58912.7514093303,73211.1944614218,52818.4874493788,41593.7749625180,67381.4805657947,30628.1614118049,20517.6327553241
7931153161,19192,0,0,48346.7980284635,63144.6763643495,43665.5078620762,58912.6784031493,73210.0750333140,52818.9254864644,41590.1124857743,67383.2205464404,30614.0955542776,20527.6954405966
7931153161,19192,0,0,48353.1252308114,63149.3852630200,43673.3195234366,58918.5919038053,73216.6090865080,52835.3153740850,41595.7096263129,67390.5576676246,30624.1217364597,20530.2628246263
7931174212,19193,0,0,48338.3901499589,63144.4086750194,43675.5583796520,58914.0290174967,73213.2386344880,52831.6042265540,41598.3378488266,67383.5734096483,30634.7441357861,20520.1636362632
7931174212,19193,0,0,48334.7276732152,63134.4433313214,43671.9689090892,58902.0073330356,73209.9533563458,52821.3225227386,41587.8857972557,67380.8113424694,30620.6052720779,20524.0086284593
7931174212,19193,0,0,48339.7772673967,63133.8836172675,43670.4966177736,58904.1123445860,73213.9078578133,52815.3360159017,41587.0583938717,67385.1673779321,30613.3654924682,20527.1113911491
7931174212,19193,0,0,48326.2102854391,63135.9399580306,43655.1166489894,58907.6288089678,73199.6473171368,52808.4369318031,41596.8533898142,67377.9397660192,30619.1086453686,20517.0000350893
7931174212,19193,0,0,48322.0732685193,63133.8227787834,43644.4334111789,58903.3214442925,73195.2304431900,52817.9642384154,41594.0791549386,67370.7486571969,30612.2095612700,20514.6395019056
7931174212,19193,0,0,48334.7398409120,63133.3117355169,43654.6542765102,58902.2020161848,73207.3738046193,52845.9742765018,41585.1115623801,67382.1376214232,30613.4993371333,20530.7860355897
7931174212,19193,0,0,48341.0670432599,63138.3248266079,43676.9820001803,58907.9330013884,73208.5905743016,52848.5051574410,41586.3891705465,67387.3453956634,30627.5043561765,20540.2525037179
7931174212,19193,0,0,48339.1932179492,63139.3347454442,43678.4664591927,58909.1741064643,73211.9853617152,52824.4009500348,41588.6645298524,67386.1042905874,30621.2988307968,20535.9208036490
7931218046,19194,0,0,48345.1432216956,63143.2162407307,43668.4889477978,58911.6563166162,73215.9398631827,52814.0584077353,41590.0273118965,67388.3674821965,30606.2717252204,20526.7706956381
7931218046,19194,0,0,48340.1544659982,63147.6696177679,43662.9283103498,58915.9758489883,73210.3670580378,52812.9998181117,41595.9043094620,67384.6928377560,30611.9175365463,20507.4848961737
7931218046,19194,0,0,48330.2012899970,63139.8214533171,43661.7115406675,58908.7604047723,73199.8176648923,52815.6523760191,41596.0381541271,67373.7297429185,30615.9815472851,20496.5218013363
7931218046,19194,0,0,48333.3892265646,63127.4225702546,43661.2856712787,58895.8869815337,73204.3927188977,52818.7429710121,41580.1836451668,67372.7928302631,30600.2365475963,20504.8688413568
7931218046,19194,0,0,48342.9165331770,63126.9480300785,43663.5853659782,58901.9586622483,73209.8925178617,52819.8745668166,41576.2413113961,67377.1123626353,30601.1247894643,20515.9657808593
7931218046,19194,0,0,48341.2617264091,63134.1148035072,43664.1815831225,58916.0488551693,73201.8375025649,52812.5617810261,41591.8281310263,67375.3358788991,30613.6331817983,20517.5840845368
7931218046,19194,0,0,48338.1224606288,63134.6623498642,43655.0679782021,58911.9483413399,73195.2791139773,52808.6194472554,41591.4022616375,67366.3439509470,30599.4091442123,20516.1482963117
7931218046,19194,0,0,48348.8178661361,63141.1598999677,43661.0544850390,58911.3277888020,73207.0209414115,52820.6289640197,41589.6379455982,67374.1434446105,30600.0418644471,20519.2997297888
7931231102,19195,0,0,48346.2626498033,63142.8147067356,43671.1171703116,58910.2205283911,73210.3913934314,52816.3702701316,41590.3558397108,67376.3092946450,30617.1131430897,20509.3222183940
7931231102,19195,0,0,48333.1580403250,63132.4599967393,43663.6583721591,58897.3471051524,73198.5157213322,52799.0921406430,41582.9943831329,67366.6481433676,30610.7981084386,20506.4019711565
7931231102,19195,0,0,48334.8371824866,63133.2752324264,43653.6565253707,58895.1204166338,73203.1151107313,52798.8366190098,41577.4945841689,67368.3516209228,30597.3649711460,20516.4281533386
7931231102,19195,0,0,48333.8881021344,63144.2626626575,43657.1121512684,58903.8933260432,73199.5256401685,52810.9799804391,41588.2751635540,67370.5539740477,30612.8179461112,20517.6935938082
7931231102,19195,0,0,48328.0841107498,63141.6709432342,43656.2725801876,58900.0605015439,73194.1231827792,52805.9790570448,41586.9610522972,67365.5652183503,30617.4903416912,20516.7566811528
7931231102,19195,0,0,48338.4266530493,63136.8403675955,43656.5037664272,58893.6237899246,73205.0619422230,52813.0971596863,41574.3553183886,67371.7707437300,30603.9355274304,20532.4043392671
7931231102,19195,0,0,48352.4195043957,63143.8611286623,43669.0486618517,58903.1875996274,73217.5946699506,52828.9273332529,41575.6450942518,67382.8311801421,30614.7891129965,20545.0100731757
7931231102,19195,0,0,48346.7736930699,63147.6696177679,43673.9400759745,58910.4760500244,73192.7969038255,52808.6681180427,41587.9101326493,67374.2286184882,30624.7057859072,20545.8009734692
7931261350,19196,0,0,48351.6286041022,63145.7349539731,43666.9801533918,58910.9019194132,73202.5675643743,52810.1890801456,41584.6005191135,67370.5418063509,30610.7981084386,20548.1736743497
7931261350,19196,0,0,48364.9035613361,63151.4172683894,43673.0396664096,58917.1317801865,73213.4454853340,52829.5113827004,41585.8172887958,67377.4043873590,30615.7138579550,20541.5179441875
7931261350,19196,0,0,48349.4992571582,63145.2725814938,43678.6003038577,58910.1961929974,73200.5112236112,52824.8268194236,41581.3882471523,67373.4377181947,30626.1537418291,20523.3272374372
7931261350,19196,0,0,48335.9566105943,63129.6370910763,43670.7034686196,58894.9257334846,73194.6828968330,52813.9610661607,41572.0556236891,67368.3516209228,30611.5160025511,20524.6048456036
7931261350,19196,0,0,48342.3811545168,63132.6668475852,43673.3073557397,58898.2840178078,73210.8781013043,52819.4852005183,41570.5468292830,67380.0812806601,30604.4222353034,20519.6525929967
7931261350,19196,0,0,48338.9985348000,63142.3523342563,43675.4610380774,58909.4417957944,73204.0155202962,52807.0741497589,41586.4743444242,67378.4751446795,30615.5556778963,20500.2451165641
7931261350,19196,0,0,48328.1936200212,63135.7331071846,43656.8079588478,58899.6954706392,73186.8834031695,52788.2628904706,41585.1237300769,67362.0487539685,30603.2906394988,20498.3712912534
7931261350,19196,0,0,48335.9201075038,63129.2477247780,43648.4730865241,58890.2898409951,73200.6450682763,52801.9880524869,41568.1254576152,67367.0861804532,30588.2148631352,20515.3452283214
7931299097,19197,0,0,48342.2959806390,63135.4167470672,43662.1860808436,58895.8991492305,73212.0218648057,52812.0994085468,41572.1894683541,67377.3557165717,30604.2153844574,20524.0207961561
7931299097,19197,0,0,48332.3428046379,63140.8192044566,43669.6692143897,58899.4764520964,73205.6338239737,52805.5166845656,41583.8217865168,67374.6909909675,30613.2316478032,20520.8936980726
7931299097,19197,0,0,48333.8515990439,63143.3257500021,43671.3848596417,58901.3989481945,73208.7609220572,52806.0642309226,41587.2409093241,67374.8005002389,30598.3383868919,20523.1447219849
7931299097,19197,0,0,48338.4996592303,63144.3113334448,43672.9544925319,58905.6454743857,73211.8393493534,52812.2697563023,41586.0606427323,67378.8645109778,30594.1405314880,20517.5597491431
7931299097,19197,0,0,48328.5221478355,63135.8791195465,43661.1883297041,58903.8568229527,73190.9474139084,52798.8852897971,41582.7023584091,67368.9113349766,30598.7399208870,20505.3677169265
7931299097,19197,0,0,48330.9435195032,63123.0300317015,43649.8723716587,58893.7211314992,73185.4476149444,52792.2903981190,41568.6608362754,67363.0708405016,30582.8489088363,20511.5975776999
7931299097,19197,0,0,48352.1274796720,63130.8295253650,43658.3532563443,58902.7252271482,73205.7189978514,52806.8064604288,41570.0722891069,67379.3512188507,30584.8079080248,20532.6233578099
7931299097,19197,0,0,48343.1233840230,63141.4154216009,43666.1892530983,58914.5278930664,73205.5608177927,52808.9479750696,41586.3770028497,67379.1200326111,30608.3524013772,20523.5340882832
7931336524,19198,0,0,48325.2490373901,63137.8624541286,43658.8156288236,58904.7815679112,73194.0866796887,52799.7491962715,41588.1169834953,67367.7797391721,30609.5813387563,20517.6327553241
7931336524,19198,0,0,48331.1138672587,63133.0318784899,43657.2703313271,58896.0938323797,73199.4648016844,52810.8218003804,41575.2678956503,67371.1988619793,30598.5330700410,20523.7409391292
7931336524,19198,0,0,48337.4045665162,63133.9809588421,43664.3397631812,58897.6269621793,73206.0718610593,52815.4090220826,41577.0322116896,67378.7063309191,30609.1189662770,20526.3934970366
7931336524,19198,0,0,48334.8006793961,63130.6591776095,43660.3365909265,58900.5593771137,73201.3142916015,52811.0164835295,41582.3373275044,67375.3845496864,30611.1874747369,20524.8360318433
7931336524,19198,0,0,48339.5704165507,63129.9169481033,43656.5767726082,58898.3448562919,73205.2687930690,52808.5951118618,41580.6825207365,67374.1434446105,30594.8219225101,20533.0735625924
7931336524,19198,0,0,48345.8124450209,63135.7939456687,43664.3275954844,58903.8933260432,73210.7442566393,52819.4486974278,41582.2156505362,67381.9794413645,30598.1315360459,20530.6886940151
7931336524,19198,0,0,48331.2355442270,63132.3018166806,43665.8120544968,58897.4809498175,73199.7081556209,52815.8835622587,41583.7122772454,67373.1091903805,30608.5957553136,20525.5539259558
7931336524,19198,0,0,48326.6361548279,63123.0908701856,43659.5213552393,58888.4038479876,73200.7545775477,52819.3635235501,41575.3895726185,67371.7342406395,30603.3879810734,20537.3687595709
7931353879,19199,0,0,48338.8281870445,63131.6690964458,43666.9679856950,58898.3448562919,73216.1832171191,52834.5974799724,41579.0155462718,67387.4549049348,30609.1433016707,20545.6914641978
7931353879,19199,0,0,48332.6956678457,63142.6930297673,43675.7165597107,58910.9992609878,73213.4576530308,52832.1031021237,41597.3279299903,67391.4337417959,30629.0496536730,20534.6675308762
7931353879,19199,0,0,48326.9160118548,63141.0260553026,43670.4236115927,58907.5314673932,73206.4003888735,52811.4058498279,41599.9439848072,67383.7194220101,30619.6196886352,20524.4588332417
7931353879,19199,0,0,48336.8813555528,63135.4532501577,43659.7403737822,58899.8901537884,73212.0340325025,52806.1007340131,41586.1944873973,67385.1552102352,30600.5772431073,20521.3073997646
7931353879,19199,0,0,48335.7862628388,63130.8903638491,43660.4217648042,58898.4543655633,73209.3206361110,52805.7600385020,41579.5995957193,67381.9916090613,30604.7264277239,20501.7417432733
7931353879,19199,0,0,48329.4590604908,63124.4536522298,43651.6488553949,58897.7729745412,73197.2259454690,52787.8491887787,41576.3143175771,67372.4886378426,30598.9224363394,20489.3671956044
7931353879,19199,0,0,48340.6046707806,63124.6605030757,43645.4068269247,58902.9807487814,73197.3232870436,52802.5964373281,41577.6770996213,67372.1479423315,30587.7768260496,20508.2636287704
7931353879,19199,0,0,48353.2347400829,63139.6754409553,43660.5191063788,58918.3850529593,73209.1989591428,52822.7339755700,41591.1345723074,67383.4030618927,30604.3857322129,20519.1415497301
7931391762,19200,0,0,48344.4374952799,63139.4685901093,43660.7137895280,58916.6815754041,73199.2701185353,52814.1192462194,41596.1111603080,67378.7671694032,30613.8522003411,20515.5277437737
7931391762,19200,0,0,48350.5456790850,63131.0850469983,43654.0337239722,58906.6188901315,73207.2764630448,52805.5410199592,41586.4378413338,67379.4485604253,30599.6890012392,20524.3736593640
7931391762,19200,0,0,48357.8219617851,63136.3901628131,43656.5281018209,58906.5580516474,73219.1643028408,52808.1205716857,41585.0142208055,67386.0312844065,30599.3239703345,20524.4710009386
7931391762,19200,0,0,48341.9796205216,63143.0580606720,43656.1995740067,58909.8068266991,73208.4445619398,52803.7402008294,41594.2008319068,67379.4363927285,30610.2627297784,20511.5732423062
7931391762,19200,0,0,48332.3914754252,63143.9828056306,43654.3014133023,58902.6157178767,73203.0664399440,52804.2999148833,41591.6212801803,67370.3592908985,30600.2122122026,20512.6318319298
7931391762,19200,0,0,48345.1797247861,63149.4095984136,43659.5456906330,58902.0195007324,73210.3062195537,52818.9863249486,41585.6834441308,67377.5382320241,30595.7831705591,20539.2425848816
7931391762,19200,0,0,48351.2757408944,63153.9724847222,43670.5209531673,58906.2295238332,73216.1588817255,52831.3852080111,41587.2409093241,67390.6915122897,30613.3533247714,20547.1150847261
7931391762,19200,0,0,48349.3410770995,63154.9702358617,43677.6998942928,58909.7459882150,73219.3711536868,52832.7723254490,41588.9930576666,67389.9127796930,30618.7192790703,20546.0199920120
7931448284,19201,0,0,48363.3217607491,63158.9125696323,43675.5340442583,58914.6860731251,73225.9295422743,52825.2161857219,41589.0660638475,67391.4094064022,30610.9197854068,20551.3251078268
7931448284,19201,0,0,48356.3009996822,63158.3041847912,43671.8959029083,58913.8465020443,73217.0714589872,52816.0539100142,41594.4928566306,67383.9992790371,30614.5700944537,20529.6301043915
7931448284,19201,0,0,48339.3879010984,63148.8742197534,43662.4050993864,58903.6134690162,73203.9790172057,52800.6861089269,41592.0228141755,67373.2795381360,30612.8666168985,20512.0477824823
7931448284,19201,0,0,48342.5880053628,63142.5226820118,43657.4285113858,58893.4169390786,73212.8614358865,52814.1070785226,41579.0642170591,67377.3435488749,30601.1126217675,20520.8328595885
7931448284,19201,0,0,48353.2347400829,63147.5479407997,43670.7764748006,58900.3525262677,73211.6690015978,52829.3288672481,41576.2899821834,67385.4350672622,30610.9927915877,20528.5471793743
7931448284,19201,0,0,48359.8417994577,63156.9170673534,43684.6598168755,58917.6184880594,73222.9119534622,52835.4613864468,41596.6830420587,67395.8384480458,30627.7233747193,20531.3214142499
7931448284,19201,0,0,48360.4745196925,63161.8693199603,43682.1897744205,58919.7234996098,73225.1751450713,52825.6420551107,41604.2026786953,67392.6018406909,30622.1505695744,20529.7031105724
7931448284,19201,0,0,48355.3275839364,63162.1005061999,43676.3857830359,58913.2502849000,73227.3653304994,52822.5636278145,41598.6298735504,67390.5089968373,30616.6872737009,20524.7143548750
7931456749,19202,0,0,48339.1932179492,63153.0964105510,43673.9157405809,58904.5503816716,73219.2008059313,52820.3247715991,41595.6609555256,67382.9893602008,30622.4425942981,20515.1140420817
7931456749,19202,0,0,48339.4122364920,63145.3577553716,43667.3695196901,58900.1335077249,73213.8226839355,52815.1048296620,41591.6334478772,67376.6864932465,30616.9671307278,20519.2388913047
7931456749,19202,0,0,48356.4226766505,63148.1319902472,43670.1680899594,58907.2881134568,73226.1728962108,52820.6776348070,41589.4432624490,67383.4273972864,30607.5736687805,20530.3601662009
7931456749,19202,0,0,48356.2523288949,63156.4790302677,43678.8923285815,58917.4968110912,73226.5987655996,52826.7614832184,41600.3333511056,67387.0533709396,30618.6949436767,20529.6057689978
7931456749,19202,0,0,48341.0670432599,63153.4127706684,43671.7620582432,58914.4183837950,73212.1435417739,52816.4189409189,41601.1485867927,67377.4165550559,30614.3389082141,20523.4489144054
7931456749,19202,0,0,48353.9404664986,63152.1229948051,43667.2356750251,58912.6662354525,73216.7429311730,52819.9719083912,41593.6411178530,67381.9794413645,30600.2973860804,20539.5832803927
7931456749,19202,0,0,48376.3533640464,63160.7377241558,43676.6899754565,58923.1669578107,73233.0354772189,52836.1427774689,41596.9628990856,67398.8195337674,30613.3168216809,20543.9393158553
7931456749,19202,0,0,48377.6188045160,63170.2163599808,43686.2294497657,58933.2418107801,73229.1418142356,52826.1044275900,41610.4082040750,67398.0651365644,30632.6391242358,20541.4571057034
7931475169,19203,0,0,48377.4971275478,63169.6809813206,43676.6048015787,58928.6180859874,73222.1940593497,52817.1976735156,41607.3784475661,67390.1196305390,30622.3817558140,20546.3971906135
7931475169,19203,0,0,48373.6277999581,63168.2086900051,43679.7318996622,58922.7167530282,73225.8687037902,52829.0368425243,41600.4793634674,67388.3553144997,30619.5710178479,20543.2579248332
7931475169,19203,0,0,48350.8742068992,63154.7755527125,43681.3745387333,58908.7725724692,73212.6789204341,52813.3891844100,41595.0160675939,67375.4575558674,30623.3430038630,20524.1059700339
7931475169,19203,0,0,48340.3004783601,63140.6001859138,43655.4330091068,58897.1159189128,73206.1326995434,52803.2413252597,41585.7077795244,67369.6413967860,30611.6011764289,20518.9590342778
7931475169,19203,0,0,48353.9648018922,63146.6353635380,43646.5505904261,58901.7396437055,73220.8677803960,52822.6974724796,41583.7001095486,67381.6022427630,30610.0680466292,20524.5318394227
7931475169,19203,0,0,48362.6038666365,63170.8612479125,43666.0067376460,58925.5883294785,73225.7470268220,52839.2820432492,41605.6506346172,67396.1183050727,30634.5007818497,20526.4665032175
7931475169,19203,0,0,48371.3037698649,63178.2835429745,43673.3195234366,58933.7528540467,73223.4838352129,52836.9823485497,41618.3415424035,67398.7708629801,30637.6765507205,20537.6486165978
7931475169,19203,0,0,48373.9684954692,63171.8468313551,43673.8549020968,58923.8605165296,73234.5442716250,52835.3275417818,41605.5532930426,67401.6546071272,30624.2312457311,20548.4778667702
7931519293,19204,0,0,48364.2586734044,63163.7188098774,43673.6115481603,58919.7721703971,73231.9768875953,52835.3640448722,41601.6109592720,67401.9587995477,30631.3858514630,20551.4711201887
7931519293,19204,0,0,48351.6651071927,63159.7156376226,43671.1171703116,58922.9479392679,73221.8168607482,52832.1517729110,41609.2157697863,67394.8893676936,30644.2227716112,20539.5954480895
7931519293,19204,0,0,48348.9760461948,63158.4258617594,43666.5907870935,58921.9015173411,73221.1354697261,52832.3951268474,41609.1305959086,67389.2922271550,30635.5350360796,20531.9176313942
7931519293,19204,0,0,48357.8462971788,63167.4056220147,43672.4312815685,58926.3062235910,73228.4482555167,52842.1536196994,41613.7543207013,67394.9258707841,30638.4431156203,20532.9275502305
7931519293,19204,0,0,48350.1076419994,63165.9941691833,43674.5849639061,58922.7897592092,73220.6244264595,52828.8908301624,41615.6159783152,67391.1173816785,30644.0645915525,20534.7892078444
7931519293,19204,0,0,48351.0567223516,63156.1018316662,43664.6926263891,58909.7703236086,73226.3919147536,52823.2936896239,41600.5767050420,67391.8231080942,30627.4921884797,20543.8541419775
7931519293,19204,0,0,48361.7156247684,63162.7453941316,43664.9724834160,58911.3886272861,73238.5474438797,52828.7569854974,41594.7118751734,67401.7519487017,30625.1194875992,20548.2710159242
7931519293,19204,0,0,48358.4425143231,63173.7328243627,43670.3992761990,58927.7420118161,73237.2576680165,52830.7768231700,41611.6979799382,67401.4234208875,30640.2682701437,20533.5359350717
7931566996,19205,0,0,48348.3189905664,63170.9464217902,43664.6439556018,58924.3107213121,73225.3333251300,52823.7438944063,41616.3947109119,67387.9902835950,30635.5472037764,20535.1420710523
7931566996,19205,0,0,48356.4835151346,63162.9644126744,43662.4050993864,58917.1682832770,73227.7911998882,52833.7579088916,41604.5920449936,67387.0412032428,30621.4813462491,20555.1701000228
7931566996,19205,0,0,48368.0184917227,63166.4687093594,43674.6823054807,58925.8925218990,73231.3198319669,52849.6489209424,41604.9327405046,67397.3594101487,30636.5449549159,20560.3292034758
7931566996,19205,0,0,48371.1090867158,63171.7494897805,43682.8468300489,58934.4950835529,73237.2820034101,52844.3316374307,41614.0706808187,67398.1746458358,30642.8721572638,20553.8681564628
7931566996,19205,0,0,48375.7084761148,63173.8301659373,43683.2483640441,58935.4076608146,73225.6131821569,52839.0873601001,41610.8827442511,67394.5365044857,30630.8261374091,20550.4855367460
7931566996,19205,0,0,48376.2195193814,63175.7039912480,43685.0005123866,58935.4684992987,73228.7767833309,52841.7277503106,41611.3086136399,67399.8659556942,30633.0649936246,20546.6892153373
7931566996,19205,0,0,48360.7908798099,63171.0924341521,43686.1686112816,58928.7275952588,73225.1994804650,52843.9422711324,41612.5983895031,67394.9867092682,30645.6707275331,20539.1695787007
7931566996,19205,0,0,48352.4073366989,63161.5286244493,43682.8103269584,58918.4945622307,73229.3121619911,52840.4501421442,41601.2094252768,67391.6284249451,30634.6102911211,20542.7347138698
7931577893,19206,0,0,48363.1635806904,63165.1180950120,43687.7382441717,58922.0110266125,73242.9886532201,52851.1820507421,41596.3180111540,67401.5085947653,30631.9942363041,20551.1912631617
7931577893,19206,0,0,48358.5641912913,63172.8932532819,43695.1240361433,58930.5284143886,73234.7632901678,52845.0251961497,41608.2423540405,67401.7154456113,30646.1574354060,20535.7991266807
7931577893,19206,0,0,48348.2703197791,63166.4808770562,43684.5746429978,58922.8992684806,73219.2251413249,52826.8709924898,41606.3928641234,67385.7879304700,30637.4818675713,20526.4665032175
7931577893,19206,0,0,48351.9206288260,63157.6471291627,43675.2906903219,58911.9726767336,73209.0286113873,52824.7051424553,41590.9033860678,67380.4463115648,30620.6904459556,20532.9032148369
7931577893,19206,0,0,48353.8674603176,63147.3045868632,43680.2307752320,58908.9915910120,73214.9056089527,52831.6650650381,41587.8006233779,67386.0556198001,30624.1582395502,20537.2349149058
7931577893,19206,0,0,48345.3379048448,63138.1423111556,43679.1235148211,58903.3092765957,73210.6225796711,52818.7064679216,41585.2332393483,67384.0844529148,30625.0343137214,20530.8468740738
7931577893,19206,0,0,48351.5190948308,63140.4298381583,43673.1126725906,58907.2151072758,73218.5072472123,52827.9904205975,41586.6325244829,67386.1772967684,30616.5777644295,20533.7792890081
7931577893,19206,0,0,48357.9558064502,63152.4393549225,43682.2141098141,58922.5950760600,73222.9241211591,52844.2342958562,41600.9174005531,67392.3341513608,30631.6900438836,20529.1433965186
7931604098,19207,0,0,48345.2770663607,63151.2469206339,43681.3015325524,58920.5995737811,73208.0551956414,52835.7777465642,41606.4415349107,67383.4517326800,30641.3876982515,20522.9500388357
7931604098,19207,0,0,48350.8377038087,63142.3766696500,43673.7940636126,58912.7879124207,73208.7365866635,52839.9025957872,41596.1719987921,67383.4030618927,30632.3714349056,20539.4251003340
7931604098,19207,0,0,48366.6070388913,63145.2847491906,43683.5038856774,58918.8352577417,73221.9628731101,52845.5484071130,41594.1399934227,67395.5220879284,30636.4476133413,20553.9898334310
7931604098,19207,0,0,48357.4082600931,63147.0977360173,43685.6454003182,58925.6613356594,73212.8127650992,52825.1431795410,41603.6794677319,67391.4824125832,30643.0546727162,20543.6837942220
7931604098,19207,0,0,48349.0003815885,63144.4086750194,43671.2023441894,58919.5044810670,73189.0370855072,52804.5189334261,41600.2238418342,67374.4233016374,30623.5741901027,20533.3534196193
7931604098,19207,0,0,48360.8030475067,63141.2694092391,43665.9945699491,58917.8375066022,73202.4458874061,52815.7132145032,41594.7605459607,67379.8379267236,30609.3136494262,20538.4395168913
7931604098,19207,0,0,48360.0486503037,63142.6078558896,43684.8545000247,58923.4346471408,73203.9668495089,52837.8827581146,41598.9949044550,67385.6784211986,30626.1537418291,20540.8365531654
7931604098,19207,0,0,48363.3095930523,63145.0657306478,43686.1077727975,58928.7397629556,73209.5518223507,52842.4699798168,41602.7060519860,67390.1561336295,30636.7518057619,20552.5662129027
7931633287,19208,0,0,48370.4763664810,63150.5168588245,43681.2285263715,58930.2850604521,73222.9362888559,52840.7178314743,41601.6231269688,67396.8240314884,30634.3426017910,20562.6654012658
7931633287,19208,0,0,48359.8539671545,63154.6417080475,43679.5980549972,58933.0349599341,73215.4896584002,52835.1328586326,41608.3153602214,67394.0254612192,30644.7338148778,20546.6770476404
7931633287,19208,0,0,48333.7055866820,63145.8931340318,43668.4889477978,58920.8429277175,73194.8167414981,52819.7650575452,41608.8264034880,67375.7495805911,30641.5580460070,20531.0780603134
7931633287,19208,0,0,48332.0021091268,63131.2432270570,43659.9715600218,58905.0127541509,73193.2836116984,52815.7132145032,41592.9110560436,67370.1159369621,30619.9117133590,20541.3962672193
7931633287,19208,0,0,48343.9386197101,63124.6970061662,43660.5312740756,58903.1024257497,73196.3620389946,52820.0570822690,41583.8339542137,67373.5228920725,30618.5489313148,20545.1560855376
7931633287,19208,0,0,48347.3577425174,63125.9746143326,43666.7367994553,58913.6274835015,73188.8424023580,52817.7573875694,41593.2760869483,67371.2840358571,30630.5341126854,20536.9793932725
7931633287,19208,0,0,48354.5366836429,63128.6271722400,43666.0554084333,58916.6572400104,73194.0015058109,52815.8957299555,41597.5956193204,67371.3205389476,30621.1893215254,20543.3309310141
7931633287,19208,0,0,48364.6967104901,63136.7673614146,43672.6868032018,58924.7730937913,73205.0254391325,52830.3752891748,41601.5257853942,67380.8235101663,30622.6007743568,20550.2421828096
7931685121,19209,0,0,48355.3519193301,63132.6790152821,43673.5872127667,58920.9402692921,73196.6053929310,52819.6798836675,41603.1927598590,67375.2020342341,30633.2475090769,20537.6121135073
7931685121,19209,0,0,48342.5636699691,63120.9128524543,43665.1915019588,58907.2272749726,73187.1632601964,52814.5694510018,41592.7407082881,67365.7720691963,30625.9712263768,20530.8103709833
7931685121,19209,0,0,48354.0499757700,63123.6262488458,43667.7223828980,58909.6973174277,73200.0731865256,52820.2639331150,41589.1877408158,67373.8635875835,30616.4804228549,20535.8721328617
7931685121,19209,0,0,48364.6237043091,63141.8169555961,43682.4209606601,58928.4234028382,73195.0235923441,52826.5302969788,41605.2856037125,67379.8865975109,30629.1591629444,20531.6742774577
7931685121,19209,0,0,48364.7332135805,63146.7692082030,43686.3511267339,58934.0570464672,73197.5423055864,52825.5447135361,41615.4699659533,67377.1001949385,30630.0595725093,20536.2736668568
7931685121,19209,0,0,48370.6223788428,63141.3180800264,43678.0284221070,58924.9799446373,73204.8550913770,52826.9439986708,41600.1873387437,67380.6409947139,30615.2758208694,20548.2710159242
7931685121,19209,0,0,48370.1478386668,63141.1477322708,43676.2276029772,58922.9601069647,73211.4986538423,52841.1437008631,41592.0228141755,67388.6838423139,30626.2510834037,20546.8473953960
7931685121,19209,0,0,48354.9260499412,63141.1842353613,43676.9454970898,58922.4612313950,73206.6072397195,52828.0390913848,41596.1963341858,67380.8113424694,30639.3678605788,20536.9428901821
7931712715,19210,0,0,48343.0990486293,63136.3171566321,43665.6660421349,58915.7446627487,73195.7049833661,52813.0241535053,41592.7528759849,67369.4102105464,30622.9536375647,20530.2993277168
7931712715,19210,0,0,48345.2405632702,63136.5605105686,43664.1572477289,58918.4337237466,73196.5810575374,52828.1851037467,41594.9065583225,67370.0429307811,30616.8697891532,20528.8270364012
7931712715,19210,0,0,48339.3635657047,63134.7110206515,43669.2676803945,58918.0930282355,73190.3025259768,52824.1454284015,41599.4937800248,67367.0983481500,30624.4259288803,20525.6756029240
7931712715,19210,0,0,48337.2707218512,63123.9426089632,43660.9206403740,58905.7428159602,73178.4390215744,52804.8717966339,41587.5816048351,67358.5444572835,30609.3136494262,20534.7770401476
7931712715,19210,0,0,48354.4271743715,63122.2999698921,43655.7128661338,58906.3877038919,73198.7225721782,52800.9537982570,41580.7311915238,67367.8770807467,30593.3252958008,20551.3372755236
7931712715,19210,0,0,48351.8476226450,63130.5740037317,43659.3996782711,58917.4724756976,73195.5833063979,52805.0299766926,41592.1079880533,67369.9820922970,30603.7895150686,20540.6540377131
7931712715,19210,0,0,48334.4113130978,63132.5208352234,43656.1022324321,58913.5788127142,73186.7617262013,52809.6293660917,41596.3788496381,67359.1163390342,30607.3668179345,20528.8270364012
7931712715,19210,0,0,48332.6348293616,63127.3495640736,43652.6344388376,58901.5814636468,73191.4462894781,52815.4090220826,41581.9722965997,67361.2456859782,30601.4046464913,20533.9496367636
7931733249,19211,0,0,48333.0363633568,63124.2346336869,43658.6574487649,58899.4521167028,73196.8487468675,52823.1598449588,41574.9150324424,67367.0618450595,30614.1077219744,20536.7725424266
7931733249,19211,0,0,48330.9556872001,63128.5054952718,43665.2766758366,58907.7626536329,73197.3597901341,52823.8169005873,41583.7001095486,67370.6756510159,30627.9423932621,20536.7238716393
7931733249,19211,0,0,48346.5181714366,63138.1909819429,43668.4159416169,58918.6040715021,73208.5905743016,52828.6839793164,41594.3225088750,67379.1565357015,30619.9360487526,20550.9844123158
7931733249,19211,0,0,48372.0216639775,63155.7002976711,43679.4277072417,58937.7925293919,73222.8267795845,52837.7489134495,41614.0828485155,67392.6018406909,30626.9324744258,20561.1079360724
7931733249,19211,0,0,48361.1072399273,63153.3884352747,43678.1866021657,58933.0957984182,73203.6748247852,52819.9110699071,41617.7818283497,67381.4440627042,30631.1424975265,20550.3760274746
7931733249,19211,0,0,48352.9913861464,63133.9444557517,43668.9878233676,58909.9406713642,73198.3088704862,52812.4887748451,41597.3644330808,67372.5859794171,30610.1653882038,20552.7122252646
7931733249,19211,0,0,48360.2555011497,63131.4135748125,43681.9220850904,58906.1808530459,73212.4599018913,52822.1620938194,41587.5207663510,67381.8820997899,30609.5570033626,20553.6369702232
7931733249,19211,0,0,48351.0688900484,63136.2806535417,43677.1401802390,58916.4382214676,73208.9434375095,52817.4288597552,41601.8543132084,67380.6653301076,30629.0131505825,20540.5445284417
7931762000,19212,0,0,48346.3113205906,63137.0228830479,43656.7471203637,58922.0596973998,73200.9370930000,52810.5419433534,41613.9125007600,67374.7883325421,30626.5796112179,20540.6418700163
7931762000,19212,0,0,48359.5132716435,63140.6366890043,43648.8259497320,58922.7532561187,73214.7717642877,52822.2229323035,41611.0774274002,67384.3764776386,30618.0987265323,20548.6725499194
7931762000,19212,0,0,48357.2379123376,63142.5713527991,43656.4064248527,58925.5518263880,73217.4729929824,52829.1463517957,41613.8394945790,67389.4747426074,30630.9234789837,20547.9911588973
7931762000,19212,0,0,48342.4784960914,63135.4289147641,43654.4839287546,58920.2588782700,73205.4756439150,52820.8844856529,41610.6272226178,67378.7671694032,30631.4223545535,20540.7513792877
7931762000,19212,0,0,48349.4627540677,63136.0129642115,43653.9607177913,58919.3949717956,73196.4593805692,52812.7929672657,41605.7601438886,67377.5990705082,30614.6552683314,20542.6738753857
7931762000,19212,0,0,48358.0896511152,63140.7583659725,43663.3663474354,58925.1016216055,73206.1326995434,52811.3815144342,41606.8552366027,67377.3678842686,30608.0603766534,20533.0735625924
7931762000,19212,0,0,48347.9661273585,63136.2319827544,43664.5952848145,58920.9159338985,73187.5404587979,52800.6739412300,41607.6096338057,67366.4656279152,30607.7440165360,20525.8216152859
7931762000,19212,0,0,48348.4650029283,63128.6271722400,43658.9373057918,58911.4616334670,73198.9050876306,52806.2467463749,41597.8389732569,67368.7653226147,30600.3703922613,20539.4007649403
7931817901,19213,0,0,48360.0364826069,63131.6934318394,43663.6705398560,58913.2259495064,73217.2418067427,52822.5271247240,41593.1179068896,67381.3953919170,30608.7174322819,20547.7356372640
7931817901,19213,0,0,48354.3176651001,63137.5582617081,43667.3938550838,58922.8749330869,73208.5784066048,52829.4627119131,41606.5388764853,67380.5193177457,30631.8725593359,20536.6752008520
7931817901,19213,0,0,48349.1220585567,63140.0039687695,43662.3929316896,58923.2277962948,73202.0565211077,52826.2869430423,41614.2166931805,67374.7883325421,30634.1844217323,20540.8608885591
7931817901,19213,0,0,48360.9125567781,63145.0292275574,43663.9990676702,58922.0718650966,73211.9975294121,52835.4857218405,41611.2234397621,67383.5490742546,30628.9644797952,20559.7938248156
7931817901,19213,0,0,48363.0540714190,63145.8444632445,43675.3271934123,58922.5707406664,73213.5793299990,52837.4447210290,41610.2986948036,67387.0412032428,30638.0415816251,20567.7028277505
7931817901,19213,0,0,48357.3839246995,63138.2031496397,43677.3591987818,58918.0565251451,73203.9546818121,52830.8376616541,41605.6749700108,67381.6509135502,30637.8103953855,20573.5433222255
7931817901,19213,0,0,48372.7517257869,63141.7682848088,43685.1830278389,58923.7996780455,73219.2981475058,52845.9256057146,41601.8421455116,67391.7501019133,30628.6724550715,20584.8836156645
7931817901,19213,0,0,48381.3177843502,63155.2014221013,43698.7621774933,58940.2260687565,73229.7501990767,52846.7895121890,41613.2432774347,67400.3648312639,30642.9573311416,20569.1142805819
7931832754,19214,0,0,48360.9125567781,63143.0093898847,43682.3722898728,58932.7916059976,73205.3417992499,52815.5185313540,41612.9269173173,67378.7063309191,30640.8158165008,20541.2502548574
7931832754,19214,0,0,48350.6065175691,63120.8033431829,43657.8300453809,58913.3719618682,73194.4273751997,52808.1205716857,41595.2837569241,67367.3417020865,30617.5876832658,20541.9681489700
7931832754,19214,0,0,48353.5511002003,63116.5203139012,43657.0148096938,58909.2836157357,73204.9159298611,52825.3743657806,41587.2895801114,67376.1267791926,30614.3754113045,20546.7622215182
7931832754,19214,0,0,48348.4041644442,63124.3563106552,43663.9747322765,58918.6649099862,73203.2124523059,52827.3820357564,41595.1620799558,67376.8446733052,30629.8892247538,20535.1420710523
7931832754,19214,0,0,48347.2360655492,63128.8096876924,43660.1297400805,58919.3097979178,73198.6130629068,52824.6929747585,41598.8853951836,67373.7054075249,30626.0807356482,20532.7937055655
7931832754,19214,0,0,48361.1315753209,63134.1391389008,43661.5776960024,58920.5143999033,73201.7036578999,52826.1287629836,41596.2085018826,67376.3944685227,30616.3709135835,20542.4548568429
7931832754,19214,0,0,48361.1072399273,63134.3581574436,43667.6250413234,58919.3463010083,73203.0299368535,52833.0035116886,41600.0778294723,67377.6112382050,30626.6161143084,20539.6806219672
7931832754,19214,0,0,48359.8904702450,63128.6636753305,43667.7588859885,58915.4161349345,73200.7424098508,52823.9020744650,41597.7781347728,67372.5008055394,30626.5187727338,20535.3975926856
7931865351,19215,0,0,48361.9589787049,63125.1837140391,43659.7282060853,58906.5215485569,73202.2633719537,52813.9610661607,41587.4355924733,67371.9532591824,30608.9486185215,20535.5679404411
7931865351,19215,0,0,48355.4857639951,63131.3162332379,43661.0423173422,58908.7847401660,73196.9825915325,52821.5658766750,41593.5194408847,67372.0019299696,30615.3731624440,20528.7661979171
7931865351,19215,0,0,48345.8611158082,63135.9399580306,43663.5488628877,58913.9073405284,73188.8424023580,52817.2463443029,41607.8408200453,67368.9478380671,30626.1780772228,20534.2173260937
7931865351,19215,0,0,48352.4438397894,63132.3261520742,43654.5569349356,58906.7405670997,73182.3448522546,52811.6735391580,41599.2625937851,67367.4147082674,30612.6232629620,20554.3548643357
7931865351,19215,0,0,48367.6412931212,63135.6601010037,43663.9382291861,58910.7437393545,73200.9370930000,52826.2869430423,41595.7339617065,67381.7847582153,30618.2082358037,20568.2382064107
7931865351,19215,0,0,48363.8693071061,63134.4311636246,43671.2510149767,58915.6959919614,73194.2813628379,52817.6113752076,41598.6055381567,67379.1565357015,30629.4633553650,20558.9542537348
7931865351,19215,0,0,48361.9224756144,63129.8682773160,43663.7313783401,58916.0975259566,73194.6220583489,52814.3382647622,41597.8024701664,67373.1335257742,30620.9946383762,20553.7586471914
7931865351,19215,0,0,48362.2753388223,63129.9412834969,43657.6596976254,58916.3530475899,73199.9515095573,52817.1611704251,41596.5613650905,67369.0816827321,30614.0468834903,20549.3782763351
7931883521,19216,0,0,48343.0503778421,63122.1661252270,43650.9796320696,58906.3025300141,73186.7008877172,52811.8803900040,41595.4054338923,67361.3916983400,30619.4615085765,20539.7414604514
7931883521,19216,0,0,48329.5198989749,63109.7550744676,43639.0796245768,58890.2046671173,73178.6702078140,52797.2669861196,41586.4743444242,67354.3831049700,30606.9652839393,20538.1231567739
7931883521,19216,0,0,48336.7840139782,63102.9898350341,43631.1706216419,58887.2479167894,73184.4985345922,52798.2525695623,41573.5035796110,67357.8752339582,30591.6096505488,20545.0709116598
7931883521,19216,0,0,48347.0900531873,63116.5203139012,43644.8714482645,58905.6333066888,73189.3534456246,52817.6478782980,41587.7762879843,67364.6161379981,30609.7273511182,20546.9812400610
7931883521,19216,0,0,48344.3401537053,63125.3905648851,43649.9940486270,58912.5810615747,73168.7048641160,52814.7884695446,41594.7605459607,67353.9207324907,30615.9572118915,20544.0731605203
7931883521,19216,0,0,48365.7431324168,63131.0363762110,43657.4041759921,58916.5233953454,73197.9438395816,52839.7444157285,41593.6289501561,67370.1159369621,30611.4186609765,20570.3675533547
7931883521,19216,0,0,48377.5579660319,63138.7993667840,43671.5187043068,58922.3030513363,73217.9597008553,52849.2108838568,41595.0890737749,67388.3309791060,30628.3074241668,20576.6217495217
7931883521,19216,0,0,48360.7665444163,63136.9012060796,43671.8350644242,58918.3728852625,73212.3503926199,52829.7060658496,41596.1354957017,67385.2647195067,30641.3390274642,20565.3422945668
7931935879,19217,0,0,48351.5190948308,63131.5352517807,43658.9251380950,58911.1939441369,73203.0542722472,52808.4004287126,41591.4752678185,67374.7518294516,30625.1438229928,20552.4688713282
7931935879,19217,0,0,48353.4294232320,63130.0872958588,43652.3910849011,58911.4981365575,73199.3674601098,52809.6050306981,41587.4112570796,67373.1213580773,30611.0657977687,20536.0303129204
7931935879,19217,0,0,48340.5438322965,63126.4126514182,43651.1013090379,58911.0114286846,73188.5138745438,52812.9146442339,41592.9718945277,67365.2610259297,30615.0446346298,20516.6593395782
7931935879,19217,0,0,48339.8381058808,63116.8731771091,43641.9390333302,58903.8689906495,73189.8523211943,52820.2152623277,41588.7740391238,67363.1560143794,30610.5669221989,20526.6976894572
7931935879,19217,0,0,48357.8706325724,63115.5468981554,43643.5938400981,58907.7626536329,73205.9015133038,52827.8079051452,41585.0385561991,67375.8712575593,30606.8801100616,20547.8086434450
7931935879,19217,0,0,48363.3704315364,63123.4193979998,43656.1630709162,58921.3904740745,73204.3683835041,52821.9795783670,41595.1985830463,67380.0447775696,30621.0311414667,20545.6427934105
7931935879,19217,0,0,48352.0301380974,63124.3198075647,43655.8710461925,58921.5243187396,73194.3178659283,52807.9867270206,41603.5699584605,67369.8604153288,30618.0378880482,20536.5535238837
7931935879,19217,0,0,48348.1243074172,63118.5523192706,43646.8061120594,58911.3277888020,73192.5535498890,52808.0110624143,41591.3170877598,67365.5895537440,30602.0495344229,20540.6053669258
7931961851,19218,0,0,48349.4870894614,63119.0876979308,43648.0472171353,58907.3246165472,73198.2236966085,52818.9133187676,41588.1048157985,67373.2430350456,30610.1045497197,20539.0600694293
7931961851,19218,0,0,48340.1301306045,63116.4959785076,43644.3239019075,58902.1655130943,73198.6252306036,52807.9745593238,41586.6446921798,67369.2885335781,30617.0523046056,20531.7472836387
7931961851,19218,0,0,48345.9219542923,63116.4351400234,43633.5189871287,58901.9221591578,73204.5630666532,52797.5711785402,41585.0628915928,67367.0618450595,30601.5506588531,20537.2957533899
7931961851,19218,0,0,48356.6660305869,63125.8164342739,43636.4757374567,58912.0578506114,73205.8163394260,52804.5432688197,41592.1931619310,67371.7829114268,30602.0251990292,20537.8311320502
7931961851,19218,0,0,48349.2194001313,63128.5541660591,43643.1558030125,58917.3629664262,73196.8974176548,52809.5076891235,41601.9881578735,67368.3637886196,30614.2902374268,20527.6832728998
7931961851,19218,0,0,48343.6709303800,63123.2855533348,43641.4888285477,58906.9474179457,73197.5544732832,52816.5892886744,41593.9453102735,67368.7774903116,30608.3889044676,20530.8955448611
7931961851,19218,0,0,48356.0819811394,63128.2378059417,43651.2473213997,58910.5247208117,73216.7794342635,52831.8475804904,41589.6014425077,67383.2813849245,30610.1775559006,20543.4526079824
7931961851,19218,0,0,48362.8107174825,63142.5470174055,43666.8584764236,58926.4522359529,73221.6830160831,52840.6569929902,41605.6993054045,67393.4414117717,30635.6080422606,20540.4958576544
7931982853,19219,0,0,48357.6516140296,63147.9738101885,43661.5168575183,58928.3503966573,73217.1809682586,52822.6731370859,41611.9778369651,67385.3742287781,30633.8315585244,20532.7450347782
7931982853,19219,0,0,48362.6890405143,63146.6231958412,43664.6196202081,58921.2687971063,73216.6699249921,52823.7317267095,41600.9417359467,67380.7018331981,30615.0202992361,20536.0059775267
7931982853,19219,0,0,48362.7742143920,63144.6520289558,43671.0563318275,58918.0565251451,73218.0448747331,52826.2869430423,41598.8245566995,67382.2471306946,30617.9648818673,20536.4196792187
7931982853,19219,0,0,48353.0278892369,63138.5073420603,43660.1175723837,58909.6729820341,73209.4909838665,52818.4266108947,41594.5171920242,67376.6864932465,30619.4615085765,20533.9739721573
7931982853,19219,0,0,48351.6164364054,63137.0228830479,43646.2220626119,58901.8126498864,73199.5499755622,52817.5627044203,41587.4112570796,67376.1267791926,30609.8733634800,20537.2227472090
7931982853,19219,0,0,48360.8638859908,63148.2293318218,43652.6709419280,58915.8298366265,73214.8691058623,52833.5997288329,41599.6884631740,67386.9560293650,30620.1672349922,20538.8410508865
7931982853,19219,0,0,48360.0121472132,63160.4213640384,43668.9269848835,58927.5959994542,73220.4662464008,52843.6867494991,41618.5362255527,67392.2246420894,30641.5458783101,20539.7292927545
7931982853,19219,0,0,48360.1459918783,63157.9634892801,43674.0617529428,58923.1426224171,73229.1783173261,52841.5208994647,41614.4113763297,67392.4801637226,30635.0118251162,20547.0420785451
7932011124,19220,0,0,48371.4497822268,63154.8728942871,43682.7981592616,58923.0696162361,73239.3018410827,52846.6434998271,41606.9525781773,67400.9853838019,30633.0649936246,20555.9123295290
7932011124,19220,0,0,48368.9675720749,63158.3285201848,43686.7526607291,58931.1246315329,73233.8507129061,52840.1459497237,41617.4776359291,67399.5009247895,30643.6387221637,20550.5828783206
7932011124,19220,0,0,48363.2365868713,63162.6237171633,43680.1334336574,58931.9520349169,73228.8619572087,52833.1738594441,41625.6299928005,67396.8970376694,30638.6986372536,20546.3850229167
7932011124,19220,0,0,48366.6557096786,63168.0505099464,43681.5327187920,58929.7131787014,73236.2477491802,52838.6249876208,41621.0184357046,67400.7785329559,30629.8162185728,20547.1880909070
7932011124,19220,0,0,48354.9503853349,63163.5119590314,43680.7904892858,58916.5720661327,73213.7618454514,52827.7835697515,41609.2036020895,67391.7379342164,30633.9897385831,20539.6927896641
7932011124,19220,0,0,48349.2072324345,63149.6894554405,43675.0351686886,58907.7383182392,73216.2927263906,52823.9750806460,41604.6285480841,67390.1804690231,30628.6359519810,20543.9636512489
7932011124,19220,0,0,48365.1225798789,63154.5200310792,43675.6435535297,58914.7225762156,73228.6064355754,52837.2987086671,41604.2878525730,67399.2697385499,30621.6881970951,20553.9776657342
7932011124,19220,0,0,48377.5944691224,63171.6278128123,43686.7161576386,58936.8191136460,73243.3536841248,52858.2879856867,41620.4100508634,67409.4297653970,30639.3435251852,20553.6613056168
7932044955,19221,0,0,48366.2541756834,63179.7680019868,43697.1925446032,58941.6131861943,73235.0796502852,52859.7481093054,41633.7215111877,67403.6501094061,30657.9479336275,20545.8861473469
7932044955,19221,0,0,48358.7102036532,63171.8833344456,43690.2569574141,58923.4103117472,73233.4005081236,52842.6524952692,41620.1666969270,67398.5396767405,30642.7869833861,20552.5905482964
7932044955,19221,0,0,48361.9589787049,63162.7697295252,43682.5913084156,58912.1551921859,73236.5032708135,52834.4149645201,41605.1760944411,67399.6469371514,30628.9766474921,20554.2088519738
7932044955,19221,0,0,48353.1617339019,63158.8273957546,43679.8292412368,58911.0722671687,73227.2923243185,52826.0800921963,41609.0089189403,67396.6658514297,30634.1479186418,20546.0564951025
7932044955,19221,0,0,48346.9927116127,63152.2568394702,43669.6205436024,58908.2250261121,73216.7672665667,52820.1665915404,41609.1914343927,67387.1750479078,30621.5665201269,20539.5711126958
7932044955,19221,0,0,48356.9215522202,63153.9724847222,43666.0919115237,58911.5224719511,73208.7122512699,52831.5555557667,41606.0886717028,67389.5599164851,30616.6142675199,20545.7279672882
7932044955,19221,0,0,48362.5916989397,63156.5763718423,43677.5173788405,58921.6946664951,73226.5379271155,52846.5461582525,41612.0386754492,67399.1602292785,30633.4786953165,20541.8464720017
7932044955,19221,0,0,48355.8872979903,63153.4371060620,43677.3226956913,58918.2147052038,73229.0809757515,52840.1459497237,41607.9868324072,67394.4026598207,30637.1655074539,20534.8135432381
7932088205,19222,0,0,48365.5362815709,63149.8476354992,43669.1095003358,58917.2291217611,73237.9998975227,52835.9359266229,41601.4649469101,67397.8217826279,30626.0198971641,20540.0943236592
7932088205,19222,0,0,48359.7322901863,63153.3154290938,43671.7498905464,58920.3075490573,73235.5906935517,52841.2653778314,41610.0310054735,67398.5396767405,30632.5782857516,20534.9352202063
7932088205,19222,0,0,48341.0183724726,63148.6552012106,43671.5673750940,58917.0222709151,73218.6045887869,52834.9746785739,41618.4388839781,67386.0069490129,30637.6643830236,20527.7927821712
7932088205,19222,0,0,48341.9552851280,63139.3955839283,43664.6196202081,58907.3367842440,73220.8434450023,52838.2234536256,41610.6637257082,67384.9240239956,30625.3628415356,20536.5656915806
7932088205,19222,0,0,48353.9039634081,63142.1089803198,43673.5628773730,58910.5490562053,73230.0908945878,52853.2992299893,41607.2689382946,67397.7609441438,30632.1402486660,20547.3219355721
7932088205,19222,0,0,48352.7601999068,63146.2459972396,43676.6656400629,58915.5864826900,73227.5235105581,52840.6813283839,41613.1702712538,67399.0750554007,30640.0979223882,20539.1574110039
7932088205,19222,0,0,48348.1851459013,63144.0071410242,43666.2014207951,58911.1209379560,73213.8470193291,52827.0656756390,41606.2711871552,67387.6860911744,30625.0951522055,20538.1474921676
7932088205,19222,0,0,48356.2279935013,63150.4681880372,43666.6151224871,58914.1020236776,73223.8366984208,52836.8241684910,41603.4239460986,67389.6207549693,30620.0942288113,20545.6914641978
7932112689,19223,0,0,48344.3523214021,63149.1297413867,43670.7156363164,58914.2115329490,73213.7131746641,52832.8940024172,41606.1373424901,67382.7946770516,30631.7995531550,20542.0046520604
7932112689,19223,0,0,48327.3662166373,63133.0075430963,43659.7768768726,58897.5174529079,73200.6085651858,52820.2395977213,41596.0138187334,67367.5242175388,30620.6052720779,20538.7558770087
7932112689,19223,0,0,48333.6812512884,63124.7213415599,43651.6488553949,58892.9910696898,73208.4932327271,52820.3126039023,41584.7465314754,67368.2664470450,30605.2009679000,20544.8032223297
7932112689,19223,0,0,48337.1368771861,63131.5595871744,43656.2117417035,58903.9176614368,73209.4909838665,52828.0634267785,41593.7992979117,67372.1844454220,30614.8621191774,20538.7558770087
7932112689,19223,0,0,48328.8871787402,63135.0760515562,43655.6033568623,58905.2196049969,73188.5868807247,52818.5117847725,41600.0899971691,67362.7423126874,30615.2149823853,20533.4507611939
7932112689,19223,0,0,48341.4320741646,63136.6821875368,43654.5447672388,58900.1821785122,73195.1331016155,52823.8169005873,41592.8745529531,67365.5165475630,30599.8715166916,20552.4202005409
7932112689,19223,0,0,48355.6439440538,63145.2482461002,43666.4569424284,58904.6963940335,73213.6888392705,52839.2090370683,41593.5194408847,67382.0159444549,30611.5160025511,20568.2138710170
7932112689,19223,0,0,48341.7240988884,63143.8732963592,43666.3474331570,58903.0172518719,73209.4058099888,52828.7326501037,41594.7118751734,67375.4088850801,30625.4115123229,20554.6955598468
7932162891,19224,0,0,48329.0696941925,63135.9764611211,43654.7881211752,58894.3173486435,73200.2800373716,52815.7740529873,41585.6712764339,67364.4822933331,30612.6354306588,20545.7766380755
7932162891,19224,0,0,48335.4820704182,63139.3590808379,43658.8399642173,58902.9929164783,73203.2976261837,52826.7006447343,41589.3094177840,67367.9135838371,30612.8909522921,20537.4295980550
7932162891,19224,0,0,48332.0507799141,63137.2905723780,43658.4871010094,58905.2926111778,73192.3953698303,52816.5527855840,41593.1787453737,67360.9414935576,30619.1208130655,20518.1803016811
7932162891,19224,0,0,48319.1408535850,63120.9980263320,43641.2333069145,58882.8918813268,73170.0554784634,52799.8100347556,41575.8762804915,67346.5349405192,30605.2861417778,20515.2478867468
7932162891,19224,0,0,48324.8475033949,63110.9475087563,43631.3044663069,58871.7097679465,73185.9708259078,52801.2336552839,41558.2087847045,67347.9220579570,30587.2779504798,20524.9698765083
7932162891,19224,0,0,48325.5897329011,63115.3522150062,43635.5023217108,58881.0910621970,73182.4056907387,52801.1849844966,41565.7284213411,67346.9243068176,30593.2644573167,20518.3019786493
7932162891,19224,0,0,48320.7713249592,63117.6884127962,43632.8010930162,58886.1893271658,73168.9725534461,52786.3403943726,41574.6230077187,67337.4335032957,30587.7403229591,20513.4957384043
7932162891,19224,0,0,48322.2192808812,63114.2571222921,43623.9430097291,58879.6187708814,73173.6571167230,52785.7685126219,41568.1376253121,67336.8494538482,30571.5086153973,20521.9279523026
7932174223,19225,0,0,48326.0277699868,63112.5049739496,43628.3963867663,58878.6818582260,73177.7454628555,52795.3323223248,41567.4805696836,67345.7562079226,30579.1499290021,20531.9176313942
7932174223,19225,0,0,48314.0060855257,63104.3039462910,43627.9583496806,58874.1676427047,73172.5863594026,52785.6225002601,41567.7360913169,67343.9675564896,30586.1950254626,20527.8657883522
7932174223,19225,0,0,48310.8059812613,63099.5220414396,43619.8668312934,58869.6899302739,73173.7301229039,52783.9190227048,41562.7230002259,67341.4245078536,30577.5072899310,20533.9739721573
7932174223,19225,0,0,48319.8344123039,63112.3224584973,43629.3576348153,58884.7170358502,73182.5395354037,52797.8753709608,41574.0389582712,67348.0559026221,30588.3122047098,20537.8554674438
7932174223,19225,0,0,48313.1421790513,63119.1972072022,43635.8795203124,58892.3340140614,73173.8152967817,52797.2669861196,41588.0439773144,67342.1545696630,30603.1446271369,20526.0041307383
7932174223,19225,0,0,48310.3071056915,63112.6509863115,43628.0435235584,58884.2303279773,73171.3330866298,52784.9654446316,41582.9213769519,67337.0928077846,30586.9737580593,20529.4719243328
7932174223,19225,0,0,48325.5653975075,63111.4342166292,43629.9416842628,58883.8409616790,73188.7207253898,52796.4274150388,41574.2823122077,67349.0049829743,30578.4198671927,20544.6693776646
