steady_timestamp,sequence,battery,flags,EEG-ch1,EEG-ch2,EEG-ch3,EEG-ch4,EEG-ch5,EEG-ch6,EEG-ch7,EEG-ch8,EEG-ch9,EEG-ch10
8708366739,10569,-2,0,54299.6368482419,56815.9773897104,37357.4818043393,54131.9538183249,55677.7988611956,61924.8404224559,62624.6898406211,57957.7818918785,66361.6693919735,20731.7355486206
8708366739,10569,-2,0,54320.7721376234,56892.9867429028,37412.7231479155,54212.2606173564,55746.6315221230,61929.7196688819,62677.3272970771,58050.2442200360,66378.0836149876,20751.0335157817
8708366739,10569,-2,0,54316.1119097402,56948.3862665377,37435.7931010918,54245.8191251940,55798.8796122807,61905.9926600772,62678.3128805198,58095.6418968824,66360.3917838071,20764.4666530743
8708366739,10569,-2,0,54296.2177254347,56916.7624224949,37405.0940020075,54197.4281949292,55772.6582256273,61884.2489858546,62636.6263512044,58047.5308236445,66335.7400300438,20760.6338285750
8708366739,10569,-2,0,54278.4042172859,56833.3771961672,37349.9865030964,54123.5702752139,55699.1288337262,61881.4260801916,62597.2151811949,57960.6291329350,66330.0820510211,20737.9654093939
8708366739,10569,-2,0,54284.5245687878,56794.2580508815,37330.9562252653,54110.9767090022,55666.3368907884,61899.2274206436,62606.7303201104,57935.0526342132,66342.7851265043,20716.0513874158
8708366739,10569,-2,0,54305.1244795091,56852.2127908491,37373.2389717250,54181.2938289420,55719.6679059634,61915.5443020832,62657.3479388938,58009.5067710728,66361.0853425260,20728.0974072705
8708366739,10569,-2,0,54312.9118054757,56926.8007723738,37415.0836810991,54245.5271004703,55788.1233682892,61903.1210836270,62681.2087923636,58083.3160200008,66355.0866679923,20754.1727815621
8708425570,10570,-2,0,54299.0406310976,56912.0291884307,37394.5932796493,54212.7838283197,55777.7078198088,61878.9560377366,62645.6547822470,58050.5605801534,66329.1329706689,20755.7789175427
8708425570,10570,-2,0,54286.8972696683,56829.5200362744,37339.8143085524,54130.0921607110,55702.5966273208,61885.3197431750,62600.8289871513,57958.0982519959,66324.5457489667,20728.5841151434
8708425570,10570,-2,0,54297.6778490534,56797.8840245347,37331.0535668399,54118.5085133356,55676.3509052737,61915.0089234230,62616.6591607179,57944.1662391336,66351.9108991215,20712.5349230340
8708425570,10570,-2,0,54316.5134437353,56856.8973541260,37380.4422482442,54187.5966958963,55731.3002241261,61920.1923622695,62664.3686999607,58021.5284555339,66373.7032441314,20729.8252202194
8708425570,10570,-2,0,54310.4539307175,56921.2279672289,37415.1688549769,54230.4634918035,55783.5969850711,61896.2463349220,62674.7842484411,58077.6580409781,66359.4062003644,20754.9758495524
8708425570,10570,-2,0,54287.7246730522,56909.5834813693,37397.6595392487,54197.6228780784,55770.9182449816,61872.0326182443,62634.9228736492,58047.9931961238,66331.5908454272,20760.0619468244
8708425570,10570,-2,0,54269.7894879352,56833.3406930768,37348.1248454825,54120.8568788224,55705.0058312917,61875.4639087484,62588.5152779665,57965.1068453659,66318.7539252790,20742.2119355851
8708425570,10570,-2,0,54273.6223124345,56783.1976144694,37328.3280027516,54089.4642210192,55661.1656196386,61905.2625982678,62588.3449302109,57925.7443461437,66337.2001536625,20720.6872799053
8708443912,10571,-2,0,54295.0617942365,56836.4799588571,37376.8649453783,54155.2671254377,55706.6119672723,61934.7449276698,62644.7422049853,57997.7284405482,66368.9456746736,20727.2578361897
8708443912,10571,-2,0,54312.5711099647,56931.3149878951,37438.2753112437,54239.9664630222,55790.6542492284,61927.4199741824,62686.3557281197,58094.3886241096,66376.8303422149,20762.7996786095
8708443912,10571,-2,0,54300.8901210147,56937.1676500669,37428.1882905775,54223.2115444970,55795.4604894735,61888.7023628918,62657.7981436763,58079.5440339857,66348.5161117079,20775.3932448213
8708443912,10571,-2,0,54279.0856083080,56854.1352869472,37368.7734269910,54134.4725315673,55721.0915264916,61880.7446891696,62602.8366571271,57979.6229076757,66329.6683493291,20755.6694082713
8708443912,10571,-2,0,54277.0901060290,56795.8885222558,37340.2523456381,54095.9496034259,55668.7825978498,61908.0246654466,62597.8965722169,57937.3279935191,66345.8635538005,20737.3813599464
8708443912,10571,-2,0,54295.5728375030,56835.9202448032,37377.2908147671,54152.5780644398,55706.1982655804,61931.7273388577,62642.4060071953,57999.7239428272,66372.0727727571,20744.3534502259
8708443912,10571,-2,0,54305.4043365360,56914.3653862207,37424.8908447384,54222.0921163893,55777.2332796327,61917.3329535162,62675.7941672774,58080.9433191203,66374.0074365519,20764.5639946489
8708443912,10571,-2,0,54295.6945144713,56930.9256215968,37419.3180395935,54221.0091913721,55791.2748017664,61886.4878420700,62656.6543801749,58081.0528283917,66347.5305282652,20769.4067379844
8708461543,10572,-2,0,54281.8111723963,56866.6680146748,37370.8541031478,54154.1355296332,55735.8996135252,61880.8298630473,62607.3630403452,58001.7924512871,66330.6782681654,20751.0091803881
8708461543,10572,-2,0,54285.2667982940,56803.0674633813,37336.6628750753,54102.8486875245,55678.9669600906,61909.6916399113,62590.2552586121,57939.7006943996,66344.6954549055,20726.5034389867
8708461543,10572,-2,0,54304.9297963599,56832.1117556976,37369.6251657686,54147.0174269917,55705.9305762502,61938.6507583499,62635.3122399475,57991.7541014081,66376.0759450118,20736.2984349292
8708461543,10572,-2,0,54318.5454491048,56920.4614023290,37428.8453462059,54234.0894654567,55787.9286851401,61927.4564772728,62682.7175867697,58091.0303397865,66382.5491597216,20767.8127697006
8708461543,10572,-2,0,54303.5183435284,56939.6133571283,37425.3775526114,54233.6514283711,55806.3140750395,61883.5310917420,62662.7868993737,58092.4296249212,66349.4895274537,20775.9894619656
8708461543,10572,-2,0,54280.7769181663,56872.0704720642,37368.6395823260,54156.9340999024,55743.3949147681,61875.7802688658,62609.0056794163,58002.8510409107,66325.1054630205,20753.7469121733
8708461543,10572,-2,0,54276.5303919751,56805.5253381395,37331.9174733143,54106.8153566887,55682.4347536851,61909.8376522732,62596.0714176935,57940.5159300867,66338.7819542495,20734.1690879851
8708461543,10572,-2,0,54294.5629186667,56826.5511182496,37359.7936667357,54142.7100623164,55700.2239264403,61937.8233549660,62635.0810537079,57979.7080815534,66370.1989474464,20740.0582532475
8708480893,10573,-2,0,54305.4408396264,56905.7019860828,37409.3770312892,54213.1123561340,55768.6793887662,61931.0946186229,62675.9523473361,58064.7359469521,66380.6631667141,20758.7113324770
8708480893,10573,-2,0,54298.0063768676,56945.9162240826,37422.2991253152,54234.4058255741,55803.8927033718,61904.5690395489,62670.4647160690,58095.1186859190,66366.9136693042,20773.3734071487
8708480893,10573,-2,0,54280.2537072030,56893.3761092012,37378.7022675985,54173.4821675816,55758.4098526476,61881.9857942455,62620.2486312807,58024.4973735587,66343.2353312867,20765.1723794900
8708480893,10573,-2,0,54273.7561570995,56809.5650134847,37330.7858775098,54103.8707740576,55684.9899700180,61899.5924515483,62587.6757068857,57938.8976264093,66343.3326728613,20742.6378049739
8708480893,10573,-2,0,54289.1361258837,56810.6722738956,37347.7719822746,54127.8411367988,55690.2342473487,61933.8688534985,62623.6434186943,57961.2618531698,66370.0164319940,20739.1213405921
8708480893,10573,-2,0,54307.4850126927,56897.5496292114,37409.9732484335,54218.0402733473,55769.8109845707,61935.2681386332,62680.2475443146,58064.6142699839,66385.7979347734,20764.6978393139
8708480893,10573,-2,0,54297.7386875375,56945.7823794176,37428.5168183917,54242.7041948074,55810.5119304434,61903.8754808300,62676.6945768423,58097.7590761296,66366.7068184582,20781.0877269344
8708480893,10573,-2,0,54276.8224166989,56900.5672180235,37390.5049335168,54181.9265491768,55768.1926808932,61887.1814007889,62629.2162238392,58031.0070913589,66344.8536349642,20769.4797441653
8708521842,10574,-2,0,54267.7696502626,56821.9760642441,37345.3506106069,54114.0308009048,55696.8169713299,61899.2760914309,62597.5923797964,57951.1383294132,66343.6612006755,20744.5116302846
8708521842,10574,-2,0,54281.4339737948,56811.6943604288,37352.7729056689,54124.5315232629,55687.1679877493,61925.2054533606,62619.7619234078,57956.6137929835,66365.3318687172,20739.0361667143
8708521842,10574,-2,0,54300.4520839290,56882.6928713906,37404.3152694108,54197.1118348118,55748.4810120401,61936.9472807947,62668.8342446947,58040.2058701571,66381.4053962203,20759.5630712546
8708521842,10574,-2,0,54306.6211062183,56949.1163283471,37439.5164163196,54247.3522549937,55808.3582481058,61918.2576984747,62684.6157474741,58100.2534539783,66373.5815671631,20789.2035807153
8708521842,10574,-2,0,54286.9946112429,56916.8110932821,37401.8452269558,54198.3651075846,55779.4478004545,61887.3639162412,62639.4735922609,58050.4997416693,66344.6832872087,20786.7700413507
8708521842,10574,-2,0,54270.2275250209,56826.4416089782,37339.7291346747,54112.0961371099,55698.3622688264,61889.2985800361,62594.1732569891,57951.1991678973,66334.7909496916,20759.9037667657
8708521842,10574,-2,0,54277.3699630559,56801.8506936990,37333.9008078965,54113.4102483668,55677.5920103496,61916.8827487337,62616.6226576274,57949.2036656183,66357.6053812346,20748.5513056299
8708521842,10574,-2,0,54295.7431852586,56873.7861173162,37387.2804938587,54194.7756370218,55740.8396984353,61924.4267207639,62672.1073551401,58042.0188569837,66375.6622433199,20764.1137898664
8708546626,10575,-2,0,54294.3439001239,56934.6002660373,37418.6001454810,54236.9245388165,55794.1707136102,61903.8511454363,62682.9852760998,58094.1939409605,66359.1385110343,20779.4815909538
8708546626,10575,-2,0,54280.1563656284,56909.9363445772,37392.7559574290,54194.3375999362,55770.0908415976,61879.4914163968,62643.9269692981,58047.6646683096,66335.7887008311,20779.5180940443
8708546626,10575,-2,0,54263.6326333428,56825.3586839609,37338.6827127479,54117.7176130421,55696.2937603665,61877.8366096289,62599.1741803834,57959.4488663432,66325.5678354998,20755.8884268141
8708546626,10575,-2,0,54265.7741479837,56787.1521159369,37324.1058119540,54095.2925477974,55660.3260485579,61904.6542134266,62599.5270435912,57934.0913861642,66342.7242880202,20739.5715453745
8708546626,10575,-2,0,54280.6552411981,56843.1843598065,37368.3110545118,54156.9827706897,55711.6858968475,61922.7840816928,62642.2599948334,58008.0709828477,66365.5630549568,20753.8199183542
8708546626,10575,-2,0,54286.2888848271,56919.0377818007,37410.6546394556,54221.5080669418,55781.9056752127,61901.7096307955,62667.3984564696,58087.0028321381,66362.4846276606,20778.7636968412
8708546626,10575,-2,0,54270.7020651970,56908.2206993251,37388.8744621425,54195.5056988312,55774.4103739698,61872.5071584204,62631.6375955070,58056.9242855918,66335.6913592565,20780.6740252424
8708546626,10575,-2,0,54258.9237346723,56822.9616476868,37328.8025429277,54114.8095335014,55700.3334357117,61878.6031745287,62585.5463599417,57959.0108292576,66324.6795936317,20755.7910852395
8708577653,10576,-2,0,54274.1576910947,56787.3711344797,37318.0219635425,54100.9748622137,55669.8776905639,61912.7700672075,62600.9019933322,57937.9242106634,66350.1830861726,20742.9541650913
8708577653,10576,-2,0,54298.0672153517,56849.6454068195,37368.7004208101,54174.0662170291,55725.7152512844,61926.1180306223,62654.1234992358,58016.5031967460,66373.8492564932,20759.4413942864
8708577653,10576,-2,0,54302.1433937874,56921.1914641384,37408.8903234163,54228.4314864340,55786.4198907340,61905.2017597837,62675.1736147394,58084.8004790132,66363.3241987414,20779.2625724110
8708577653,10576,-2,0,54280.9594336187,56912.6497409687,37392.3422557371,54201.3948640935,55777.6591490215,61875.6950949880,62642.8440442809,58060.1730606435,66333.2456521951,20772.5460037647
8708577653,10576,-2,0,54263.3162732254,56838.5849704074,37345.8251507830,54127.2084165640,55713.3893744027,61882.6915206612,62597.3490258599,57978.5034795680,66321.9905326339,20753.5522290241
8708577653,10576,-2,0,54267.9643334118,56786.7384142449,37323.6921102620,54093.3457163057,55669.6465043242,61913.3297812614,62596.9474918648,57936.7196086780,66344.1114054580,20732.1857534030
8708577653,10576,-2,0,54289.7080076344,56834.1680964607,37362.6530754891,54150.5338913736,55711.4668783047,61939.1374662229,62645.8494653962,57999.4927565875,66376.9520191831,20747.0668466175
8708577653,10576,-2,0,54300.6832701687,56921.3253088035,37415.3148673388,54228.8451881260,55789.8511812381,61921.4943058296,62683.6910025155,58093.0380097623,66378.8136767970,20781.5622671105
8708689645,10577,-2,0,54288.7345918885,56929.8670319732,37406.4811194453,54219.4152230882,55798.5997552538,61887.8871272046,62655.8026413973,58085.0803360401,66351.0834957375,20792.6713743099
8708689645,10577,-2,0,54269.2054384877,56847.7350784183,37349.3172797711,54131.8929798408,55724.1091153037,61878.0191250812,62597.6410505837,57986.6923395298,66329.2424799403,20768.4941607227
8708689645,10577,-2,0,54264.9832476902,56784.5117257263,37316.9268708285,54087.6390664958,55666.2638846075,61901.8921462478,62584.9014720100,57931.7673560710,66343.5760267978,20751.3255405055
8708689645,10577,-2,0,54282.5168988120,56819.5303571827,37350.7895710867,54139.3031072060,55695.6488724349,61918.9999279809,62627.6709263427,57984.6968372508,66367.1691909374,20759.3683881055
8708689645,10577,-2,0,54294.1735523684,56898.2918587176,37397.1606636790,54209.9244195664,55765.3089367462,61909.0589196766,62660.3655277059,58064.6872761648,66367.1691909374,20777.2427347384
8708689645,10577,-2,0,54288.1627101379,56925.1216302122,37402.0034070145,54217.1155283887,55790.3378891110,61884.9060414830,62649.3780974748,58075.2001662199,66345.9365599814,20787.5974447347
8708689645,10577,-2,0,54271.4077916127,56865.7311020194,37356.7517425300,54149.7916618674,55738.3696559802,61868.1754583515,62603.7370666920,57998.8600363527,66324.9351152650,20764.7100070107
8708689645,10577,-2,0,54266.1270111915,56793.2359643484,37314.2013067401,54087.6147311021,55672.2625591412,61886.9623822461,62581.6283615647,57924.8317688820,66329.4128276959,20730.4701081510
8708689666,10578,-2,0,54284.5610718783,56816.1234020723,37341.0675813252,54123.0592319474,55688.8227945172,61916.8705810369,62620.4433144299,57963.8170695027,66356.2912699777,20734.5219511930
8708689666,10578,-2,0,54300.5980962909,56907.7583268459,37400.2025878847,54208.9875069110,55769.4459536660,61915.0210911198,62668.4205430027,58064.1032267174,66367.2056940279,20763.9312744141
8708689666,10578,-2,0,54293.9667015224,56943.1054861165,37412.5649678568,54223.1263706192,55802.1040519388,61891.3184177087,62658.4186962143,58082.9388213993,66345.2308335657,20785.3464208224
8708689666,10578,-2,0,54284.1960409736,56885.7834663836,37372.1073759205,54161.5456569983,55753.2507491947,61885.1980662068,62614.8096708008,58006.6716977131,66330.4835850163,20781.6352732914
8708689666,10578,-2,0,54283.5998238293,56809.1999825800,37334.6673727963,54107.5454184981,55685.8052057051,61898.2053341105,62594.9884926763,57939.8588744583,66340.4489287143,20758.1151153327
8708689666,10578,-2,0,54293.9301984319,56810.7939508639,37350.3150309106,54132.9759048581,55689.5041855393,61920.0463499077,62628.4131558489,57964.4376220406,66362.8983293526,20748.7581564759
8708689666,10578,-2,0,54303.7373620712,56883.5446101682,37397.9880670629,54202.4899568075,55753.6766185835,61919.0485987682,62668.9559216629,58045.3406382164,66369.8704196321,20763.0430325460
8708689666,10578,-2,0,54296.8017748822,56927.4943310927,37417.2251957400,54225.3408914410,55793.5744964659,61894.6645343350,62668.3475368218,58079.5318662888,66350.1709184758,20781.8907949247
8708691577,10579,-2,0,54276.4087150069,56880.8920522608,37377.6801810654,54163.0422837076,55753.6157800994,61875.7315980785,62619.0196939016,58017.3914386141,66323.7791840668,20774.5536737405
8708691577,10579,-2,0,54269.5339663019,56799.6726759677,37327.5736055485,54090.6931583983,55683.1039770104,61899.6654577292,62586.6901234430,57931.0494619585,66327.4173254169,20750.5711433025
8708691577,10579,-2,0,54292.1293793021,56803.4568296796,37346.7742311352,54116.1358124551,55685.0994792894,61936.1685481981,62623.7164248752,57954.3871044649,66364.0420928540,20751.6784037134
8708691577,10579,-2,0,54319.0443246745,56895.1160898468,37411.0075026635,54213.6477347942,55763.4837822228,61940.8287760813,62685.3214738898,58059.8810359198,66388.9372005537,20777.9119580636
8708691577,10579,-2,0,54318.3751013492,56948.4714404154,37430.4393144897,54248.6541985538,55807.7498632646,61907.6596345419,62686.7450944181,58100.4359694307,66369.9555935099,20789.8363009501
8708691577,10579,-2,0,54296.2907316156,56903.7794899848,37385.0538053401,54187.6575343804,55765.2115951716,61881.1705585584,62635.3730784316,58032.3455380095,66343.4178467391,20771.0858801460
8708691577,10579,-2,0,54283.0644451691,56822.9859830804,37332.9517275443,54113.3372421858,55691.6457001801,61895.1877452984,62599.2471865643,57947.4515172758,66339.1348174574,20747.5292190967
8708691577,10579,-2,0,54290.2312185978,56807.6303496899,37337.8188062735,54116.2331540297,55676.6064269070,61927.5538188474,62618.4599798477,57947.3663433980,66360.0510882960,20741.9442462550
8708705124,10580,-2,0,54306.8279570643,56878.1056496884,37392.9263051846,54188.3389254025,55740.3651582592,61943.6395140474,62666.2790283619,58028.0260056373,66378.0349442003,20758.7113324770
8708705124,10580,-2,0,54310.3809245366,56946.2812549873,37428.7236692377,54239.2972396969,55802.0797165451,61923.5628142895,62682.5472390142,58088.5481296346,66370.0164319940,20780.5766836678
8708705124,10580,-2,0,54293.9423661288,56919.3784773118,37395.3598445492,54195.7977235549,55777.7808259897,61887.9844687792,62642.9535535523,58042.7002480058,66340.6801149539,20780.7470314234
8708705124,10580,-2,0,54278.1000248653,56826.1860873449,37330.9197221749,54108.4214926694,55692.9233083465,61887.7654502364,62592.6401271894,57941.5866874071,66327.7458532311,20753.7104090828
8708705124,10580,-2,0,54288.4303994680,56796.2657208573,37324.9940538221,54101.7414271136,55668.6852562752,61923.3924665340,62607.9349220959,57932.5339209709,66352.4462777817,20739.7783962205
8708705124,10580,-2,0,54314.2624198231,56870.2939883280,37383.4233339659,54186.2095784584,55737.3962402344,61937.1906347312,62664.4782092321,58026.8579067423,66379.0083599462,20760.3053007608
8708705124,10580,-2,0,54317.1826670606,56937.3745009129,37417.7727420970,54238.3724947384,55798.7335999188,61912.6118871489,62680.2232089210,58086.6499689303,66369.1403578228,20781.5744348073
8708705124,10580,-2,0,54300.0140468434,56916.3243854092,37391.1863245389,54200.1415913207,55777.5861428406,61886.7798667937,62641.8584608382,58043.4911482993,66341.3250028855,20777.2792378288
8708749888,10581,-2,0,54287.5421575999,56840.6656465642,37341.9923262837,54128.2426707939,55711.9779215713,61894.6888697287,62601.1696826623,57960.3736113018,66332.3817457207,20756.3386315965
8708749888,10581,-2,0,54294.2343908525,56807.7033558708,37331.4916039255,54109.8451131977,55681.1936486092,61926.9089309158,62606.3044507216,57933.9210384087,66352.6166255372,20742.3822833406
8708749888,10581,-2,0,54310.7459554412,56865.5364188703,37379.0672985032,54171.9733731756,55732.4439876274,61946.9491275832,62652.2740093187,58004.9317170674,66375.8569264690,20755.8154206332
8708749888,10581,-2,0,54314.7491276960,56947.2790061268,37428.0422782156,54238.4576686162,55805.7056901984,61928.9896070725,62680.6612460066,58085.9077394241,66375.9907711341,20783.0588938197
8708749888,10581,-2,0,54293.0662919575,56939.5160155538,37410.8249872111,54210.2164442901,55798.3807367110,61893.1679076258,62640.7268650337,58060.2704022181,66349.2705089109,20787.8651340648
8708749888,10581,-2,0,54270.1910219304,56848.5016433182,37344.6448841911,54115.8437877314,55715.0076780802,61880.4161613553,62582.1880756185,57956.3826067438,66329.4493307863,20757.7744198217
8708749888,10581,-2,0,54270.0450095685,56791.0214435266,37318.9223731074,54081.4822119034,55662.8569294970,61905.0070766345,62579.6693623762,57915.7303316584,66342.9433065630,20732.9036475156
8708749888,10581,-2,0,54292.9081118988,56840.7751558356,37365.6219935139,54150.9110899751,55707.4393706563,61930.2672152389,62633.1220545194,57989.4909097991,66369.1768609132,20743.3678667833
8708758543,10582,-2,0,54303.2871572888,56917.6141612725,37414.8646625563,54217.9550994695,55775.9435037695,61914.8872464547,62661.5944650850,58065.6850273043,66367.0596816660,20767.8006020038
8708758543,10582,-2,0,54295.5363344126,56926.5452507405,37410.5086270937,54207.9654203779,55783.9255128853,61897.9254770836,62641.3352498748,58057.1311364378,66350.9253156788,20781.6109378978
8708758543,10582,-2,0,54278.1608633494,56859.6959243953,37364.7580870395,54139.2666041155,55727.2727164777,61892.8150444179,62598.1034230629,57981.4358945023,66340.6436118634,20770.2341413683
8708758543,10582,-2,0,54276.8467520925,56801.6681782466,37333.0490691189,54098.5291551523,55674.8786139581,61911.9183284299,62588.6126195410,57929.9300338508,66354.7459724812,20750.7536587548
8708758543,10582,-2,0,54294.5020801826,56837.1126790919,37367.0212786485,54149.8038295642,55703.0711674969,61931.8003450386,62630.6885151548,57980.7666711770,66377.2318762100,20758.6018232056
8708758543,10582,-2,0,54301.0604687702,56917.4438135169,37415.9719229672,54224.7933450840,55771.8429899401,61907.4406159991,62663.3101103371,58064.9062947077,66371.3913817350,20781.0998946312
8708758543,10582,-2,0,54285.5709907146,56926.7155984960,37407.1625104674,54214.4021319972,55780.3725454130,61868.6865016180,62631.4915831451,58057.9950429122,66335.5940176819,20784.7015328908
8708758543,10582,-2,0,54271.7728225174,56853.7215852552,37353.7098183242,54134.0831652690,55715.4822182563,61872.7748477505,62579.7423685571,57967.8324094542,66316.4663982762,20760.1349530053
8708803868,10583,-2,0,54278.8300866747,56794.1363739132,37323.3757501446,54091.9829342616,55662.5892401669,61899.7019608197,62574.8631221311,57913.6861585921,66334.5232603615,20731.5652008650
8708803868,10583,-2,0,54302.0338845160,56828.0477449588,37356.3380408380,54144.1823536320,55692.4974389577,61918.2942015652,62621.1490408456,57968.2217757526,66360.7568147118,20733.8162247773
8708803868,10583,-2,0,54313.4228487423,56907.5271406062,37405.6780514550,54216.3246280952,55763.4959499196,61909.0345842829,62656.5813739940,58049.6723382853,66361.7545658512,20754.2457877430
8708803868,10583,-2,0,54301.5350089463,56931.0594662618,37407.5153736753,54218.9041798217,55783.5239788902,61873.8456050710,62638.3663318500,58058.2018937582,66336.2145702199,20765.5617457883
8708803868,10583,-2,0,54275.3379576865,56865.1957233592,37356.2528669602,54146.1170174268,55725.1068664432,61852.6373095086,62583.3926776040,57977.5300638221,66308.5573953413,20753.4548874495
8708803868,10583,-2,0,54266.6502221549,56782.8569189584,37309.0908740745,54079.5840511990,55652.9280888895,61867.0803656374,62554.7985900701,57898.3670282921,66309.3604633316,20730.2754250018
8708803868,10583,-2,0,54282.3952218438,56795.3409758987,37327.5371024581,54111.8406154766,55663.3193019763,61896.9885644282,62590.6567926073,57929.6015060365,66338.8062896432,20730.5917851192
8708803868,10583,-2,0,54299.8315313911,56887.3896023643,37386.5504320493,54200.4092806508,55745.2809077756,61899.1544144627,62645.8981361835,58032.9539228506,66352.1299176643,20758.0177737581
8708830714,10584,-2,0,54292.8959442020,56927.2266417626,37398.9006443246,54219.0380244867,55780.4698869876,61868.6013277403,62637.3564130137,58059.6376819833,66331.4326653685,20776.6708529877
8708830714,10584,-2,0,54274.8634175104,56868.9920447680,37351.6778129548,54146.8835823267,55728.0636167712,61855.5088859588,62584.9501427973,57978.8198396853,66309.3847987253,20765.1480440964
8708830714,10584,-2,0,54263.9003226729,56788.0525255018,37309.5532465538,54079.4380388371,55656.5783979364,61872.5923322982,62552.4380568864,57903.9763365274,66312.8769277135,20735.0329944596
8708830714,10584,-2,0,54276.9562613639,56794.9272742067,37331.4916039255,54106.7180151142,55663.1124511303,61906.3698586787,62583.6725346309,57934.5050878562,66341.2641644014,20719.3975040421
8708830714,10584,-2,0,54294.9157818746,56877.1322339425,37390.7361197564,54185.2483304094,55736.6053399409,61912.5023778774,62629.9584533454,58028.5005458134,66357.1065056649,20741.4453706853
8708830714,10584,-2,0,54293.9667015224,56929.0396285892,37415.7285690308,54217.6387393521,55782.3923830856,61883.3850793801,62632.5623404655,58070.3452551875,66344.8049641769,20770.0881290065
8708830714,10584,-2,0,54274.0238464296,56884.4936905204,37377.8505288209,54161.2414645778,55744.3804982107,61858.0032638075,62587.0916574382,58010.8208823297,66319.7273410248,20770.1611351874
8708830714,10584,-2,0,54261.6127956702,56796.1562115859,37324.5073459492,54082.9788386126,55665.7650090377,61872.1421275157,62551.9270136199,57920.6582488717,66319.0094469122,20743.3313636928
8708883895,10585,-2,0,54275.2284484151,56784.2927071835,37333.0125660284,54094.0392750247,55659.2796266311,61907.7083053292,62583.0276466993,57930.3437355427,66347.7738822017,20738.2939372081
8708883895,10585,-2,0,54294.5264155763,56870.3913299026,37394.3499257129,54181.3303320324,55734.3421483318,61914.0598430708,62642.9292181586,58032.7349043078,66367.9722589278,20769.5892534367
8708883895,10585,-2,0,54292.0198700307,56929.7210196113,37418.8191640238,54219.8532601739,55784.9719348121,61884.0664704022,62648.5993648781,58076.9766499560,66348.6864594634,20791.9048094100
8708883895,10585,-2,0,54273.7926601900,56888.9348998608,37375.8793619356,54165.7313447054,55747.7387825339,61859.4755551231,62602.5689677969,58014.1669989560,66319.7030056311,20771.6334265030
8708883895,10585,-2,0,54260.2013428388,56805.4401642618,37320.7475276309,54093.3700516994,55673.2724779775,61864.1844537935,62563.0239531224,57925.8295200214,66310.1635313220,20727.9027241213
8708883895,10585,-2,0,54269.4974632115,56787.2981282988,37322.4023343988,54096.7648391130,55657.1259442934,61897.7672970249,62584.0010624451,57924.6979242169,66332.8927889872,20711.6345134691
8708883895,10585,-2,0,54285.7778415606,56852.4318093920,37374.7112630406,54165.0377859865,55713.6813991265,61909.3996151876,62627.6952617363,58002.0479729203,66349.6355398156,20732.8428090314
8708883895,10585,-2,0,54284.7922581179,56918.0643660549,37414.8403271627,54212.0902696008,55770.5045432896,61892.1093180022,62639.7534492879,58063.1663140620,66339.8283761763,20766.4621553532
8708889266,10586,-2,0,54263.0850869858,56891.5631223745,37389.1543191695,54169.6980138697,55746.8748760594,61864.9145156029,62592.6522948863,58019.0097422915,66311.1126116742,20772.4729975838
8708889266,10586,-2,0,54248.3865092237,56802.4347431465,37332.6840382142,54081.3483672383,55667.0791202946,61875.7072626849,62544.0301783818,57921.5099876493,66304.1283536978,20746.9573373461
8708889266,10586,-2,0,54262.4036959637,56770.4945389863,37328.6321951721,54074.6317985921,55641.6121308442,61913.1594335059,62563.6080025699,57908.2715335059,66333.8297016426,20732.2222564935
8708889266,10586,-2,0,54289.4038152138,56841.5538884323,37385.5405132130,54161.9471909935,55708.9968358496,61928.7219177424,62628.7173482695,58002.6320223678,66362.5211307511,20749.5977275566
8708889266,10586,-2,0,54298.9676249166,56914.0733614970,37424.5258138338,54222.5909919590,55775.5784728648,61906.5523741310,62652.1158292600,58072.2799189824,66354.3444384861,20772.2174759505
8708889266,10586,-2,0,54282.2127063915,56896.8073997052,37397.1363282853,54184.6399455683,55758.7505481586,61871.2295502540,62614.3959691089,58032.1630225571,66327.8918655930,20765.7564289375
8708889266,10586,-2,0,54261.0044108291,56812.6799438714,37337.7579677894,54101.0235330010,55682.5929337439,61860.8261694704,62564.3745674697,57940.8687932946,66310.0783574442,20734.3881065280
8708889266,10586,-2,0,54261.5519571861,56763.6197902813,37315.2720640606,54069.9715707089,55639.5679577779,61887.6924440555,62558.8260977185,57905.3634539652,66320.6642536802,20711.6101780754
8708937060,10587,-2,0,54283.6241592229,56816.7317869134,37362.3975538558,54131.9051475376,55688.2995835538,61927.4443095760,62606.7668232009,57975.0600213671,66348.1754161968,20728.2190842387
8708937060,10587,-2,0,54300.9631271956,56908.4640532616,37421.0823556329,54212.9420083784,55771.0034188593,61926.6290738889,62650.0473208001,58067.4615110405,66359.1141756407,20765.0263671281
8708937060,10587,-2,0,54288.0897039569,56914.9859387587,37412.5406324632,54199.8373989001,55777.9390060484,61891.8537963689,62628.0967957315,58057.1068010442,66336.2754087040,20777.0602192860
8708937060,10587,-2,0,54270.4830466541,56833.6813885878,37349.6336398885,54116.0141354869,55701.5137023035,61880.4283290522,62577.1263137402,57959.5827110083,66318.9972792154,20752.2746208577
8708937060,10587,-2,0,54272.4298781458,56777.7829893832,37322.5118436702,54082.9423355221,55651.4801329676,61911.0300865619,62575.4228361850,57919.2224606466,66337.3461660244,20726.1262403852
8708937060,10587,-2,0,54291.3263113118,56824.1784173691,37366.6805831375,54149.2562832072,55694.4199350557,61930.2428798453,62625.8579395161,57991.1700519606,66362.6184723257,20734.6071250708
8708937060,10587,-2,0,54300.8657856210,56901.4189568011,37415.6677305467,54217.3588823252,55764.9804089320,61918.1116861128,62657.1167526542,58069.5056841067,66360.0267529024,20760.8406794210
8708937060,10587,-2,0,54288.7345918885,56908.7560779854,37407.0895042865,54203.9500804263,55771.4657913386,61888.6536921045,62632.3433219227,58058.5425892693,66333.3308260729,20771.5239172316
8708956942,10588,-2,0,54270.2031896272,56841.5538884323,37357.7251582758,54130.6153716744,55712.3551201728,61880.1363043284,62583.8915531737,57979.4890630106,66316.8435968778,20754.6229863445
8708956942,10588,-2,0,54271.4199593095,56783.0394344107,37327.1477361597,54086.7386569309,55659.6446575358,61901.1742521353,62569.9960434019,57926.3892340753,66328.2568964977,20725.9193895392
8708956942,10588,-2,0,54288.1870455315,56813.0328070793,37356.8369164077,54127.3179258354,55684.6614422037,61927.4078064855,62607.5333881007,57973.3565438118,66353.0789980165,20722.7071175779
8708956942,10588,-2,0,54301.9973814256,56901.6258076471,37415.7164013339,54208.7319852777,55764.3111856067,61924.9864348178,62650.9964011523,58068.6417776323,66362.6914785066,20754.9880172492
8708956942,10588,-2,0,54284.9261027830,56919.3663096150,37415.6068920625,54205.7752349497,55780.9809302542,61885.9767988034,62627.9629510664,58070.2235782193,66335.1681482931,20769.1390486543
8708956942,10588,-2,0,54262.8417330493,56846.9685135185,37360.1100268531,54124.3976785979,55715.5795598308,61872.4341522395,62571.3344900525,57976.5688157731,66311.4898102757,20752.2502854640
8708956942,10588,-2,0,54259.0940824279,56778.2818649530,37323.2905762669,54074.8264817412,55654.8992557748,61900.9065628052,62558.2542159678,57915.1341145141,66324.8499413872,20730.5309466351
8708956942,10588,-2,0,54282.9062651104,56810.0760567513,37355.8026621778,54127.4274351068,55683.0553062231,61929.3059671899,62606.6208108390,57969.4993839190,66355.5003696842,20736.0064102054
8709001650,10589,-2,0,54299.8193636943,56890.8330605652,37406.5419579294,54203.0618385582,55756.6942073956,61918.0143445382,62647.8693030688,58056.5105838998,66360.5377961689,20757.3972212201
8709001650,10589,-2,0,54293.2731428035,56915.9106837173,37409.2796897146,54212.0659342072,55778.9975956720,61886.1593142558,62639.0720582658,58074.2632535645,66335.7887008311,20765.0020317345
8709001650,10589,-2,0,54273.9873433391,56858.1992976860,37364.4417269221,54149.7794941706,55727.3700580523,61868.4674830752,62593.7352199035,58000.2836568810,66313.2297909213,20750.9361742072
8709001650,10589,-2,0,54265.2144339298,56780.2043610510,37319.2022301344,54085.2298625248,55654.7532434130,61885.8794572288,62563.2551393620,57921.2544660160,66315.1644547162,20726.0654019011
8709001650,10589,-2,0,54280.8620920441,56790.1818724458,37339.1207498335,54106.9005305665,55657.8681737996,61924.7674162750,62595.6090452142,57945.0909840922,66348.2484223778,20723.3520055096
8709001650,10589,-2,0,54301.1334749511,56882.8997222366,37404.2787663204,54192.2690914763,55739.5499225720,61932.6277484226,62645.7764592152,58047.8958545492,66368.7388238276,20747.5657221872
8709001650,10589,-2,0,54297.6900167502,56930.4875845111,37424.0147705672,54214.6333182368,55783.7308297361,61905.7006353534,62639.5100953514,58083.4498646658,66352.9086502610,20767.3017264340
8709001650,10589,-2,0,54280.3997195648,56878.1908235661,37380.1258881268,54147.2242778377,55740.1339720195,61889.1890707647,62590.1457493407,58010.7965469360,66330.2037279894,20759.2953819245
8709037053,10590,-2,0,54271.6633132460,56799.3319804566,37334.1441618329,54085.6070611264,55669.3909826910,61894.2021618557,62566.4552436265,57935.1621434846,66331.0189636765,20733.9500694423
8709037053,10590,-2,0,54282.3830541470,56797.4824905396,37343.5011206898,54107.8617786155,55668.6365854879,61918.2942015652,62598.7604786914,57958.6579660497,66352.6166255372,20730.0077356717
8709037053,10590,-2,0,54297.0207934250,56871.4012487389,37396.4914403537,54182.8269587417,55734.7558500238,61923.0152679325,62643.1239013078,58041.5199814140,66365.2831979299,20749.1840258647
8709037053,10590,-2,0,54295.4024897475,56922.0066998255,37418.3324561509,54215.6189016795,55777.6591490215,61899.0814082817,62642.9170504618,58079.4953631984,66347.0681557859,20764.4788207711
8709037053,10590,-2,0,54275.1554422341,56883.6906225301,37383.9830480197,54166.3397295466,55743.1758962253,61879.4914163968,62596.4364485982,58022.9885791526,66320.9319430103,20756.8010040758
8709037053,10590,-2,0,54264.3870305458,56800.3175638993,37333.8764725028,54089.8535873176,55669.0016163926,61888.7388659822,62555.9545212683,57933.5438398072,66320.2748873818,20727.5011901262
8709037053,10590,-2,0,54274.1698587915,56785.0957751738,37337.9161478481,54090.2064505254,55655.7631622493,61922.3825476977,62574.8996252216,57933.2396473866,66346.7396279717,20720.1762366388
8709037053,10590,-2,0,54293.8936953415,56869.1137217362,37400.4946126084,54174.6137633862,55731.6895904244,61942.4714151524,62627.0747091984,58035.0711020978,66370.9655123462,20746.1421016589
8709045428,10591,-2,0,54293.0662919575,56935.0748062134,37430.8408484849,54214.4264673908,55788.0990328956,61909.2901059162,62632.3676573163,58086.2119318446,66355.7802267112,20768.7375146591
8709045428,10591,-2,0,54273.1721076520,56901.6744784344,37392.7194543386,54156.9706029929,55754.5283573611,61881.8762849741,62582.8694666406,58027.0647575883,66327.4051577201,20759.7455867070
8709045428,10591,-2,0,54260.4811998657,56821.3190086157,37341.0067428411,54083.9644220553,55680.9259592791,61887.8871272046,62547.4006304017,57938.2770738713,66322.0148680275,20733.1348337552
8709045428,10591,-2,0,54270.4465435637,56799.4171543344,37340.4105256968,54088.0162650973,55659.8150052913,61915.0575942103,62568.5480874800,57932.2662316408,66342.2862509345,20721.0766462037
8709045428,10591,-2,0,54287.5421575999,56859.6350859111,37388.0835618490,54160.6330797366,55715.0563488675,61924.6700747004,62622.3901459215,58007.2070763733,66358.3476107408,20738.5737942351
8709045428,10591,-2,0,54289.2821382456,56922.2257183684,37420.9850140583,54216.6531559094,55772.5973871431,61898.3878495628,62642.8318765841,58070.5399383367,66344.3790947881,20762.1547906779
8709045428,10591,-2,0,54273.6223124345,56904.5947256719,37396.4671049600,54187.2681680820,55757.3877661145,61871.0470348017,62610.1251075240,58039.4514729541,66313.7530018847,20764.6370008298
8709045428,10591,-2,0,54261.3694417338,56820.4307667476,37336.7358812562,54103.5300785466,55682.6294368343,61876.0966289832,62562.5372452495,57945.4073442095,66303.0697640742,20736.1645902641
8709077777,10592,-2,0,54266.4920420962,56780.9830936476,37322.0373034941,54079.1338464166,55646.1263463655,61907.6231314514,62569.2173108053,57918.0178586611,66324.7647675095,20719.3731686484
8709077777,10592,-2,0,54287.7611761427,56845.4962222029,37374.1758843804,54153.8435049094,55703.9229062745,61931.6908357672,62625.0670392226,58005.0168909451,66355.0745002954,20738.9388251397
8709077777,10592,-2,0,54295.9622038014,56924.1968852537,37420.1941137648,54215.7892494350,55773.4004551335,61915.3861220245,62649.7187929859,58077.2078361957,66352.4341100849,20761.9722752256
8709077777,10592,-2,0,54285.2911336877,56915.2779634825,37404.1327539585,54186.0027276125,55766.8664019395,61895.4554346285,62616.8295084734,58047.6890037032,66331.3718268844,20767.4234034022
8709077777,10592,-2,0,54268.1590165610,56841.2375283149,37354.2330292876,54110.0884671341,55698.3257657359,61887.2909100603,62569.5093355290,57962.6124675172,66321.6620048196,20747.3223682507
8709077777,10592,-2,0,54265.5429617440,56791.4838160058,37331.0413991431,54077.3573626804,55653.2079459164,61906.5523741310,62561.7585126528,57923.4081483537,66335.4115022296,20725.6882032996
8709077777,10592,-2,0,54279.5358130904,56830.8706506217,37367.1551233136,54129.4594404762,55689.8813841408,61927.0792786713,62601.3156950242,57983.5895768399,66356.2182637968,20726.3087558375
8709077777,10592,-2,0,54292.1658823926,56911.9440145530,37416.4951339306,54201.9302427537,55762.5468695674,61917.3937920003,62635.1662275856,58068.5079329673,66357.1186733617,20756.6428240171
8709119024,10593,-2,0,54278.9882667334,56917.2126272773,37407.7708953086,54191.1983341558,55770.6018848642,61891.9754733371,62609.3950457146,58062.9229601255,66331.8585347573,20772.2661467378
8709119024,10593,-2,0,54266.2730235534,56841.7485715814,37353.4542966909,54112.7531927383,55704.2757694823,61893.6181124082,62560.8946061784,57975.4007168781,66321.8201848783,20759.7334190102
8709119024,10593,-2,0,54269.3514508496,56785.8501723768,37327.0017237979,54074.2911030810,55652.0763501119,61914.8629110611,62557.9865266377,57927.7398484226,66337.5895199609,20737.6612169733
8709119024,10593,-2,0,54288.4425671648,56827.4028570272,37366.2060429614,54133.9371529071,55688.3604220379,61929.4641472486,62603.3355326968,57991.3282320193,66361.0853425260,20739.6688869491
8709119024,10593,-2,0,54292.8959442020,56899.7276469427,37409.9245776462,54199.8252312033,55755.3679284419,61911.9061607331,62629.4595777757,58066.5854368692,66350.2195892631,20755.6572405745
8709119024,10593,-2,0,54279.9981855697,56907.6366498776,37402.7456365207,54188.6066147326,55764.2260117290,61884.5410105783,62602.7149801588,58052.5560824324,66322.2338865703,20757.6649105502
8709119024,10593,-2,0,54270.4100404732,56852.6143248443,37359.9761821880,54128.4008508526,55714.6426471755,61890.2719957819,62565.7008464234,57982.9446889083,66313.7773372784,20747.5657221872
8709119024,10593,-2,0,54276.2627026450,56798.3342293172,37333.1950814807,54088.9531777527,55668.1863807055,61915.8119914133,62560.3227244277,57938.1797322967,66332.5885965666,20732.7941382442
8709139035,10594,-2,0,54297.4344951170,56829.9824087536,37364.3322176507,54135.6041273718,55697.8147224693,61941.6075086779,62607.2778664674,57986.7410103171,66363.5188818906,20740.7761473600
8709139035,10594,-2,0,54309.4926826685,56913.9760199224,37418.4784685127,54216.7139943936,55771.5266298227,61927.7728373902,62656.7273863559,58079.3980216238,66369.3593763656,20767.6180865514
8709139035,10594,-2,0,54292.6769256592,56935.1843154848,37421.8367528359,54221.1430360371,55792.5889130232,61894.0196464034,62639.6804431069,58091.4318737817,66342.2862509345,20777.6686041272
8709139035,10594,-2,0,54267.9278303213,56859.8906075444,37367.0699494358,54139.0110824822,55727.8324305315,61876.8753615799,62582.2367464058,57997.7406082450,66314.7264176306,20754.2092846525
8709139035,10594,-2,0,54261.0895847068,56780.8979197699,37322.9012099685,54079.0121694483,55656.8825903570,61895.7839624427,62558.8747685058,57925.3063090580,66321.4551539737,20723.5101855683
8709139035,10594,-2,0,54275.0215975691,56800.3175638993,37347.5529637318,54118.3746686705,55673.4549934298,61922.7232432087,62597.9695783979,57967.8689125447,66348.7229625539,20719.7138641595
8709139035,10594,-2,0,54290.9247773167,56885.5887832345,37403.8285615379,54195.3718541661,55752.0826502997,61929.5371534296,62641.3839206621,58061.0491348148,66361.3165287656,20744.1831024704
8709139035,10594,-2,0,54284.9991089639,56924.9147793662,37417.8335805811,54205.2885270768,55785.9088474674,61895.8691363205,62632.0878002894,58085.7617270622,66343.2231635899,20758.9060156262
8709168068,10595,-2,0,54265.6889741059,56875.2097378445,37375.4656602437,54141.1039263358,55738.9902085182,61870.6941715938,62580.7279519998,58021.2364308101,66317.2329631761,20753.1385273321
8709168068,10595,-2,0,54258.2545113471,56798.7235956155,37326.7340344678,54073.2933519415,55667.9673621627,61885.1980662068,62550.2843745488,57944.7867916716,66318.4984036457,20738.3061049049
8709168068,10595,-2,0,54271.7241517301,56799.0156203392,37341.5786245918,54093.1875362470,55667.3833127152,61924.6092362163,62581.5918584742,57962.8679891505,66346.9221434241,20740.1799302157
8709168068,10595,-2,0,54292.6647579624,56882.6807036938,37404.1570893521,54182.5471017147,55744.1736473648,61938.3587336262,62636.6506865980,58062.4970907367,66366.5851414900,20768.6523407814
8709168068,10595,-2,0,54290.8274357421,56932.1423912791,37427.3000487094,54215.4728893176,55791.4086464314,61909.7889814859,62638.5610149992,58101.0321865750,66351.2173404026,20786.3806750524
8709168068,10595,-2,0,54271.5051331873,56882.4373497573,37383.2529862103,54150.2540343466,55746.1934850374,61885.2589046909,62584.7919627386,58027.3202792216,66327.7458532311,20773.0570470313
8709168068,10595,-2,0,54264.4600367268,56805.5375058363,37333.8034663219,54083.0031740062,55675.4748311024,61898.5825327120,62553.5331496005,57946.3442568649,66329.6075108450,20748.5756410235
8709168068,10595,-2,0,54283.7458361911,56811.3293295241,37349.6458075854,54110.3561564642,55678.6140968827,61938.2613920516,62587.8460546412,57969.8887502173,66360.0997590833,20749.6585660408
8709235333,10596,-2,0,54307.3633357245,56892.6095443013,37404.9479896456,54188.4240992802,55747.4710932038,61941.4006578319,62640.5930203686,58054.6975970732,66375.2728770215,20772.3513206155
8709235333,10596,-2,0,54305.8910444089,56944.2249142242,37427.2148748316,54220.8875144038,55791.6641680647,61906.9417404294,62647.2852536213,58092.8068235227,66357.1186733617,20786.7578736539
8709235333,10596,-2,0,54281.4948122789,56904.9840919702,37388.0105556681,54169.5763369015,55755.3679284419,61874.1497974915,62601.8145705939,58036.6772380784,66323.1464638320,20774.2738167136
8709235333,10596,-2,0,54262.4401990542,56813.1179809570,37328.3158350547,54086.6656507500,55677.1418055672,61875.7681011690,62557.1469555569,57940.9052963851,66309.6768234490,20740.6057996045
8709235333,10596,-2,0,54268.8769106735,56787.5293145384,37322.3901667020,54083.8549127838,55656.5418948459,61909.1440935543,62573.4273339060,57936.5492609224,66332.4425842048,20719.7016964627
8709235333,10596,-2,0,54285.5831584114,56859.9757814222,37374.2853936518,54166.7655989354,55722.5759855040,61919.0972695555,62631.3334030864,58030.0580110068,66353.8577306131,20736.8581489830
8709235333,10596,-2,0,54284.7314196338,56924.3794007060,37406.4689517485,54213.4530516450,55777.9755091389,61891.4400946769,62644.6448634107,58088.9009928425,66340.8139596190,20765.5982488788
8709235333,10596,-2,0,54268.9012460672,56893.3761092012,37373.8473565662,54164.5997489009,55748.1403165290,61863.3205473191,62602.3986200414,58032.4063764936,66310.7840838599,20769.0660424733
8709266764,10597,-2,0,54253.8133020067,56806.9246232742,37317.9489573616,54087.9919297037,55668.0525360404,61860.2421200229,62557.0982847696,57936.8412856462,66299.0787595163,20746.5679710477
8709266764,10597,-2,0,54263.2554347413,56776.3593688549,37312.5951707595,54082.9666709158,55639.8843178953,61891.2697469214,62567.3191501009,57925.3671475422,66320.9927814944,20736.8459812862
8709266764,10597,-2,0,54285.5344876241,56835.3605307494,37363.6021558413,54151.9940149923,55693.5195254908,61914.1085138581,62616.9755208353,58001.2084018396,66344.0627346707,20748.5269702362
8709266764,10597,-2,0,54293.2244720162,56903.6943161070,37406.1282562375,54209.2186931506,55754.4066803929,61892.5838581783,62639.9359647402,58067.0356416517,66334.7909496916,20768.2994775735
8709266764,10597,-2,0,54280.4118872617,56894.0818356169,37389.6775301328,54183.6056913383,55747.5440993847,61867.1168687279,62611.9745974411,58040.6560749395,66309.5064756935,20768.2629744830
8709266764,10597,-2,0,54261.7101372448,56811.1833171622,37331.3334238668,54097.1298700177,55671.9827021142,61865.6689128059,62560.3592275182,57943.2536618719,66294.2116807871,20736.4931180783
8709266764,10597,-2,0,54261.2355970687,56763.2790947703,37310.1251283044,54065.6398706399,55631.5251101780,61893.3747584718,62558.2542159678,57906.2638635301,66313.7773372784,20711.2329794739
8709266764,10597,-2,0,54273.9265048550,56821.2216670411,37359.3069588628,54132.6473770438,55685.0629761989,61912.2346885473,62607.9349220959,57987.3007243709,66341.6656983966,20728.3650966006
8709291814,10598,-2,0,54277.1752799068,56899.8858270014,37405.9579084819,54196.4669468802,55756.7307104860,61900.0791594212,62631.4429123578,58066.0135551186,66337.2123213594,20763.6635850840
8709291814,10598,-2,0,54267.4046193579,56896.8560704925,37390.5049335168,54174.0175462419,55757.6919585350,61878.3598205923,62601.0966764814,58043.3208005438,66312.3658844469,20770.6721784540
8709291814,10598,-2,0,54257.8651450487,56823.1076600487,37338.5853711733,54102.5566628007,55692.4000973831,61878.1773051399,62561.4178171418,57963.0261692092,66303.3009503138,20755.1218619143
8709291814,10598,-2,0,54265.0319184775,56776.6148904882,37316.3063182905,54075.8120651839,55652.0520147183,61906.2603494073,62563.9608657778,57929.3216490096,66324.8134382968,20742.4917926120
8709291814,10598,-2,0,54285.6683322892,56817.7660411434,37351.6656452580,54129.4351050826,55689.4068439647,61925.4609749939,62608.0687667609,57987.8969415153,66352.7869732927,20752.0921054053
8709291814,10598,-2,0,54294.2587262462,56898.1701817494,37402.6239595525,54201.7355596045,55758.3976849508,61913.7434829534,62643.2334105792,58073.8617195693,66355.7923944080,20771.7307680776
8709291814,10598,-2,0,54290.2068832041,56916.9692733408,37405.9335730883,54205.2641916832,55774.9335849332,61890.8438775326,62628.3158142743,58077.1226623179,66335.6305207724,20784.5311851353
8709291814,10598,-2,0,54276.2870380387,56842.3812918162,37351.3736205342,54127.2692550481,55705.5412099519,61869.9762774813,62576.7856182291,57978.5156472648,66313.1202816499,20765.6590873629
8709297580,10599,-2,0,54275.3014545960,56776.6148904882,37315.0773809114,54079.1703495070,55645.0677567419,61888.2886611998,62564.2893935920,57915.6208223870,66319.2406331519,20741.2263521425
8709297580,10599,-2,0,54289.6350014534,56812.1567329080,37346.5795479860,54129.2404219334,55674.6960985058,61908.4627025322,62611.9015912601,57974.9383443988,66342.1524062695,20741.9807493455
8709297580,10599,-2,0,54294.2465585493,56890.7843897779,37391.7703739864,54195.3718541661,55742.8352007142,61892.7785413275,62642.1626532588,58055.0747956747,66336.3362471881,20758.1516184232
8709297580,10599,-2,0,54279.2316206698,56902.9520866008,37383.7883648705,54184.3722562382,55750.9753898888,61860.2177846293,62617.2067070750,58048.1027053952,66307.5231411114,20763.3593926634
8709297580,10599,-2,0,54257.2080894203,56835.1293445097,37331.3577592605,54112.5706772860,55691.4388493341,61842.3069349059,62564.8977784331,57967.2605277036,66284.5870326001,20748.5999764172
8709297580,10599,-2,0,54254.5920346034,56767.9149872598,37294.5869794616,54062.7317910992,55629.9554772878,61859.4268843358,62546.2446992036,57906.2760312270,66289.8556453245,20726.9536437691
8709297580,10599,-2,0,54271.6268101555,56782.8569189584,37316.0507966572,54096.6918329321,55641.9649940520,61884.0543027054,62581.9325539852,57935.3811620274,66309.4578049062,20719.7260318563
8709297580,10599,-2,0,54293.4556582559,56873.0560555068,37376.1835543562,54185.3456719840,55722.6976624723,61888.7023628918,62634.4239980794,58030.6055573638,66322.1852157830,20740.9586628124
8709361183,10600,2,0,54285.0112766607,56906.9795942492,37383.1069738485,54199.8739019906,55751.5837747299,61850.8973288629,62623.7042571784,58049.2708042902,66297.7646482594,20758.1151153327
8709361183,10600,2,0,54260.4446967752,56836.6259712190,37324.1179796508,54120.6986987637,55687.8737141650,61834.3127580932,62562.1478789511,57960.7386422065,66269.4382500556,20741.2141844456
8709361183,10600,2,0,54253.1805817719,56756.7085384859,37279.0123275282,54055.4190053086,55614.8066947432,61856.8229972157,62535.7683122390,57887.0632379435,66279.2454136949,20718.8134545946
8709361183,10600,2,0,54269.5217986051,56773.5121277984,37307.7280920303,54092.6034867995,55632.3890166524,61892.7663736306,62574.5467620137,57929.2851459192,66311.8183380899,20723.5831917492
8709361183,10600,2,0,54283.5998238293,56857.5544097544,37367.2037941009,54171.4258268186,55709.2401897861,61895.0417329365,62619.2995509285,58024.7407274951,66329.5466723609,20748.3079516934
8709361183,10600,2,0,54279.9130116919,56897.6591384828,37386.8667921667,54190.9306448257,55748.8703783384,61868.8325139799,62614.5906522580,58052.3005607991,66315.7120010732,20764.0407836855
8709361183,10600,2,0,54263.7543103111,56849.8765930591,37349.8526584314,54133.2922649755,55708.3641156148,61845.4096975957,62571.5778439889,57987.7752645470,66292.2648492954,20755.0366880365
8709361183,10600,2,0,54252.5965323244,56767.3309378123,37299.8799275795,54064.4596040481,55634.3601835377,61853.7567376163,62540.0756769143,57907.5536393934,66289.0525773342,20733.1470014520
8709374351,10601,2,0,54268.5848859498,56761.3444309754,37309.6384204315,54080.3384484020,55628.4710182754,61884.1759796736,62567.1366346485,57919.4049760989,66313.5583187356,20724.7999614315
8709374351,10601,2,0,54286.2767171303,56842.1987763639,37364.5025654062,54163.7966809106,55700.3334357117,61886.2323204367,62620.1512897061,58017.4522770982,66329.9847094465,20744.7671519179
8709374351,10601,2,0,54277.2117829972,56893.4977861694,37384.8226191005,54194.8973139900,55747.0452238150,61855.2411966287,62619.0561969920,58060.9639609370,66307.7786627447,20765.4157334265
8709374351,10601,2,0,54257.1594186330,56850.2294562670,37346.8594050129,54132.6960478311,55707.5123768372,61840.8954820744,62566.5282498074,57995.0880503376,66283.0052320132,20762.5076538858
8709374351,10601,2,0,54247.6442797175,56769.0952538516,37302.9218517853,54061.6610337788,55638.2660142179,61861.1546972846,62533.5781268109,57913.7348293794,66287.4464413535,20743.8545746562
8709374351,10601,2,0,54260.5420383498,56761.5999526087,37314.6150084321,54078.8418216928,55635.4674439486,61891.4400946769,62561.5151587163,57928.0927116305,66315.8823488287,20739.7905639173
8709374351,10601,2,0,54277.4794723273,56833.4258669545,37364.7580870395,54156.1918703962,55699.8223924451,61896.0638194697,62606.9980094405,58011.8308011660,66330.5930942877,20753.4183843590
8709374351,10601,2,0,54275.2162807183,56891.7821409174,37390.9186352088,54194.4471092076,55751.1214022507,61871.2417179508,62615.4180556420,58057.7760243694,66319.2284654551,20769.0052039892
8709393072,10602,2,0,54252.1584952388,56862.2024699408,37358.0050153027,54148.8060784247,55726.1897914604,61846.0545855274,62572.3322411919,58011.5874472295,66292.9705757112,20763.5419081157
8709393072,10602,2,0,54236.3404893690,56779.0119267623,37303.7492551692,54066.8323049286,55652.1128532024,61852.1140985452,62528.5650357198,57920.9746089891,66285.1224112604,20741.5792153503
8709393072,10602,2,0,54248.2161614682,56751.5981058202,37297.9209283910,54056.5019303259,55625.5142679474,61882.8497007199,62546.2325315067,57907.2616146696,66309.9931835664,20729.9834002781
8709393072,10602,2,0,54269.6556432702,56823.5456971343,37353.4421289941,54136.2611830003,55687.5573540476,61893.3504230781,62602.7028124620,57995.1610565186,66334.2069002441,20751.3620435960
8709393072,10602,2,0,54270.8115744684,56890.1029987558,37388.5459343283,54188.3267577056,55748.4201735560,61865.5229004441,62616.5861545370,58055.8291928777,66318.6079129171,20772.2539790410
8709393072,10602,2,0,54255.9791520412,56866.6558469780,37360.1830330340,54150.1323573784,55729.3168895439,61849.2790251854,62579.2556606842,58011.4779379581,66292.2161785081,20764.0164482918
8709393072,10602,2,0,54246.1233176146,56788.1498670764,37311.0863763535,54081.4092057224,55659.9366822595,61861.4710574020,62541.1099311443,57926.1823832293,66285.6334545269,20736.2132610514
8709393072,10602,2,0,54254.4095191510,56757.5724449603,37304.7226709151,54074.2059292033,55633.9829849362,61885.9281280161,62552.6084046419,57912.2625380639,66306.5375576687,20725.1649923362
8709421019,10603,2,0,54265.7619802868,56811.2684910399,37348.4168702062,54135.0322456211,55682.4955921693,61903.0845805365,62593.4188597861,57983.9424400478,66324.8499413872,20733.0739952711
8709421019,10603,2,0,54273.5371385567,56887.7668009658,37392.1719079815,54193.3763518872,55753.1534076201,61886.5973513414,62617.1945393781,58056.1942237824,66322.8301037146,20760.7798409369
8709421019,10603,2,0,54261.1260877973,56883.1795792635,37376.3295667181,54173.1414720706,55747.3007454483,61853.0510112006,62586.9943158636,58034.1585248361,66298.1296791641,20768.7618500528
8709421019,10603,2,0,54241.6577728806,56798.7235956155,37314.2499775274,54089.8900904080,55672.6032546522,61842.9153197470,62537.4839574910,57939.2748250108,66277.9434701348,20744.8036550084
8709421019,10603,2,0,54241.8037852425,56746.5728470324,37290.3282855735,54056.2464086926,55627.3637578645,61873.1763817457,62538.4817086305,57900.8005676566,66295.4406181662,20722.3542543701
8709421019,10603,2,0,54263.2554347413,56801.7533521244,37340.0333270952,54129.2525896302,55677.8718673765,61897.6699554503,62595.9619084221,57979.6959138566,66325.7503509521,20733.5120323567
8709421019,10603,2,0,54274.3888773343,56884.6275351855,37389.1178160790,54201.2975225189,55753.7009539771,61884.3584951260,62629.2283915360,58063.1419786683,66324.0347057001,20758.1881215136
8709421019,10603,2,0,54268.0251718959,56887.6816270880,37379.4323294079,54185.7472059792,55757.6311200509,61867.6765827817,62603.0313402762,58048.9057733855,66304.4690492088,20768.6158376909
8709486660,10604,2,0,54257.1350832394,56819.2991709431,37334.8985590360,54117.7906192230,55696.8778098140,61863.9897706444,62563.3403132398,57970.1199364569,66296.1950153692,20757.2268734646
8709486660,10604,2,0,54256.6483753665,56766.2966835824,37307.6429181526,54083.4655464855,55648.0975132508,61876.3278152228,62557.8405142758,57928.1170470241,66308.9467616397,20738.7563096874
8709486660,10604,2,0,54268.5970536466,56798.9791172488,37334.3510126789,54126.9285595371,55674.3675706915,61889.1647353710,62593.9055676590,57976.0091017192,66323.5845009177,20734.0230756233
8709486660,10604,2,0,54277.6741554765,56876.9862215807,37380.0163788554,54195.4570280439,55739.7932765085,61881.8519495805,62626.5149951445,58054.2230568971,66322.4529051131,20756.0344391760
8709486660,10604,2,0,54269.5826370892,56897.7564800574,37380.3692420633,54194.0699106061,55755.5747792879,61855.0343457827,62606.3896245994,58058.4939184820,66300.1616845335,20773.3734071487
8709486660,10604,2,0,54251.0512348279,56827.4271924208,37327.6101086390,54111.3539076037,55691.8768864198,61845.4827037767,62551.2212872041,57968.6841482318,66283.3580952210,20760.6946670592
8709486660,10604,2,0,54247.5347704461,56760.2371705645,37295.6942398724,54058.3149171525,55634.1168296012,61877.0943801227,62534.8313995836,57909.2327815549,66301.2689449444,20735.3371868802
8709486660,10604,2,0,54266.1513465852,56796.0588700113,37334.2050003171,54112.8018635256,55668.1863807055,61902.6465434509,62581.8108770170,57970.1929426379,66334.3529126060,20740.5327934235
8709495313,10605,2,0,54277.2117829972,56877.3390847885,37388.3147480887,54190.5412785274,55743.7599456728,61887.2544069698,62619.5550725618,58059.9175390103,66335.8252039215,20763.8217651427
8709495313,10605,2,0,54269.4244570305,56896.4180334069,37389.7748717074,54194.8729785964,55764.7735580860,61865.5472358377,62603.5180481491,58064.5899345903,66313.6191572197,20778.6541875698
8709495313,10605,2,0,54255.9183135571,56835.1536799034,37345.0585858831,54129.5446143540,55711.4060398206,61853.0023404133,62561.2109662958,57988.9555311389,66294.9052395060,20766.0849567517
8709495313,10605,2,0,54255.4194379873,56765.0920815969,37305.9029375069,54077.1870149249,55645.7856508545,61867.8956013245,62544.4073769833,57924.7222596105,66299.7601505383,20736.7364720148
8709495313,10605,2,0,54273.5493062535,56776.8095736374,37325.4442586045,54108.2146418234,55655.4346344350,61900.6023703846,62581.6770323520,57954.3262659808,66325.1176307174,20730.8959775398
8709495313,10605,2,0,54290.8031003485,56862.0929606694,37383.9222095356,54191.0766571876,55728.0514490744,61897.4022661202,62629.2405592328,58042.9314342454,66335.0951421122,20756.8740102568
8709495313,10605,2,0,54276.6642366402,56900.1291809379,37397.6717069455,54205.8239057370,55760.0159886282,61865.0848633584,62616.8173407766,58066.2082382677,66310.7840838599,20771.7064326839
8709495313,10605,2,0,54246.9142179081,56837.2708591506,37343.3794437215,54126.6730379038,55702.1707579320,61839.3380168811,62555.7841735127,57978.8320073822,66282.1899963260,20756.0587745696
8709521774,10606,2,0,54236.6325140927,56755.8933027987,37292.1777754906,54057.0494766829,55629.3227570530,61854.2677808828,62529.1734205610,57897.5761279986,66285.1710820476,20730.5917851192
8709521774,10606,2,0,54257.0377416648,56766.4061928538,37310.9646993852,54090.9851831221,55638.1565049465,61875.7315980785,62567.7206840960,57928.2995624765,66311.4533071852,20731.5773685619
8709521774,10606,2,0,54272.7584059600,56844.4376325793,37361.7039951369,54169.2234736936,55709.1306805147,61875.6829272912,62612.6681561600,58015.2134208828,66319.0216146091,20754.3309616208
8709521774,10606,2,0,54270.5682205319,56886.2336711661,37378.7752737795,54192.9383148015,55749.0042230035,61859.3295427612,62614.0066028105,58044.4158932578,66304.7489062357,20769.5040795590
8709521774,10606,2,0,54256.8552262124,56846.2506194059,37345.9711631448,54143.3184471576,55716.0175969165,61850.5566333518,62573.1961476664,57991.8636106795,66287.5802860186,20762.2521322525
8709521774,10606,2,0,54254.9570655081,56773.4999601015,37306.2436330179,54082.3096152873,55653.2444490069,61867.5305704198,62546.0865191449,57921.2422983192,66293.8223144887,20741.2506875361
8709521774,10606,2,0,54271.0792637985,56764.3620197875,37314.7731884908,54091.9707665648,55644.2768564484,61898.0836571423,62568.9009506879,57930.3680709364,66322.9396129861,20729.5696985861
8709521774,10606,2,0,54289.5741629693,56843.9144216159,37374.8451077057,54173.4456644912,55713.7909083979,61905.1895920869,62620.8691838187,58024.2418519254,66342.8459649884,20744.8158227052
8709578094,10607,2,0,54278.1000248653,56898.9002435588,37398.8276381437,54207.8559111065,55758.3246787698,61859.8405860277,62622.4996551929,58069.9680565860,66319.5813286629,20760.4026423354
8709578094,10607,2,0,54245.6001066512,56850.6188225653,37348.9522488665,54139.5099580520,55713.1703558599,61827.5718540533,62563.4011517239,57996.5846770468,66279.8294631424,20744.0614255022
8709578094,10607,2,0,54233.1647204982,56766.6373790934,37293.6257314125,54061.4663506296,55637.6697970735,61844.4241141531,62524.8903912793,57904.5360505813,66275.2300737433,20721.4295094115
8709578094,10607,2,0,54250.8322162851,56757.7792958063,37300.6829955698,54072.8918179464,55630.0771542560,61878.7978576779,62553.6669942655,57917.6284923628,66302.9115840155,20721.3565032306
8709578094,10607,2,0,54274.9972621754,56831.9535756389,37355.4011281826,54149.9133388356,55698.3379334327,61892.8637152052,62604.2116068680,58006.0511451751,66324.2050534556,20744.6333072529
8709578094,10607,2,0,54281.3974707043,56892.2931841839,37389.2638284409,54193.9847367283,55755.1002391118,61876.0966289832,62620.3216374616,58060.8909547561,66318.0360311664,20766.8880247420
8709578094,10607,2,0,54267.1490977247,56868.4688338046,37365.0136086727,54159.6839993844,55735.1452163221,61851.8707446087,62587.5661976143,58022.4410327956,66298.8962440639,20767.8249373974
8709578094,10607,2,0,54251.2580856739,56783.6843223423,37309.2490541332,54081.6403919621,55660.7762533403,61851.7612353373,62542.4118747043,57929.0174565890,66291.5834582733,20741.5305445630
8709586297,10608,2,0,54260.1405043546,56751.2817457028,37298.4076362640,54068.3410993346,55629.2497508721,61886.9623822461,62551.6593242898,57905.2296093002,66314.5317344814,20725.2988370012
8709586297,10608,2,0,54284.1108670958,56820.4794375349,37355.8756683587,54149.3779601754,55691.9012218134,61904.8853996663,62608.7014869957,57993.2750635110,66342.5052694773,20739.7662285237
8709586297,10608,2,0,54285.9846924066,56895.2742699055,37398.4261041485,54208.0140911652,55756.7550458797,61885.6847740797,62629.8732794676,58061.2924887512,66334.1460617600,20763.1403741206
8709586297,10608,2,0,54267.5506317198,56880.1254873610,37375.7333495738,54168.7245981239,55740.1339720195,61861.2398711624,62589.8293892233,58018.2310096949,66306.4402160941,20765.1602117932
8709586297,10608,2,0,54249.7736266615,56798.2612231362,37319.7132734009,54085.3028687058,55664.2440469349,61857.6017298123,62540.6353909682,57924.6492534296,66293.7858113983,20738.4642849636
8709586297,10608,2,0,54253.8741404908,56761.7459649706,37307.5820796685,54067.4285220729,55629.6026140799,61880.0754658443,62545.1982772768,57900.9952508058,66308.2045321335,20720.7724537831
8709586297,10608,2,0,54270.7872390747,56815.0526447519,37349.4754598298,54126.4905224514,55674.1363844519,61890.9168837135,62587.0916574382,57966.6643105592,66324.8134382968,20725.8220479646
8709586297,10608,2,0,54279.9373470856,56889.4459431273,37390.2494118835,54188.0712360723,55739.2700655451,61876.6076722498,62616.2211236323,58038.3928833305,66320.1653781104,20748.3079516934
8709608000,10609,2,0,54269.3271154560,56891.5022838904,37379.5053355889,54173.7498569117,55744.0276350029,61852.3574524816,62591.8978976832,58025.2517707617,66296.7303940294,20757.7865875185
8709608000,10609,2,0,54254.7502146621,56814.4442599107,37326.2108235044,54096.3998082083,55679.0399662715,61847.1983490287,62545.3321219418,57936.2937392892,66284.0151508495,20742.6864757612
8709608000,10609,2,0,54253.5942834639,56757.1222401779,37298.5779840195,54055.2121544626,55628.4588505786,61873.3588971980,62540.4407078190,57887.6594550879,66299.7479828415,20720.3830874848
8709608000,10609,2,0,54271.8823317888,56804.9047856015,37339.6804638874,54118.6666933943,55672.4937453808,61899.4951099737,62594.8059772239,57960.9698284461,66328.7679397642,20729.8617233098
8709608000,10609,2,0,54285.2667982940,56891.8064763110,37391.8920509546,54194.5687861758,55750.3548373508,61883.9204580404,62630.9318690912,58051.5583312929,66329.4858338768,20753.9415953224
8709608000,10609,2,0,54272.4785489331,56894.6415496707,37377.0231254370,54174.2122293910,55753.1777430137,61851.4083721295,62598.6144663295,58034.2680341075,66300.5753862255,20754.8663402810
8709608000,10609,2,0,54255.2125871413,56822.5601136916,37324.3735012841,54097.3488885605,55689.4798501456,61852.5643033276,62549.1284433506,57949.5808642198,66288.5293663708,20742.2727740692
8709608000,10609,2,0,54257.2202571171,56769.6914709960,37301.0845295650,54063.0238158230,55642.1718448980,61878.2624790177,62544.5777247388,57907.1277700046,66307.1581102067,20732.1005795252
8709672939,10610,2,0,54270.9575868302,56798.5897509504,37332.3555104000,54107.4724123172,55668.5879147006,61896.6722043108,62579.4381761365,57953.9003965920,66330.3862434417,20736.7364720148
8709672939,10610,2,0,54280.6917442886,56879.0182269501,37386.3800842938,54177.5096752300,55739.8662826894,61891.1480699532,62613.9457643264,58038.7579142352,66335.5940176819,20760.7920086337
8709672939,10610,2,0,54270.2031896272,56902.5627203025,37393.1209883337,54182.3037477783,55761.9506524231,61863.0163548985,62597.4098643440,58052.9576164275,66317.0869508142,20770.5383337889
8709672939,10610,2,0,54251.8299674246,56833.0973391403,37341.3839414426,54107.8252755251,55702.5966273208,61852.7833218704,62546.4637177464,57972.5048050342,66297.4604558388,20751.4715528674
8709672939,10610,2,0,54252.7668800799,56761.9163127261,37303.0921995408,54054.6159373183,55638.8013928781,61880.1971428125,62532.8602326983,57910.2427003912,66310.7354130726,20724.6539490696
8709672939,10610,2,0,54271.4077916127,56787.1277805432,37331.2360822923,54098.9793599348,55661.7009982989,61903.0967482333,62577.5156800385,57961.8945734046,66335.7887008311,20725.5178555440
8709672939,10610,2,0,54284.5610718783,56870.8415346851,37382.7297752469,54177.1689797190,55737.5422525963,61899.0084021008,62620.0904512220,58055.6466774254,66339.8040407826,20754.0511045938
8709672939,10610,2,0,54278.6840743128,56899.4234545222,37390.3102503676,54183.5448528542,55765.3089367462,61876.6441753402,62605.6352273963,58068.6296099355,66321.4916570641,20772.5581714615
8709702659,10611,2,0,54268.3658674069,56852.2614616364,37354.5737247987,54128.0844907352,55720.3492969854,61874.1376297947,62566.3944051423,58004.3598353167,66311.7818349994,20768.0682913339
8709702659,10611,2,0,54272.6367289918,56792.4450640549,37322.3658313083,54086.7143215372,55667.9186913754,61888.1913196252,62554.8350931606,57946.0887352316,66325.3366492602,20751.9825961339
8709702659,10611,2,0,54281.6286569440,56797.1904658158,37329.2162446196,54107.4845800140,55667.1399587787,61899.8114700911,62579.4625115302,57964.3159450724,66341.3980090665,20739.4498684063
8709702659,10611,2,0,54288.9414427345,56870.5373422645,37370.5620784240,54175.4898375574,55726.9563563603,61889.8339586963,62617.9367688843,58041.7511676536,66342.1524062695,20748.9041688377
8709702659,10611,2,0,54277.8445032320,56907.8313330268,37379.7730249190,54195.7247173740,55758.9452313078,61860.1082753579,62612.4248022235,58068.8729638719,66316.5637398508,20763.1890449079
8709702659,10611,2,0,54260.6150445307,56854.7680071820,37338.2690110559,54128.2913415812,55712.6349771997,61850.1307639630,62561.4178171418,57996.8036955897,66291.8024768161,20761.9601075287
8709702659,10611,2,0,54258.9237346723,56777.2354430262,37298.8091702591,54059.9453885268,55646.2236879401,61875.7072626849,62532.8602326983,57919.5266530672,66300.6483924064,20745.3877044559
8709702659,10611,2,0,54280.6552411981,56786.5802341862,37324.4951782523,54091.2528724522,55656.8460872665,61909.3387767035,62572.4417504633,57952.3794344891,66335.2654898677,20747.2615297666
8709707425,10612,2,0,54296.4732470679,56867.9212874476,37379.9677080681,54171.1094667012,55727.0415302381,61906.3090201946,62620.8448484250,58045.6204952433,66346.1190754338,20765.8659382089
8709707425,10612,2,0,54283.2226252278,56909.7903322153,37395.6153661824,54190.7116262829,55762.5955403547,61872.9573632029,62615.2720432801,58073.1924962441,66324.6795936317,20771.3657371729
8709707425,10612,2,0,54255.2977610191,56864.0519598579,37353.4664643878,54131.1994211219,55719.1811980904,61843.7548908278,62566.0658773281,58010.0178143394,66295.0755872615,20757.2512088583
8709707425,10612,2,0,54243.8722937024,56782.3580433886,37300.9628525968,54061.6732014756,55645.1285952260,61850.7391488042,62530.1955070941,57927.5329975766,66290.8047256767,20732.4777781268
8709707425,10612,2,0,54259.5929579976,56767.4769501742,37304.8321801865,54069.1806704154,55631.7562964176,61888.7266982854,62555.5894903636,57928.3117301733,66315.8215103446,20723.3155024191
8709707425,10612,2,0,54284.3785564259,56843.0505151415,37360.2682069118,54155.9971872471,55701.5502053940,61904.3378533092,62613.7997519645,58019.7276364041,66339.3173329097,20747.1763558889
8709707425,10612,2,0,54286.8729342746,56908.7804133790,37393.1209883337,54207.1623523875,55760.5757026821,61884.0664704022,62629.6542609248,58077.8040533400,66327.7945240184,20776.1841451148
8709707425,10612,2,0,54268.8525752799,56876.9010477029,37358.9054248676,54156.8002552374,55731.4584041848,61856.5309724919,62585.8992231495,58022.1855111623,66298.6163870370,20772.2539790410
8709733042,10613,2,0,54254.9814009017,56791.1917912821,37303.4328950518,54075.6295497315,55649.8009908060,61861.5440635830,62545.3807927291,57928.8592765303,66291.6077936670,20742.1754324946
8709733042,10613,2,0,54263.1702608635,56773.1349291968,37305.9151052037,54077.7223935851,55632.3403458651,61892.3770073323,62567.2583116168,57927.6546745449,66316.0405288874,20732.2830949776
8709733042,10613,2,0,54283.4416437706,56842.6368134495,37360.5237285451,54150.5703944640,55697.8512255598,61903.7903069522,62616.9511854417,58012.6947076404,66336.5187626405,20753.1993658162
8709733042,10613,2,0,54286.1185370716,56907.3567928507,37395.4450184269,54196.3452699120,55756.8645551511,61887.3882516349,62628.8633606313,58069.5178518036,66327.5024992947,20774.2981521072
8709733042,10613,2,0,54271.9188348792,56890.1151664526,37374.1880520772,54165.3784814976,55744.8672060837,61860.5949832308,62595.5725421238,58036.5068903229,66304.4690492088,20771.2927309919
8709733042,10613,2,0,54255.5654503492,56809.6745227561,37319.0440500757,54090.8270030634,55673.4063226425,61857.9424253234,62549.2744557125,57948.7412931390,66293.0679172857,20742.6013018834
8709733042,10613,2,0,54259.3496040611,56767.7568072011,37302.6784978488,54067.3555158919,55634.7008790487,61888.6901951949,62551.9026782262,57919.7943423973,66311.6479903344,20716.7206107410
8709733042,10613,2,0,54284.1960409736,56831.0896691645,37354.9995941875,54143.6956457591,55689.8813841408,61914.1206815549,62609.3342072305,58004.4328414976,66340.8869657999,20731.6503747428
8709766847,10614,2,0,54292.4944102068,56909.1697796773,37400.0687432196,54210.9830091899,55759.6022869362,61886.0011341971,62636.5655127203,58081.4543623869,66335.7035269533,20760.9015179051
8709766847,10614,2,0,54271.2861146444,56891.4779484968,37367.7270050643,54171.7421869360,55741.6184310319,61847.1861813319,62594.7816418303,58039.2202867144,66302.2423606902,20765.0628702186
8709766847,10614,2,0,54247.0602302700,56801.6073397625,37302.4473116092,54082.8571616444,55660.5694024943,61841.5282023092,62539.3821181954,57937.1941488541,66281.8249654213,20746.6896480160
8709766847,10614,2,0,54246.8777148176,56755.1510732925,37283.7942323796,54055.8692100911,55619.4060841423,61866.8856824882,62539.5889690414,57906.7992421904,66297.7524805626,20736.2740995355
8709766847,10614,2,0,54259.5199518167,56800.9016133468,37321.3194093816,54111.8406154766,55661.9321845385,61882.1439743042,62583.4170129976,57968.5746389604,66318.7904283694,20743.9154131403
8709766847,10614,2,0,54263.7056395238,56867.5562565429,37360.5237285451,54170.3915725886,55722.1257807216,61866.0582791043,62608.0931021546,58036.1053563278,66311.7696673026,20761.2665488098
8709766847,10614,2,0,54247.2914165096,56867.8604489635,37350.6922295121,54156.5934043914,55723.5128981594,61832.9013052618,62584.1592425038,58021.5406232307,66285.8768084634,20763.0065294555
8709766847,10614,2,0,54231.2787274906,56791.3134682503,37298.1277792370,54082.7841554634,55658.5130617312,61828.0098911389,62535.6344675739,57933.2274796898,66268.6595174589,20742.5404633993
8709818288,10615,2,0,54233.4567452219,56731.6430830306,37269.7040394586,54040.9151106957,55604.2938046882,61860.6558217149,62528.4798618421,57880.8942156543,66283.1147412846,20719.0568085311
8709818288,10615,2,0,54256.3198475522,56778.3183680434,37314.1283005592,54102.1307934119,55645.1772660133,61889.0308907060,62580.3264180046,57951.1261617163,66314.7142499337,20728.3529289038
8709818288,10615,2,0,54269.5704693924,56868.9920447680,37371.2556371429,54181.3546674261,55727.7107535633,61880.4283290522,62618.4599798477,58044.4158932578,66319.5934963597,20753.9780984129
8709818288,10615,2,0,54259.9336535086,56881.4152632242,37365.9870244186,54171.2189759726,55740.8396984353,61846.3344425543,62594.2705985637,58038.3442125432,66296.0124999169,20758.9303510198
8709818288,10615,2,0,54240.6965248316,56808.4942561643,37309.6870912188,54093.0536915820,55676.6429299974,61838.8026382209,62543.7868244453,57951.4303541369,66278.5153518855,20744.6333072529
8709818288,10615,2,0,54239.4675874525,56748.9212125192,37278.8176443790,54052.3770811029,55625.8062926712,61859.5120582135,62533.3469405712,57902.6135544833,66292.9097372270,20730.4579404542
8709818288,10615,2,0,54258.1815051661,56780.9952613445,37309.7722650966,54099.5269062918,55654.6802372320,61888.4955120458,62577.9415494273,57954.5574522204,66321.4429862768,20737.7828939416
8709818288,10615,2,0,54272.7584059600,56863.2732272612,37361.7283305305,54175.0883035623,55726.0559467954,61883.1173900500,62619.2752155348,58043.6979991453,66327.8188594121,20761.4003934749
8709852207,10616,2,0,54266.4312036121,56892.4391965458,37370.3065567907,54189.2636703610,55753.8591340358,61855.5697244429,62608.4337976656,58064.0667236269,66308.8372523683,20772.7528546107
8709852207,10616,2,0,54247.1210687541,56828.8143098586,37318.4600006282,54117.8271223135,55697.3036792028,61842.4042764805,62556.5020676253,57984.3196386493,66286.6798764537,20745.8014061479
8709852207,10616,2,0,54245.8799636781,56756.0393151606,37276.9438190683,54062.1842447422,55632.0726565350,61867.8590982341,62539.3212797113,57913.3332953843,66298.3365300101,20724.3619243459
8709852207,10616,2,0,54263.2797701350,56774.4733758474,37304.3576400104,54100.7923467614,55648.2191902190,61885.2954077813,62580.6184427284,57954.9954893060,66324.8012706000,20730.2632573050
8709852207,10616,2,0,54267.7939856563,56848.6233202864,37354.9509234002,54172.3505717771,55714.5696409945,61867.4210611484,62615.8560927276,58040.7534165141,66324.4727427857,20750.1574416105
8709852207,10616,2,0,54255.3585995032,56874.2606574923,37361.2294549608,54173.3118198261,55741.7766110906,61849.1573482172,62599.0038326278,58050.5727478502,66299.3586165432,20764.6248331330
8709852207,10616,2,0,54239.9542953254,56824.0445727040,37322.0129681005,54111.0253797895,55696.9629836917,61843.0369967153,62553.8008389306,57983.5409060527,66283.1999151623,20758.2732953914
8709852207,10616,2,0,54236.5595079118,56757.8888050777,37283.8672385605,54059.2518298079,55636.1366672739,61859.4147166389,62535.5371259994,57920.4757334193,66290.5127009529,20738.1235894526
8709856513,10617,2,0,54251.1120733120,56763.7049641591,37297.3003758531,54084.8526639233,55639.8356471080,61884.1759796736,62568.2073919690,57944.5556054319,66315.8945165256,20732.6967966696
8709856513,10617,2,0,54266.9179114850,56843.6954030731,37348.8305718982,54162.1297064458,55709.2766928766,61882.9227069009,62618.3139674858,58033.6474815695,66329.3154861213,20748.5756410235
8709856513,10617,2,0,54258.3153498312,56889.4702785210,37368.2015452404,54190.2005830164,55751.0727314634,61852.1506016357,62615.4667264293,58070.3209197939,66308.6425692191,20760.2201268831
8709856513,10617,2,0,54241.1223942204,56842.3204533321,37326.8678791328,54129.7271298063,55712.0874308427,61840.8833143776,62567.2339762231,58002.8510409107,66284.2585047859,20752.6883225497
8709856513,10617,2,0,54240.7573633157,56764.9460692350,37283.9524124383,54064.4961071385,55646.6373896321,61867.4575642389,62540.8665772078,57924.9534458502,66294.9782456869,20737.4056953401
8709856513,10617,2,0,54257.6704618996,56765.5057832889,37299.3932197066,54087.5903957085,55646.7347312066,61894.4941865795,62573.7071909329,57946.0643998380,66324.5214135730,20737.6612169733
8709856513,10617,2,0,54273.0504306838,56843.7197384667,37351.8724961040,54165.1351275611,55713.5597221582,61889.1038968869,62619.3725571094,58034.5235557408,66332.1140563906,20756.1196130537
8709856513,10617,2,0,54269.3027800623,56893.8749847709,37370.3917306685,54195.0554940487,55754.0538171850,61862.6269886002,62619.8592649824,58069.4813487131,66313.2541263150,20768.1534652116
8709892113,10618,2,0,54252.6938738990,56857.0555341847,37333.5479446886,54145.0705955001,55719.5340612983,61833.7043732521,62577.6008539163,58013.7289618704,66287.9209815296,20755.0123526428
8709892113,10618,2,0,54241.1102265236,56774.9965868108,37282.3097733672,54073.9990783573,55647.7811531334,61840.3357680206,62541.7548190759,57933.9575414992,66285.6091191333,20727.6715378817
8709892113,10618,2,0,54251.1607440993,56750.3083299570,37278.8906505600,54068.2072546695,55625.0883985586,61874.0524559169,62554.3483852876,57925.6105014786,66307.6204826860,20716.3190767459
8709892113,10618,2,0,54273.9508402487,56822.8034676281,37333.8886401997,54146.9687562044,55690.9886445517,61896.0394840760,62608.9326732354,58015.2377562764,66333.1239752269,20740.5692965140
8709892113,10618,2,0,54273.3911261948,56887.9006456308,37370.5499107272,54197.6593811688,55753.5184385248,61864.2209568840,62624.0327849926,58079.3006800492,66321.9418618466,20767.7640989133
8709892113,10618,2,0,54252.0976567547,56855.2060442676,37338.3176818432,54147.1999424441,55728.2339645267,61829.9932257211,62577.0168044688,58028.4032042388,66291.1940919750,20765.4035657296
8709892113,10618,2,0,54234.3571547868,56765.0069077191,37279.6207123693,54061.2229966932,55646.0411724877,61831.3803431589,62529.3194329228,57929.5528352493,66280.1093201693,20738.0870863621
8709892113,10618,2,0,54239.9056245381,56735.3177274711,37276.9803221588,54055.3581668245,55620.4403383723,61859.2808719739,62544.4682154674,57921.4734845588,66302.3640376585,20723.5953594460
8709956728,10619,2,0,54253.3996003147,56796.0223669208,37326.7340344678,54123.2782504902,55674.6352600216,61869.0150294322,62590.8879788469,57998.8722040496,66320.3235581691,20737.9167386066
8709956728,10619,2,0,54255.3585995032,56859.7810982730,37362.7625847605,54171.5353360900,55732.1032921164,61853.5985575576,62604.8929978901,58057.4718319488,66309.5186433903,20759.9402698561
8709956728,10619,2,0,54242.9353810470,56849.5480652449,37347.7719822746,54145.6911480380,55723.5737366435,61829.2023254276,62575.5323454564,58027.4419561898,66284.7573803557,20766.6203354119
8709956728,10619,2,0,54228.9060266101,56773.1957676810,37297.2882081562,54072.2104269243,55654.6924049288,61828.6061082833,62533.3834436617,57938.6299370792,66274.1228133324,20747.0790143143
8709956728,10619,2,0,54231.3517336716,56729.2460467565,37279.6815508534,54046.0985495423,55612.8111924643,61857.1028542426,62531.7894753779,57903.0637592657,66291.0115765227,20726.4547681994
8709956728,10619,2,0,54250.4915207740,56785.9231785578,37328.8755491086,54114.7973658046,55662.2850477464,61878.5545037414,62580.1925733396,57977.8829270300,66318.5714098266,20737.6003784892
8709956728,10619,2,0,54259.6781318754,56867.6779335111,37378.0087088796,54186.8301309964,55738.5521714326,61862.5661501161,62606.9250032596,58063.6773573285,66318.8634345504,20768.4454899354
8709956728,10619,2,0,54247.1210687541,56862.8351901756,37356.6178978649,54161.3388061523,55733.8432727621,61826.3794197647,62572.9406260331,58037.7601630957,66288.8943972755,20773.7992765375
8709963717,10620,2,0,54232.5563356570,56780.7519074080,37297.5802328800,54080.8494916686,55661.6644952084,61830.7111198336,62524.8417204920,57945.7115366301,66274.8285397481,20751.5080559578
8709963717,10620,2,0,54242.3634992963,56742.0221284206,37283.8185677732,54061.4541829328,55627.5097702264,61864.1601183999,62533.9553254124,57918.8330943482,66299.5411319955,20740.5814642108
8709963717,10620,2,0,54256.5997045792,56784.3048748803,37320.9300430832,54116.5008433598,55661.9443522353,61873.3102264107,62575.2524884294,57976.0091017192,66317.5614909903,20745.0226735512
8709963717,10620,2,0,54259.3982748484,56853.8310945266,37363.8698451714,54176.5849302715,55722.0649422375,61864.8293417252,62600.2449377038,58045.9125199671,66313.2054555277,20767.6910927324
8709963717,10620,2,0,54247.7294535952,56863.5652519850,37358.6134001439,54168.7976043048,55730.1321252311,61837.9874025337,62581.2876660536,58042.0066892869,66290.3423531974,20773.9817919898
8709963717,10620,2,0,54229.0398712752,56796.1440438890,37307.7889305144,54096.8256775971,55670.4009015273,61824.3960851825,62532.7750588206,57959.6678848860,66273.9768009705,20757.9325998804
8709963717,10620,2,0,54223.6009107953,56732.0932878131,37272.8189698453,54045.2589784615,55611.8377767184,61844.1320894293,62517.5532700951,57898.2453513238,66283.5284429765,20731.6990455301
8709963717,10620,2,0,54239.0173826700,56771.4192839448,37309.7844327934,54094.3921382325,55646.2723587274,61874.2836421566,62564.7882691617,57955.9080665677,66310.1148605347,20737.7585585479
8709995350,10621,2,0,54246.8168763335,56858.2479684733,37364.6485777681,54168.9679520603,55723.9874383355,61862.6269886002,62600.6343040021,58046.8372649256,66309.8958419919,20768.3481483608
8709995350,10621,2,0,54233.8582792171,56875.3192471159,37361.7039951369,54159.6109932035,55739.3552394229,61836.1500803135,62574.5710974074,58042.1527016488,66286.7893857251,20778.3743305429
8709995350,10621,2,0,54214.7671629019,56808.2995730152,37309.3707311014,54083.4412110919,55678.4072460368,61831.0639830415,62524.5375280714,57957.8914011499,66270.6793551315,20757.7500844280
8709995350,10621,2,0,54215.5093924081,56749.0428894874,37280.9104882326,54043.1052961238,55627.4245963486,61864.0749445221,62515.7767863589,57911.0336006847,66288.8700618818,20736.8094781957
8709995350,10621,2,0,54239.2364012128,56778.1480202879,37315.0043747305,54088.2839544274,55653.9745108163,61901.7339661891,62558.2055451805,57961.5538778936,66322.9761160765,20744.4264564069
8709995350,10621,2,0,54259.9944919928,56863.5774196818,37375.7941880579,54166.3153941529,55728.3434737981,61900.0183209371,62603.9317498411,58050.4632385788,66336.6891103960,20767.9101112752
8709995350,10621,2,0,54251.9516443928,56893.9844940423,37385.7595317559,54179.7850345359,55753.8104632485,61859.5972320913,62595.6942190920,58068.4714298768,66315.8823488287,20778.2891566651
8709995350,10621,2,0,54227.9204431675,56826.1739196480,37329.0215614705,54106.0487917889,55694.7362951731,61830.3825920194,62538.5912179019,57986.4003148060,66283.7717969130,20763.5175727221
8710016714,10622,2,0,54221.5202346386,56742.8251964109,37275.7513847796,54040.6230859719,55620.3916675850,61844.1320894293,62508.0381311795,57904.6090567622,66281.3382575484,20737.9289063034
8710016714,10622,2,0,54239.7231090857,56757.7306250190,37298.5049778385,54077.1626795312,55635.5891209168,61878.6031745287,62547.2911211303,57945.3465057254,66311.3559656106,20740.5084580299
8710016714,10622,2,0,54256.4171891268,56846.0072654694,37359.5868158897,54159.9395210177,55713.7300699138,61884.4315013069,62594.1002508082,58040.6925780300,66324.7039290254,20766.2796399009
8710016714,10622,2,0,54254.7988854494,56890.4315265700,37379.4444971047,54177.3393274745,55753.2994199820,61869.2827187624,62585.2543352179,58067.0964801358,66310.1391959283,20782.5843536436
8710016714,10622,2,0,54242.4243377804,56845.5935637775,37345.7278092084,54118.3990040642,55713.5840575519,61858.9645118565,62544.7115694039,58001.9384636489,66295.3432765916,20774.8700338579
8710016714,10622,2,0,54240.2828231396,56775.8239901947,37308.6528369889,54062.7317910992,55651.6261453295,61868.2241291388,62521.9214732545,57934.1035538610,66300.5997216191,20754.3552970144
8710016714,10622,2,0,54252.2315014197,56774.0231710649,37318.7276899583,54079.2190202943,55649.3507860236,61889.0065553123,62547.8751705778,57945.8818843856,66319.1919623646,20745.4728783337
8710016714,10622,2,0,54271.4686300968,56850.8865118954,37371.6206680476,54156.7394167533,55715.1901935325,61891.7077840070,62594.0515800209,58030.7515697257,66331.6881870018,20763.8704359299
8710081736,10623,2,0,54266.0296696169,56900.1656840284,37392.7316220354,54191.2835080336,55757.3390953272,61855.0586811763,62597.9330753074,58071.5741925666,66310.6867422854,20776.3544928703
8710081736,10623,2,0,54241.8524560298,56850.8013380177,37347.1514297367,54131.8808121440,55714.6426471755,61830.1392380829,62552.0851936786,58004.4693445881,66280.1336555629,20767.7519312165
8710081736,10623,2,0,54226.7158411820,56756.6233646081,37287.9920877835,54050.4667527017,55632.3768489556,61834.9333106312,62513.7934517768,57909.8898371834,66274.4878442371,20742.8568235167
8710081736,10623,2,0,54234.1503039408,56740.2213092908,37290.2917824831,54059.3370036856,55619.7954504406,61862.1646161209,62538.5547148115,57918.8939328324,66298.4947100688,20735.8482301467
8710081736,10623,2,0,54247.1697395414,56814.0792290060,37344.6813872816,54136.7357231764,55684.5275975387,61872.4098168459,62589.3183459568,58010.9547269947,66312.6092383834,20756.1682838410
8710081736,10623,2,0,54246.0381437368,56870.0141313011,37373.0564562727,54171.8760316010,55732.9185278035,61855.7522398952,62594.1367538987,58056.2550622666,66299.5289642987,20777.3522440098
8710081736,10623,2,0,54228.5896664927,56835.4457046271,37342.7832265772,54123.7162875758,55703.2415152524,61832.3294235111,62553.1681186958,58004.9438847642,66276.1548187018,20774.6631830119
8710081736,10623,2,0,54215.7284109509,56752.8513785930,37289.5130498864,54051.1603114206,55631.3547624224,61831.0274799510,62514.1219795910,57920.0741994242,66267.2845677179,20750.0114292486
8710087937,10624,2,0,54221.9704394211,56721.9454286627,37280.2290972105,54040.8177691211,55603.8801029962,61858.6359840423,62522.9070566971,57904.5725536718,66285.7307961015,20727.5133578230
8710087937,10624,2,0,54241.9741329980,56787.1034451496,37330.5911943606,54114.4566702935,55662.1755384749,61877.0213739417,62574.8631221311,57985.0862035492,66307.1702779035,20739.8635700983
8710087937,10624,2,0,54250.4063468963,56866.4733315256,37375.4534925468,54176.1833962763,55732.3953168401,61861.8969267908,62598.8456525691,58055.4641619731,66304.3838753311,20771.5725880189
8710087937,10624,2,0,54238.9687118827,56853.6485790743,37354.0991846226,54140.1670136804,55719.7165767506,61840.6642958348,62562.3182267067,58015.8948119049,66284.1246601209,20782.7790367928
8710087937,10624,2,0,54227.4945737787,56775.1669345663,37301.6442436189,54059.3491713824,55647.2214390796,61847.5998830239,62519.4149277090,57924.9899489407,66280.1093201693,20764.1137898664
8710087937,10624,2,0,54235.7686076183,56746.3173253991,37295.4995567233,54047.5830085547,55622.3750021671,61870.0736190558,62534.1986793488,57914.0755248905,66302.5708885044,20750.2547831851
8710087937,10624,2,0,54248.3013353459,56802.2643953910,37334.5578635249,54112.3881618337,55672.5789192586,61870.7185069875,62576.5300965959,57988.8581895643,66314.1423681831,20756.9348487409
8710087937,10624,2,0,54249.7127881774,56863.1880533834,37364.1618698951,54157.9440187387,55727.8811013188,61853.0631788974,62588.1867501522,58047.0441157716,66299.9061629002,20772.9110346694
8710104132,10625,2,0,54230.5243302876,56848.1001093230,37341.6516307727,54129.3499312048,55715.0563488675,61827.8517110802,62552.3163799182,58014.9335638558,66274.3296641784,20768.9808685956
8710104132,10625,2,0,54213.3678777672,56772.7942336858,37291.2895336225,54058.3027494557,55646.8807435685,61827.5353509628,62510.6663536933,57930.6600956601,66265.4594131945,20743.4165375706
8710104132,10625,2,0,54216.4341373666,56724.5736511765,37270.1299088474,54028.1633644252,55600.8016757000,61856.2754508586,62511.2139000503,57890.3363483889,66280.8637173723,20719.8842119150
8710104132,10625,2,0,54239.4310843620,56777.7464862927,37313.2278909943,54093.5160640613,55646.4670418765,61877.6054233892,62565.0194554014,57959.5583756146,66307.6569857764,20732.2830949776
8710104132,10625,2,0,54252.5356938403,56860.5354954760,37363.4561434794,54168.9922874540,55721.4078866090,61867.2507133929,62601.3400304178,58048.5285747840,66308.9467616397,20763.7487589617
8710104132,10625,2,0,54241.4265866409,56860.8883586839,37351.1180989009,54151.5073071194,55726.2141268541,61837.8413901719,62573.3543277251,58033.7448231441,66284.5140264192,20777.0723869828
8710104132,10625,2,0,54220.9118497975,56777.5031323563,37294.2584516473,54065.8345537891,55656.0308515794,61834.8603044503,62522.1039887068,57941.3311657739,66272.2733234153,20757.9447675772
8710104132,10625,2,0,54215.9109264032,56722.6633227753,37270.1055734538,54027.1412778921,55609.6719266840,61858.4778039836,62514.5356812830,57901.2751078327,66286.6798764537,20741.8104015900
8710185722,10626,2,0,54230.3418148353,56767.3796085996,37309.7479297029,54081.1171809987,55649.7158169283,61884.1881473705,62558.3393898456,57965.8004040848,66311.1612824614,20754.6351540413
8710185722,10626,2,0,54243.3977535263,56850.3876363257,37358.5647293566,54150.5582267672,55721.9554329661,61878.0556281717,62592.2872639816,58046.4235632336,66317.0139446333,20782.0124718930
8710185722,10626,2,0,54241.2319034918,56871.5229257072,37361.0834425989,54154.6344052029,55740.0853012322,61851.6030552786,62579.1948222001,58051.7895175325,66301.3906219126,20795.1900875522
8710185722,10626,2,0,54223.1993768002,56801.4491597038,37309.8939420648,54082.8936647348,55679.6118480222,61831.1248215256,62530.4753641210,57970.7648243886,66280.3283387121,20769.1633840479
8710185722,10626,2,0,54213.5747286132,56726.1067809762,37266.9176368862,54023.6856519944,55612.3366522882,61845.0933374783,62506.9552061623,57901.0682569867,66284.5018587224,20729.6670401607
8710185722,10626,2,0,54227.1782136613,56752.0726459963,37294.6356502488,54065.8102183954,55635.1875869217,61871.6554196428,62548.0941891206,57949.0941563469,66309.9445127792,20727.6958732753
8710185722,10626,2,0,54242.4121700836,56841.8580808528,37352.2618624023,54150.9962638528,55714.0099269407,61866.6909993391,62591.6910468372,58046.2288800844,66315.0427777480,20752.3962978259
8710185722,10626,2,0,54238.1169731051,56869.1867279171,37354.5128863145,54155.3522993155,55737.8221096232,61835.1766645676,62576.2259041753,58052.2518900118,66290.1841731387,20767.8736081847
8710189242,10627,2,0,54221.3255514894,56804.3815746382,37299.4905612812,54082.1149321382,55678.1273890098,61822.3884152067,62526.8737258614,57970.3997934839,66265.9217856738,20755.0123526428
8710189242,10627,2,0,54217.0911929951,56741.1947250366,37265.1654885437,54035.0867839175,55621.7787850228,61847.7215599921,62514.1463149846,57911.7636624941,66277.8339608634,20736.3471057165
8710189242,10627,2,0,54231.9601185127,56760.6873753470,37294.5869794616,54073.3055196384,55644.1065086929,61883.3972470770,62554.1902052289,57953.1581670858,66308.2410352239,20742.1389294042
8710189242,10627,2,0,54250.7105393169,56843.6588999826,37354.8779172192,54153.0282692223,55720.8968433425,61891.9268025498,62605.1485195234,58047.2509666176,66327.2469776614,20770.0516259160
8710189242,10627,2,0,54245.1499018688,56882.1209896399,37370.7445938763,54176.8891226921,55754.8447174785,61856.2876185554,62601.7658998066,58075.3461785817,66311.3316302170,20787.2324138300
8710189242,10627,2,0,54224.3066372111,56824.1662496723,37321.3924155625,54108.8716974518,55698.5447842787,61822.0720550893,62550.4060515170,57999.1277256828,66282.2751702038,20776.0989712370
8710189242,10627,2,0,54211.8834187548,56737.0820435105,37265.9563888372,54030.9741023913,55617.0455509587,61839.6908800890,62514.2679919529,57910.8997560197,66278.2841656459,20747.9307530919
8710189242,10627,2,0,54231.4490752461,56744.6260155407,37285.0231697587,54060.1400716759,55625.8427957616,61882.2534835756,62552.0243551945,57942.4262584879,66308.6669046127,20747.7969084268
8710202823,10628,2,0,54251.9638120896,56832.5011219960,37347.7598145778,54146.4212098474,55705.1031728663,61879.9172857856,62601.9362475622,58042.6272418249,66323.3168115876,20771.4752464443
8710202823,10628,2,0,54242.5460147487,56870.5495099613,37359.4773066183,54161.7403401475,55738.8198607627,61842.8423135661,62590.8758111501,58063.2028171525,66301.1472679762,20782.6695275214
8710202823,10628,2,0,54216.9208452395,56815.2473279011,37314.6758469162,54091.9220957775,55688.3969251284,61821.8043657592,62534.7462257059,57987.9942830898,66273.1007267993,20766.1092921454
8710202823,10628,2,0,54206.0064211894,56738.8341918530,37268.2195804462,54025.4134649433,55618.6151838488,61839.1189983383,62506.9552061623,57911.4838054672,66273.6604408531,20736.8703166798
8710202823,10628,2,0,54219.3665523010,56731.8499338766,37277.1993407016,54037.9583603677,55611.1442179995,61870.1101221463,62532.0449970112,57921.8871862508,66296.4627046993,20726.1384080820
8710202823,10628,2,0,54240.2828231396,56808.4090822866,37332.9882306348,54116.6711911153,55678.0543828289,61882.6306821771,62583.4656837849,58008.7402061730,66315.2131255035,20752.0312669212
8710202823,10628,2,0,54240.8912079807,56869.4909203377,37365.9505213281,54162.8841036489,55732.8820247131,61858.5386424677,62596.5094547791,58062.7526123700,66302.1328514188,20779.3477462887
8710202823,10628,2,0,54226.5211580328,56837.5750515711,37335.4582730898,54117.8757931008,55705.3708621964,61836.6854589737,62554.8594285542,58008.9592247158,66277.6757808047,20777.9119580636
8710232286,10629,2,0,54220.8023405261,56756.3070044907,37286.3616164092,54042.0345388034,55634.0681588140,61847.0280012732,62516.5190158651,57918.7965912578,66278.0164763158,20756.4968116552
8710232286,10629,2,0,54237.8249483814,56744.9058725676,37293.8690853490,54050.9047897873,55626.9013853852,61879.9172857856,62541.8764960441,57926.3162278943,66307.5839795955,20750.4981371215
8710232286,10629,2,0,54255.4681087746,56818.7516245861,37347.4069513699,54126.8190502657,55694.2009165129,61884.6505198497,62588.6977934188,58017.6591279442,66325.7016801649,20762.9821940619
8710232286,10629,2,0,54255.0909101731,56875.7086134142,37373.7256795980,54164.7579289596,55744.3439951203,61863.4787273778,62594.5382878938,58064.2005682919,66311.0882762805,20775.6487664546
8710232286,10629,2,0,54242.3878346900,56849.8765930591,37343.4889529930,54120.5283510082,55719.8625891125,61845.3001883243,62557.5606572489,58018.2553450885,66289.3080989674,20771.4752464443
8710232286,10629,2,0,54234.7221856915,56775.7266486201,37294.8668364885,54052.8394535822,55651.8816669627,61845.0446666911,62523.9169755335,57937.9850491476,66284.6478710842,20755.1096942174
8710232286,10629,2,0,54241.8646237266,56745.2587357755,37287.3471998519,54043.3243146666,55622.7278653750,61865.7662543805,62537.1432619800,57921.9358570381,66302.2910314775,20742.5161280057
8710232286,10629,2,0,54256.1008290094,56805.2576488094,37333.0003983316,54110.7820258530,55677.4216625941,61880.2093105094,62585.6680369099,57997.8744529101,66320.6764213770,20753.2602043003
8710289101,10630,2,0,54261.0044108291,56880.0159780896,37374.9424492803,54174.1757263005,55746.8383729690,61863.3205473191,62611.4148833872,58071.8175465031,66312.8039215325,20777.3035732225
8710289101,10630,2,0,54248.5690246760,56867.9942936285,37350.9964219327,54144.0728443606,55734.6706761460,61837.0991606657,62577.6130216131,58037.1639459514,66285.4266036809,20777.1453931638
8710289101,10630,2,0,54234.7830241756,56782.5770619314,37291.5572229526,54061.3933444487,55655.6049821906,61838.8999797955,62534.0161638965,57938.3987508395,66273.1737329802,20743.5017114483
8710289101,10630,2,0,54243.6776105532,56743.5917613107,37279.3043522519,54046.1958911168,55621.3529156340,61867.5184027230,62544.1640230468,57915.6573254775,66296.2436861565,20726.1505757788
8710289101,10630,2,0,54257.9746543202,56800.3175638993,37325.4685939982,54111.4025783910,55671.5324973318,61874.2593067629,62589.5616998932,57992.0582938287,66313.1446170436,20738.1844279367
8710289101,10630,2,0,54262.0873358463,56872.5206768466,37366.6197446534,54163.9791963629,55737.2380601757,61861.2398711624,62607.1805248929,58058.8224462962,66308.6304015223,20761.3030519003
8710289101,10630,2,0,54246.4761808225,56868.1768090808,37351.1059312041,54141.1404294263,55735.7901042537,61840.4574449888,62578.6594435399,58040.2788763380,66286.9232303901,20768.2386390894
8710289101,10630,2,0,54232.1426339650,56798.1395461680,37303.1652057217,54073.2690165479,55677.2999856259,61848.1352616841,62541.3654527776,57961.8945734046,66278.4301780077,20756.7523332885
8710299390,10631,2,0,54239.0295503668,56750.8315409204,37282.8573197242,54042.9592837619,55635.5282824327,61879.1142177953,62540.9152479951,57924.2112163440,66300.3563676827,20742.2241032819
8710299390,10631,2,0,54264.6547198759,56801.5830043689,37326.8800468296,54103.8951094512,55679.2711525112,61907.0755850944,62590.9609850279,57991.9244491637,66331.1528083415,20751.6053975324
8710299390,10631,2,0,54280.6917442886,56891.4901161936,37381.4521670805,54184.4087593286,55757.9961509556,61889.7001140312,62628.1819696092,58082.2209272867,66333.1848137110,20780.5401805774
8710299390,10631,2,0,54265.5551294408,56897.5496292114,37368.1407067562,54168.2378902510,55759.2129206379,61846.0059147401,62596.4364485982,58064.2735744729,66298.3730331005,20785.9548056636
8710299390,10631,2,0,54239.0417180637,56812.5095961159,37305.6109127831,54076.0310837267,55678.6140968827,61835.1766645676,62535.9264922977,57961.5173748031,66272.5531804422,20763.2012126047
8710299390,10631,2,0,54237.1922281466,56755.2849179576,37282.1637610053,54036.3400566903,55628.3615090040,61866.6909993391,62529.5506191625,57914.9759344554,66290.3058501069,20747.0060081334
8710299390,10631,2,0,54257.4514433568,56798.4194031949,37325.4199232109,54094.9518522864,55667.3468096247,61892.7663736306,62577.9902202146,57979.3430506487,66321.0292845848,20756.5089793521
8710299390,10631,2,0,54269.7043140575,56879.5292702167,37374.0177043217,54165.0499536833,55743.1393931348,61887.6194378745,62614.2864598374,58061.5601780814,66327.3199838423,20777.7051072176
8710328005,10632,2,0,54257.6339588091,56896.6857227370,37372.5089099157,54163.4681530964,55759.7482992981,61857.7477421742,62599.0525034151,58066.7557846248,66304.3838753311,20778.0701381223
8710328005,10632,2,0,54237.3017374180,56828.8143098586,37320.6501860563,54093.7107472104,55701.8422301177,61840.1654202651,62550.8927593899,57989.5274128895,66283.7717969130,20757.3120473424
8710328005,10632,2,0,54233.0795466204,56754.3845083927,37280.3751095724,54037.6785033408,55637.9374864037,61856.9325064871,62532.1545062826,57922.1670432777,66290.2328439260,20735.7508885721
8710328005,10632,2,0,54252.8642216545,56776.7852382437,37307.5577442748,54079.1581818102,55656.9677642347,61881.5599248567,62572.3079057983,57964.4132866470,66315.9675227065,20741.9685816487
8710328005,10632,2,0,54269.5704693924,56867.0452132763,37367.6783342770,54165.8530216737,55736.4471598822,61883.8717872531,62619.4942340777,58063.0933078810,66324.0955441842,20770.3193152461
8710328005,10632,2,0,54262.2698512987,56901.2607767424,37378.3859074812,54175.7210237971,55764.6762165114,61860.5584801403,62608.2147791228,58077.2443392861,66304.9435893849,20782.8277075801
8710328005,10632,2,0,54243.0327226216,56841.6877330973,37333.9251432901,54103.3475630942,55709.7755684463,61849.5223791219,62561.1622955085,57994.3579885282,66287.3977705662,20765.9997828740
8710328005,10632,2,0,54235.9754584643,56769.6793032991,37294.1489423759,54045.8795309995,55643.7901485755,61861.1181941942,62542.7160671249,57928.3117301733,66293.2747681317,20742.4796249152
8710367252,10633,2,0,54242.4851762645,56771.0420853433,37305.0511987293,54066.6984602635,55644.8244028054,61870.1344575400,62566.2240573868,57952.4037698827,66304.9314216881,20737.7828939416
8710367252,10633,2,0,54248.4230123141,56839.2785291264,37346.4822064114,54128.8632233319,55705.6263838297,61866.8370117009,62598.7361432977,58029.2549430164,66305.0774340500,20755.3895512444
8710367252,10633,2,0,54239.4310843620,56877.0470600648,37361.3632996259,54148.2220289772,55740.8031953448,61843.1951767740,62592.7739718545,58057.4718319488,66286.3148455490,20774.7848599801
8710367252,10633,2,0,54221.8730978465,56831.1383399518,37323.4974271129,54089.7440780462,55699.9562371102,61824.7854514809,62549.1771141379,57990.8780272369,66264.2426435122,20771.2075571142
8710367252,10633,2,0,54216.3611311857,56751.2695780060,37276.6761297382,54019.7676536174,55627.4489317423,61841.9297363044,62517.6141085792,57907.1277700046,66266.6396797863,20741.7373954090
8710367252,10633,2,0,54235.8537814960,56757.3169233270,37294.9885134567,54047.2058099531,55632.4741905301,61877.9339512035,62553.7643358401,57932.9476226629,66297.3631142642,20732.1370826157
8710367252,10633,2,0,54253.7402958258,56845.3988806283,37354.4033770431,54137.5144557730,55711.1870212778,61880.8785338346,62607.8497482181,58035.8985054818,66311.4776425788,20753.2845396940
8710367252,10633,2,0,54250.4915207740,56895.9556609276,37372.3750652506,54167.0089528718,55755.8789717084,61856.2511154650,62607.2900341643,58068.5079329673,66291.9728245717,20773.5802579947
8710419217,10634,2,0,54232.2764786301,56847.8080845992,37331.1265730208,54105.1848853145,55711.7954061189,61836.7341297610,62559.0207808676,57999.7239428272,66268.3918281288,20767.1922171626
8710419217,10634,2,0,54222.4084765067,56768.9614091866,37285.5098776316,54037.6541679471,55640.4196965555,61850.6053041391,62527.1657505852,57922.1792109746,66272.8695405597,20749.0380135028
8710419217,10634,2,0,54233.8339438234,56757.3777618111,37290.3282855735,54045.7821894249,55629.0429000261,61872.7018415696,62548.7269093554,57927.2044697624,66297.9958344990,20743.1610159373
8710419217,10634,2,0,54250.7470424073,56828.0355772620,37339.8264762493,54117.8636254040,55690.2829181359,61879.3454040349,62594.5991263779,58007.5477718843,66316.9287707555,20760.8285117242
8710419217,10634,2,0,54245.3810881084,56885.6982925059,37367.5444896119,54158.7470867291,55741.8861203620,61853.5620544671,62603.1043464572,58060.3069053086,66302.5830562013,20781.1972362058
8710419217,10634,2,0,54223.6009107953,56851.2515428001,37333.1829137839,54107.4359092267,55713.3042005250,61826.7687860630,62559.4344825596,58008.4481814492,66271.4702554250,20775.9407911783
8710419217,10634,2,0,54212.0050957231,56761.3079278849,37276.8464774937,54025.0727694322,55635.5891209168,61837.5858685386,62516.7745374984,57913.3819661716,66264.3278173899,20745.1078474290
8710419217,10634,2,0,54226.3994810646,56742.1803084793,37280.0587494550,54030.4873945184,55618.3353268219,61873.9307789487,62540.9760864792,57915.4626423283,66294.5645439950,20736.1280871736
8710432930,10635,2,0,54241.0493880394,56817.4496810260,37337.1739183418,54110.4048272515,55685.2333239544,61882.5211729057,62594.0394123241,58007.0975671019,66316.7462553032,20754.4161354985
8710432930,10635,2,0,54241.7672821520,56884.8952245156,37371.4624879889,54158.6984159418,55745.8406218295,61862.8338394462,62608.2634499101,58065.3930025806,66307.2067809940,20781.0633915408
8710432930,10635,2,0,54228.7721819451,56862.9446994470,37345.3992813942,54119.0925627831,55725.4110588638,61835.4200185041,62569.8500310401,58022.2950204337,66282.6888718958,20785.5897747589
8710432930,10635,2,0,54214.9861814447,56780.7154043175,37291.9830923414,54044.8574444663,55650.7622388550,61830.0297288115,62526.3748502917,57934.6754356117,66273.6604408531,20762.6049954604
8710432930,10635,2,0,54219.1718691518,56737.0942112073,37274.7049628529,54026.1921975399,55614.9405394083,61853.8540791909,62530.3658548496,57908.0525149631,66288.7848880041,20743.6477238102
8710432930,10635,2,0,54237.5329236576,56789.1476182158,37318.5330068091,54092.8468407360,55663.7573390619,61875.1840517215,62577.9658848210,57981.5697391673,66311.0517731900,20755.3408804571
8710432930,10635,2,0,54246.8290440303,56866.2908160733,37366.9117693771,54159.5258193257,55735.6319241951,61859.9135922087,62603.5545512396,58060.4772530641,66310.7354130726,20781.7447825629
8710432930,10635,2,0,54229.6604238132,56855.7292552310,37347.2852744017,54130.5180300998,55727.3822257491,61825.6615256521,62562.7684314891,58032.7714073983,66279.7929600519,20782.7912044896
8710470312,10636,2,0,54209.6080594490,56768.8640676120,37283.0885059639,54039.6740056198,55647.3674514414,61819.9548758421,62507.4054109447,57929.6866799143,66258.1466274039,20756.5819855330
8710470312,10636,2,0,54217.1398637824,56728.5038172503,37266.9784753703,54018.8429086589,55608.8445233000,61848.5854664665,62515.4725939383,57902.6378898769,66277.7852900761,20739.6810546459
8710470312,10636,2,0,54235.2453966549,56785.3269614134,37312.7533508182,54087.7607434640,55659.3404651152,61862.6756593875,62568.5237520864,57981.8617638911,66300.5510508318,20750.2426154883
8710470312,10636,2,0,54240.3193262301,56858.1141238083,37353.9288368670,54146.3847067570,55724.9000155972,61843.0856675026,62593.3945243925,58052.3370638896,66295.1120903520,20770.0272905224
8710470312,10636,2,0,54228.5896664927,56854.8045102724,37340.7268858141,54126.7703794784,55722.0649422375,61821.2203163117,62567.0757961644,58032.9295874570,66271.7014416646,20773.0327116376
8710470312,10636,2,0,54214.6576536305,56780.0218455986,37292.3116201557,54057.0738120766,55660.6667440689,61818.3852429520,62524.3793480127,57951.7102111638,66260.7626822208,20753.6982413860
8710470312,10636,2,0,54218.6364904916,56722.3347949611,37264.5327683089,54019.1714364731,55612.9085340389,61848.7071434348,62515.2049046082,57906.3977081952,66275.7897877972,20732.9401506060
8710470312,10636,2,0,54240.2463200491,56766.2845158855,37306.4261484703,54074.2789353842,55652.2345301706,61878.2868144113,62561.5029910195,57965.9342487499,66305.3451233801,20743.6720592039
8710495044,10637,2,0,54252.8033831704,56861.1803834077,37370.1118736416,54154.9751007139,55736.2403090362,61871.9109412761,62602.6541416747,58064.2857421697,66313.1932878309,20782.1949873453
8710495044,10637,2,0,54236.3648247626,56873.8956265876,37365.4029749711,54142.7343977101,55746.1083111596,61829.7133686941,62571.8455333190,58056.2672299634,66286.8380565124,20793.5474484811
8710495044,10637,2,0,54214.7549952051,56793.4549828912,37304.4671492818,54054.8714589516,55672.5667515617,61818.6164291916,62513.5135947498,57956.6867991644,66262.9528676489,20771.1832217205
8710495044,10637,2,0,54217.6630747457,56734.2834732412,37276.3110988335,54015.1074257342,55620.3308291009,61851.2501920708,62505.6045918149,57905.9718388064,66277.2742468096,20751.3742112928
8710495044,10637,2,0,54237.2043958434,56768.6450490692,37311.6704258010,54069.2050058090,55650.8960835201,61874.9163623914,62550.6737408471,57960.7508099033,66301.4879634872,20756.0344391760
8710495044,10637,2,0,54250.6375331359,56849.2317051275,37358.6620709312,54139.1935979346,55719.6314028729,61861.3007096465,62584.7797950418,58038.1860324845,66302.4613792330,20775.8069465133
8710495044,10637,2,0,54238.2021469829,56869.6612680932,37358.6742386280,54138.8894055140,55733.0523724686,61827.9125495644,62566.0780450250,58041.6538260790,66276.2643279732,20782.2801612231
8710495044,10637,2,0,54218.4296396456,56807.9345421105,37311.1350471408,54073.1595072765,55678.7966123351,61816.8399454555,62519.4392631026,57967.4552108527,66255.1777093791,20767.9587820625
8710529031,10638,2,0,54217.4927269902,56738.1528008309,37272.4174358502,54018.3440330891,55617.9094574331,61842.8666489597,62501.1268793841,57901.8226541898,66265.7514379182,20747.1398527984
8710529031,10638,2,0,54241.1345619172,56761.9649835134,37299.0160211051,54057.0494766829,55639.3002684478,61876.4129891006,62547.2424503430,57943.4970158083,66298.7623993989,20747.2371943730
8710529031,10638,2,0,54251.3797626421,56850.1442823893,37356.3380408380,54139.0597532695,55714.0220946375,61866.1799560725,62592.6766302799,58038.2712063622,66306.3307068227,20769.2485579257
8710529031,10638,2,0,54233.7852730361,56878.3003328375,37361.9838521638,54144.4865460526,55736.1064643711,61827.3893386010,62571.1154715096,58048.1148730920,66278.2111594649,20785.7722902112
8710529031,10638,2,0,54207.2596939621,56807.9467098073,37308.9935324999,54065.8467214859,55673.8443597282,61805.1224534150,62513.4892593562,57956.1757558978,66247.8770912853,20773.2273947868
8710529031,10638,2,0,54195.2866802884,56727.4208922331,37264.3502528565,54004.9352311902,55604.1721277200,61823.9823834905,62488.3751331136,57882.4881839381,66253.3890579461,20752.7004902465
8710529031,10638,2,0,54210.5571398011,56736.2911432170,37284.0010832256,54038.3355589692,55613.8332789974,61857.7477421742,62523.5276092351,57914.1241956778,66280.4621833772,20755.5964020903
8710529031,10638,2,0,54229.7334299941,56813.1909871380,37336.9670674959,54115.6126014917,55680.7191084331,61855.0343457827,62567.7571871865,57999.4319181034,66290.7317194957,20774.8456984642
8710563957,10639,2,0,54220.8875144038,56852.8455110839,37351.9941730722,54137.6604681349,55715.0563488675,61818.0810505314,62562.5859160368,58029.4861292561,66268.3674927352,20785.8087933017
8710563957,10639,2,0,54196.6859654230,56803.5176681637,37308.3973153556,54076.9193255948,55670.2062183781,61791.1417697654,62510.9827138107,57963.7197279281,66237.7779029223,20772.3269852219
8710563957,10639,2,0,54183.7882067907,56719.4510508140,37255.0906355743,53999.1677428962,55593.3672129412,61808.0792037430,62473.8955738943,57873.5935975605,66234.1884323595,20740.9829982060
8710563957,10639,2,0,54203.9135773358,56718.7088213078,37270.0203995760,54018.1250145463,55594.0972747506,61851.3231982517,62506.3103182307,57893.5121172597,66267.0655491751,20734.9113174913
8710563957,10639,2,0,54229.5265791481,56806.9489586678,37335.7016270263,54109.2975668406,55674.2945645106,61862.7608332653,62563.6445056604,57999.6631043430,66289.9408192022,20766.1214598422
8710563957,10639,2,0,54230.3539825321,56862.2754761217,37363.8820128682,54145.5573033730,55724.6323262671,61833.3758454378,62568.1587211817,58043.8926822944,66275.1327321687,20789.3009222899
8710563957,10639,2,0,54208.2939481921,56816.1964082532,37323.2175700859,54083.6602296347,55681.3153255774,61804.9886087499,62519.3784246185,57975.1938660321,66247.4998926838,20772.8866992758
8710563957,10639,2,0,54191.7702159065,56734.0887900920,37271.1763307742,54012.2358492840,55604.7440094707,61809.3689796062,62484.9316749127,57889.6792927605,66242.4502985023,20746.0325923875
8710590342,10640,2,0,54198.4746168560,56713.5618855517,37266.3700905291,54014.8640717978,55585.6163900650,61833.8868887044,62504.6311760691,57887.2579210927,66259.1078754529,20735.2641806992
8710590342,10640,2,0,54214.9010075669,56779.6324793003,37312.5221645786,54084.8161608329,55642.8532359201,61843.8765677960,62550.2113683678,57964.7661498548,66275.1935706528,20754.7933341000
8710590342,10640,2,0,54215.9352617969,56841.9675901242,37345.3627783037,54130.4450239189,55699.2261753008,61819.9548758421,62561.2474693862,58022.9034052749,66264.2548112090,20778.2769889683
8710590342,10640,2,0,54200.1294236239,56816.4640975833,37317.8637834838,54088.3326252147,55675.5600049802,61796.9579288468,62516.6528605302,57978.7103304139,66238.0577599492,20773.3004009677
8710590342,10640,2,0,54194.8121401123,56735.3785659553,37267.9640588130,54009.3399374402,55604.0261153581,61817.5578395680,62475.4652067845,57887.0875733372,66236.7801517828,20752.0799377085
8710590342,10640,2,0,54210.6423136789,56714.7178167499,37268.9739776493,54007.8433107309,55582.9029936735,61856.2267800713,62494.6171615838,57881.0280603194,66265.6419286468,20744.3047794387
8710590342,10640,2,0,54231.8019384540,56787.5658176289,37323.4487563256,54090.4863075524,55648.8397427570,61870.4386499605,62550.4303869106,57973.9892640466,66287.9939877106,20766.4743230501
8710590342,10640,2,0,54234.1259685472,56855.4250628104,37355.7296559968,54141.1525971231,55707.7192276832,61838.8756444018,62566.1388835091,58032.9174197601,66274.5730181149,20788.9723944757
8710612776,10641,2,0,54209.9487549600,56826.1374165576,37319.8957888533,54095.4142247656,55681.6316856948,61800.6325732873,62524.2090002572,57983.6747507177,66240.9780071867,20774.2859844104
8710612776,10641,2,0,54194.3741030266,56745.5994312865,37264.5084329152,54020.5950570014,55611.7769382343,61805.0129441436,62487.1948665218,57898.3061898079,66232.1077562028,20747.9307530919
8710612776,10641,2,0,54203.4877079470,56708.9989992431,37254.4944184300,54005.6166222123,55584.6429743192,61839.5935385144,62499.0583709242,57877.8401237518,66254.8978523522,20738.1479248462
8710612776,10641,2,0,54227.9569462580,56766.4548636411,37303.2503795995,54071.0909988166,55637.6332939831,61865.6445774123,62550.1992006710,57952.5862853351,66284.6843741747,20752.3597947354
8710612776,10641,2,0,54235.2210612612,56843.1721921097,37348.3316963285,54138.4270330347,55708.5466310672,61850.6174718360,62577.3940030703,58032.7714073983,66283.6501199448,20777.8632872763
8710612776,10641,2,0,54219.3300492105,56836.6503066126,37332.1243241603,54115.6004337949,55705.5412099519,61815.6110080764,62543.2757811788,58011.1737455375,66255.5549079806,20783.3874216339
8710612776,10641,2,0,54202.6359691694,56752.4011738106,37273.4881931706,54030.1953697947,55630.0528188624,61813.8345243402,62491.0276910210,57914.8664251840,66239.5665543553,20757.4458920074
8710612776,10641,2,0,54208.8536622459,56705.3851932867,37255.5530080536,54003.2195859382,55588.0377617328,61849.9725839043,62493.8262612903,57880.4196754782,66260.7261791303,20734.8018082199
8710669737,10642,2,0,54233.5905898870,56762.7437161101,37304.0047768025,54071.3221850562,55639.1907591764,61873.0668724743,62547.0599348907,57956.7719730422,66287.6289568059,20748.3079516934
8710669737,10642,2,0,54248.8488817029,56845.2528682664,37351.0694281137,54138.9380763013,55713.7909083979,61864.7685032410,62576.5300965959,58035.4848037898,66288.8943972755,20775.6487664546
8710669737,10642,2,0,54241.5482636092,56851.0081888637,37341.5299538045,54123.6797844853,55719.3028750587,61837.0018190911,62552.9491001530,58021.7353063799,66265.3742393167,20784.2513281084
8710669737,10642,2,0,54223.4183953430,56780.4963857747,37291.0340119893,54050.1138894938,55655.4346344350,61827.4866801755,62508.3909943874,57938.4352539300,66248.3637991582,20767.2895587372
8710669737,10642,2,0,54222.1164517829,56723.2838753133,37264.0825635264,54010.8000610589,55605.8147667911,61858.4656362868,62502.2219720982,57889.9834851810,66263.9384510916,20746.4827971700
8710669737,10642,2,0,54238.4698363130,56760.3710152296,37300.9628525968,54059.3370036856,55638.8743990590,61884.4923397910,62545.1982772768,57943.8377113194,66292.9097372270,20747.6508960650
8710669737,10642,2,0,54247.8754659571,56850.2172885702,37358.3092077233,54141.3594479691,55718.2442854351,61877.8852804162,62586.3494279320,58036.9814304990,66298.9570825480,20773.2273947868
8710669737,10642,2,0,54235.8294461024,56866.1204683178,37358.2727046328,54139.4247841742,55735.8266073442,61848.7193111316,62561.9166927115,58038.3198771495,66273.7091116404,20784.6285267099
8710681284,10643,2,0,54222.2137933575,56792.9074365341,37306.9615271305,54062.1234062581,55673.8321920313,61847.8432369603,62509.0115469254,57949.9458951245,66256.0781189440,20768.4698253290
8710681284,10643,2,0,54229.3197283021,56734.6363364491,37279.4625323106,54020.7410693632,55620.8297046706,61875.8532750467,62503.9862881375,57900.2165182091,66277.0308928731,20751.0335157817
8710681284,10643,2,0,54247.8511305635,56767.6716333233,37313.6902634736,54070.7624710024,55648.7910719697,61900.6023703846,62546.7679101669,57952.8783100588,66305.5276388324,20754.1727815621
8710681284,10643,2,0,54260.9922431322,56850.8378411082,37363.8211743841,54141.0795909422,55718.2321177382,61893.2165784131,62585.2056644306,58035.4361330025,66309.2022832730,20772.7650223075
8710681284,10643,2,0,54252.0124828769,56879.2250777961,37367.0577817390,54146.2386943951,55742.1903127826,61862.8825102335,62571.2371484779,58046.1802092972,66286.4973610013,20787.4636000696
8710681284,10643,2,0,54228.3706479499,56821.2460024348,37319.7011057041,54077.3208595899,55688.2387450697,61837.1599991498,62525.2432544872,57972.9185067262,66262.1132965682,20777.2914055257
8710681284,10643,2,0,54213.6842378846,56743.0320472569,37274.1209134054,54009.3399374402,55618.2014821568,61850.0942608726,62498.5959984449,57896.0795012893,66263.3057308568,20746.4949648668
8710681284,10643,2,0,54224.7933450840,56751.3912549743,37291.6423968304,54034.1012004748,55628.3615090040,61888.1913196252,62532.6412141555,57928.0075377527,66289.7096329626,20740.2286010030
8710709439,10644,2,0,54240.9398787680,56839.3028645200,37352.7607379720,54118.3016624896,55710.0432577764,61887.7897856300,62581.3728399314,58028.8777444149,66303.2401118297,20765.4644042138
8710709439,10644,2,0,54234.1503039408,56879.2494131897,37366.9239370739,54135.7379720369,55748.1281488322,61857.8207483551,62568.8766152942,58053.7606844178,66283.6987907321,20781.4892609296
8710709439,10644,2,0,54214.5603120559,56823.3875170756,37320.4311675135,54063.3280082436,55695.0526552905,61843.7062200405,62512.5158436104,57973.1496929659,66260.5436636780,20771.4387433538
8710709439,10644,2,0,54209.6323948426,56751.6954473948,37281.0565005944,54005.8113053615,55630.5881975226,61867.0438625469,62490.2611261212,57904.5968890654,66270.3264919237,20748.9406719282
8710709439,10644,2,0,54228.6748403705,56761.9771512102,37302.4108085187,54040.3188935514,55641.2105968490,61896.2341672252,62531.1810905368,57937.7295275143,66301.8773297855,20749.0380135028
8710709439,10644,2,0,54246.8655471208,56840.7386527451,37355.4619666667,54120.5770217955,55712.0144246617,61899.3612653087,62580.2290764300,58026.3711988694,66317.3668078411,20774.2859844104
8710709439,10644,2,0,54241.7429467583,56886.1971680756,37373.8838596567,54150.9354253687,55752.5206873853,61864.6954970601,62584.9623104942,58061.2194825703,66299.2977780591,20794.0706594445
8710709439,10644,2,0,54216.6896589999,56839.8139077866,37331.1509084145,54093.1875362470,55710.6029718303,61836.0649064357,62534.0161638965,57996.0249629930,66265.7514379182,20783.3752539371
8710772388,10645,2,0,54204.2542728469,56752.0969813900,37277.0533283397,54016.4215369911,55632.2673396842,61849.0356712490,62492.6459946985,57905.8744972318,66261.9429488126,20752.2137823736
8710772388,10645,2,0,54221.5445700323,56743.3119042838,37284.7311450350,54030.5604006994,55627.3029193804,61887.1205623048,62522.6515350639,57917.4946476977,66293.5911282491,20745.0835120353
8710772388,10645,2,0,54244.4563431499,56823.3266785915,37345.6426353306,54119.8712953798,55702.3411056875,61893.8492986479,62581.8473801075,58017.5496186728,66315.4443117431,20767.5207449768
8710772388,10645,2,0,54242.9353810470,56878.6045252581,37369.2844702576,54156.8489260247,55753.2872522851,61858.0032638075,62585.7775461813,58063.1054755779,66295.5136243471,20787.0255629840
8710772388,10645,2,0,54219.0501921836,56834.0585871893,37325.5781032696,54093.6134056358,55711.5277167888,61828.9954745816,62532.5195371873,57996.0979691739,66260.2881420447,20776.7925299559
8710772388,10645,2,0,54202.6238014726,56750.0893114142,37273.3543485055,54016.0808414801,55632.1213273223,61836.6976266705,62491.3562188353,57908.5392228360,66252.1357851733,20749.5490567693
8710772388,10645,2,0,54212.7594929261,56733.7845976715,37279.1826752837,54020.3395353681,55614.8675332273,61876.1818028610,62512.2359865834,57907.8456641171,66277.6149423206,20742.5161280057
8710772388,10645,2,0,54230.3053117448,56801.4369920070,37333.5479446886,54091.1920339681,55671.7393481778,61887.0110530334,62561.7585126528,57986.0231162045,66298.2756915260,20758.2732953914
8710783193,10646,2,0,54233.7852730361,56867.0695486700,37368.6152469323,54143.9876704828,55730.1929637152,61860.2664554166,62579.9978901904,58045.6448306369,66289.2472604833,20776.3301574766
8710783193,10646,2,0,54217.3710500220,56842.7584904177,37337.7944708798,54108.8595297550,55712.7566541679,61824.4082528793,62542.0225084060,58005.7956235418,66259.3512293894,20777.0358838924
8710783193,10646,2,0,54201.0176654920,56751.7806212726,37272.4539389406,54022.9190870946,55632.5715321047,61824.0067188842,62492.4269761557,57903.8668272560,66244.1902791480,20751.2768697182
8710783193,10646,2,0,54208.1966066175,56714.9611706864,37259.9820496971,54009.0357450196,55601.4587313285,61858.4656362868,62503.3292325090,57884.9217233027,66267.0533814783,20736.5052857752
8710783193,10646,2,0,54231.6559260921,56788.3323825287,37317.7177711220,54088.7098238162,55664.9619410474,61883.9326257372,62563.5349963890,57978.5886534457,66295.1607611393,20757.2390411614
8710783193,10646,2,0,54239.4797551493,56866.6193438875,37364.6120746776,54145.9588373681,55732.7238446544,61869.5504080925,62586.0817386019,58049.5749967108,66291.9119860876,20785.2125761574
8710783193,10646,2,0,54229.3562313926,56853.6120759838,37346.7742311352,54111.8406154766,55720.4466385600,61838.5836196781,62551.1604487200,58011.9524781342,66265.9826241579,20786.5875258984
