steady_timestamp,sequence,battery,flags,EEG-ch1,EEG-ch2,EEG-ch3,EEG-ch4,EEG-ch5,EEG-ch6,EEG-ch7,EEG-ch8,EEG-ch9,EEG-ch10
5504135954,6383,-2,0,-6717.5055589194,-80194.3695127732,-35797.1450345526,-12640.5943599656,-80539.7374193956,-44106.9397351157,-80472.1093604537,-80459.4549557578,-80502.1879070000,-2417.5510109631
5504135954,6383,-2,0,-6718.4789746652,-80195.0022330080,-35813.3767421144,-12641.0445647481,-80539.6887486083,-43919.2408439250,-80472.7420806885,-80460.6717254401,-80502.0783977286,-2417.5510109631
5504135954,6383,-2,0,-6717.8219190367,-80195.2942577318,-35828.8418847763,-12639.8034596721,-80537.4255569992,-43857.0517454630,-80472.4500559647,-80460.6352223497,-80502.2000746968,-2416.9669615156
5504135954,6383,-2,0,-6718.0166021859,-80195.7687979078,-35824.2181599836,-12639.9981428213,-80538.8126744371,-44004.9135972554,-80472.9976023218,-80461.0732594353,-80503.0274780808,-2417.4171662980
5504135954,6383,-2,0,-6718.4059684842,-80196.8395552283,-35807.9256139377,-12640.5213537847,-80540.6621643541,-44171.5380375487,-80473.5329809820,-80462.0710105748,-80503.0396457776,-2418.2080665915
5504135954,6383,-2,0,-6718.5763162398,-80197.4236046758,-35802.5231565483,-12641.4460987432,-80543.1078714156,-44143.0169561958,-80474.5794029087,-80462.3021968144,-80504.6944525455,-2418.5244267089
5504135954,6383,-2,0,-6718.5763162398,-80196.8030521378,-35816.7471941343,-12640.0833166991,-80542.1344556697,-43959.4672496217,-80474.5672352119,-80461.7789858510,-80503.2708320172,-2418.4392528311
5504135954,6383,-2,0,-6718.3938007874,-80196.8882260156,-35832.1271629185,-12639.7182857944,-80539.7982578797,-43863.1720969649,-80474.2387073977,-80462.8375754746,-80503.3438381982,-2416.1517258284
5504154617,6384,-2,0,-6718.6128193302,-80197.6669586122,-35828.0509844828,-12640.8255462053,-80539.9077671511,-43979.2519246558,-80473.7154964343,-80462.2291906335,-80503.7088691029,-2416.9182907283
5504154617,6384,-2,0,-6718.6493224207,-80197.9103125487,-35810.9432027498,-12641.7137880734,-80541.8180955523,-44154.8926282950,-80474.4455582437,-80463.7866558268,-80505.1568250248,-2418.3175758629
5504154617,6384,-2,0,-6718.8318378731,-80197.2897600107,-35801.9269394040,-12640.5943599656,-80542.1344556697,-44151.2058161576,-80474.9079307230,-80462.2170229366,-80504.2685831567,-2417.9282095646
5504154617,6384,-2,0,-6717.5055589194,-80195.9999841475,-35813.3524067207,-12639.7547888849,-80541.1123691366,-43971.7931265033,-80473.6303225565,-80461.4017872495,-80503.0639811712,-2417.1008061806
5504154617,6384,-2,0,-6719.0751918095,-80197.6304555218,-35831.1415794759,-12640.4240122101,-80539.7617547892,-43855.5429510569,-80473.9710180676,-80462.5212153572,-80504.3172539440,-2417.3806632075
5504154617,6384,-2,0,-6718.7344962985,-80197.2897600107,-35830.4236853633,-12640.5700245720,-80539.5184008528,-43948.6501671461,-80473.6668256470,-80461.7303150637,-80504.5241047900,-2417.2103154520
5504154617,6384,-2,0,-6717.9192606113,-80196.8760583187,-35812.1478047352,-12640.9472231735,-80540.6134935669,-44124.3517092694,-80473.3748009233,-80461.8276566383,-80503.6236952251,-2417.3198247234
5504154617,6384,-2,0,-6718.5276454525,-80198.4335235121,-35799.4690646457,-12640.5213537847,-80542.5359896649,-44145.3774893794,-80475.1026138721,-80462.8740785651,-80504.2320800663,-2417.5753463567
5504184498,6385,-2,0,-6719.6105704697,-80198.3483496343,-35810.0184577912,-12641.4704341369,-80542.3534742125,-43986.6985551114,-80475.7353341069,-80463.2147740761,-80505.9842284088,-2419.1084761564
5504184498,6385,-2,0,-6719.8660921030,-80197.7886355805,-35829.4137665270,-12641.3730925623,-80540.8933505938,-43853.4622749002,-80474.8957630261,-80463.2634448634,-80504.6092786678,-2418.6217682835
5504184498,6385,-2,0,-6718.8196701762,-80196.0851580252,-35830.9103932362,-12640.2658321514,-80538.9586867989,-43924.5216243462,-80473.4843101947,-80461.4991288241,-80502.5286025110,-2416.8817876378
5504184498,6385,-2,0,-6717.8827575209,-80195.2455869445,-35815.1288904569,-12640.3510060292,-80539.9564379384,-44109.1055851502,-80472.4500559647,-80461.3409487654,-80502.7597887507,-2417.0277999997
5504184498,6385,-2,0,-6718.4546392715,-80196.3285119617,-35803.3505599323,-12640.4118445133,-80541.9762756110,-44157.3626707500,-80473.7154964343,-80461.8641597288,-80502.7719564475,-2418.1593958042
5504184498,6385,-2,0,-6717.9557637018,-80196.4136858395,-35809.7629361579,-12640.6065276625,-80541.4530646476,-44004.3903862920,-80473.1801177741,-80461.3044456749,-80503.0639811712,-2417.7578618090
5504184498,6385,-2,0,-6718.3572976970,-80195.5376116682,-35827.1627426147,-12640.4605153006,-80538.8613452243,-43855.4577771792,-80473.6789933438,-80460.8177378020,-80503.2586643204,-2416.9182907283
5504184498,6385,-2,0,-6717.8949252177,-80196.5596982013,-35831.3362626250,-12639.7304534912,-80537.9366002658,-43905.3575018501,-80472.9489315345,-80461.4869611273,-80502.2974162714,-2416.5410921267
5504220733,6386,-2,0,-6718.7101609048,-80196.2190026903,-35817.6841067897,-12640.9593908703,-80538.8978483148,-44088.0919727370,-80473.7519995248,-80461.4869611273,-80503.5141859537,-2417.8187002932
5504220733,6386,-2,0,-6718.7466639953,-80196.0121518443,-35803.1437090863,-12640.6917015402,-80541.5990770095,-44164.2009163645,-80473.4113040137,-80461.6208057923,-80502.9423042030,-2417.5875140535
5504220733,6386,-2,0,-6718.8805086603,-80196.2798411744,-35808.6070049598,-12641.1784094131,-80541.1123691366,-44030.2710774344,-80473.7276641311,-80461.3531164622,-80502.3217516650,-2417.6726879313
5504220733,6386,-2,0,-6718.2964592128,-80196.0851580252,-35827.6616181845,-12640.5456891783,-80539.0438606767,-43860.3005205147,-80473.3504655296,-80461.2314394940,-80502.4677640269,-2417.3076570266
5504220733,6386,-2,0,-6718.1261114573,-80196.5718658982,-35833.8793112610,-12640.2658321514,-80538.5936558942,-43880.1460340329,-80474.1291981263,-80462.1683521493,-80503.5750244378,-2417.0399676965
5504220733,6386,-2,0,-6718.7953347826,-80196.3406796585,-35820.0933107606,-12640.2536644546,-80539.4818977623,-44060.9823442155,-80473.5694840724,-80461.7911535478,-80503.5750244378,-2417.0156323028
5504220733,6386,-2,0,-6718.2964592128,-80196.5110274140,-35802.4866534578,-12639.9738074277,-80541.5504062222,-44159.9300547797,-80473.5816517693,-80461.6086380955,-80503.2951674109,-2417.2468185425
5504220733,6386,-2,0,-6718.3207946065,-80196.9612321965,-35802.3893118832,-12639.6817827039,-80541.9032694301,-44041.1976691814,-80473.2287885614,-80461.4747934304,-80502.9666395967,-2417.4901724789
5504254593,6387,-2,0,-6718.9900179317,-80196.0486549348,-35818.8643733815,-12640.3753414228,-80539.5549039433,-43864.5592144027,-80472.9124284440,-80461.6573088828,-80503.2221612299,-2416.6140983077
5504254593,6387,-2,0,-6718.6249870271,-80195.7687979078,-35828.5498600526,-12640.7647077212,-80537.8270909944,-43856.9422361916,-80472.9610992313,-80459.7834835720,-80502.3582547555,-2417.8917064741
5504254593,6387,-2,0,-6718.0409375796,-80194.6737051938,-35814.9828780950,-12639.8034596721,-80537.4620600897,-44023.6031795754,-80471.6226525808,-80460.0511729022,-80501.3118328288,-2416.7601106696
5504254593,6387,-2,0,-6718.5884839366,-80196.0121518443,-35797.5100654572,-12640.4726829974,-80540.0416118162,-44146.3752405189,-80472.7055775980,-80461.5721350050,-80502.3704224523,-2417.5510109631
5504254593,6387,-2,0,-6718.8196701762,-80196.9003937124,-35796.6826620733,-12641.5677757115,-80542.0127787015,-44057.1495197163,-80474.5915706056,-80462.3265322080,-80504.1469061885,-2418.3662466502
5504254593,6387,-2,0,-6718.0287698827,-80195.4402700936,-35811.7219353464,-12639.7426211880,-80539.9442702416,-43870.5700566333,-80472.8515899599,-80461.5599673082,-80502.8449626284,-2417.2711539361
5504254593,6387,-2,0,-6718.3086269097,-80195.9269779665,-35822.1618192205,-12640.3388383324,-80538.5449851070,-43835.6852698419,-80473.2774593487,-80461.9006628192,-80502.6259440856,-2416.4802536426
5504254593,6387,-2,0,-6717.8705898240,-80195.5011085778,-35812.9265373319,-12640.3996768165,-80538.3868050483,-43995.7269861540,-80472.5230621457,-80461.5599673082,-80502.2609131809,-2416.9912969092
5504286005,6388,-2,0,-6718.0166021859,-80194.8197175557,-35793.0201853296,-12640.1198197895,-80539.7982578797,-44136.9939462684,-80472.8029191726,-80460.5378807751,-80502.2974162714,-2416.4680859458
5504286005,6388,-2,0,-6718.5641485429,-80195.9269779665,-35790.4649689968,-12639.6696150071,-80540.6134935669,-44073.1135379480,-80472.9976023218,-80462.1440167557,-80503.1856581395,-2416.5289244299
5504286005,6388,-2,0,-6718.5154777557,-80196.4136858395,-35806.3194779570,-12640.9593908703,-80540.0902826035,-43888.7607633836,-80472.9976023218,-80462.0101720907,-80503.8548814647,-2417.5875140535
5504286005,6388,-2,0,-6718.1504468510,-80196.7178782600,-35819.9838014892,-12640.1319874864,-80537.9487679626,-43826.8271865548,-80474.5063967278,-80461.4504580368,-80502.4555963301,-2416.6506013982
5504286005,6388,-2,0,-6719.2942103523,-80196.7543813505,-35814.2528162856,-12641.6651172861,-80540.1632887844,-43970.4911829433,-80473.0706085027,-80461.2679425844,-80503.8305460711,-2417.6240171440
5504286005,6388,-2,0,-6719.1360302936,-80196.6935428664,-35796.2811280781,-12640.8377139021,-80540.6134935669,-44130.5572346491,-80473.9588503708,-80462.5455507509,-80503.6967014061,-2418.0985573201
5504286005,6388,-2,0,-6719.0995272032,-80196.4380212331,-35791.6209001949,-12641.1784094131,-80541.9641079142,-44096.4876835448,-80473.8736764930,-80461.7303150637,-80503.2951674109,-2418.7191098581
5504286005,6388,-2,0,-6718.5763162398,-80196.9977352870,-35806.8548566173,-12641.0445647481,-80541.8059278555,-43913.6437033865,-80474.0805273390,-80462.7158985064,-80503.5020182569,-2417.9403772614
5504314789,6389,-2,0,-6718.4911423620,-80196.8030521378,-35822.3930054602,-12640.7525400243,-80539.1898730386,-43832.8015256949,-80473.4964778915,-80462.3508676017,-80503.8183783743,-2418.0620542296
5504314789,6389,-2,0,-6718.5641485429,-80197.9468156392,-35821.1397326874,-12640.7525400243,-80540.0172764225,-43962.3631614655,-80474.4333905469,-80462.5090476604,-80504.3902601250,-2417.6726879313
5504314789,6389,-2,0,-6718.1991176383,-80196.8882260156,-35803.7277585338,-12640.0224782150,-80541.1975430144,-44132.3215506884,-80475.0417753880,-80462.0223397875,-80504.1955769758,-2417.4536693885
5504314789,6389,-2,0,-6717.3838819511,-80196.1703319030,-35794.8453398530,-12640.4240122101,-80541.5625739190,-44119.7401521735,-80473.4964778915,-80461.5356319146,-80502.5772732983,-2416.9182907283
5504314789,6389,-2,0,-6718.5763162398,-80197.3505984948,-35808.7651850185,-12640.0833166991,-80540.8933505938,-43946.4843171116,-80472.9245961408,-80462.0710105748,-80503.5750244378,-2417.3319924202
5504314789,6389,-2,0,-6718.0287698827,-80196.4623566268,-35826.0189791134,-12640.7282046307,-80539.1290345545,-43838.8245356222,-80474.2265397009,-80461.5599673082,-80503.1613227458,-2417.5875140535
5504314789,6389,-2,0,-6719.5984027729,-80197.4236046758,-35825.3862588786,-12641.0202293544,-80539.7130840020,-43942.5298156441,-80473.6789933438,-80462.0223397875,-80503.9157199489,-2417.8673710805
5504314789,6389,-2,0,-6718.1626145478,-80196.8882260156,-35806.9765335855,-12639.7426211880,-80540.4431458113,-44120.7622387066,-80473.4843101947,-80461.4991288241,-80502.0662300318,-2416.9669615156
5504387494,6390,-2,0,-6718.4546392715,-80196.4988597172,-35798.0819472079,-12640.4118445133,-80541.5139031318,-44140.2183859265,-80474.4698936373,-80462.6550600223,-80503.9035522520,-2417.7091910218
5504387494,6390,-2,0,-6717.8949252177,-80196.1581642062,-35808.6070049598,-12640.3631737260,-80541.1610399239,-43970.3573382782,-80473.8980118867,-80462.5698861445,-80502.7841241443,-2417.7943648995
5504387494,6390,-2,0,-6718.4424715747,-80197.7399647932,-35827.9658106051,-12641.7137880734,-80540.3458042367,-43842.4626769723,-80475.1634523563,-80463.5676372840,-80504.4876016995,-2417.7335264154
5504387494,6390,-2,0,-6718.4789746652,-80197.5574493408,-35829.2555864683,-12641.1540740195,-80539.7009163051,-43922.9641591529,-80474.3725520627,-80462.9957555333,-80503.3560058950,-2417.7213587186
5504387494,6390,-2,0,-6719.0143533254,-80197.2654246171,-35812.7318541827,-12640.8863846894,-80541.7329216746,-44105.4309407097,-80474.2265397009,-80462.0101720907,-80503.7697075870,-2418.1107250169
5504387494,6390,-2,0,-6718.3207946065,-80197.7034617027,-35798.4591458094,-12640.9958939608,-80541.6842508873,-44148.8696183676,-80475.0296076912,-80463.2877802571,-80504.9378064820,-2417.3198247234
5504387494,6390,-2,0,-6718.4911423620,-80197.1924184361,-35807.0373720696,-12640.0346459118,-80541.8180955523,-43993.9018316306,-80473.3991363169,-80461.6208057923,-80503.1978258363,-2417.0399676965
5504387494,6390,-2,0,-6717.8462544304,-80195.7566302110,-35824.7170355533,-12640.0346459118,-80539.2263761290,-43846.4658492270,-80472.5352298425,-80460.5378807751,-80501.7011991271,-2417.0399676965
5504393321,6391,-2,0,-6719.0021856286,-80196.9855675901,-35829.8031328253,-12640.6430307529,-80538.4963143197,-43901.5976835318,-80472.7299129917,-80461.2679425844,-80502.2122423937,-2417.2833216329
5504393321,6391,-2,0,-6718.4059684842,-80195.4524377905,-35814.4109963443,-12640.6186953593,-80538.8856806180,-44087.9094572847,-80471.1481124047,-80460.1363467799,-80501.9445530635,-2416.0300488602
5504393321,6391,-2,0,-6718.7709993889,-80194.6250344065,-35800.9291882645,-12640.3266706355,-80540.2849657526,-44157.9223848039,-80472.4622236616,-80461.0367563448,-80501.6403606430,-2417.4171662980
5504393321,6391,-2,0,-6718.8440055699,-80195.6592886365,-35807.0617074632,-12640.4970183911,-80540.2362949653,-44016.0227044547,-80472.6082360234,-80460.5743838655,-80501.7742053080,-2417.8673710805
5504393321,6391,-2,0,-6719.6714089538,-80195.1482453699,-35826.6516993482,-12641.0932355354,-80538.9830221926,-43856.0296589299,-80473.0827761995,-80460.3188622323,-80502.9058011126,-2418.3662466502
5504393321,6391,-2,0,-6719.3307134428,-80195.9634810570,-35832.7598831533,-12641.5556080147,-80539.0073575862,-43886.0108639016,-80473.8250057057,-80462.0710105748,-80503.5750244378,-2417.9525449582
5504393321,6391,-2,0,-6718.2234530319,-80196.5962012918,-35818.4506716895,-12639.7669565817,-80539.5062331560,-44065.3018765876,-80473.5573163756,-80461.3774518558,-80503.1491550490,-2416.6384337013
5504393321,6391,-2,0,-6718.9413471445,-80197.3384307980,-35803.3992307195,-12640.4118445133,-80541.9641079142,-44158.7619558846,-80474.2508750945,-80462.4847122667,-80504.6701171519,-2417.2833216329
5504410488,6392,-2,0,-6718.8683409635,-80197.2167538298,-35806.2464717761,-12641.5921111051,-80542.4264803935,-44041.6478739638,-80474.8714276325,-80463.2634448634,-80504.7917941201,-2417.8065325963
5504410488,6392,-2,0,-6719.3185457460,-80197.6791263091,-35824.3885077391,-12639.8886335499,-80541.1975430144,-43865.8246548723,-80474.3603843659,-80463.4459603158,-80504.6701171519,-2417.2833216329
5504410488,6392,-2,0,-6718.9535148413,-80197.5817847345,-35833.3926033881,-12641.0567324449,-80539.3480530973,-43863.5857986569,-80475.0661107817,-80462.4360414795,-80503.6967014061,-2417.7335264154
5504410488,6392,-2,0,-6718.3451300001,-80196.7665490473,-35819.3754166481,-12640.4483476038,-80539.6887486083,-44037.7055401932,-80473.9223472803,-80462.7158985064,-80503.9157199489,-2417.2468185425
5504410488,6392,-2,0,-6719.3793842301,-80198.2266726661,-35803.3140568418,-12641.0567324449,-80542.9861944473,-44154.6979451458,-80474.8227568452,-80463.4946311031,-80504.9256387852,-2418.5487621025
5504410488,6392,-2,0,-6718.0652729732,-80196.4501889299,-35801.2698837755,-12640.0954843959,-80542.7671759045,-44053.7182292122,-80473.5694840724,-80461.8884951224,-80503.7088691029,-2417.0034646060
5504410488,6392,-2,0,-6720.3162968855,-80197.8616417614,-35819.8742922178,-12641.2635832909,-80541.8667663396,-43875.1451106387,-80474.8349245420,-80463.1661032888,-80504.6944525455,-2419.1206438532
5504410488,6392,-2,0,-6718.7223286016,-80197.4966108567,-35830.4966915442,-12640.6308630561,-80538.9830221926,-43847.8407989680,-80474.9566015103,-80462.3021968144,-80504.3659247313,-2417.5631786599
5504448245,6393,-2,0,-6718.9778502349,-80197.2289215266,-35819.6066028877,-12640.6065276625,-80540.1389533907,-44008.7950925419,-80474.2265397009,-80462.4482091763,-80503.7332044965,-2417.1981477552
5504448245,6393,-2,0,-6718.8196701762,-80197.5209462504,-35800.4789834820,-12640.9350554767,-80541.8059278555,-44144.8421107192,-80474.6889121802,-80462.4968799636,-80504.9013033915,-2417.1859800584
5504448245,6393,-2,0,-6719.4037196237,-80198.2875111502,-35799.1405368315,-12642.0058127971,-80544.3246410978,-44076.0216174886,-80475.9543526497,-80464.2611960029,-80505.3271727803,-2419.5100101515
5504448245,6393,-2,0,-6718.1504468510,-80197.3627661917,-35814.0946362269,-12639.6939504007,-80541.2097107112,-43887.5318260044,-80474.0196888549,-80462.1926875430,-80503.8670491616,-2417.1129738774
5504448245,6393,-2,0,-6717.2500372861,-80196.7057105632,-35826.8950532846,-12640.1441551832,-80538.6179912879,-43831.0980481396,-80474.0926950358,-80461.9493336065,-80503.9035522520,-2416.6140983077
5504448245,6393,-2,0,-6718.3694653938,-80196.2311703871,-35819.3754166481,-12640.0711490023,-80538.3989727451,-43979.9333156779,-80473.0827761995,-80461.2314394940,-80503.3681735918,-2416.3829120681
5504448245,6393,-2,0,-6718.0044344891,-80195.6592886365,-35799.7124185822,-12639.9981428213,-80540.2362949653,-44132.1390352360,-80473.1801177741,-80461.0124209512,-80503.0031426871,-2417.0156323028
5504448245,6393,-2,0,-6718.3086269097,-80196.0364872380,-35794.5289797356,-12640.3266706355,-80541.2948845889,-44085.3177378614,-80473.9831857644,-80462.1926875430,-80503.7940429806,-2417.9038741709
5504488208,6394,-2,0,-6719.1847010809,-80197.3384307980,-35809.3005636787,-12640.1319874864,-80541.5260708286,-43905.6130234833,-80474.1291981263,-80462.9714201397,-80504.3537570345,-2417.0886384838
5504488208,6394,-2,0,-6717.9192606113,-80196.5718658982,-35825.0455633676,-12640.2049936673,-80539.2872146132,-43827.7397638165,-80473.7641672216,-80462.1318490589,-80503.7088691029,-2416.8087814569
5504488208,6394,-2,0,-6717.2013664988,-80196.5231951109,-35820.2149877288,-12639.9859751245,-80539.1168668576,-43955.5492512447,-80473.4599748010,-80462.4968799636,-80503.0031426871,-2416.4194151585
5504488208,6394,-2,0,-6718.1017760637,-80195.6957917269,-35801.3063868660,-12639.9859751245,-80539.6279101242,-44122.7212378951,-80472.8637576567,-80462.4482091763,-80503.2343289268,-2416.5775952172
5504488208,6394,-2,0,-6718.5154777557,-80198.0319895169,-35794.6263213102,-12640.4726829974,-80542.7793436013,-44107.6332938346,-80474.3360489723,-80462.3265322080,-80503.8792168584,-2417.5145078726
5504488208,6394,-2,0,-6718.3086269097,-80198.1293310915,-35808.2663094487,-12640.3023352419,-80542.6454989363,-43928.5734673882,-80475.4676447768,-80462.9349170492,-80505.2419989026,-2417.3319924202
5504488208,6394,-2,0,-6719.0021856286,-80199.1879207151,-35825.0090602771,-12640.3388383324,-80542.0614494888,-43827.3747329118,-80476.0151911338,-80463.9205004918,-80506.3005885262,-2418.3784143470
5504488208,6394,-2,0,-6718.3086269097,-80198.7012128422,-35822.8797133331,-12640.4605153006,-80540.7230028383,-43940.8263380889,-80475.2242908404,-80463.5433018903,-80504.9986449661,-2416.9791292124
5504505956,6395,-2,0,-6719.2333718682,-80197.7521324900,-35805.0175343970,-12639.4627641611,-80542.1952941538,-44116.6982279677,-80474.8227568452,-80463.8353266141,-80504.4389309122,-2416.7479429727
5504505956,6395,-2,0,-6718.4303038779,-80197.9833187296,-35795.1008614863,-12640.3996768165,-80542.9496913569,-44125.4102988930,-80475.1391169626,-80463.5798049808,-80504.7309556360,-2417.8673710805
5504505956,6395,-2,0,-6718.7831670858,-80198.2510080597,-35808.2176386614,-12641.6407818924,-80543.1565422029,-43957.7759397633,-80475.5041478673,-80463.6041403744,-80504.7796264233,-2418.2080665915
5504505956,6395,-2,0,-6717.8705898240,-80197.0829091647,-35825.8729667515,-12640.3145029387,-80538.7518359529,-43835.5635928737,-80473.3748009233,-80462.0345074843,-80504.1104030980,-2416.7236075791
5504505956,6395,-2,0,-6719.1968687777,-80198.2631757566,-35828.9148909573,-12641.8111296479,-80540.0416118162,-43923.2075130893,-80475.3216324149,-80463.0079232301,-80505.1811604184,-2417.4780047821
5504505956,6395,-2,0,-6718.1991176383,-80197.3749338885,-35812.1356370384,-12641.4095956528,-80542.3413065157,-44108.8743989106,-80474.9079307230,-80462.5333830540,-80503.6115275283,-2418.1958988947
5504505956,6395,-2,0,-6718.4789746652,-80195.8418040888,-35801.2212129882,-12640.3023352419,-80542.2196295475,-44148.1273888614,-80474.0683596422,-80462.4117060858,-80503.5993598315,-2417.8917064741
5504505956,6395,-2,0,-6718.6858255112,-80196.8273875314,-35811.7827738305,-12640.3388383324,-80541.7207539777,-43989.8378208917,-80474.5428998183,-80462.4603768731,-80504.0982354012,-2418.1715635010
5504528804,6396,-2,0,-6717.4568881321,-80196.4623566268,-35830.4480207569,-12640.8985523862,-80540.0172764225,-43851.3085925625,-80473.8006703121,-80462.0466751811,-80502.8936334157,-2416.9669615156
5504528804,6396,-2,0,-6717.9435960050,-80198.0928280010,-35836.8117261953,-12641.1297386259,-80540.3458042367,-43919.9830734312,-80475.0417753880,-80463.4216249221,-80504.9743095725,-2417.4171662980
5504528804,6396,-2,0,-6717.8462544304,-80197.7156293995,-35822.7458686680,-12640.0954843959,-80540.9055182906,-44104.0316555751,-80474.6645767865,-80461.9128305161,-80503.1369873522,-2417.5631786599
5504528804,6396,-2,0,-6718.2721238192,-80197.2289215266,-35809.3735698596,-12640.2901675451,-80543.0470329314,-44165.6488722864,-80474.6159059992,-80462.8984139587,-80504.5484401837,-2417.3928309044
5504528804,6396,-2,0,-6718.9048440540,-80197.8251386709,-35816.2726539582,-12640.1928259705,-80542.6089958458,-44023.7005211500,-80474.2630427914,-80462.6793954159,-80504.0739000076,-2418.1715635010
5504528804,6396,-2,0,-6717.6272358876,-80196.7178782600,-35835.5584534226,-12640.0224782150,-80540.8690152001,-43865.8003194787,-80473.8736764930,-80461.9615013033,-80503.0396457776,-2416.9669615156
5504528804,6396,-2,0,-6717.7367451590,-80196.4623566268,-35840.8270661469,-12639.9251366404,-80538.4963143197,-43898.2150638150,-80472.5717329330,-80461.4382903400,-80502.2974162714,-2416.7114398823
5504528804,6396,-2,0,-6717.8949252177,-80195.8539717856,-35826.2501653530,-12639.8886335499,-80539.3967238846,-44081.6187580272,-80473.4356394074,-80461.6573088828,-80503.2829997141,-2417.4415016916
5504560852,6397,-2,0,-6718.5276454525,-80196.3163442649,-35811.2473951703,-12640.5335214815,-80541.7207539777,-44172.1099192994,-80472.9489315345,-80461.7059796701,-80503.5385213473,-2418.2810727724
5504560852,6397,-2,0,-6718.9291794476,-80196.5718658982,-35814.5326733125,-12640.5578568752,-80541.9641079142,-44047.6222131039,-80473.7763349184,-80461.3652841590,-80503.2343289268,-2418.5487621025
5504560852,6397,-2,0,-6718.7344962985,-80195.4767731841,-35832.0906598280,-12639.8886335499,-80539.3602207941,-43875.4614707561,-80473.2652916519,-80460.7325639242,-80502.1149008191,-2417.1616446647
5504560852,6397,-2,0,-6718.1139437605,-80195.7079594237,-35840.6932214819,-12639.7182857944,-80538.2894634737,-43884.3803925273,-80472.9245961408,-80460.5135453814,-80502.4312609365,-2417.2711539361
5504560852,6397,-2,0,-6718.2964592128,-80196.2920088712,-35827.5642766099,-12640.3266706355,-80540.1146179971,-44058.4514632763,-80473.5816517693,-80461.8641597288,-80503.3803412886,-2417.2224831488
5504560852,6397,-2,0,-6718.5033100588,-80197.4236046758,-35810.3713209991,-12640.4726829974,-80543.0348652346,-44168.9463181254,-80474.4090551532,-80463.0809294111,-80504.6336140614,-2417.8065325963
5504560852,6397,-2,0,-6719.2090364746,-80197.8129709741,-35811.4785814100,-12641.0810678386,-80543.3268899584,-44068.5871547298,-80474.5428998183,-80463.2756125602,-80504.1712415821,-2417.6605202345
5504560852,6397,-2,0,-6718.0044344891,-80197.2654246171,-35829.1825802874,-12640.0954843959,-80540.4918165986,-43889.6003344643,-80474.2873781850,-80462.9105816555,-80504.0739000076,-2416.2977381903
5504606386,6398,-2,0,-6718.6614901175,-80197.4479400694,-35838.6977192029,-12640.8133785085,-80539.1290345545,-43868.2095234496,-80474.5915706056,-80462.9470847460,-80503.5263536505,-2417.4049986012
5504606386,6398,-2,0,-6720.0729429490,-80197.7521324900,-35828.5498600526,-12641.8354650416,-80541.3800584667,-44036.7807952347,-80474.8227568452,-80463.5433018903,-80504.8039618169,-2418.6704390708
5504606386,6398,-2,0,-6718.7709993889,-80196.5718658982,-35809.6290914929,-12641.0567324449,-80542.9010205696,-44165.8192200420,-80474.7497506643,-80463.1782709856,-80503.6845337092,-2417.5875140535
5504606386,6398,-2,0,-6718.4059684842,-80198.5430327835,-35807.6944276980,-12641.1419063227,-80543.3633930488,-44083.8576142426,-80475.0782784785,-80463.8109912204,-80504.8648003010,-2418.2932404693
5504606386,6398,-2,0,-6719.5375642888,-80199.2609268960,-35824.4736816169,-12641.5069372274,-80542.3048034252,-43901.1961495366,-80475.8326756815,-80463.5676372840,-80504.9256387852,-2417.7943648995
5504606386,6398,-2,0,-6718.8440055699,-80198.2510080597,-35837.3471048556,-12641.0445647481,-80540.5161519923,-43858.5727075658,-80475.3094647181,-80463.2147740761,-80504.5119370932,-2417.6118494472
5504606386,6398,-2,0,-6718.6128193302,-80198.4213558153,-35829.9126420967,-12640.5213537847,-80541.0880337429,-44009.0871172656,-80475.4189739895,-80462.9592524428,-80504.5241047900,-2417.4049986012
5504606386,6398,-2,0,-6718.1261114573,-80198.3118465438,-35811.2352274735,-12639.8886335499,-80542.5359896649,-44158.0197263785,-80474.9200984198,-80464.2246929124,-80504.8891356947,-2418.0133834423
5504632194,6399,-2,0,-6718.1626145478,-80197.4236046758,-35806.4411549253,-12640.7890431148,-80542.3413065157,-44107.3169337173,-80474.6037383024,-80462.9105816555,-80504.2199123694,-2417.7091910218
5504632194,6399,-2,0,-6718.3938007874,-80197.6791263091,-35822.2956638856,-12640.6065276625,-80541.7694247650,-43922.3557743117,-80474.2630427914,-80462.9470847460,-80504.1955769758,-2417.6483525376
5504632194,6399,-2,0,-6718.4546392715,-80196.5231951109,-35836.2155090510,-12640.9472231735,-80540.5891581732,-43848.5708607774,-80475.0904461753,-80462.5698861445,-80504.8648003010,-2417.3806632075
5504632194,6399,-2,0,-6718.8196701762,-80198.0076541233,-35831.7499643170,-12641.6651172861,-80540.7108351414,-43986.3335242067,-80474.6524090897,-80462.5577184477,-80504.4267632154,-2417.1251415743
5504632194,6399,-2,0,-6717.9192606113,-80197.1802507393,-35811.3204013513,-12639.8034596721,-80541.2462138016,-44148.4194135851,-80473.6059871629,-80462.0345074843,-80503.5141859537,-2417.3806632075
5504632194,6399,-2,0,-6718.7223286016,-80197.5209462504,-35804.1049571353,-12640.9837262640,-80543.8135978313,-44119.2899473910,-80474.8714276325,-80464.0421774601,-80505.3271727803,-2418.4514205280
5504632194,6399,-2,0,-6717.9192606113,-80197.1194122552,-35816.7593618311,-12640.6308630561,-80542.2196295475,-43936.4459672327,-80474.9809369039,-80462.8984139587,-80504.4145955186,-2417.8308679900
5504632194,6399,-2,0,-6719.1968687777,-80197.9468156392,-35832.6138707914,-12640.7038692370,-80540.2119595717,-43840.2238207568,-80475.0296076912,-80463.0809294111,-80504.5119370932,-2417.7821972027
5504654668,6400,-2,0,-6719.3672165333,-80197.1680830425,-35828.0874875733,-12641.6894526797,-80540.1876241781,-43953.9431152641,-80474.5063967278,-80463.1052648047,-80503.8427137679,-2418.2810727724
5504654668,6400,-2,0,-6719.9756013744,-80198.0198218201,-35810.4199917864,-12641.5677757115,-80542.1101202761,-44128.7442478224,-80474.6645767865,-80463.3121156507,-80504.9134710883,-2418.8651222199
5504654668,6400,-2,0,-6717.9800990954,-80196.5110274140,-35799.7245862790,-12639.6574473103,-80542.3534742125,-44128.6590739447,-80473.5938194661,-80461.7546504574,-80503.2586643204,-2417.7213587186
5504654668,6400,-2,0,-6717.6272358876,-80196.0243195411,-35810.1644701531,-12640.3996768165,-80541.8545986428,-43950.0981230680,-80472.9976023218,-80461.6816442764,-80502.9423042030,-2416.8817876378
5504654668,6400,-2,0,-6718.4181361811,-80196.0243195411,-35825.8729667515,-12640.5456891783,-80539.8347609702,-43830.4653279049,-80473.9466826740,-80461.4504580368,-80503.5628567410,-2417.0034646060
5504654668,6400,-2,0,-6717.5055589194,-80195.4889408809,-35824.5223524042,-12639.6087765230,-80538.2407926864,-43922.7694760037,-80471.9390126982,-80461.0002532543,-80502.2852485746,-2416.8939553346
5504654668,6400,-2,0,-6718.0409375796,-80196.0121518443,-35806.6723411649,-12640.3023352419,-80539.5427362464,-44103.1799167974,-80472.6690745075,-80461.3287810686,-80502.1149008191,-2417.1616446647
5504654668,6400,-2,0,-6718.6006516334,-80196.5231951109,-35793.8597564104,-12639.8764658531,-80541.6842508873,-44129.9853528984,-80472.9976023218,-80461.2801102813,-80502.6381117824,-2417.5510109631
5504686211,6401,-2,0,-6719.3185457460,-80196.2068349935,-35802.4623180642,-12640.4483476038,-80541.2948845889,-43969.7489534371,-80472.8029191726,-80460.9029116798,-80502.7354533570,-2418.1228927137
5504686211,6401,-2,0,-6718.5519808461,-80196.3893504458,-35821.1640680810,-12640.9715585672,-80539.1290345545,-43833.3247366582,-80473.5573163756,-80460.7934024084,-80502.5894409952,-2417.6848556281
5504686211,6401,-2,0,-6718.6006516334,-80196.6083689886,-35823.2447442378,-12640.9715585672,-80539.2385438259,-43899.2371503481,-80473.1679500773,-80461.6208057923,-80502.8084595380,-2417.0399676965
5504686211,6401,-2,0,-6718.4059684842,-80196.8882260156,-35806.8791920109,-12640.8255462053,-80540.9420213811,-44083.0180431618,-80474.1900366104,-80462.0345074843,-80503.4411797728,-2417.6361848408
5504686211,6401,-2,0,-6719.3915519269,-80197.9589833360,-35794.1274457405,-12640.7525400243,-80543.7284239535,-44141.9096957849,-80474.6767444833,-80463.7501527363,-80504.5484401837,-2418.1715635010
5504686211,6401,-2,0,-6719.4523904110,-80197.3871015853,-35801.7322562548,-12641.4095956528,-80542.1587910634,-43992.8675774007,-80474.7619183611,-80461.5599673082,-80503.2464966236,-2418.0742219264
5504686211,6401,-2,0,-6718.3451300001,-80196.8395552283,-35818.6940256260,-12640.5213537847,-80539.8955994543,-43839.3112434951,-80473.7276641311,-80461.6451411860,-80504.1469061885,-2416.7601106696
5504686211,6401,-2,0,-6718.8440055699,-80197.0220706806,-35825.8851344483,-12640.9593908703,-80539.3358854004,-43885.4633175445,-80473.8493410994,-80462.0831782716,-80503.3560058950,-2417.6605202345
5504734665,6402,-2,0,-6717.7489128558,-80196.1946672967,-35810.9310350529,-12639.2315779215,-80538.9830221926,-44069.1103656932,-80472.7785837790,-80460.8055701052,-80502.5286025110,-2416.9304584251
5504734665,6402,-2,0,-6718.7953347826,-80195.0630714921,-35796.4514758336,-12641.0689001417,-80540.3093011463,-44148.2734012233,-80472.4135528743,-80459.9659990244,-80500.8981311368,-2418.3662466502
5504734665,6402,-2,0,-6718.4911423620,-80195.0387360985,-35801.7322562548,-12640.5213537847,-80540.1876241781,-44017.9208651591,-80472.3892174806,-80461.0367563448,-80503.1856581395,-2417.4658370853
5504734665,6402,-2,0,-6718.2964592128,-80195.3672639127,-35821.6021051667,-12640.5213537847,-80539.3358854004,-43850.2986737262,-80472.5960683266,-80460.1241790831,-80502.6381117824,-2417.4658370853
5504734665,6402,-2,0,-6719.0873595063,-80195.3185931254,-35830.2290022141,-12641.0080616576,-80538.6058235911,-43863.1599292681,-80472.9610992313,-80462.2535260271,-80502.6502794793,-2418.1837311978
5504734665,6402,-2,0,-6717.6880743717,-80195.5011085778,-35816.3091570487,-12639.6087765230,-80538.8978483148,-44042.4631096510,-80472.5839006298,-80460.6352223497,-80502.5651056015,-2416.0178811634
5504734665,6402,-2,0,-6718.0531052764,-80196.2311703871,-35801.5862438929,-12640.6917015402,-80540.9298536843,-44149.6970217516,-80473.2166208646,-80461.4139549463,-80503.5628567410,-2417.3563278139
5504734665,6402,-2,0,-6718.1869499414,-80195.7201271206,-35804.4578203431,-12639.7669565817,-80541.4287292540,-44038.2165834598,-80473.7154964343,-80462.0710105748,-80502.8571303253,-2417.8552033836
5504765980,6403,-2,0,-6718.1017760637,-80195.4402700936,-35822.1131484332,-12640.1928259705,-80539.2385438259,-43859.9233219132,-80472.9124284440,-80461.1219302226,-80501.7377022175,-2417.2468185425
5504765980,6403,-2,0,-6718.2477884255,-80195.9026425729,-35833.1492494516,-12641.1662417163,-80537.2673769405,-43848.3518422346,-80472.3405466933,-80460.3918684132,-80501.7620376112,-2416.6749367918
5504765980,6403,-2,0,-6717.9557637018,-80194.7588790716,-35821.5412666826,-12640.3996768165,-80538.9221837085,-44013.1267926109,-80472.5473975393,-80460.5013776846,-80501.8837145794,-2417.5631786599
5504765980,6403,-2,0,-6718.5763162398,-80195.1239099762,-35803.1802121767,-12639.7182857944,-80540.1632887844,-44132.6014077153,-80472.9124284440,-80461.3531164622,-80502.3947578460,-2418.2810727724
5504765980,6403,-2,0,-6718.9778502349,-80195.8783071793,-35801.2942191692,-12640.8377139021,-80541.6355801000,-44044.4464442331,-80472.4865590552,-80460.9394147702,-80502.2244100905,-2418.0377188360
5504765980,6403,-2,0,-6718.5154777557,-80196.1459965094,-35818.2438208435,-12641.3852602591,-80538.7518359529,-43860.4465328766,-80472.7785837790,-80461.4139549463,-80502.3095839682,-2417.6118494472
5504765980,6403,-2,0,-6718.1626145478,-80195.8418040888,-35829.6206173730,-12640.2536644546,-80537.5594016643,-43822.7631758159,-80472.0363542728,-80460.5743838655,-80501.4335097970,-2417.0643030901
5504765980,6403,-2,0,-6718.5398131493,-80195.7931333015,-35822.2591607951,-12640.7525400243,-80538.9586867989,-43986.8445674733,-80473.0219377154,-80461.3774518558,-80502.5042671174,-2417.3198247234
5504778333,6404,-2,0,-6718.7101609048,-80195.5376116682,-35804.1779633162,-12640.6551984498,-80539.2263761290,-44137.0061139652,-80472.3770497838,-80460.2580237481,-80501.3240005256,-2417.7700295059
5504778333,6404,-2,0,-6719.3307134428,-80195.1239099762,-35801.0873683232,-12640.4605153006,-80541.0758660461,-44076.2649714251,-80473.2774593487,-80461.2436071908,-80502.7111179634,-2418.1228927137
5504778333,6404,-2,0,-6719.9269305871,-80196.6083689886,-35817.7936160611,-12642.1761605526,-80540.8690152001,-43889.2961420438,-80474.6889121802,-80462.2170229366,-80503.6845337092,-2418.9137930072
5504778333,6404,-2,0,-6719.0873595063,-80196.5596982013,-35831.5674488647,-12641.2027448068,-80539.5427362464,-43821.0596982607,-80473.8858441898,-80461.9493336065,-80503.2099935331,-2417.1616446647
5504778333,6404,-2,0,-6718.8196701762,-80195.9513133602,-35823.9991414408,-12640.1198197895,-80540.2241272685,-43957.6664304919,-80474.1535335199,-80462.6915631127,-80503.7332044965,-2416.4194151585
5504778333,6404,-2,0,-6718.2112853351,-80196.4015181427,-35804.8228512478,-12639.8886335499,-80540.4918165986,-44117.4161220803,-80474.2873781850,-80461.3531164622,-80502.5164348142,-2418.0133834423
5504778333,6404,-2,0,-6718.5519808461,-80195.3915993063,-35799.5542385235,-12640.6308630561,-80541.3922261635,-44085.7071041597,-80472.7785837790,-80461.0732594353,-80502.7962918412,-2418.0133834423
5504778333,6404,-2,0,-6718.4911423620,-80195.2942577318,-35814.1433070142,-12641.2514155941,-80538.9586867989,-43901.4030003826,-80471.7930003363,-80460.7447316211,-80501.8837145794,-2417.4293339948
5504807868,6405,-2,0,-6718.5641485429,-80194.3451773796,-35830.1194929427,-12641.0445647481,-80537.2187061532,-43809.8045786995,-80472.4865590552,-80459.7591481784,-80501.5065159779,-2417.1251415743
5504807868,6405,-2,0,-6718.8805086603,-80195.6592886365,-35827.7224566686,-12640.7160369339,-80538.3259665641,-43929.1210137453,-80473.2774593487,-80461.4504580368,-80503.0031426871,-2417.0156323028
5504807868,6405,-2,0,-6719.6227381665,-80197.3019277075,-35810.3713209991,-12640.7890431148,-80542.5359896649,-44098.9333906062,-80474.2265397009,-80463.2634448634,-80504.2685831567,-2418.2445696820
5504807868,6405,-2,0,-6718.1991176383,-80196.5353628077,-35798.9093505919,-12640.3753414228,-80543.2173806870,-44088.1284758275,-80474.1535335199,-80463.1417678952,-80504.4024278218,-2416.8696199410
5504807868,6405,-2,0,-6717.7610805526,-80197.2167538298,-35811.6975999528,-12640.2049936673,-80541.0150275620,-43913.8140511420,-80473.5694840724,-80461.5112965209,-80502.9544718999,-2416.4437505522
5504807868,6405,-2,0,-6717.8340867336,-80196.9003937124,-35829.7179589476,-12639.5357703420,-80539.2628792195,-43801.8712403709,-80473.1679500773,-80461.5964703987,-80502.8936334157,-2416.4315828553
5504807868,6405,-2,0,-6718.5276454525,-80195.5132762746,-35830.5331946347,-12640.1076520927,-80539.0803637672,-43901.4638388667,-80473.8371734025,-80462.2291906335,-80502.8692980221,-2417.3684955107
5504807868,6405,-2,0,-6718.4789746652,-80195.8783071793,-35813.3645744175,-12640.1928259705,-80539.1168668576,-44081.1928886384,-80473.1922854709,-80461.2314394940,-80502.0783977286,-2417.0764707870
5504869862,6406,-2,0,-6717.8827575209,-80194.6493698001,-35803.0585352085,-12639.7669565817,-80539.8712640607,-44107.2195921427,-80472.7785837790,-80461.4504580368,-80503.0518134744,-2417.3441601171
5504869862,6406,-2,0,-6718.7953347826,-80196.3406796585,-35815.1410581537,-12641.1662417163,-80541.2827168921,-43943.4423929059,-80473.2287885614,-80460.8785762861,-80502.8206272348,-2417.5266755694
5504869862,6406,-2,0,-6719.1968687777,-80196.3893504458,-35833.3317649040,-12640.8620492957,-80538.7761713466,-43809.9870941518,-80473.1679500773,-80460.9394147702,-80502.2244100905,-2417.8065325963
5504869862,6406,-2,0,-6719.5132288951,-80196.0243195411,-35835.6679626940,-12641.9449743130,-80538.7275005593,-43885.5241560287,-80473.6668256470,-80461.3044456749,-80502.6381117824,-2417.6970233249
5504869862,6406,-2,0,-6718.5398131493,-80195.0630714921,-35819.8499568242,-12640.7282046307,-80539.3845561877,-44066.6524909350,-80472.8029191726,-80460.8542408925,-80502.9666395967,-2417.7943648995
5504869862,6406,-2,0,-6718.9048440540,-80195.7322948174,-35807.2807260061,-12640.6673661466,-80541.4408969508,-44111.9893292973,-80472.6082360234,-80462.7645692937,-80503.0153103840,-2417.6483525376
5504869862,6406,-2,0,-6717.6880743717,-80196.2190026903,-35814.7760272490,-12640.1076520927,-80541.4652323445,-43959.2603987757,-80473.2531239550,-80461.0002532543,-80502.4799317237,-2417.6361848408
5504869862,6406,-2,0,-6718.3816330906,-80196.5840335950,-35833.8914789578,-12640.6308630561,-80539.2142084322,-43810.3277896629,-80473.6059871629,-80461.3409487654,-80502.9179688094,-2416.8209491537
5504876179,6407,-2,0,-6718.4424715747,-80197.0099029838,-35837.7486388507,-12641.2392478973,-80538.3746373514,-43859.9598250037,-80472.9732669281,-80461.2314394940,-80503.2099935331,-2417.1008061806
5504876179,6407,-2,0,-6718.9170117508,-80196.7178782600,-35821.3709189270,-12640.6551984498,-80539.5305685496,-44041.8790602035,-80472.7907514758,-80462.0466751811,-80502.8692980221,-2417.6970233249
5504876179,6407,-2,0,-6718.0287698827,-80195.6227855460,-35804.5794973114,-12640.3023352419,-80540.5769904764,-44113.7414776398,-80473.6424902534,-80461.5356319146,-80502.8571303253,-2417.4658370853
5504876179,6407,-2,0,-6718.8926763572,-80195.6471209396,-35807.9377816345,-12639.3654225865,-80541.0758660461,-43972.9977284888,-80473.0097700186,-80461.2314394940,-80502.3217516650,-2417.3684955107
5504876179,6407,-2,0,-6718.3451300001,-80196.2311703871,-35825.4349296659,-12640.5700245720,-80539.2263761290,-43804.1465996768,-80472.6690745075,-80461.4504580368,-80503.3316705014,-2416.8939553346
5504876179,6407,-2,0,-6718.3816330906,-80196.4866920204,-35831.5187780774,-12640.8742169926,-80538.8370098307,-43826.7176772834,-80473.0827761995,-80461.7424827605,-80503.0031426871,-2417.0764707870
5504876179,6407,-2,0,-6719.2455395650,-80196.6327043823,-35817.2217343104,-12641.1905771100,-80540.1511210876,-44006.1790377250,-80473.7154964343,-80461.8641597288,-80504.0130615234,-2417.4171662980
5504876179,6407,-2,0,-6718.7709993889,-80196.6205366855,-35798.6051581713,-12640.1198197895,-80540.5769904764,-44098.5318566111,-80472.9489315345,-80461.9493336065,-80502.5042671174,-2417.1251415743
5504906392,6408,-2,0,-6718.6979932080,-80196.3771827490,-35800.0774494869,-12640.6186953593,-80541.9641079142,-43983.4376123629,-80473.9831857644,-80461.7059796701,-80503.5871921346,-2417.7091910218
5504906392,6408,-2,0,-6718.3207946065,-80196.3771827490,-35818.1951500562,-12641.1662417163,-80538.7518359529,-43805.5580525083,-80473.3139624392,-80461.9980043938,-80502.9301365062,-2417.3319924202
5504906392,6408,-2,0,-6717.8949252177,-80196.3163442649,-35826.5421900768,-12640.1198197895,-80538.0704449309,-43796.9311554608,-80473.1557823805,-80461.0124209512,-80502.0297269413,-2416.8817876378
5504906392,6408,-2,0,-6718.5033100588,-80195.5741147587,-35814.1919778015,-12640.4240122101,-80539.8834317575,-43969.3474194419,-80473.6303225565,-80462.3508676017,-80503.3803412886,-2416.6749367918
5504906392,6408,-2,0,-6718.8683409635,-80197.0220706806,-35796.8408421320,-12640.5700245720,-80542.0492817920,-44091.4015862728,-80475.0782784785,-80463.0200909269,-80503.6967014061,-2417.5388432662
5504906392,6408,-2,0,-6719.1116949000,-80197.5817847345,-35796.5488174082,-12640.6673661466,-80543.4485669266,-43998.1605255186,-80475.6136571387,-80463.7623204331,-80504.4876016995,-2418.7191098581
5504906392,6408,-2,0,-6717.8705898240,-80198.6160389644,-35813.5957606572,-12640.4848506942,-80542.1466233665,-43814.2092849494,-80474.6645767865,-80463.5067987999,-80505.1689927216,-2417.5145078726
5504906392,6408,-2,0,-6718.0044344891,-80197.7277970963,-35826.0189791134,-12639.5966088262,-80539.5427362464,-43785.5056881441,-80474.9079307230,-80463.4824634062,-80504.4145955186,-2416.4072474617
5504930440,6409,-2,0,-6718.1139437605,-80197.2775923139,-35817.2217343104,-12639.5114349484,-80541.1488722271,-43947.0683665591,-80475.1877877499,-80463.3242833475,-80505.1568250248,-2416.7844460632
5504930440,6409,-2,0,-6718.5033100588,-80197.2775923139,-35799.7124185822,-12640.5213537847,-80541.4408969508,-44086.1329735485,-80474.3117135786,-80462.5820538413,-80503.8792168584,-2417.5388432662
5504930440,6409,-2,0,-6718.8561732667,-80197.8129709741,-35798.0697795111,-12641.0445647481,-80543.6675854694,-44019.7946904698,-80474.9322661166,-80463.2026063793,-80504.9499741788,-2417.8795387773
5504930440,6409,-2,0,-6719.5497319856,-80198.3483496343,-35815.0923873664,-12641.6407818924,-80542.1831264570,-43835.0038788198,-80475.1269492658,-80463.6284757681,-80505.0716511470,-2418.1472281074
5504930440,6409,-2,0,-6719.9390982839,-80198.0684926074,-35828.6472016271,-12641.1540740195,-80540.3458042367,-43774.5060902161,-80475.0417753880,-80463.1539355920,-80504.8161295138,-2417.5996817503
5504930440,6409,-2,0,-6718.9048440540,-80197.7643001868,-35821.7359498317,-12641.2879186845,-80540.6743320510,-43921.7473894706,-80475.1634523563,-80462.6672277191,-80505.1811604184,-2418.1837311978
5504930440,6409,-2,0,-6717.9800990954,-80197.3627661917,-35804.4213172527,-12640.7282046307,-80542.2804680316,-44081.8986150541,-80475.0782784785,-80462.8497431714,-80503.4898505601,-2417.3198247234
5504930440,6409,-2,0,-6717.6515712812,-80196.4501889299,-35800.1261202742,-12639.5722734325,-80542.3899773030,-44040.2242534355,-80473.7519995248,-80462.2413583303,-80503.8913845552,-2417.1008061806
5504968499,6410,-2,0,-6718.6006516334,-80197.6547909154,-35814.7030210681,-12640.5335214815,-80541.7572570682,-43857.7088010914,-80473.9223472803,-80462.1075136652,-80504.6336140614,-2416.7114398823
5504968499,6410,-2,0,-6718.7344962985,-80197.1680830425,-35831.0199025076,-12640.1198197895,-80539.8834317575,-43776.5989340697,-80474.0075211581,-80462.7524015969,-80504.0130615234,-2416.7844460632
5504968499,6410,-2,0,-6719.1725333841,-80197.8981448519,-35828.0874875733,-12640.6308630561,-80540.2727980558,-43901.8410374682,-80475.0661107817,-80462.6672277191,-80504.9986449661,-2416.5654275204
5504968499,6410,-2,0,-6718.8561732667,-80197.8129709741,-35809.6899299770,-12642.5046883668,-80543.3147222616,-44069.1833718741,-80475.6258248355,-80463.6893142522,-80505.0959865407,-2418.4392528311
5504968499,6410,-2,0,-6719.3550488364,-80198.6525420549,-35801.3185545628,-12640.7647077212,-80543.8744363154,-44057.8309107383,-80474.8227568452,-80463.1417678952,-80504.3294216408,-2418.2445696820
5504968499,6410,-2,0,-6718.7466639953,-80196.4745243236,-35813.9607915619,-12640.2414967578,-80541.0393629556,-43877.1406129177,-80474.7497506643,-80462.5455507509,-80504.6214463646,-2416.3585766744
5504968499,6410,-2,0,-6719.0386887190,-80197.5574493408,-35830.0586544586,-12640.1928259705,-80540.3214688431,-43767.3271490906,-80474.6280736960,-80463.3242833475,-80503.8062106774,-2417.0764707870
5504968499,6410,-2,0,-6719.4888935015,-80198.1536664851,-35828.7080401113,-12640.8863846894,-80541.1732076207,-43872.0423479488,-80475.0296076912,-80463.7379850395,-80505.1203219343,-2417.1859800584
5505010878,6411,-2,0,-6718.2964592128,-80197.2775923139,-35808.9720358644,-12639.9859751245,-80541.9032694301,-44049.9705785907,-80475.3459678086,-80462.7767369905,-80504.6701171519,-2417.0156323028
5505010878,6411,-2,0,-6718.4546392715,-80196.9368968029,-35797.6439101223,-12640.2901675451,-80541.9276048237,-44061.4203813011,-80474.6159059992,-80462.8984139587,-80503.8548814647,-2417.8308679900
5505010878,6411,-2,0,-6719.2455395650,-80197.7399647932,-35808.1933032678,-12641.0445647481,-80542.6576666331,-43891.8270229829,-80474.1291981263,-80463.2026063793,-80504.8282972106,-2417.2833216329
5505010878,6411,-2,0,-6719.4645581078,-80197.2897600107,-35826.4205131085,-12640.8985523862,-80539.9077671511,-43766.3537333448,-80474.2508750945,-80462.0953459684,-80503.2951674109,-2417.4901724789
5505010878,6411,-2,0,-6718.6736578144,-80197.5209462504,-35827.0410656465,-12640.9958939608,-80539.9442702416,-43846.7700416476,-80474.2752104882,-80462.3021968144,-80504.2077446726,-2417.7578618090
5505010878,6411,-2,0,-6718.1261114573,-80196.9612321965,-35807.9621170281,-12640.1319874864,-80540.5526550827,-44029.5653510186,-80473.7885026153,-80462.1075136652,-80502.5772732983,-2417.2103154520
5505010878,6411,-2,0,-6718.2721238192,-80198.9810698691,-35796.4879789241,-12640.0103105181,-80543.2052129901,-44072.8580163147,-80475.3581355054,-80463.3851218316,-80504.8526326042,-2417.1616446647
5505010878,6411,-2,0,-6718.1991176383,-80197.9103125487,-35804.1657956194,-12639.3532548897,-80542.9983621441,-43914.8239699783,-80475.8448433783,-80463.9448358855,-80505.1933281153,-2417.2589862393
5505033621,6412,-2,0,-6717.7732482495,-80197.5331139472,-35822.7580363648,-12639.7912919753,-80540.0902826035,-43766.3293979511,-80474.8105891484,-80462.3386999049,-80504.2320800663,-2416.0543842538
5505033621,6412,-2,0,-6718.5154777557,-80197.6426232186,-35827.4182642480,-12640.9472231735,-80539.6157424274,-43826.2066340168,-80474.4577259405,-80463.6771465554,-80503.9765584330,-2418.2080665915
5505033621,6412,-2,0,-6718.8196701762,-80196.9612321965,-35813.2307297525,-12640.6795338434,-80541.4774000413,-44011.5328243270,-80474.5428998183,-80463.8353266141,-80504.7796264233,-2418.2810727724
5505033621,6412,-2,0,-6718.8318378731,-80197.7886355805,-35799.5664062203,-12641.6894526797,-80543.3147222616,-44078.0171197676,-80474.7984214516,-80463.5189664967,-80504.7917941201,-2418.1593958042
5505033621,6412,-2,0,-6719.5497319856,-80197.6791263091,-35805.6380869350,-12641.2514155941,-80542.6576666331,-43938.4779726021,-80474.8714276325,-80462.8375754746,-80504.9013033915,-2418.3175758629
5505033621,6412,-2,0,-6719.3793842301,-80197.4966108567,-35824.6440293724,-12641.0080616576,-80540.0172764225,-43778.6674425296,-80474.7984214516,-80462.2900291176,-80503.6967014061,-2417.8917064741
5505033621,6412,-2,0,-6719.8417567094,-80197.2167538298,-35832.7233800628,-12641.6407818924,-80539.9199348479,-43808.0037595697,-80474.6889121802,-80462.3143645112,-80503.4655151664,-2418.2567373788
5505033621,6412,-2,0,-6719.0873595063,-80195.9391456634,-35818.2438208435,-12640.3996768165,-80541.0880337429,-43989.4606222902,-80474.0561919454,-80461.7668181542,-80503.1004842617,-2417.7943648995
5505077507,6413,-2,0,-6720.0851106458,-80197.0342383774,-35803.1802121767,-12642.5776945478,-80542.4143126967,-44085.7192718565,-80475.2242908404,-80463.3607864380,-80504.0252292203,-2418.1228927137
5505077507,6413,-2,0,-6718.3572976970,-80197.1072445584,-35807.0252043728,-12640.8742169926,-80542.6698343299,-43963.3244095145,-80474.6280736960,-80463.5311341935,-80503.6845337092,-2417.8552033836
5505077507,6413,-2,0,-6718.6249870271,-80198.0563249106,-35825.3010850008,-12640.1563228800,-80541.9641079142,-43788.4259353816,-80475.1269492658,-80463.9448358855,-80505.3028373867,-2417.3928309044
5505077507,6413,-2,0,-6718.6128193302,-80198.3726850280,-35835.1934225179,-12640.3631737260,-80539.6887486083,-43792.1370829126,-80474.9687692071,-80463.6893142522,-80504.8769679979,-2416.2855704935
5505077507,6413,-2,0,-6718.2721238192,-80197.8981448519,-35823.1474026632,-12639.9738074277,-80541.4774000413,-43967.2667432852,-80474.5915706056,-80463.0809294111,-80504.4997693964,-2416.7601106696
5505077507,6413,-2,0,-6717.9557637018,-80198.2388403629,-35805.6502546318,-12639.9008012467,-80543.3998961393,-44079.9031127752,-80475.2729616276,-80462.9714201397,-80504.5849432741,-2417.4901724789
5505077507,6413,-2,0,-6720.3041291886,-80198.4213558153,-35808.3028125392,-12641.9328066162,-80543.8501009218,-43982.5128674043,-80475.1877877499,-80464.1760221251,-80505.4001789613,-2418.6582713739
5505077507,6413,-2,0,-6719.1725333841,-80198.0928280010,-35825.7512897833,-12640.6795338434,-80541.9397725205,-43800.3502782681,-80475.7109987133,-80463.2999479539,-80504.9134710883,-2418.0377188360
5505087884,6414,0,0,-6718.7223286016,-80197.7156293995,-35836.0694966891,-12640.2171613641,-80539.8104255765,-43773.4840036830,-80475.3581355054,-80462.6793954159,-80504.2442477631,-2417.1981477552
5505087884,6414,0,0,-6719.0265210222,-80197.7277970963,-35825.7026189960,-12640.7160369339,-80541.2583814985,-43937.9912647292,-80475.2729616276,-80464.3342021838,-80504.6457817582,-2416.8939553346
5505087884,6414,0,0,-6718.7344962985,-80198.3726850280,-35808.1811355710,-12641.6042788019,-80543.0957037187,-44072.9310224956,-80475.5284832609,-80463.7501527363,-80505.4245143549,-2417.5388432662
5505087884,6414,0,0,-6719.4280550174,-80197.7277970963,-35805.1270436684,-12641.4095956528,-80543.3390576552,-43997.1871097728,-80475.0174399944,-80464.1030159442,-80504.9621418756,-2417.2346508457
5505087884,6414,0,0,-6718.4911423620,-80197.1680830425,-35820.2879939098,-12640.5335214815,-80540.8446798065,-43809.2205292520,-80474.8227568452,-80462.4117060858,-80504.3659247313,-2417.9647126550
5505087884,6414,0,0,-6718.8075024794,-80196.4866920204,-35832.8693924247,-12640.7525400243,-80539.5549039433,-43759.4789846398,-80474.1900366104,-80462.8010723841,-80503.7940429806,-2417.3563278139
5505087884,6414,0,0,-6718.7831670858,-80196.4988597172,-35825.5079358468,-12640.4605153006,-80539.9807733321,-43907.2556625544,-80474.0805273390,-80461.9128305161,-80503.3925089855,-2417.0764707870
5505087884,6414,0,0,-6718.4546392715,-80195.8904748761,-35805.2852237271,-12640.2658321514,-80540.5891581732,-44053.9494154518,-80473.4478071042,-80461.4626257336,-80503.0031426871,-2416.9304584251
5505126202,6415,0,0,-6719.0995272032,-80196.8030521378,-35799.8462632472,-12641.0445647481,-80543.0105298410,-44006.6779132947,-80473.5208132852,-80462.8010723841,-80504.2564154599,-2418.0012157455
5505126202,6415,0,0,-6720.2432907045,-80198.0319895169,-35815.4817536647,-12642.2735021272,-80541.8789340364,-43821.3882260749,-80474.1291981263,-80462.8375754746,-80504.2199123694,-2418.5000913152
5505126202,6415,0,0,-6718.3451300001,-80196.7543813505,-35828.4160153875,-12640.0103105181,-80538.2894634737,-43740.9232469848,-80473.4599748010,-80461.9128305161,-80502.7597887507,-2416.6871044886
5505126202,6415,0,0,-6718.7466639953,-80196.7908844410,-35822.0036391618,-12640.3145029387,-80538.8856806180,-43873.2591176311,-80473.8736764930,-80462.2778614207,-80503.7210367997,-2416.8087814569
5505126202,6415,0,0,-6718.3816330906,-80196.8273875314,-35803.7885970179,-12640.1198197895,-80541.3313876794,-44041.8303894162,-80474.1170304295,-80462.5455507509,-80504.1590738853,-2417.3198247234
5505126202,6415,0,0,-6718.2721238192,-80197.0464060743,-35796.7313328606,-12640.1684905768,-80542.2926357284,-44018.7726039367,-80474.3238812755,-80462.5698861445,-80504.0860677044,-2416.9912969092
5505126202,6415,0,0,-6718.7953347826,-80197.7399647932,-35809.5804207056,-12640.6430307529,-80541.1002014398,-43836.9385426147,-80473.6059871629,-80462.1075136652,-80503.1491550490,-2417.4536693885
5505126202,6415,0,0,-6718.7223286016,-80197.6304555218,-35826.2623330499,-12640.6673661466,-80539.7739224861,-43737.5892980553,-80474.4090551532,-80462.2413583303,-80503.9887261298,-2417.4293339948
5505160914,6416,0,0,-6719.2333718682,-80196.2798411744,-35823.1230672695,-12640.3996768165,-80539.2872146132,-43848.1449913886,-80474.3603843659,-80462.0831782716,-80503.2221612299,-2416.8452845473
5505160914,6416,0,0,-6718.6858255112,-80197.0342383774,-35804.6281680987,-12641.1662417163,-80540.4066427209,-44023.8100304214,-80472.9732669281,-80462.0466751811,-80503.0518134744,-2417.9038741709
5505160914,6416,0,0,-6719.7930859221,-80196.1946672967,-35795.9891033544,-12641.1054032322,-80542.0006110047,-44032.8992999481,-80473.9831857644,-80462.4725445699,-80503.6723660124,-2418.0133834423
5505160914,6416,0,0,-6719.2577072619,-80196.4988597172,-35808.0351232091,-12640.5578568752,-80540.9420213811,-43860.4100297861,-80473.5573163756,-80461.9249982129,-80502.7232856602,-2417.4171662980
5505160914,6416,0,0,-6719.9269305871,-80198.1049956979,-35827.8076305464,-12641.3365894718,-80540.4918165986,-43738.5505461043,-80474.8957630261,-80463.1904386825,-80503.4290120759,-2417.9403772614
5505160914,6416,0,0,-6718.0531052764,-80197.3262631012,-35828.3308415097,-12639.5966088262,-80538.4598112292,-43829.9299492446,-80474.0926950358,-80462.5212153572,-80503.7818752838,-2416.3342412808
5505160914,6416,0,0,-6719.4280550174,-80198.4213558153,-35814.5691764030,-12640.7525400243,-80541.8545986428,-44018.0425421273,-80474.8349245420,-80463.3972895285,-80503.9643907361,-2417.6848556281
5505160914,6416,0,0,-6718.5276454525,-80196.8517229251,-35802.2676349150,-12640.0711490023,-80541.6599154936,-44051.3576960285,-80474.0683596422,-80463.4946311031,-80504.2077446726,-2418.0498865328
5505199806,6417,0,0,-6719.3793842301,-80197.9589833360,-35813.4619159921,-12641.5312726210,-80543.0835360219,-43892.3624016432,-80475.0539430848,-80463.7623204331,-80504.6944525455,-2418.4392528311
5505199806,6417,0,0,-6718.6006516334,-80196.6813751696,-35831.5796165615,-12640.1806582737,-80539.3237177036,-43752.5068943603,-80473.7398318280,-80462.2656937239,-80503.5506890442,-2417.4901724789
5505199806,6417,0,0,-6718.5884839366,-80195.5741147587,-35834.3538514371,-12639.9129689436,-80537.9731033563,-43813.3697138686,-80473.1192792900,-80460.8055701052,-80502.1027331222,-2417.0156323028
5505199806,6417,0,0,-6718.5763162398,-80196.3406796585,-35818.9738826529,-12640.7768754180,-80539.5549039433,-43996.5422218412,-80472.9976023218,-80460.6838931369,-80502.6502794793,-2417.9282095646
5505199806,6417,0,0,-6718.8683409635,-80195.7566302110,-35805.5772484508,-12640.8742169926,-80540.9785244715,-44058.2567801271,-80473.5938194661,-80461.5356319146,-80503.2221612299,-2417.8795387773
5505199806,6417,0,0,-6719.0630241127,-80195.6957917269,-35812.4398294590,-12640.3145029387,-80541.6355801000,-43912.6337845502,-80472.9732669281,-80461.2071041003,-80503.0639811712,-2417.9525449582
5505199806,6417,0,0,-6719.6470735602,-80197.1194122552,-35830.8738901457,-12641.5191049242,-80540.1146179971,-43755.0986137835,-80473.7519995248,-80461.7668181542,-80504.5484401837,-2417.6240171440
5505199806,6417,0,0,-6719.3915519269,-80195.7566302110,-35836.4588629875,-12640.3510060292,-80538.1921218991,-43795.9699074118,-80472.9732669281,-80460.8664085893,-80502.2609131809,-2417.3319924202
5505217946,6418,0,0,-6717.8584221272,-80195.5619470619,-35821.5777697730,-12639.5236026452,-80538.6666620752,-43982.8900660058,-80472.2432051187,-80460.4405392005,-80502.4069255428,-2416.6019306109
5505217946,6418,0,0,-6718.4789746652,-80196.1703319030,-35807.0860428569,-12641.4826018337,-80541.8545986428,-44067.3095465634,-80473.9588503708,-80461.6816442764,-80502.4190932396,-2418.1593958042
5505217946,6418,0,0,-6718.6858255112,-80196.0608226316,-35809.3005636787,-12641.2879186845,-80540.8203444128,-43936.7014888660,-80473.0827761995,-80462.2048552398,-80502.9058011126,-2417.2833216329
5505217946,6418,0,0,-6719.6835766507,-80196.4745243236,-35827.7224566686,-12641.1419063227,-80539.3358854004,-43765.1612990561,-80473.4113040137,-80461.7789858510,-80503.1856581395,-2417.9038741709
5505217946,6418,0,0,-6719.2577072619,-80197.4114369789,-35834.6823792513,-12641.5556080147,-80538.4963143197,-43771.7683584310,-80474.4212228500,-80460.9880855575,-80502.9423042030,-2416.8696199410
5505217946,6418,0,0,-6719.9025951935,-80197.2289215266,-35821.7359498317,-12642.4195144891,-80539.8590963638,-43947.7375898844,-80474.7375829674,-80462.6915631127,-80504.0739000076,-2418.8529545231
5505217946,6418,0,0,-6718.8318378731,-80195.9391456634,-35802.9368582403,-12640.8133785085,-80541.3313876794,-44057.3807059559,-80472.7299129917,-80461.2801102813,-80503.4533474696,-2416.8817876378
5505217946,6418,0,0,-6718.8318378731,-80196.0973257221,-35804.3239756781,-12640.0103105181,-80541.7815924618,-43949.2342165936,-80473.1679500773,-80462.1318490589,-80503.1978258363,-2417.8187002932
5505251006,6419,0,0,-6718.8075024794,-80196.5718658982,-35821.6507759540,-12641.2027448068,-80540.2727980558,-43767.7286830858,-80474.4577259405,-80462.8375754746,-80503.0153103840,-2418.0255511391
5505251006,6419,0,0,-6719.6349058634,-80196.8030521378,-35831.5552811678,-12641.2027448068,-80539.0073575862,-43749.6596533037,-80473.2652916519,-80462.0101720907,-80503.0761488681,-2417.6361848408
5505251006,6419,0,0,-6717.6759066749,-80196.2798411744,-35819.0347211370,-12639.8886335499,-80538.4354758355,-43916.7099629859,-80472.3648820870,-80460.7934024084,-80502.5164348142,-2416.8817876378
5505251006,6419,0,0,-6718.7588316921,-80196.9733998933,-35801.5740761961,-12641.7016203765,-80542.1222879729,-44046.2350956661,-80474.8592599357,-80462.3630352985,-80504.4389309122,-2418.1837311978
5505251006,6419,0,0,-6719.1847010809,-80197.2045861330,-35799.0310275601,-12641.3974279560,-80542.3291388189,-43966.0621412997,-80474.0440242485,-80462.2170229366,-80503.7332044965,-2418.2810727724
5505251006,6419,0,0,-6719.1847010809,-80197.5452816440,-35816.3821632296,-12641.1175709290,-80541.7815924618,-43783.1938257477,-80474.3968874564,-80462.6793954159,-80504.7431233328,-2417.4293339948
5505251006,6419,0,0,-6718.6006516334,-80197.1924184361,-35827.6859535781,-12639.5601057357,-80539.0195252830,-43737.7353104172,-80473.8615087962,-80462.1440167557,-80504.1712415821,-2416.3342412808
5505251006,6419,0,0,-6718.9535148413,-80197.7521324900,-35820.3001616066,-12640.5213537847,-80540.6864997478,-43892.5814201860,-80475.5406509578,-80463.6284757681,-80503.7575398902,-2417.2103154520
5505280919,6420,0,0,-6718.6858255112,-80197.6061201281,-35801.1603745041,-12639.8277950658,-80542.4386480903,-44041.2585076655,-80474.8714276325,-80463.2999479539,-80504.3902601250,-2416.8452845473
5505280919,6420,0,0,-6718.6128193302,-80197.7156293995,-35796.7313328606,-12640.4726829974,-80542.9010205696,-43985.2384314927,-80474.5794029087,-80462.6063892350,-80503.9400553425,-2417.9647126550
5505280919,6420,0,0,-6718.0409375796,-80196.5962012918,-35811.4177429259,-12640.6551984498,-80542.3656419094,-43795.5075349325,-80473.7033287375,-80462.0101720907,-80503.7088691029,-2417.5388432662
5505280919,6420,0,0,-6719.0021856286,-80196.8395552283,-35826.4935192895,-12641.0445647481,-80540.1267856939,-43726.0421537704,-80474.3238812755,-80462.5577184477,-80503.7210367997,-2417.5145078726
5505280919,6420,0,0,-6719.2698749587,-80197.2410892234,-35820.1906523352,-12641.1054032322,-80539.6887486083,-43862.4298674587,-80474.7740860579,-80462.8254077778,-80504.8891356947,-2418.1107250169
5505280919,6420,0,0,-6717.6150681908,-80196.1703319030,-35799.4690646457,-12639.4262610706,-80540.4309781145,-44020.2448952523,-80473.3748009233,-80461.3166133717,-80503.1248196554,-2416.6627690950
5505280919,6420,0,0,-6719.1847010809,-80196.3893504458,-35792.2657881265,-12640.8985523862,-80543.3268899584,-43993.4759622418,-80473.8250057057,-80462.0831782716,-80504.0982354012,-2418.2324019851
5505280919,6420,0,0,-6717.6272358876,-80197.3262631012,-35804.8593543383,-12640.0833166991,-80541.6599154936,-43807.6143932714,-80473.7154964343,-80462.3630352985,-80503.4168443791,-2416.3220735839
5505316424,6421,0,0,-6718.3329623033,-80195.7201271206,-35819.6431059782,-12639.6087765230,-80538.0217741436,-43710.6986880766,-80472.9976023218,-80461.1097625258,-80501.4578451906,-2415.8718688015
5505316424,6421,0,0,-6718.5154777557,-80196.7422136537,-35815.5425921488,-12641.2270802004,-80538.4719789260,-43826.3769817723,-80473.5694840724,-80461.4504580368,-80503.0639811712,-2417.3563278139
5505316424,6421,0,0,-6718.1747822446,-80195.4402700936,-35796.0621095353,-12640.2901675451,-80539.2263761290,-43998.9757612058,-80472.2918759060,-80460.0876759926,-80502.4190932396,-2417.3441601171
5505316424,6421,0,0,-6719.5862350761,-80196.2068349935,-35786.6078091039,-12640.8742169926,-80542.3778096062,-43994.7779058019,-80472.9976023218,-80461.1097625258,-80503.5141859537,-2417.4780047821
5505316424,6421,0,0,-6719.3185457460,-80197.6061201281,-35797.5587362445,-12640.9837262640,-80542.6820020267,-43814.7811667001,-80474.5794029087,-80463.2269417729,-80504.5241047900,-2418.8042837358
5505316424,6421,0,0,-6719.8417567094,-80199.0419083532,-35814.4353317380,-12641.8598004352,-80541.2097107112,-43698.1902957426,-80475.6258248355,-80463.7014819490,-80505.2663342962,-2418.6096005867
5505316424,6421,0,0,-6718.4668069684,-80198.2023372724,-35812.2451463098,-12640.8255462053,-80540.1754564812,-43792.9279832061,-80474.9809369039,-80463.4702957094,-80504.4145955186,-2417.0156323028
5505316424,6421,0,0,-6718.1747822446,-80196.8273875314,-35793.4582224152,-12640.8620492957,-80541.5139031318,-43973.0342315793,-80474.1291981263,-80462.6307246286,-80503.5263536505,-2417.3198247234
5505360072,6422,0,0,-6718.6371547239,-80195.6592886365,-35780.8889915971,-12640.3510060292,-80541.1367045302,-44000.1803631912,-80473.2896270455,-80461.3774518558,-80503.5871921346,-2417.8917064741
5505360072,6422,0,0,-6718.4059684842,-80195.7079594237,-35789.9417580334,-12640.6430307529,-80540.5648227796,-43835.5879282673,-80473.3139624392,-80461.4017872495,-80502.0783977286,-2417.8308679900
5505360072,6422,0,0,-6718.1382791541,-80195.2334192476,-35806.8548566173,-12639.3654225865,-80537.8879294785,-43693.9437695514,-80472.2918759060,-80460.6838931369,-80502.8449626284,-2417.2468185425
5505360072,6422,0,0,-6719.5862350761,-80197.1924184361,-35810.5051656641,-12641.9206389193,-80539.3967238846,-43766.0373732274,-80474.0926950358,-80462.2170229366,-80504.6092786678,-2417.8673710805
5505360072,6422,0,0,-6719.8052536189,-80198.1536664851,-35794.7358305816,-12641.2149125036,-80541.3678907699,-43952.8358548532,-80474.6280736960,-80463.0809294111,-80504.7309556360,-2418.5609297994
5505360072,6422,0,0,-6718.8561732667,-80196.5596982013,-35779.7208927021,-12640.1928259705,-80542.1709587602,-44004.1226969619,-80474.2752104882,-80462.1318490589,-80503.3195028045,-2416.7114398823
5505360072,6422,0,0,-6718.0652729732,-80197.1924184361,-35786.4496290452,-12639.7912919753,-80540.7838413224,-43853.4622749002,-80473.4599748010,-80461.6816442764,-80503.4776828632,-2417.8430356868
5505360072,6422,0,0,-6718.0652729732,-80195.8418040888,-35805.2000498493,-12640.3266706355,-80538.7275005593,-43702.0352879387,-80472.6934099012,-80460.4770422909,-80502.1757393032,-2416.8452845473
5505374586,6423,0,0,-6718.6614901175,-80195.9269779665,-35811.5029168036,-12641.1784094131,-80539.1168668576,-43747.8223310834,-80473.1557823805,-80461.3044456749,-80502.6259440856,-2417.4901724789
5505374586,6423,0,0,-6717.8219190367,-80195.0509037953,-35796.2081218972,-12640.0224782150,-80539.3723884909,-43931.5545531098,-80472.7785837790,-80461.0854271321,-80502.3217516650,-2417.1859800584
5505374586,6423,0,0,-6718.4911423620,-80195.2334192476,-35781.8745750398,-12640.9350554767,-80541.1002014398,-44012.1412091682,-80472.2067020283,-80460.5257130782,-80502.3704224523,-2417.6726879313
5505374586,6423,0,0,-6719.2698749587,-80195.6836240301,-35788.2626158718,-12641.2879186845,-80541.0028598652,-43881.0221082042,-80473.0341054122,-80461.5599673082,-80503.5385213473,-2417.5996817503
5505374586,6423,0,0,-6719.6592412570,-80196.7300459569,-35807.1833844315,-12640.7525400243,-80540.4431458113,-43711.2827375241,-80474.1291981263,-80462.0953459684,-80503.8062106774,-2417.5631786599
5505374586,6423,0,0,-6718.7953347826,-80197.0950768616,-35814.4961702221,-12641.3974279560,-80538.8370098307,-43730.2156737806,-80473.9588503708,-80461.2192717971,-80502.9788072935,-2417.3441601171
5505374586,6423,0,0,-6718.5033100588,-80197.2289215266,-35801.1725422009,-12640.9228877799,-80540.3944750240,-43912.2079151614,-80473.9831857644,-80461.7181473669,-80504.0982354012,-2416.8331168505
5505374586,6423,0,0,-6717.0188510464,-80195.9026425729,-35784.0160896806,-12639.7547888849,-80541.0393629556,-44011.3868119652,-80473.0219377154,-80461.8763274256,-80502.6867825697,-2417.5996817503
5505406014,6424,0,0,-6718.8196701762,-80196.9977352870,-35786.7659891626,-12640.5456891783,-80542.7671759045,-43900.7946155415,-80473.8006703121,-80462.4238737826,-80504.1469061885,-2417.7456941122
5505406014,6424,0,0,-6718.9900179317,-80198.3118465438,-35806.5019934094,-12641.2757509877,-80540.9785244715,-43724.4116823961,-80475.8813464688,-80463.6284757681,-80505.1811604184,-2417.8552033836
5505406014,6424,0,0,-6719.5740673793,-80197.7034617027,-35816.7593618311,-12641.2635832909,-80539.7982578797,-43710.5526757148,-80473.9710180676,-80463.2877802571,-80504.3659247313,-2418.0620542296
5505406014,6424,0,0,-6718.8926763572,-80198.0684926074,-35804.9201928224,-12640.6917015402,-80540.9420213811,-43876.4713895924,-80475.0296076912,-80462.5090476604,-80504.2685831567,-2417.4780047821
5505406014,6424,0,0,-6719.7322474379,-80197.6669586122,-35787.3378709133,-12641.1297386259,-80542.6089958458,-44001.1659466339,-80474.9809369039,-80462.5942215382,-80504.0130615234,-2417.9038741709
5505406014,6424,0,0,-6718.3086269097,-80195.7322948174,-35785.8169088104,-12639.6939504007,-80542.0492817920,-43911.8672196503,-80473.8493410994,-80462.1440167557,-80503.3073351077,-2417.0643030901
5505406014,6424,0,0,-6717.7610805526,-80196.3771827490,-35803.8494355020,-12640.5578568752,-80540.2606303590,-43729.8871459664,-80473.3869686201,-80461.3896195527,-80502.7841241443,-2417.4049986012
5505406014,6424,0,0,-6719.3185457460,-80196.9125614092,-35817.0270511612,-12640.3875091196,-80539.0681960703,-43699.2367176694,-80473.9345149771,-80461.8641597288,-80503.7818752838,-2417.3684955107
5505438380,6425,0,0,-6718.6006516334,-80196.7543813505,-35808.0959616932,-12638.9152178041,-80538.3016311705,-43862.0891719477,-80473.7885026153,-80461.7303150637,-80502.7719564475,-2416.3342412808
5505438380,6425,0,0,-6718.5154777557,-80196.8882260156,-35790.5744782682,-12640.0589813054,-80541.0150275620,-44006.3493854805,-80473.7519995248,-80461.7059796701,-80502.8327949316,-2417.1129738774
5505438380,6425,0,0,-6718.9656825381,-80197.5574493408,-35787.8124110894,-12640.8742169926,-80543.5824115916,-43942.0674431649,-80474.1535335199,-80462.0223397875,-80503.7453721933,-2418.3784143470
5505438380,6425,0,0,-6718.9778502349,-80197.2897600107,-35804.3848141622,-12640.7403723275,-80541.4287292540,-43754.2347073091,-80474.8227568452,-80462.3386999049,-80504.4632663059,-2418.1472281074
5505438380,6425,0,0,-6718.9413471445,-80197.0342383774,-35817.8057837579,-12640.8133785085,-80540.3701396304,-43688.8455045826,-80474.4455582437,-80462.7037308096,-80503.6236952251,-2417.4049986012
5505438380,6425,0,0,-6718.9048440540,-80196.4623566268,-35810.9918735371,-12640.8742169926,-80539.2872146132,-43830.4653279049,-80474.3360489723,-80462.0223397875,-80504.7309556360,-2417.2711539361
5505438380,6425,0,0,-6718.7344962985,-80197.6547909154,-35792.7646636963,-12640.8498815989,-80542.5116542712,-43994.3885395035,-80474.6402413929,-80462.5455507509,-80504.4024278218,-2417.5388432662
5505438380,6425,0,0,-6717.2257018924,-80197.5331139472,-35787.1675231577,-12640.1928259705,-80543.1322068092,-43956.9120332889,-80475.2121231435,-80462.5577184477,-80504.2685831567,-2416.9547938187
5505465464,6426,0,0,-6717.8705898240,-80197.2410892234,-35801.7200885580,-12640.4483476038,-80542.0614494888,-43767.7286830858,-80475.9178495593,-80463.5189664967,-80503.9765584330,-2417.2346508457
5505465464,6426,0,0,-6718.8561732667,-80198.3970204216,-35818.0613053912,-12641.0323970513,-80540.3944750240,-43677.6755588992,-80475.5406509578,-80463.2999479539,-80504.4754340027,-2417.4049986012
5505465464,6426,0,0,-6718.5033100588,-80197.2289215266,-35813.2794005398,-12640.2779998482,-80538.6909974688,-43796.3836091038,-80474.3968874564,-80461.5721350050,-80503.0639811712,-2417.3076570266
5505465464,6426,0,0,-6719.0265210222,-80196.5110274140,-35792.9350114518,-12639.5479380389,-80540.7351705351,-43965.8187873633,-80474.0075211581,-80461.6329734891,-80503.4046766823,-2416.7479429727
5505465464,6426,0,0,-6719.1725333841,-80196.3528473554,-35784.6123068249,-12640.3753414228,-80541.6477477968,-43958.7250201155,-80474.2873781850,-80462.0953459684,-80503.6115275283,-2417.7700295059
5505465464,6426,0,0,-6719.4645581078,-80196.0729903284,-35798.3618042348,-12641.3000863814,-80541.0515306525,-43785.7977128678,-80473.8858441898,-80462.3143645112,-80504.0617323107,-2418.5852651930
5505465464,6426,0,0,-6718.5884839366,-80196.3771827490,-35815.8346168726,-12640.3631737260,-80538.3381342610,-43673.9157405809,-80473.1679500773,-80460.9759178607,-80503.1734904427,-2416.9061230314
5505465464,6426,0,0,-6718.7223286016,-80196.7178782600,-35815.3235736060,-12640.6430307529,-80539.1777053417,-43775.8445368667,-80473.9101795835,-80461.8519920320,-80503.1734904427,-2415.9692103761
5505502074,6427,0,0,-6718.4668069684,-80196.3650150522,-35798.5321519904,-12640.0954843959,-80540.0659472098,-43958.9562063551,-80473.4599748010,-80460.6230546528,-80502.7962918412,-2417.4536693885
5505502074,6427,0,0,-6718.2356207287,-80197.2289215266,-35787.7029018179,-12640.4726829974,-80542.7428405109,-43979.2519246558,-80475.1026138721,-80462.6428923254,-80503.8183783743,-2417.7821972027
5505502074,6427,0,0,-6719.2820426555,-80196.7543813505,-35797.3032146112,-12641.0567324449,-80541.9519402174,-43809.6463986408,-80473.8615087962,-80461.8519920320,-80503.5871921346,-2417.1494769679
5505502074,6427,0,0,-6718.6249870271,-80196.6205366855,-35816.5038401979,-12640.9107200830,-80539.5914070337,-43678.9775024592,-80474.7984214516,-80462.3021968144,-80504.1590738853,-2417.5145078726
5505502074,6427,0,0,-6718.8318378731,-80198.0198218201,-35819.4362551322,-12640.9593908703,-80539.8347609702,-43758.8219290114,-80474.2508750945,-80462.8740785651,-80504.7674587265,-2417.6361848408
5505502074,6427,0,0,-6719.5375642888,-80197.9346479423,-35803.3262245386,-12641.5556080147,-80541.7450893714,-43939.6095684066,-80475.0296076912,-80464.0421774601,-80505.4488497485,-2418.0985573201
5505502074,6427,0,0,-6718.7831670858,-80198.3240142407,-35788.8953361066,-12640.3388383324,-80543.2660514742,-43986.9419090479,-80475.2851293245,-80463.6284757681,-80504.9013033915,-2417.9160418677
5505502074,6427,0,0,-6719.0873595063,-80197.6547909154,-35798.5808227777,-12640.3023352419,-80542.6333312395,-43835.2959035436,-80475.2242908404,-80463.6893142522,-80505.0351480566,-2417.4171662980
5505570862,6428,0,0,-6718.9170117508,-80198.0806603042,-35817.3920820659,-12640.2779998482,-80541.3678907699,-43685.8035803769,-80475.6014894419,-80462.8010723841,-80504.6336140614,-2418.0863896233
5505570862,6428,0,0,-6718.5276454525,-80197.7764678836,-35822.0766453428,-12640.2536644546,-80539.8955994543,-43736.3968637667,-80474.6889121802,-80463.3121156507,-80503.9765584330,-2416.5775952172
5505570862,6428,0,0,-6718.7466639953,-80197.7764678836,-35806.6480057713,-12640.8377139021,-80541.5990770095,-43921.3701908690,-80476.4410605227,-80464.3828729711,-80505.7773775628,-2417.7213587186
5505570862,6428,0,0,-6719.0751918095,-80198.7985544168,-35792.2536204297,-12640.9715585672,-80544.5436596407,-43988.9617467205,-80475.8083402879,-80464.8817485409,-80506.1302407706,-2418.3054081661
5505570862,6428,0,0,-6719.3428811396,-80198.9689021723,-35796.5001466209,-12640.6551984498,-80543.9596101932,-43846.4415138334,-80475.3216324149,-80464.3463698806,-80505.6800359882,-2417.4780047821
5505570862,6428,0,0,-6719.5618996824,-80197.5331139472,-35813.8026115032,-12640.3631737260,-80542.0127787015,-43681.6543957603,-80476.2463773735,-80462.7645692937,-80504.7796264233,-2417.3563278139
5505570862,6428,0,0,-6718.8318378731,-80197.6304555218,-35820.3488323939,-12640.7525400243,-80539.8955994543,-43706.3426526140,-80474.8957630261,-80463.5554695872,-80505.2906696899,-2417.7213587186
5505570862,6428,0,0,-6718.7709993889,-80197.5696170376,-35806.5141611062,-12640.8742169926,-80541.0636983493,-43886.0717023857,-80474.6280736960,-80463.0079232301,-80504.1225707948,-2417.5510109631
5505575852,6429,0,0,-6718.4668069684,-80198.0076541233,-35788.8101622288,-12640.2779998482,-80542.6211635426,-43984.8612328912,-80475.5163155641,-80463.1661032888,-80504.4876016995,-2417.1981477552
5505575852,6429,0,0,-6718.8318378731,-80197.7886355805,-35790.9030060824,-12640.7403723275,-80543.3633930488,-43866.2748596548,-80475.0539430848,-80463.2391094698,-80503.9887261298,-2418.1837311978
5505575852,6429,0,0,-6718.4668069684,-80197.8616417614,-35808.2054709646,-12641.0323970513,-80540.8568475033,-43685.0248477802,-80475.1147815689,-80462.8375754746,-80505.0716511470,-2417.8917064741
5505575852,6429,0,0,-6718.9413471445,-80198.4700266025,-35816.2239831709,-12641.5069372274,-80540.6743320510,-43681.3623710365,-80475.5406509578,-80463.2634448634,-80505.2298312057,-2416.9304584251
5505575852,6429,0,0,-6719.5375642888,-80198.5308650867,-35805.1878821525,-12641.1784094131,-80541.9032694301,-43857.1612547344,-80476.1855388894,-80464.3707052743,-80505.8990545310,-2417.5510109631
5505575852,6429,0,0,-6718.6493224207,-80197.9103125487,-35786.1941074119,-12640.4361799069,-80543.6797531662,-43975.5407771248,-80475.5406509578,-80463.8353266141,-80504.5484401837,-2417.3684955107
5505575852,6429,0,0,-6719.0751918095,-80198.4578589057,-35785.8047411136,-12640.2658321514,-80543.9839455868,-43880.8030896614,-80475.9056818625,-80463.7379850395,-80505.6313652009,-2417.9038741709
5505575852,6429,0,0,-6719.2577072619,-80198.8715605977,-35803.1802121767,-12640.6795338434,-80541.2948845889,-43700.3561457771,-80474.9322661166,-80463.2269417729,-80504.6701171519,-2417.5875140535
5505602246,6430,0,0,-6719.4523904110,-80197.9346479423,-35815.8589522662,-12640.3023352419,-80539.9686056352,-43670.2532638372,-80474.7619183611,-80463.5311341935,-80504.2685831567,-2416.9912969092
5505602246,6430,0,0,-6719.8295890125,-80198.3118465438,-35807.2198875219,-12641.0323970513,-80541.4043938603,-43831.9741223109,-80475.9421849529,-80463.6649788586,-80504.7796264233,-2417.7091910218
5505602246,6430,0,0,-6718.7344962985,-80197.2410892234,-35787.5082186688,-12640.3023352419,-80542.4508157871,-43972.0243127430,-80473.7885026153,-80462.0953459684,-80504.7431233328,-2417.3563278139
5505602246,6430,0,0,-6718.9656825381,-80197.9468156392,-35786.0237596564,-12640.8985523862,-80543.6310823789,-43903.1916518156,-80475.0904461753,-80464.0786805505,-80504.6944525455,-2418.5730974962
5505602246,6430,0,0,-6719.3428811396,-80197.9589833360,-35803.0098644212,-12641.2270802004,-80541.1610399239,-43715.2980774757,-80475.0052722976,-80462.5820538413,-80504.4389309122,-2417.6970233249
5505602246,6430,0,0,-6719.0386887190,-80196.5962012918,-35816.5768463788,-12640.0468136086,-80539.1412022513,-43659.5578583298,-80473.9101795835,-80462.6185569318,-80503.5628567410,-2417.3319924202
5505602246,6430,0,0,-6719.8052536189,-80197.0464060743,-35810.6025072387,-12641.3487571687,-80539.7739224861,-43808.8311629537,-80474.4820613342,-80462.7037308096,-80504.0617323107,-2418.2689050756
5505602246,6430,0,0,-6720.0486075553,-80197.9954864264,-35792.4483035789,-12641.5921111051,-80541.7694247650,-43964.7723654365,-80475.0782784785,-80462.5698861445,-80504.6092786678,-2418.9502960977
5505664615,6431,0,0,-6718.7344962985,-80196.0364872380,-35787.3378709133,-12640.6430307529,-80543.1200391124,-43922.4409481895,-80473.7154964343,-80462.2656937239,-80503.8427137679,-2418.1837311978
5505664615,6431,0,0,-6718.3816330906,-80195.8904748761,-35802.6813366070,-12640.9958939608,-80540.1024503003,-43738.5748814980,-80473.2531239550,-80461.8154889415,-80502.3947578460,-2417.4536693885
5505664615,6431,0,0,-6718.3451300001,-80195.6836240301,-35817.7084421833,-12640.0468136086,-80537.3647185151,-43654.6299411165,-80472.7664160821,-80461.5721350050,-80501.4456774938,-2416.3585766744
5505664615,6431,0,0,-6718.6006516334,-80196.4501889299,-35814.8490334299,-12639.5966088262,-80539.0438606767,-43781.6120251607,-80474.0075211581,-80462.6185569318,-80502.8692980221,-2416.3464089776
5505664615,6431,0,0,-6719.4280550174,-80197.7886355805,-35796.7556682542,-12641.1905771100,-80542.6820020267,-43951.4000666281,-80475.6623279260,-80464.5897238171,-80505.9963961056,-2417.3441601171
5505664615,6431,0,0,-6718.5276454525,-80197.9224802455,-35787.9705911480,-12640.2901675451,-80541.8424309460,-43936.1296071153,-80474.5428998183,-80462.0710105748,-80504.4024278218,-2417.2224831488
5505664615,6431,0,0,-6719.0751918095,-80197.9468156392,-35801.2698837755,-12640.4848506942,-80542.4751511808,-43752.9084283554,-80474.3968874564,-80462.9592524428,-80504.2685831567,-2417.4658370853
5505664615,6431,0,0,-6718.6493224207,-80196.7057105632,-35817.5867652151,-12640.8498815989,-80538.8978483148,-43647.9620432575,-80474.7010798770,-80462.7767369905,-80504.0739000076,-2416.5167567331
5505670775,6432,0,0,-6718.8075024794,-80197.5817847345,-35815.6521014202,-12640.2171613641,-80540.2362949653,-43758.8949351923,-80475.4676447768,-80463.4824634062,-80504.8769679979,-2418.5730974962
5505670775,6432,0,0,-6717.9314283082,-80197.4236046758,-35796.5366497114,-12639.9494720340,-80541.4895677381,-43935.2900360345,-80473.8128380089,-80461.7059796701,-80502.8449626284,-2416.5410921267
5505670775,6432,0,0,-6717.7854159463,-80197.1194122552,-35786.7294860721,-12640.2536644546,-80543.0105298410,-43946.3018016593,-80474.0075211581,-80462.6428923254,-80503.7940429806,-2417.3076570266
5505670775,6432,0,0,-6719.3915519269,-80198.5430327835,-35798.1792887825,-12640.8498815989,-80542.1222879729,-43775.0171334827,-80475.8813464688,-80463.7988235236,-80504.6944525455,-2417.8308679900
5505670775,6432,0,0,-6719.3672165333,-80198.6160389644,-35816.5768463788,-12641.3730925623,-80540.6013258700,-43646.8547828467,-80475.1634523563,-80462.7524015969,-80504.3780924281,-2417.7700295059
5505670775,6432,0,0,-6719.5740673793,-80197.6912940059,-35815.8589522662,-12640.8742169926,-80538.9465191021,-43731.3959403725,-80474.3725520627,-80462.3873706922,-80504.0252292203,-2417.2711539361
5505670775,6432,0,0,-6719.7930859221,-80197.4357723726,-35800.0896171837,-12640.5943599656,-80541.5990770095,-43918.2917635728,-80473.9710180676,-80462.8984139587,-80504.6336140614,-2417.2468185425
5505670775,6432,0,0,-6718.3938007874,-80197.0342383774,-35787.6298956370,-12640.1928259705,-80541.8302632491,-43957.2040580126,-80475.3946385959,-80462.1926875430,-80503.4898505601,-2417.3319924202
5505689556,6433,0,0,-6718.1747822446,-80196.4866920204,-35795.6849109338,-12639.9616397308,-80541.5990770095,-43795.7995596563,-80473.9223472803,-80462.1075136652,-80503.9765584330,-2417.0034646060
5505689556,6433,0,0,-6718.0652729732,-80197.3749338885,-35815.5912629361,-12640.6795338434,-80540.2971334495,-43652.4032525979,-80474.0561919454,-80463.1661032888,-80503.8427137679,-2417.5875140535
5505689556,6433,0,0,-6717.2865403765,-80196.5718658982,-35818.8278702910,-12640.1928259705,-80538.7640036498,-43712.2318178763,-80474.5185644246,-80462.2413583303,-80503.5628567410,-2416.2125643125
5505689556,6433,0,0,-6718.7101609048,-80198.4213558153,-35803.8007647147,-12640.7890431148,-80541.6842508873,-43896.9982941327,-80475.9421849529,-80464.2976990934,-80505.0838188439,-2417.6970233249
5505689556,6433,0,0,-6720.1337814331,-80199.6502931944,-35790.9760122633,-12641.0567324449,-80544.4219826724,-43963.0080493972,-80476.4897313100,-80465.3076179297,-80506.3735947071,-2418.4757559216
5505689556,6433,0,0,-6719.3550488364,-80198.1536664851,-35795.8065879020,-12640.7160369339,-80543.2538837774,-43820.3904749355,-80475.8448433783,-80464.0056743696,-80505.7287067755,-2418.3662466502
5505689556,6433,0,0,-6719.4888935015,-80198.3848527248,-35815.2992382124,-12640.9107200830,-80541.6355801000,-43656.6376110923,-80475.0782784785,-80464.0056743696,-80504.7187879392,-2417.5631786599
5505689556,6433,0,0,-6718.6493224207,-80197.8981448519,-35821.4560928048,-12640.9837262640,-80538.9586867989,-43687.4462194480,-80473.8980118867,-80461.9006628192,-80503.8062106774,-2416.8817876378
5505719710,6434,0,0,-6718.6858255112,-80198.1780018788,-35807.9986201186,-12640.6917015402,-80541.2462138016,-43873.8796701691,-80474.7862537547,-80462.9592524428,-80504.7066202423,-2417.5996817503
5505719710,6434,0,0,-6720.2311230077,-80198.5308650867,-35793.0688561169,-12640.4118445133,-80543.7770947408,-43964.9427131920,-80475.1147815689,-80463.0930971079,-80505.0959865407,-2418.2689050756
5505719710,6434,0,0,-6718.8561732667,-80198.1901695756,-35797.1937053398,-12641.2635832909,-80543.7040885599,-43839.9682991236,-80475.5406509578,-80463.7866558268,-80505.6557005945,-2418.8407868263
5505719710,6434,0,0,-6718.3451300001,-80198.0563249106,-35816.7228587407,-12640.1684905768,-80540.9541890779,-43666.7733025458,-80475.4068062927,-80463.1052648047,-80505.3150050835,-2416.7114398823
5505719710,6434,0,0,-6718.8318378731,-80198.2145049693,-35825.8364636610,-12641.1175709290,-80539.8590963638,-43671.3118534608,-80475.8326756815,-80463.2877802571,-80504.8282972106,-2417.1373092711
5505719710,6434,0,0,-6719.1968687777,-80198.4578589057,-35812.5980095177,-12641.1419063227,-80542.2561326380,-43845.8817997795,-80476.1368681021,-80464.2368606092,-80505.3636758708,-2418.0985573201
5505719710,6434,0,0,-6719.1725333841,-80196.9612321965,-35794.3099611928,-12640.3023352419,-80542.6333312395,-43959.5402558026,-80474.1291981263,-80463.2269417729,-80504.1104030980,-2417.8673710805
5505719710,6434,0,0,-6718.8805086603,-80197.1924184361,-35795.7092463274,-12640.2414967578,-80541.2583814985,-43860.0571665782,-80474.1291981263,-80462.6428923254,-80504.2564154599,-2418.1107250169
5505750230,6435,0,0,-6719.0630241127,-80197.6912940059,-35814.4353317380,-12640.7038692370,-80540.7960090192,-43677.8459066547,-80474.6402413929,-80462.8010723841,-80503.4655151664,-2417.9160418677
5505750230,6435,0,0,-6717.6880743717,-80196.5962012918,-35824.8265448247,-12640.2049936673,-80538.2651280800,-43652.9021281677,-80473.1679500773,-80461.7546504574,-80503.1734904427,-2416.2855704935
5505750230,6435,0,0,-6718.6371547239,-80196.5718658982,-35814.9585427013,-12640.0589813054,-80539.4088915814,-43819.1493698595,-80474.3725520627,-80462.0466751811,-80503.6236952251,-2417.1738123615
5505750230,6435,0,0,-6718.3938007874,-80197.0464060743,-35797.2788792176,-12639.8277950658,-80542.4508157871,-43950.5118247600,-80475.2364585372,-80463.4702957094,-80504.5484401837,-2416.7357752759
5505750230,6435,0,0,-6719.5862350761,-80199.4069392579,-35795.9160971734,-12641.4826018337,-80544.4584857629,-43872.0423479488,-80475.7231664101,-80463.5554695872,-80505.7043713818,-2418.4635882248
5505750230,6435,0,0,-6719.4037196237,-80198.2266726661,-35811.6245937718,-12640.6065276625,-80541.7937601587,-43686.5579775799,-80475.9908557402,-80463.6649788586,-80505.6557005945,-2417.1008061806
5505750230,6435,0,0,-6718.6736578144,-80197.7521324900,-35825.0212279739,-12640.0711490023,-80539.9077671511,-43637.0232838137,-80475.2729616276,-80463.3851218316,-80504.4267632154,-2417.0399676965
5505750230,6435,0,0,-6718.4181361811,-80198.8107221136,-35816.2969893519,-12639.3045841024,-80540.9055182906,-43785.4448496600,-80475.1026138721,-80463.1052648047,-80504.3172539440,-2415.6771856523
5505786149,6436,0,0,-6718.2112853351,-80198.0441572137,-35799.5299031298,-12640.2536644546,-80543.8379332249,-43940.3639656097,-80476.5018990068,-80464.5288853330,-80505.6313652009,-2416.9791292124
5505786149,6436,0,0,-6717.6880743717,-80198.0441572137,-35794.6993274911,-12639.8886335499,-80543.3025545647,-43889.1014588946,-80474.8835953293,-80463.8839974014,-80505.0959865407,-2417.5510109631
5505786149,6436,0,0,-6719.4280550174,-80198.4213558153,-35810.4808302705,-12640.5213537847,-80543.4363992298,-43700.5508289263,-80475.6501602292,-80464.3342021838,-80504.7187879392,-2417.7943648995
5505786149,6436,0,0,-6718.8805086603,-80199.2852622897,-35824.5223524042,-12641.3365894718,-80540.5283196891,-43623.1277740419,-80475.1999554467,-80463.6771465554,-80505.5096882327,-2417.1494769679
5505786149,6436,0,0,-6718.3694653938,-80198.4700266025,-35818.8157025942,-12640.3510060292,-80540.8446798065,-43758.3230534416,-80475.9665203466,-80463.8961650982,-80505.1689927216,-2416.9547938187
5505786149,6436,0,0,-6718.3451300001,-80198.2753434534,-35800.4181449979,-12639.5479380389,-80542.4143126967,-43923.3048546639,-80475.1512846594,-80463.3729541348,-80505.3636758708,-2416.7966137600
5505786149,6436,0,0,-6718.4789746652,-80198.9323990818,-35794.1761165277,-12640.3631737260,-80543.4972377139,-43901.5003419572,-80476.7939237305,-80464.6992330885,-80506.4466008880,-2417.2833216329
5505786149,6436,0,0,-6718.5763162398,-80198.8958959913,-35808.5826695661,-12640.2901675451,-80543.4120638361,-43723.2435835011,-80476.1490357989,-80464.3342021838,-80505.5705267168,-2417.8065325963
5505812365,6437,0,0,-6718.0531052764,-80198.7133805390,-35827.5642766099,-12640.6795338434,-80539.9929410289,-43625.8046673430,-80475.4798124736,-80463.1296001984,-80505.6313652009,-2416.2734027966
5505812365,6437,0,0,-6718.7709993889,-80197.6426232186,-35825.5079358468,-12640.6673661466,-80541.0028598652,-43739.1954340360,-80475.0296076912,-80463.7988235236,-80504.9743095725,-2416.8452845473
5505812365,6437,0,0,-6719.3428811396,-80198.3118465438,-35808.8990296835,-12641.3122540782,-80543.6919208631,-43916.9289815287,-80476.6965821559,-80463.7623204331,-80505.1446573280,-2417.4171662980
5505812365,6437,0,0,-6719.1603656873,-80197.8981448519,-35800.4911511789,-12641.3244217750,-80543.8379332249,-43920.7739737247,-80475.6136571387,-80463.6041403744,-80505.5218559295,-2417.8795387773
5505812365,6437,0,0,-6718.7588316921,-80197.5939524313,-35811.7827738305,-12641.1662417163,-80542.7306728140,-43744.9872577237,-80474.5550675151,-80462.2291906335,-80504.0739000076,-2417.8430356868
5505812365,6437,0,0,-6718.2234530319,-80196.8517229251,-35830.1924991237,-12640.6308630561,-80539.6279101242,-43624.4418852988,-80474.2995458818,-80462.6428923254,-80503.8427137679,-2417.0886384838
5505812365,6437,0,0,-6719.4037196237,-80197.8738094582,-35832.6625415787,-12641.0567324449,-80539.2385438259,-43718.7172002829,-80474.9444338134,-80462.5820538413,-80504.5484401837,-2417.2346508457
5505812365,6437,0,0,-6719.4645581078,-80198.1536664851,-35815.6277660266,-12640.9472231735,-80542.2683003348,-43899.0424671989,-80475.7718371974,-80463.6284757681,-80504.8648003010,-2418.1715635010
5505843506,6438,0,0,-6719.9999367681,-80198.5795358740,-35802.8516843625,-12641.4826018337,-80543.7040885599,-43929.5347154372,-80475.9056818625,-80464.0665128537,-80505.7287067755,-2418.8286191295
5505843506,6438,0,0,-6718.1869499414,-80197.3140954044,-35811.2352274735,-12639.9251366404,-80541.8424309460,-43765.2464729339,-80474.9566015103,-80462.1318490589,-80503.7940429806,-2417.1008061806
5505843506,6438,0,0,-6719.3185457460,-80198.5186973898,-35831.4822749869,-12640.4361799069,-80541.5990770095,-43622.2273644770,-80475.7840048942,-80463.6649788586,-80505.2906696899,-2417.6361848408
5505843506,6438,0,0,-6719.1968687777,-80198.0684926074,-35833.5507834468,-12640.3388383324,-80540.5526550827,-43685.4142140786,-80474.8105891484,-80463.0444263206,-80504.3902601250,-2416.4072474617
5505843506,6438,0,0,-6719.0021856286,-80199.7598024658,-35817.4164174596,-12641.3487571687,-80542.1587910634,-43875.7899985703,-80476.4410605227,-80464.7844069663,-80505.7165390787,-2417.2468185425
5505843506,6438,0,0,-6718.3694653938,-80197.4236046758,-35801.2333806851,-12640.7647077212,-80542.6941697236,-43933.1606890905,-80474.8592599357,-80462.8254077778,-80504.5362724868,-2417.2954893298
5505843506,6438,0,0,-6719.1238625968,-80197.9346479423,-35808.1933032678,-12640.6186953593,-80542.9740267505,-43781.5146835862,-80474.2143720041,-80462.8619108682,-80504.9378064820,-2417.2224831488
5505843506,6438,0,0,-6718.2234530319,-80196.8152198346,-35825.1307372453,-12640.1563228800,-80539.2750469163,-43623.1642771324,-80473.7763349184,-80461.9128305161,-80503.1613227458,-2416.2734027966
5505900653,6439,0,0,-6718.5884839366,-80196.3528473554,-35830.6305362093,-12639.9251366404,-80538.7275005593,-43662.5632794451,-80473.1557823805,-80461.3409487654,-80502.8571303253,-2417.0277999997
5505900653,6439,0,0,-6718.9900179317,-80197.3871015853,-35815.5304244520,-12640.6917015402,-80541.1123691366,-43843.7037820482,-80474.8835953293,-80462.2170229366,-80503.7575398902,-2417.3319924202
5505900653,6439,0,0,-6719.5862350761,-80198.3483496343,-35798.5929904745,-12641.3122540782,-80542.9375236600,-43924.5824628303,-80475.5893217451,-80463.7866558268,-80505.2785019930,-2418.4635882248
5505900653,6439,0,0,-6719.1968687777,-80198.2145049693,-35802.5353242451,-12641.0080616576,-80543.7162562567,-43794.4489453089,-80476.1003650116,-80464.7479038758,-80505.6800359882,-2418.2324019851
5505900653,6439,0,0,-6718.8805086603,-80197.4844431599,-35819.4849259195,-12640.7768754180,-80539.6279101242,-43617.0804287209,-80474.4820613342,-80463.2999479539,-80503.6236952251,-2416.2855704935
5505900653,6439,0,0,-6719.4888935015,-80197.9468156392,-35826.6760347418,-12640.6551984498,-80539.8225932734,-43625.5004749224,-80474.6767444833,-80463.2756125602,-80504.8648003010,-2416.8331168505
5505900653,6439,0,0,-6718.5763162398,-80196.9368968029,-35811.9774569797,-12640.3266706355,-80539.7130840020,-43806.1299342590,-80474.4577259405,-80462.7280662032,-80503.9643907361,-2416.5654275204
5505900653,6439,0,0,-6718.1017760637,-80197.3749338885,-35794.4073027674,-12640.4118445133,-80542.5116542712,-43913.5950325992,-80473.8736764930,-80461.7789858510,-80504.5606078805,-2416.5045890363
5505912357,6440,0,0,-6718.4546392715,-80196.6692074727,-35794.3464642833,-12640.0954843959,-80541.2462138016,-43805.4485432369,-80473.9345149771,-80462.0345074843,-80503.8305460711,-2416.7479429727
5505912357,6440,0,0,-6718.9535148413,-80198.4943619962,-35813.8391145936,-12640.6917015402,-80540.1267856939,-43628.5302314313,-80474.3968874564,-80463.2026063793,-80504.9864772693,-2418.4392528311
5505912357,6440,0,0,-6720.1337814331,-80197.6426232186,-35824.9603894898,-12640.8133785085,-80538.5693205006,-43613.8316536692,-80474.0561919454,-80462.2535260271,-80504.3902601250,-2417.2589862393
5505912357,6440,0,0,-6719.8782597998,-80196.4501889299,-35813.7782761095,-12641.0080616576,-80539.2507115227,-43780.9062987450,-80472.9732669281,-80462.1075136652,-80503.1369873522,-2417.1251415743
5505912357,6440,0,0,-6720.4014707632,-80196.7422136537,-35794.8696752467,-12641.5556080147,-80541.1732076207,-43911.2466671124,-80473.3869686201,-80462.0831782716,-80503.6480306188,-2418.4514205280
5505912357,6440,0,0,-6718.8075024794,-80196.5231951109,-35793.2878746597,-12640.0589813054,-80541.2097107112,-43829.0417073766,-80473.8980118867,-80461.2922779781,-80503.1248196554,-2417.2954893298
5505912357,6440,0,0,-6718.7223286016,-80197.4479400694,-35810.8945319625,-12640.1198197895,-80540.4188104177,-43642.5352504745,-80473.8858441898,-80461.5356319146,-80503.7332044965,-2416.4559182490
5505912357,6440,0,0,-6718.3572976970,-80196.7178782600,-35823.4637627806,-12640.4240122101,-80538.1799542023,-43597.6972876820,-80473.6668256470,-80462.0710105748,-80504.3415893377,-2416.9669615156
5505940951,6441,0,0,-6718.5763162398,-80196.9003937124,-35814.8612011268,-12640.6430307529,-80539.3358854004,-43755.6339924438,-80474.8835953293,-80462.4360414795,-80503.7575398902,-2417.1859800584
5505940951,6441,0,0,-6718.4303038779,-80196.7178782600,-35795.1008614863,-12640.4726829974,-80541.1853753175,-43901.5855158349,-80474.6889121802,-80462.7037308096,-80504.5241047900,-2417.0034646060
5505940951,6441,0,0,-6719.0508564159,-80197.2289215266,-35790.4649689968,-12640.8620492957,-80542.1952941538,-43841.2580749868,-80474.6037383024,-80462.0831782716,-80503.5993598315,-2417.2468185425
5505940951,6441,0,0,-6719.3550488364,-80197.8373063678,-35806.0761240206,-12640.4848506942,-80541.1732076207,-43654.4230902705,-80474.2143720041,-80462.3630352985,-80504.7431233328,-2417.3319924202
5505940951,6441,0,0,-6719.3672165333,-80197.4601077662,-35820.3975031812,-12640.2414967578,-80539.1777053417,-43584.8116967465,-80473.6303225565,-80461.9128305161,-80503.8305460711,-2417.4415016916
5505940951,6441,0,0,-6718.9778502349,-80196.7300459569,-35811.7584384369,-12641.2757509877,-80539.2507115227,-43721.0777334666,-80474.0075211581,-80462.1440167557,-80504.2564154599,-2416.1030550411
5505940951,6441,0,0,-6718.4424715747,-80196.4015181427,-35790.5379751777,-12639.7912919753,-80541.2218784080,-43882.7864242435,-80474.1291981263,-80462.1805198462,-80503.6358629219,-2416.8452845473
5505940951,6441,0,0,-6719.4280550174,-80197.4966108567,-35784.3932882821,-12641.0080616576,-80543.3147222616,-43851.7953004355,-80475.2972970213,-80463.8839974014,-80504.5362724868,-2417.8430356868
5505980858,6442,0,0,-6718.0166021859,-80195.7566302110,-35795.7457494179,-12639.9738074277,-80539.5792393369,-43663.7313783401,-80473.0462731091,-80461.5112965209,-80503.4046766823,-2417.1981477552
5505980858,6442,0,0,-6719.5497319856,-80196.5475305045,-35811.8314446178,-12640.2049936673,-80537.4133893024,-43571.5732426031,-80473.1436146836,-80461.5112965209,-80503.2708320172,-2417.1738123615
5505980858,6442,0,0,-6717.4203850416,-80195.8661394824,-35806.3924841380,-12640.3753414228,-80537.4742277865,-43690.9991869203,-80473.6668256470,-80462.1196813620,-80502.6746148729,-2416.6019306109
5505980858,6442,0,0,-6717.7610805526,-80197.0464060743,-35786.6078091039,-12640.9228877799,-80540.6621643541,-43862.9287430285,-80473.3504655296,-80461.3531164622,-80503.5020182569,-2418.0255511391
5505980858,6442,0,0,-6718.7831670858,-80196.5718658982,-35774.5131184619,-12640.1563228800,-80542.8888528727,-43856.2121743822,-80474.4942290310,-80461.4261226431,-80503.2951674109,-2417.0764707870
5505980858,6442,0,0,-6719.0995272032,-80197.8008032773,-35786.4374613484,-12641.0567324449,-80542.3778096062,-43681.4597126111,-80476.1125327084,-80462.8984139587,-80504.7431233328,-2417.9038741709
5505980858,6442,0,0,-6718.1626145478,-80197.0342383774,-35803.2532183577,-12639.7061180976,-80539.0560283735,-43564.2361214189,-80474.2387073977,-80462.6793954159,-80504.2807508535,-2417.2346508457
5505980858,6442,0,0,-6718.8318378731,-80196.8030521378,-35802.2189641277,-12640.6065276625,-80539.5184008528,-43660.4947709852,-80473.8615087962,-80462.5090476604,-80504.1104030980,-2417.0156323028
5506020375,6443,0,0,-6718.6736578144,-80196.5231951109,-35781.7894011620,-12640.2049936673,-80539.4697300655,-43845.0543963956,-80473.8615087962,-80462.6915631127,-80504.0739000076,-2418.0863896233
5506020375,6443,0,0,-6718.3572976970,-80196.2676734776,-35769.6338720359,-12640.3631737260,-80541.3557230731,-43870.9959260221,-80473.2652916519,-80461.2436071908,-80502.4677640269,-2417.0886384838
5506020375,6443,0,0,-6719.7809182252,-80196.5962012918,-35779.8669050640,-12641.4704341369,-80540.3579719336,-43703.4589084670,-80473.3017947423,-80462.0588428779,-80503.5263536505,-2417.8673710805
5506020375,6443,0,0,-6719.4888935015,-80196.8517229251,-35799.0918660442,-12641.3609248655,-80538.0582772340,-43568.1541197959,-80474.1900366104,-80462.2413583303,-80504.7917941201,-2417.6726879313
5506020375,6443,0,0,-6719.3672165333,-80197.7277970963,-35801.7200885580,-12641.1054032322,-80538.6909974688,-43644.1170510615,-80474.2508750945,-80462.0831782716,-80504.0982354012,-2417.0399676965
5506020375,6443,0,0,-6718.8196701762,-80197.3505984948,-35783.5658848981,-12639.8034596721,-80539.6644132147,-43828.4333225354,-80473.8371734025,-80462.4847122667,-80503.5385213473,-2416.9912969092
5506020375,6443,0,0,-6719.7930859221,-80197.0829091647,-35771.1548341387,-12641.2757509877,-80542.1952941538,-43881.3993068057,-80474.2265397009,-80462.5455507509,-80504.0495646139,-2418.6461036771
5506020375,6443,0,0,-6719.4402227142,-80197.3749338885,-35778.9908308927,-12641.0810678386,-80542.0736171856,-43731.1647541328,-80473.8736764930,-80462.5820538413,-80503.0883165649,-2418.4635882248
5506030234,6444,0,0,-6719.5132288951,-80196.5475305045,-35798.3618042348,-12640.7890431148,-80539.3967238846,-43579.2510592984,-80473.8858441898,-80461.8884951224,-80503.2099935331,-2416.9912969092
5506030234,6444,0,0,-6719.9025951935,-80196.2068349935,-35804.0927894385,-12640.8985523862,-80538.5449851070,-43627.7514988346,-80474.2508750945,-80462.2413583303,-80502.7111179634,-2417.6970233249
5506030234,6444,0,0,-6718.5641485429,-80195.2334192476,-35788.9440068939,-12640.7768754180,-80539.2142084322,-43815.6085700840,-80474.0075211581,-80461.3409487654,-80503.6967014061,-2416.9426261219
5506030234,6444,0,0,-6718.8440055699,-80196.1459965094,-35774.5861246428,-12640.2414967578,-80540.8933505938,-43892.3745693400,-80472.5839006298,-80461.4017872495,-80502.8327949316,-2417.1008061806
5506030234,6444,0,0,-6718.6493224207,-80196.3528473554,-35780.2684390591,-12640.8498815989,-80541.1488722271,-43755.0256076026,-80473.6303225565,-80461.3166133717,-80503.8548814647,-2417.5753463567
5506030234,6444,0,0,-6718.4911423620,-80197.5817847345,-35798.6538289586,-12640.8377139021,-80539.4453946718,-43586.5273419985,-80473.1436146836,-80461.9736690002,-80503.5506890442,-2416.6627690950
5506030234,6444,0,0,-6719.3185457460,-80196.9977352870,-35807.8891108472,-12640.7160369339,-80537.0605260946,-43606.3728555167,-80474.1778689136,-80461.9980043938,-80503.0639811712,-2417.6118494472
5506030234,6444,0,0,-6718.9900179317,-80196.7665490473,-35793.6407378675,-12640.9958939608,-80540.1997918749,-43784.7877940315,-80473.5451486788,-80461.8276566383,-80503.7453721933,-2417.4780047821
5506061738,6445,0,0,-6719.9512659808,-80196.5596982013,-35775.1093356062,-12640.7525400243,-80540.8568475033,-43884.7089203415,-80473.2896270455,-80461.0002532543,-80502.8449626284,-2417.5631786599
5506061738,6445,0,0,-6718.8075024794,-80196.9977352870,-35777.1900117629,-12641.0202293544,-80541.5747416159,-43771.9630415801,-80472.7664160821,-80461.8154889415,-80502.9544718999,-2417.7335264154
5506061738,6445,0,0,-6720.2432907045,-80196.9368968029,-35797.9724379365,-12641.0932355354,-80541.1732076207,-43592.6720288941,-80474.8349245420,-80463.1417678952,-80503.9522230393,-2417.8430356868
5506061738,6445,0,0,-6718.9900179317,-80197.3871015853,-35807.6579246076,-12640.8012108116,-80538.9343514053,-43587.4885900475,-80474.2143720041,-80462.6307246286,-80504.0982354012,-2417.2589862393
5506061738,6445,0,0,-6718.9535148413,-80197.5087785535,-35797.3883884890,-12640.6795338434,-80539.9199348479,-43767.0959628510,-80474.0805273390,-80462.3873706922,-80503.4168443791,-2417.9525449582
5506061738,6445,0,0,-6718.5763162398,-80195.9878164507,-35780.4752899051,-12640.2658321514,-80540.9541890779,-43895.2948165775,-80472.8394222631,-80462.2048552398,-80503.3560058950,-2417.1859800584
5506061738,6445,0,0,-6718.1017760637,-80194.6980405874,-35779.9642466386,-12639.8886335499,-80540.2849657526,-43802.8933269041,-80472.0363542728,-80460.3188622323,-80501.4578451906,-2417.6605202345
5506061738,6445,0,0,-6719.3550488364,-80195.4524377905,-35798.2157918730,-12640.6917015402,-80538.7031651656,-43617.4454596256,-80472.4135528743,-80460.1241790831,-80502.1514039095,-2416.8331168505
5506098723,6446,0,0,-6719.2333718682,-80195.6957917269,-35811.2717305640,-12639.8886335499,-80537.1213645787,-43581.4655801202,-80473.3869686201,-80461.9736690002,-80501.7133668239,-2417.2346508457
5506098723,6446,0,0,-6718.4303038779,-80195.8174686951,-35801.2698837755,-12640.1928259705,-80538.5206497133,-43737.2607702411,-80473.4721424979,-80460.2823591418,-80502.4069255428,-2417.0156323028
5506098723,6446,0,0,-6719.3428811396,-80197.6426232186,-35783.8822450155,-12640.8498815989,-80541.8545986428,-43882.4335610356,-80474.4820613342,-80462.8254077778,-80505.4245143549,-2418.0255511391
5506098723,6446,0,0,-6719.9147628903,-80197.7034617027,-35781.6677241938,-12640.7647077212,-80543.1565422029,-43819.7699223975,-80474.7984214516,-80463.3851218316,-80504.9986449661,-2417.7700295059
5506098723,6446,0,0,-6718.9535148413,-80198.0684926074,-35799.2743814966,-12640.4118445133,-80542.1587910634,-43629.5158148740,-80475.5528186546,-80463.2756125602,-80505.0108126629,-2417.5631786599
5506098723,6446,0,0,-6718.7953347826,-80197.3749338885,-35814.3623255570,-12640.4848506942,-80538.9100160116,-43563.1166933112,-80473.7154964343,-80462.4360414795,-80503.8183783743,-2417.5631786599
5506098723,6446,0,0,-6719.1116949000,-80197.8129709741,-35807.7674338790,-12640.7160369339,-80539.5792393369,-43705.6734292888,-80473.8128380089,-80462.3630352985,-80504.0130615234,-2417.5875140535
5506098723,6446,0,0,-6719.6470735602,-80197.4114369789,-35788.4086282337,-12640.6917015402,-80541.7207539777,-43861.4929548033,-80473.8980118867,-80463.0565940174,-80503.5871921346,-2417.6848556281
5506139000,6447,0,0,-6719.3550488364,-80196.6692074727,-35780.2197682718,-12640.3023352419,-80542.7671759045,-43821.5464061336,-80474.2752104882,-80462.7524015969,-80504.1469061885,-2418.0255511391
5506139000,6447,0,0,-6719.6957443475,-80197.6669586122,-35796.2446249877,-12641.9328066162,-80540.9906921684,-43639.2499723323,-80475.0539430848,-80463.5433018903,-80504.6822848487,-2417.6483525376
5506139000,6447,0,0,-6718.3572976970,-80195.7687979078,-35812.0261277670,-12640.4970183911,-80537.4863954834,-43553.0783434322,-80473.6059871629,-80461.1706010099,-80503.2708320172,-2416.6871044886
5506139000,6447,0,0,-6718.4303038779,-80196.0851580252,-35808.7286819280,-12639.9981428213,-80537.9731033563,-43677.4565403564,-80473.1314469868,-80461.6086380955,-80502.5529379047,-2417.6726879313
5506139000,6447,0,0,-6719.1603656873,-80196.7300459569,-35789.1995285272,-12640.5700245720,-80540.6499966573,-43849.4956057359,-80474.3117135786,-80461.6816442764,-80503.9157199489,-2418.1228927137
5506139000,6447,0,0,-6719.3672165333,-80197.2045861330,-35781.2296871081,-12640.6186953593,-80542.4873188776,-43839.5059266443,-80473.1922854709,-80462.4360414795,-80503.6236952251,-2417.3928309044
5506139000,6447,0,0,-6718.3086269097,-80197.0220706806,-35793.6042347771,-12640.3023352419,-80540.8568475033,-43658.0247285301,-80473.1922854709,-80461.6086380955,-80503.6723660124,-2417.3319924202
5506139000,6447,0,0,-6718.3329623033,-80196.5596982013,-35811.8557800115,-12639.5114349484,-80538.8978483148,-43548.5154571236,-80473.2166208646,-80460.8664085893,-80503.4898505601,-2416.8087814569
5506162238,6448,0,0,-6718.9048440540,-80197.5452816440,-35811.3812398354,-12640.3631737260,-80539.2507115227,-43655.9075492829,-80475.0052722976,-80461.8033212447,-80504.6822848487,-2417.0277999997
5506162238,6448,0,0,-6718.0652729732,-80197.1315799520,-35793.2148684787,-12640.2293290610,-80540.4431458113,-43835.2228973626,-80473.2652916519,-80461.6573088828,-80504.3537570345,-2417.6848556281
5506162238,6448,0,0,-6719.1238625968,-80196.3528473554,-35781.1688486240,-12640.4240122101,-80541.4895677381,-43847.8286312712,-80473.4113040137,-80461.5599673082,-80503.6236952251,-2417.5875140535
5506162238,6448,0,0,-6719.6835766507,-80197.5696170376,-35793.0810238137,-12641.7867942543,-80542.2196295475,-43678.5881361609,-80475.0417753880,-80462.8132400810,-80504.5241047900,-2417.7700295059
5506162238,6448,0,0,-6719.5010611983,-80198.4943619962,-35811.8922831020,-12641.2514155941,-80539.8104255765,-43548.2964385808,-80474.9200984198,-80461.8398243351,-80504.4267632154,-2417.4780047821
5506162238,6448,0,0,-6718.5154777557,-80196.7422136537,-35812.7683572732,-12640.4848506942,-80539.0438606767,-43625.4518041351,-80473.9831857644,-80461.9736690002,-80503.8427137679,-2416.6627690950
5506162238,6448,0,0,-6718.7831670858,-80197.1194122552,-35794.3099611928,-12640.8255462053,-80539.9564379384,-43812.2989565482,-80473.3504655296,-80461.6573088828,-80502.6381117824,-2417.2711539361
5506162238,6448,0,0,-6719.3307134428,-80195.8661394824,-35781.0471716558,-12640.3510060292,-80541.4165615572,-43855.0805785777,-80473.6546579502,-80461.4991288241,-80502.6137763888,-2417.3563278139
5506186375,6449,0,0,-6718.8926763572,-80195.9756487538,-35788.5668082924,-12640.1684905768,-80540.4918165986,-43693.5057324658,-80472.1701989378,-80461.4504580368,-80501.8107083985,-2418.0012157455
5506186375,6449,0,0,-6718.9535148413,-80195.6592886365,-35806.9156951014,-12641.1784094131,-80537.5350662706,-43542.5411179836,-80472.9245961408,-80460.8055701052,-80502.2000746968,-2417.0156323028
5506186375,6449,0,0,-6719.5010611983,-80195.6227855460,-35810.9310350529,-12640.4361799069,-80537.6324078452,-43598.2204986454,-80472.2432051187,-80461.3409487654,-80502.2122423937,-2416.9791292124
5506186375,6449,0,0,-6718.9535148413,-80197.0707414679,-35794.4438058579,-12639.1099009532,-80539.4332269750,-43783.2181611414,-80473.4113040137,-80461.6694765796,-80502.1027331222,-2417.1251415743
5506186375,6449,0,0,-6719.8174213157,-80197.1194122552,-35779.0881724673,-12640.8985523862,-80542.6333312395,-43852.1603313402,-80474.9687692071,-80463.6528111617,-80503.8792168584,-2418.2445696820
5506186375,6449,0,0,-6719.0386887190,-80196.9490644997,-35783.8092388346,-12640.7890431148,-80541.7450893714,-43710.5283403211,-80473.4478071042,-80462.0466751811,-80503.5506890442,-2417.4415016916
5506186375,6449,0,0,-6719.6349058634,-80196.5475305045,-35803.6060815655,-12640.6186953593,-80539.7252516988,-43542.7236334359,-80473.5938194661,-80461.1340979194,-80502.7232856602,-2417.6970233249
5506186375,6449,0,0,-6718.9535148413,-80196.5353628077,-35809.3614021628,-12640.3996768165,-80538.1677865054,-43568.3609706419,-80472.5839006298,-80461.2801102813,-80503.2221612299,-2416.9182907283
5506216222,6450,0,0,-6719.3793842301,-80196.3528473554,-35795.2225384545,-12641.1540740195,-80539.0316929799,-43755.7313340183,-80474.5185644246,-80462.7158985064,-80504.3780924281,-2417.2954893298
5506216222,6450,0,0,-6718.2234530319,-80196.2676734776,-35778.3337752643,-12639.8034596721,-80541.5382385254,-43852.2455052179,-80473.7276641311,-80461.9980043938,-80503.1369873522,-2416.3707443712
5506216222,6450,0,0,-6719.3185457460,-80197.5452816440,-35781.9962520080,-12640.1319874864,-80542.5359896649,-43730.9944063773,-80474.5307321214,-80463.4702957094,-80504.4632663059,-2417.6726879313
5506216222,6450,0,0,-6718.4546392715,-80197.6912940059,-35800.0409463964,-12639.9859751245,-80540.6134935669,-43552.7376479212,-80474.2873781850,-80462.4847122667,-80504.5241047900,-2417.4658370853
5506216222,6450,0,0,-6719.6227381665,-80197.2532569202,-35810.3956563927,-12640.3996768165,-80538.8005067402,-43550.5109594026,-80474.6402413929,-80462.2048552398,-80503.8913845552,-2417.6118494472
5506216222,6450,0,0,-6719.8904274966,-80198.3726850280,-35798.7511705332,-12642.3100052177,-80540.0172764225,-43724.9348933595,-80474.3603843659,-80462.7767369905,-80503.3681735918,-2417.8430356868
5506216222,6450,0,0,-6719.0630241127,-80197.0220706806,-35779.0516693768,-12639.9251366404,-80541.0636983493,-43841.9638014025,-80474.6159059992,-80462.3995383890,-80503.5020182569,-2417.8917064741
5506216222,6450,0,0,-6718.9778502349,-80197.2775923139,-35779.0760047705,-12640.8863846894,-80542.0127787015,-43748.0656850199,-80474.5550675151,-80462.6672277191,-80503.5750244378,-2417.6483525376
5506293651,6451,0,0,-6718.5641485429,-80196.8273875314,-35797.5465685477,-12640.3631737260,-80540.7716736256,-43564.8566739568,-80473.7763349184,-80462.4725445699,-80504.4267632154,-2416.6140983077
5506293651,6451,0,0,-6719.4888935015,-80196.8760583187,-35810.4564948768,-12640.4361799069,-80539.2142084322,-43536.6641204181,-80474.4698936373,-80462.9592524428,-80504.2564154599,-2416.6140983077
5506293651,6451,0,0,-6719.6349058634,-80197.4844431599,-35801.0021944454,-12641.5921111051,-80540.3701396304,-43703.9699517335,-80473.9223472803,-80462.4603768731,-80503.8792168584,-2417.8917064741
5506293651,6451,0,0,-6719.0751918095,-80196.8152198346,-35781.9110781302,-12641.4339310464,-80541.7207539777,-43841.8542921311,-80473.9101795835,-80461.9493336065,-80503.7453721933,-2417.6726879313
5506293651,6451,0,0,-6719.6470735602,-80196.1459965094,-35779.9034081544,-12641.1297386259,-80541.8302632491,-43768.5195833793,-80473.9710180676,-80462.5577184477,-80503.8548814647,-2417.5631786599
5506293651,6451,0,0,-6718.7709993889,-80195.4281023968,-35795.1495322736,-12639.9859751245,-80539.2020407354,-43581.9036172058,-80472.2918759060,-80460.5378807751,-80502.2609131809,-2416.6384337013
5506293651,6451,0,0,-6718.9900179317,-80197.1315799520,-35810.7120165101,-12640.3510060292,-80537.3768862119,-43530.2395764956,-80474.0318565517,-80461.8398243351,-80503.5141859537,-2417.6483525376
5506293651,6451,0,0,-6718.3451300001,-80197.0829091647,-35803.0707029053,-12640.1928259705,-80538.4963143197,-43676.6778077597,-80473.7276641311,-80461.8033212447,-80501.8837145794,-2416.5289244299
5506299211,6452,0,0,-6718.7223286016,-80196.9612321965,-35782.7506492110,-12640.2171613641,-80540.5526550827,-43832.8866995726,-80473.7885026153,-80462.9957555333,-80503.8548814647,-2417.5631786599
5506299211,6452,0,0,-6718.3329623033,-80196.8517229251,-35777.2630179439,-12640.5091860879,-80542.4873188776,-43789.1194941005,-80474.7984214516,-80462.1075136652,-80503.9522230393,-2417.4658370853
5506299211,6452,0,0,-6719.5253965920,-80197.1072445584,-35793.1540299946,-12640.0833166991,-80540.3214688431,-43600.7148764941,-80473.8736764930,-80461.3044456749,-80503.1734904427,-2417.0643030901
5506299211,6452,0,0,-6719.2942103523,-80196.3650150522,-35808.8260235026,-12640.9593908703,-80537.9122648722,-43518.4490782741,-80474.0318565517,-80461.7303150637,-80503.4655151664,-2416.8574522441
5506299211,6452,0,0,-6719.6105704697,-80197.2045861330,-35804.5673296145,-12640.8377139021,-80539.4940654591,-43650.6146011649,-80474.0440242485,-80462.6915631127,-80504.3659247313,-2417.0034646060
5506299211,6452,0,0,-6719.3307134428,-80197.4601077662,-35784.5758037344,-12640.5213537847,-80541.7085862809,-43819.9889409403,-80474.1291981263,-80462.6063892350,-80504.1834092790,-2417.9403772614
5506299211,6452,0,0,-6718.3086269097,-80197.2410892234,-35776.2287637139,-12641.2757509877,-80542.2804680316,-43800.7153091728,-80473.9588503708,-80462.4725445699,-80503.8183783743,-2417.4415016916
5506299211,6452,0,0,-6719.1116949000,-80196.3771827490,-35789.5767271287,-12640.4361799069,-80540.8325121097,-43618.9664217285,-80473.8615087962,-80461.6086380955,-80503.8792168584,-2417.8673710805
5506316422,6453,0,0,-6719.0143533254,-80196.4501889299,-35806.5263288030,-12639.8886335499,-80538.3868050483,-43516.7212653253,-80473.0827761995,-80461.5234642177,-80502.6989502666,-2417.3563278139
5506316422,6453,0,0,-6718.4059684842,-80196.2190026903,-35804.5186588273,-12640.7768754180,-80538.8126744371,-43624.7582454162,-80473.4478071042,-80460.3918684132,-80502.2000746968,-2416.7479429727
5506316422,6453,0,0,-6718.7466639953,-80195.6106178492,-35784.9286669423,-12640.5700245720,-80538.7761713466,-43802.7716499358,-80473.5086455883,-80461.3166133717,-80503.0883165649,-2417.7700295059
5506316422,6453,0,0,-6719.1481979904,-80196.6083689886,-35775.8393974156,-12640.0468136086,-80541.0028598652,-43814.2944588272,-80473.2044531678,-80462.0101720907,-80502.6867825697,-2417.7943648995
5506316422,6453,0,0,-6720.0972783426,-80197.2532569202,-35787.6542310307,-12641.3974279560,-80541.1367045302,-43640.2963942591,-80473.9588503708,-80461.8763274256,-80504.0495646139,-2418.5609297994
5506316422,6453,0,0,-6718.8075024794,-80196.2190026903,-35805.9787824460,-12640.0468136086,-80538.4476435324,-43514.0565397211,-80473.2044531678,-80461.0245886480,-80501.8107083985,-2417.3441601171
5506316422,6453,0,0,-6718.9413471445,-80195.5497793650,-35807.3415644902,-12640.1563228800,-80537.7297494198,-43602.7833849540,-80472.1580312410,-80461.1462656162,-80502.3339193619,-2416.4072474617
5506316422,6453,0,0,-6718.6128193302,-80194.8562206461,-35788.9805099844,-12639.9981428213,-80538.9100160116,-43787.9027244182,-80471.9511803950,-80460.7690670147,-80502.2609131809,-2416.4802536426
5506344609,6454,0,0,-6718.7588316921,-80196.2190026903,-35777.1170055820,-12640.7525400243,-80540.9785244715,-43825.6834230534,-80473.2287885614,-80461.4261226431,-80503.5385213473,-2418.1472281074
5506344609,6454,0,0,-6719.0143533254,-80196.5596982013,-35786.7173183753,-12641.6042788019,-80541.7207539777,-43667.2235073283,-80473.7763349184,-80462.3386999049,-80503.8670491616,-2418.9746314913
5506344609,6454,0,0,-6718.8926763572,-80195.3794316095,-35806.0031178397,-12640.7403723275,-80538.8613452243,-43522.7077721622,-80472.7664160821,-80460.5135453814,-80502.9423042030,-2417.1981477552
5506344609,6454,0,0,-6719.5740673793,-80195.8174686951,-35809.7994392484,-12640.4118445133,-80537.3525508183,-43581.5872570884,-80472.7420806885,-80461.1584333130,-80502.8449626284,-2417.1251415743
5506344609,6454,0,0,-6718.8440055699,-80195.4159347000,-35794.6993274911,-12640.2049936673,-80539.9442702416,-43770.5272533550,-80473.4843101947,-80461.8154889415,-80503.1491550490,-2416.8087814569
5506344609,6454,0,0,-6718.2356207287,-80195.3915993063,-35779.4167002815,-12639.0247270755,-80541.7815924618,-43834.7726925802,-80472.5717329330,-80461.5964703987,-80503.0031426871,-2417.7821972027
5506344609,6454,0,0,-6718.8926763572,-80196.9855675901,-35786.4252936515,-12639.8399627626,-80540.7838413224,-43690.4273051696,-80473.5573163756,-80461.6573088828,-80503.6358629219,-2416.8452845473
5506344609,6454,0,0,-6719.9269305871,-80198.1049956979,-35808.0716262996,-12640.4118445133,-80540.5648227796,-43530.5072658257,-80475.5649863514,-80463.3607864380,-80504.7674587265,-2417.8430356868
5506384724,6455,0,0,-6718.0896083669,-80196.8273875314,-35814.5326733125,-12640.1319874864,-80538.7396682561,-43567.0346916882,-80474.2995458818,-80461.2801102813,-80504.1347384917,-2417.0399676965
5506384724,6455,0,0,-6719.4037196237,-80198.3726850280,-35800.6614989344,-12640.5213537847,-80539.9321025448,-43752.4460558761,-80474.4577259405,-80462.6063892350,-80504.2442477631,-2417.5753463567
5506384724,6455,0,0,-6719.1725333841,-80196.4988597172,-35784.3324497980,-12640.3753414228,-80541.1367045302,-43840.7835348107,-80473.5086455883,-80462.4725445699,-80503.4898505601,-2417.7700295059
5506384724,6455,0,0,-6719.4888935015,-80196.8273875314,-35788.9196715002,-12640.6186953593,-80541.0880337429,-43716.3201640088,-80473.9588503708,-80461.8033212447,-80502.7719564475,-2418.1472281074
5506384724,6455,0,0,-6718.8683409635,-80195.4889408809,-35807.4389060648,-12640.5335214815,-80538.4354758355,-43542.2004224725,-80472.6690745075,-80460.9029116798,-80502.2730808778,-2416.8209491537
5506384724,6455,0,0,-6718.2112853351,-80195.4767731841,-35816.4916725010,-12639.9251366404,-80536.5251474343,-43547.0188304144,-80472.8394222631,-80461.2922779781,-80502.1392362127,-2416.2977381903
5506384724,6455,0,0,-6718.9656825381,-80195.5497793650,-35803.7642616242,-12640.7403723275,-80539.5914070337,-43726.9182279416,-80474.0561919454,-80461.5964703987,-80503.0518134744,-2417.1251415743
5506384724,6455,0,0,-6719.1481979904,-80197.7156293995,-35784.9286669423,-12639.9981428213,-80541.7329216746,-43840.2481561505,-80474.1170304295,-80461.8276566383,-80502.8692980221,-2417.5266755694
5506403582,6456,0,0,-6719.3428811396,-80197.8738094582,-35787.2283616418,-12640.7403723275,-80542.1466233665,-43735.7276404414,-80475.4798124736,-80463.5067987999,-80504.1104030980,-2418.3175758629
5506403582,6456,0,0,-6719.6835766507,-80197.9589833360,-35806.0274532333,-12640.9472231735,-80540.8081767160,-43552.3604493197,-80475.0417753880,-80463.0565940174,-80504.3659247313,-2418.0742219264
5506403582,6456,0,0,-6719.9634336776,-80197.4844431599,-35817.2339020072,-12640.6065276625,-80538.9465191021,-43530.4342596447,-80472.9732669281,-80462.5577184477,-80503.4411797728,-2416.6992721854
5506403582,6456,0,0,-6718.7344962985,-80196.5962012918,-35803.8859385925,-12640.7403723275,-80539.7739224861,-43696.0974518891,-80474.0075211581,-80462.1196813620,-80503.3195028045,-2417.5510109631
5506403582,6456,0,0,-6718.2477884255,-80196.8030521378,-35783.0183385411,-12639.8277950658,-80541.1002014398,-43826.0849570486,-80473.1557823805,-80461.5234642177,-80503.2951674109,-2417.3563278139
5506403582,6456,0,0,-6719.0751918095,-80196.0364872380,-35782.1665997635,-12641.2270802004,-80542.2317972443,-43747.7006541152,-80473.5816517693,-80463.3972895285,-80504.5362724868,-2417.5753463567
5506403582,6456,0,0,-6718.9900179317,-80196.8638906219,-35798.1671210857,-12640.7160369339,-80540.1146179971,-43557.9332544646,-80474.0683596422,-80462.8740785651,-80503.9400553425,-2417.5875140535
5506403582,6456,0,0,-6719.0265210222,-80196.5231951109,-35811.0283766275,-12640.2779998482,-80537.5228985738,-43508.6419146349,-80474.1900366104,-80461.6816442764,-80502.9301365062,-2416.7722783664
5506436356,6457,0,0,-6719.4037196237,-80197.7521324900,-35802.1337902500,-12641.5799434083,-80540.0051087257,-43664.4979432399,-80474.3968874564,-80463.1174325015,-80503.7940429806,-2417.5510109631
5506436356,6457,0,0,-6718.9778502349,-80196.8760583187,-35782.7141461205,-12640.4848506942,-80541.2462138016,-43816.7036627981,-80473.9466826740,-80462.4847122667,-80503.4290120759,-2417.4049986012
5506436356,6457,0,0,-6718.9291794476,-80197.0950768616,-35777.0318317042,-12640.7160369339,-80541.9641079142,-43761.2798037696,-80473.9953534612,-80461.9615013033,-80503.3681735918,-2417.2224831488
5506436356,6457,0,0,-6718.9900179317,-80196.8030521378,-35793.0931915105,-12640.5456891783,-80540.6256612637,-43573.4227325202,-80474.2508750945,-80462.2291906335,-80503.3803412886,-2417.4658370853
5506436356,6457,0,0,-6718.7831670858,-80197.4601077662,-35810.2739794245,-12641.4339310464,-80538.0582772340,-43501.8401721108,-80473.0462731091,-80461.1949364035,-80503.9522230393,-2416.9791292124
5506436356,6457,0,0,-6719.3672165333,-80197.5209462504,-35805.6624223286,-12640.8498815989,-80538.2407926864,-43638.6659228848,-80472.8272545662,-80461.4261226431,-80503.8183783743,-2416.9304584251
5506436356,6457,0,0,-6718.5641485429,-80195.4524377905,-35785.1720208788,-12640.1198197895,-80539.8590963638,-43806.2272758335,-80473.3139624392,-80461.1949364035,-80502.8692980221,-2416.8696199410
5506436356,6457,0,0,-6718.1139437605,-80195.8904748761,-35778.3094398706,-12639.5601057357,-80540.1754564812,-43783.2789996255,-80472.4622236616,-80460.2093529609,-80502.1757393032,-2417.4049986012
5506468543,6458,0,0,-6718.8926763572,-80195.0022330080,-35795.3442154228,-12640.4726829974,-80539.9686056352,-43599.7049576578,-80472.7785837790,-80462.0345074843,-80503.1369873522,-2417.5875140535
