steady_timestamp,sequence,battery,flags,EEG-ch1,EEG-ch2,EEG-ch3,EEG-ch4,EEG-ch5,EEG-ch6,EEG-ch7,EEG-ch8,EEG-ch9,EEG-ch10
3004535838,7585,-2,0,55518.0126665167,47895.5589917847,69681.6498055069,71864.7292986918,65383.8246044946,75610.2627409108,75243.3580109118,79134.3197655585,79353.5451592175,64499.5737409777
3004535838,7585,-2,0,55526.2136941754,47907.7145209108,69685.3731207347,71869.8153959638,65388.5821739523,75616.1519061731,75246.7162952349,79136.4977832898,79356.5749157264,64495.7652518721
3004535838,7585,-2,0,55539.9875269790,47954.2559612586,69687.0400951994,71872.8816555632,65392.7191908721,75605.2983206070,75245.5725317335,79137.4955344293,79358.2662255848,64501.2650508361
3004535838,7585,-2,0,55533.0762751835,47961.6052501396,69682.6718920400,71869.3408557877,65390.4438315662,75607.1478105241,75240.8027945789,79134.7578026441,79356.2463879121,64500.4133120585
3004535838,7585,-2,0,55516.0901704187,47889.9253481557,69685.0324252236,71866.3719377629,65390.3099869012,75625.5818712108,75246.5216120857,79141.3040235349,79363.5105029154,64497.9067665130
3004535838,7585,-2,0,55520.9694168447,47865.5777868130,69692.0531862905,71876.8118216370,65398.5475176503,75615.5313536351,75254.4792858079,79148.6046416286,79369.0224695762,64507.3975700349
3004535838,7585,-2,0,55538.7342542062,47930.8088094808,69687.3077845295,71877.4445418718,65398.5475176503,75603.4001599026,75247.0204876555,79141.5838805618,79363.0602981330,64509.0767121964
3004535838,7585,-2,0,55544.8424380113,47963.8684417487,69684.2536926270,71870.8618178906,65393.9602959481,75614.7282856448,75243.4188493959,79140.4279493636,79360.1157155018,64501.0581999901
3004554740,7586,-2,0,55537.2497951938,47935.2378511243,69688.2446971849,71870.6306316509,65392.1108060310,75615.5921921192,75247.6045371030,79140.5374586350,79361.8313607539,64504.7206767338
3004554740,7586,-2,0,55524.7779059503,47908.3350734488,69685.5191330965,71872.0177490888,65389.7259374537,75606.3447425338,75246.5702828730,79134.4901133140,79359.4951629639,64508.2128057220
3004554740,7586,-2,0,55514.8368976459,47883.0871025412,69681.9661656242,71864.7171309950,65385.4429081720,75613.8643791704,75244.8059668337,79133.0056543016,79358.3635671593,64501.6544171345
3004554740,7586,-2,0,55526.3353711436,47888.1001936323,69689.6318146227,71871.1660103111,65392.5610108134,75621.4205188974,75249.5026978073,79138.5176209624,79364.5447571454,64504.1244595895
3004554740,7586,-2,0,55545.5968352143,47949.9850996737,69687.7944924024,71877.6878958082,65399.3384179438,75606.3204071401,75248.7239652107,79136.1327523851,79365.1409742897,64507.8477748173
3004554740,7586,-2,0,55542.2628862849,47970.9013705124,69680.0923403135,71872.5652954458,65394.0333021290,75610.1775670330,75243.3945140022,79133.8452253824,79358.8624427291,64503.7107578975
3004554740,7586,-2,0,55526.7125697451,47905.8163602065,69683.9495002064,71869.3043526972,65390.6141793218,75625.5210327267,75250.7072997928,79140.3792785763,79362.8047764997,64501.9342741614
3004554740,7586,-2,0,55528.5742273590,47878.5607193231,69687.1982752581,71877.1403494512,65393.1815633514,75612.2582431897,75253.3476900034,79144.7839848262,79367.2216504464,64509.9284509740
3004583545,7587,-2,0,55541.3989798104,47929.3365181652,69680.5790481864,71876.1669337054,65388.7525217079,75600.2852295159,75243.1754954594,79133.7843868983,79361.1864728223,64508.9793706219
3004583545,7587,-2,0,55545.9496984222,47957.7845933372,69680.0923403135,71872.1150906633,65390.1031360552,75615.8477137525,75247.0691584428,79132.3485986732,79356.8791081469,64505.7427632670
3004583545,7587,-2,0,55543.0781219720,47946.6389830474,69684.8742451649,71875.3516980182,65393.6317681339,75613.1221496641,75253.8587332700,79134.5144487077,79358.5217472180,64509.4904138884
3004583545,7587,-2,0,55529.8518355255,47926.1485815976,69681.8566563528,71870.2656007463,65391.7701105199,75604.9819604896,75246.6067859635,79129.1728298024,79358.1932194038,64511.5710900451
3004583545,7587,-2,0,55514.8368976459,47883.5494750205,69678.6078813011,71862.2714239336,65389.8719498156,75616.0788999921,75244.9519791956,79129.5986991912,79358.1323809197,64505.9496141129
3004583545,7587,-2,0,55523.7923225076,47873.2191004178,69684.3510342015,71870.0465822034,65398.2433252297,75619.0234826233,75251.6320447514,79135.9259015391,79365.4086636198,64510.4638296343
3004583545,7587,-2,0,55544.5990840749,47938.6326385379,69681.8079855656,71878.2841129526,65401.8692988830,75602.3415702790,75248.4927789710,79133.4801944777,79361.2108082159,64512.4228288228
3004583545,7587,-2,0,55548.2858962122,47967.7134339448,69676.2838512079,71870.6793024382,65393.0963894736,75606.5272579861,75246.4851089953,79127.3111721885,79354.9809474426,64504.3434781323
3004616042,7588,-2,0,55533.6359892374,47902.0565418882,69677.8413164013,71865.2160065647,65386.1486345877,75617.3808435522,75251.2183430594,79131.1926674750,79355.5163261028,64500.9486907187
3004616042,7588,-2,0,55532.6139027043,47867.3786059428,69680.7737313356,71869.9614083257,65386.9882056685,75607.6101830034,75251.5103677831,79131.7888846193,79358.9354489100,64508.4196565680
3004616042,7588,-2,0,55543.5283267544,47907.0209621919,69680.1896818881,71875.5463811674,65390.1761422361,75609.9098777029,75255.6960554902,79128.9051404723,79358.2418901911,64509.1618860742
3004616042,7588,-2,0,55553.5788443302,47940.8593270565,69687.0400951994,71879.3305348793,65400.0076412691,75627.8085597294,75261.6582269335,79135.8285599645,79364.0215461820,64509.5755877662
3004616042,7588,-2,0,55556.5720977486,47951.9806019527,69693.5984837870,71881.1556894028,65405.7021233822,75620.2402523056,75257.0223344439,79140.2819370018,79369.3388296936,64515.9027901141
3004616042,7588,-2,0,55544.5504132876,47944.2784498638,69687.1374367740,71873.4657050107,65398.7543684963,75610.7129456932,75246.0105688192,79134.7943057346,79363.4618321281,64513.5544246273
3004616042,7588,-2,0,55525.6296447279,47891.2516271094,69683.4749600303,71865.4106897139,65390.1274714488,75618.0135637870,75244.1245758116,79134.2224239839,79360.9187834922,64508.0424579665
3004616042,7588,-2,0,55524.6075581948,47868.5345371410,69684.0833448714,71868.4769493133,65391.5632596740,75610.2749086076,75247.8965618267,79134.6239579791,79362.3059009300,64508.7603520790
3004656566,7589,-2,0,55538.1988755460,47930.6141263316,69676.3568573889,71869.0366633671,65387.9129506271,75594.5542443123,75240.8149622758,79126.1430732935,79354.6159165379,64509.5755877662
3004656566,7589,-2,0,55539.8780177076,47964.0509572011,69670.5893690948,71861.6508713956,65383.1067103820,75607.6710214875,75236.6171068719,79122.6874473958,79351.3671414861,64503.5039070515
3004656566,7589,-2,0,55528.6837366305,47910.3670788182,69673.6677963910,71860.2759216546,65377.9111038386,75614.7282856448,75243.8325510878,79127.9682278169,79353.6181653984,64505.6332539955
3004656566,7589,-2,0,55522.3078634952,47873.4259512638,69673.6799640878,71866.1529192201,65373.3847206205,75592.8020959698,75243.1511600658,79127.2381660075,79350.4545642244,64510.0379602455
3004656566,7589,-2,0,55521.6264724731,47887.0902747959,69665.6006133974,71863.9749014888,65366.5951457933,75588.7015821405,75238.0407274001,79121.8113732245,79341.0367668835,64502.6765036676
3004656566,7589,-2,0,55528.2943703321,47905.7920248128,69668.5451960285,71865.0578265060,65368.4203003167,75605.1523082451,75242.7009552833,79123.9772232590,79342.0588534166,64498.6854991096
3004656566,7589,-2,0,55538.2232109396,47935.7610620877,69673.1080823371,71871.2025134016,65375.4532290804,75598.1802179656,75247.3246800760,79127.4936876408,79345.7213301603,64505.6940924797
3004656566,7589,-2,0,55531.8473378044,47940.9323332375,69668.2775066984,71866.2259254010,65371.0606905273,75591.8651833145,75239.3305032634,79121.8722117086,79340.6230651915,64506.6675082255
3004674824,7590,-2,0,55515.6277979394,47876.7233971028,69666.8173830797,71857.8058791996,65364.5023019397,75605.0914697610,75239.2088262951,79123.7825401098,79339.3211216314,64502.0681188264
3004674824,7590,-2,0,55515.1654254602,47841.5709209813,69668.3626805762,71860.7504618307,65366.4004626441,75593.8120148061,75240.2065774346,79123.8433785940,79343.0079337688,64505.5115770273
3004674824,7590,-2,0,55528.3917119067,47900.8641075995,69658.2513245163,71858.7184564613,65361.4968808245,75572.6402223342,75229.1826441130,79112.0163772821,79334.2350243594,64500.5228213299
3004674824,7590,-2,0,55530.5210588507,47936.5762977749,69651.7537744129,71847.9257093793,65356.2526034938,75587.4604770646,75221.2249703908,79106.3949013498,79326.4963691801,64491.6404026492
3004674824,7590,-2,0,55523.9870056568,47899.7081764013,69661.1715717538,71853.3159990719,65362.8839982623,75600.8936143571,75235.3273310086,79115.8735371749,79338.2503643110,64494.5728175835
3004674824,7590,-2,0,55516.6012136853,47869.5079528868,69662.0719813187,71860.7382941339,65365.6460654411,75583.3721309321,75239.2940001729,79119.1101445298,79337.3134516556,64495.9842704150
3004674824,7590,-2,0,55515.1897608538,47871.3331074102,69654.6253508631,71859.7770460849,65365.0985190841,75582.5690629417,75236.4954299036,79117.2119838254,79333.7361487897,64485.7755727805
3004674824,7590,-2,0,55525.9825079358,47885.7761635391,69654.8443694059,71860.1177415959,65372.1557832414,75590.7944259940,75238.6369445445,79122.9551367259,79334.3810367213,64480.2027676356
3004708687,7591,-2,0,55539.8901854044,47934.6903047673,69654.3819969266,71863.8045537333,65377.2297128165,75577.6654811221,75237.6756964954,79123.8798816844,79336.5468867558,64483.5610519587
3004708687,7591,-2,0,55532.1150271345,47955.8134264519,69647.7019313708,71855.8955507983,65372.6911619016,75577.6411457284,75230.5454261572,79118.8789582902,79330.5725476157,64483.4150395969
3004708687,7591,-2,0,55509.3736017724,47891.2881301999,69650.3544892782,71847.0009644208,65365.7312393188,75596.3428957453,75232.1028913505,79121.2273237770,79331.7284788139,64482.8796609366
3004708687,7591,-2,0,55506.9400624079,47856.1843248657,69656.8642070785,71855.7008676492,65370.7199950163,75592.5830774270,75237.6635287986,79126.8366320124,79339.2724508441,64492.4921414268
3004708687,7591,-2,0,55530.4967234571,47919.5901930100,69661.0133916951,71868.5012847069,65379.0305319463,75586.3167135632,75241.3381732392,79127.4936876408,79340.1850281059,64502.2506342788
3004708687,7591,-2,0,55540.9487750280,47963.4669077536,69662.6803661599,71865.4350251075,65381.7804314283,75600.4920803619,75241.6788687502,79129.1728298024,79339.4306309028,64499.5980763714
3004708687,7591,-2,0,55536.9699381669,47943.3293695116,69672.7065483420,71867.0046579977,65386.8908640939,75609.8977100061,75250.1354180421,79141.1945142635,79349.1282852707,64506.9108621620
3004708687,7591,-2,0,55527.9415071243,47922.8633034554,69674.4830320781,71870.0344145066,65387.3410688764,75598.8494412908,75254.4792858079,79140.7078063906,79350.7465889482,64515.2092313952
3004742442,7592,-2,0,55523.9870056568,47907.8361978791,69672.3171820437,71870.2777684431,65385.6984298053,75605.4565006657,75255.4892046442,79139.1746765909,79349.6149931436,64512.5688411846
3004742442,7592,-2,0,55534.9501004943,47907.2643161284,69675.9188203032,71873.9280774900,65389.8111113315,75610.7007779964,75257.2778560772,79142.5694640045,79351.4644830607,64508.7725197759
3004742442,7592,-2,0,55551.2913173275,47959.4394001052,69671.8669772612,71875.3273626246,65391.4780857962,75587.5943217296,75246.0105688192,79134.7943057346,79347.9115155884,64505.7670986606
3004742442,7592,-2,0,55545.4264874588,47984.8333833746,69661.9989751378,71861.8698899384,65381.9142760934,75586.5722351965,75231.4580034189,79122.4927642466,79336.9727561446,64499.0870331048
3004742442,7592,-2,0,55521.9428325905,47918.6776157483,69663.0453970646,71851.7220307881,65377.4243959657,75605.6146807244,75233.7333627248,79124.0137263495,79339.3211216314,64497.1523693100
3004742442,7592,-2,0,55513.8269788096,47876.3096954108,69668.9102269332,71856.2970847935,65384.2869769738,75600.9909559317,75238.4422613953,79126.5446072886,79343.5798155195,64505.9861172034
3004742442,7592,-2,0,55526.2501972659,47920.5636087559,69668.5208606349,71862.4296039923,65388.7525217079,75591.8895187081,75235.8870450625,79124.1840741050,79342.0588534166,64508.7968551695
3004742442,7592,-2,0,55536.7752550177,47953.2460424223,69667.7299603414,71857.4408482949,65387.2680626955,75601.7940239220,75233.2101517614,79121.6653608627,79336.9240853573,64502.9928637850
3004776109,7593,-2,0,55538.2840494238,47941.6623950468,69671.2464247232,71859.7892137817,65387.2193919082,75601.0396267190,75237.3958394685,79124.8654651271,79339.6618171425,64503.6499194134
3004776109,7593,-2,0,55531.0077667236,47927.0368234657,69669.5307794712,71860.9086418894,65383.8611075850,75593.1671268745,75237.2619948035,79124.5369373129,79340.0390157440,64508.8211905632
3004776109,7593,-2,0,55519.0225853530,47894.7072530071,69668.2166682143,71858.2925870725,65379.6997552716,75604.3492402548,75238.8072923000,79126.8366320124,79339.0290969077,64504.8666890957
3004776109,7593,-2,0,55523.4029562093,47878.0496760565,69671.3681016915,71863.8532245206,65382.5104932377,75604.5682587976,75247.3368477729,79131.1196612941,79343.8353371527,64504.2826396482
3004776109,7593,-2,0,55544.4165686225,47934.1062553198,69666.9390600479,71871.7257243650,65384.1044615215,75587.0711107662,75247.4950278316,79126.5811103791,79341.4383008786,64506.3876511986
3004776109,7593,-2,0,55542.9442773069,47966.5940058371,69657.4482565260,71860.9938157672,65372.5938203270,75587.1806200376,75236.4589268132,79114.6567674926,79332.6532237725,64498.5029836573
3004776109,7593,-2,0,55523.9383348695,47904.6604290083,69658.6406908147,71851.2718260056,65366.6681519742,75603.1933090566,75236.7266161433,79117.9055425444,79336.6563960272,64496.7751707084
3004776109,7593,-2,0,55513.9486557779,47858.4231810811,69662.3396706488,71853.3646698592,65363.3585384384,75590.6119105417,75235.8262065784,79117.3458284905,79341.1827792453,64505.1343784258
3004810937,7594,-2,0,55519.5579640132,47890.3025467572,69657.4482565260,71854.5084333605,65360.4504588977,75582.6299014259,75228.0875513990,79112.2597312185,79335.3544524672,64510.0379602455
3004810937,7594,-2,0,55528.9027551733,47922.9971481205,69655.6961081835,71851.2839937025,65361.9592533037,75596.6714235595,75227.7955266752,79111.5661724996,79335.0502600466,64503.6255840198
3004810937,7594,-2,0,55533.4899768755,47937.9877506063,69660.8065408492,71854.2650794241,65365.7920778030,75590.7579229036,75230.3507430080,79113.3426562357,79336.9605884478,64501.7882617995
3004810937,7594,-2,0,55524.6440612852,47940.5429669391,69654.3819969266,71849.8603731742,65360.1584341739,75580.9994300516,75224.0478760538,79104.6914237946,79332.6897268629,64499.5250701904
3004810937,7594,-2,0,55507.8039688823,47900.6815921472,69652.9340410047,71841.9635379361,65355.2426846575,75594.3717288600,75224.0478760538,79103.5963310806,79334.2106889658,64497.5539033051
3004810937,7594,-2,0,55511.5759548974,47878.2078561152,69659.8939635874,71850.0793917170,65364.1251033382,75602.1103840394,75232.4435868616,79111.8825326170,79338.1895258269,64503.0415345723
3004810937,7594,-2,0,55536.8239258050,47941.7962397119,69664.0553159009,71862.3809332050,65374.5163164250,75591.3541400479,75236.4589268132,79113.9145379864,79342.4117166245,64511.9361209498
3004810937,7594,-2,0,55539.7198376489,47979.1267335647,69658.2878276068,71851.8802108468,65368.0796048057,75590.2347119402,75226.4935831152,79106.5287460149,79334.4783782959,64505.1343784258
3004843681,7595,-2,0,55520.8599075733,47917.3148337041,69660.0521436461,71843.1559722247,65361.8740794260,75601.2221421713,75227.7468558879,79112.6004267296,79337.0457623255,64498.4543128700
3004843681,7595,-2,0,55511.3812717482,47863.8743092578,69662.6803661599,71845.8450332226,65362.5919735385,75592.6195805175,75231.2876556634,79114.9487922164,79341.0124314898,64501.3988955012
3004843681,7595,-2,0,55517.1730954360,47872.8662372099,69658.2391568195,71851.0771428565,65364.6239789080,75586.5965705901,75230.6671031254,79110.7996075998,79335.6343094941,64500.0604488506
3004843681,7595,-2,0,55529.2434506843,47892.2372105521,69658.5920200274,71855.1776566858,65369.7100761800,75598.5574165671,75237.2133240162,79112.1502219471,79334.4053721150,64496.1911212609
3004843681,7595,-2,0,55541.1799612676,47918.5681064769,69661.8529627759,71860.0447354150,65375.9521046501,75587.3753031868,75236.9699700797,79112.6247621232,79337.6419794699,64498.9045176525
3004843681,7595,-2,0,55535.2664606117,47929.9935737936,69655.9516298168,71853.8635454289,65369.2112006102,75579.6488157042,75227.4913342546,79107.6238387290,79330.9497462172,64498.9896915302
3004843681,7595,-2,0,55517.0392507709,47878.2321915088,69654.5036738949,71844.2754003324,65362.7866566877,75594.3230580727,75224.2668945966,79105.0929577898,79328.5770453368,64495.4853948452
3004843681,7595,-2,0,55517.9518280326,47847.2410677008,69664.2743344437,71850.6269380740,65369.5762315149,75599.3118137701,75230.9834632428,79112.3449050963,79337.2647808684,64502.8711868167
3004886239,7596,-2,0,55536.4345595067,47912.2530718258,69665.4059302482,71856.6621156982,65373.1170312904,75582.1431935529,75229.0122963575,79109.4733286461,79334.3323659340,64507.2758930666
3004886239,7596,-2,0,55541.6788368374,47965.9369502086,69659.1273986876,71847.2564860541,65367.8849216565,75588.5312343850,75223.2813111539,79104.1803805281,79328.5648776399,64498.5151513541
3004886239,7596,-2,0,55528.0996871830,47928.7646364145,69662.8020431281,71841.8905317551,65364.7456558762,75600.3460680001,75226.5422539025,79109.4976640397,79330.4752060412,64494.1956189820
3004886239,7596,-2,0,55515.2627670348,47890.4850622096,69665.9656443021,71842.6327612614,65365.5608915633,75590.0156933974,75224.9117825282,79109.7896887635,79333.0304223740,64500.4741505426
3004886239,7596,-2,0,55509.5196141343,47885.8370020232,69661.9016335632,71840.5642528014,65361.8254086387,75585.0391053968,75217.7328414026,79104.8739392470,79330.9010754300,64499.4155609190
3004886239,7596,-2,0,55514.1433389270,47889.7428327033,69662.4735153139,71841.4768300632,65360.4991296850,75593.8606855934,75223.3056465476,79108.1105466019,79329.1367593906,64497.6755802733
3004886239,7596,-2,0,55528.8905874764,47924.4694394360,69665.3815948546,71851.2839937025,65365.0498482968,75585.5866517538,75230.0343828906,79105.8838580833,79328.2241821289,64500.4863182394
3004886239,7596,-2,0,55524.7292351630,47943.8890835654,69658.8232062670,71843.7521893691,65357.5058762665,75579.0769339535,75218.0126984296,79095.4074711187,79322.7852216491,64498.1501204494
3004894532,7597,-2,0,55504.7012061924,47878.4268746580,69657.8132874307,71832.0955358127,65350.4121090188,75594.2743872854,75212.2330424387,79096.7824208597,79322.5175323189,64492.1757813094
3004894532,7597,-2,0,55502.8882193658,47828.0769452047,69664.8340484975,71838.8972783367,65358.1629318950,75593.1549591777,75215.9928607570,79104.8496038533,79327.2629340799,64497.7972572416
3004894532,7597,-2,0,55518.9130760816,47876.0785091712,69660.8187085460,71845.5043377116,65362.2026072402,75575.0372586083,75212.7075826148,79100.0433636083,79320.5220300400,64497.7729218479
3004894532,7597,-2,0,55527.4547992513,47925.9538984484,69655.5987666089,71840.9657867966,65362.8718305655,75588.0080234216,75210.8824280913,79097.3664703072,79317.6869566802,64494.0496066201
3004894532,7597,-2,0,55524.5345520138,47907.6536824267,69661.5244349617,71843.3263199803,65367.9457601406,75599.1049629241,75221.3831504495,79104.8617715502,79323.8803143631,64493.1978678425
3004894532,7597,-2,0,55517.2461016169,47879.2056072547,69660.1981560080,71847.0983059954,65368.0065986247,75580.6343991469,75225.8608628804,79106.6017521958,79325.8636489453,64492.6138183950
3004894532,7597,-2,0,55507.0252362856,47856.8048774037,69654.2359845648,71839.2258061509,65363.0178429273,75586.4140551378,75219.8378529530,79102.4282321856,79318.1493291595,64483.3176980223
3004894532,7597,-2,0,55511.2960978705,47850.5020104494,69659.8939635874,71841.9270348456,65368.0796048057,75600.5285834524,75226.8829494135,79108.1835527828,79322.8703955268,64483.4758780810
3004934000,7598,-2,0,55530.3872141857,47900.8397722059,69664.4690175929,71851.4178383675,65372.9345158380,75590.3442212116,75228.8054455115,79111.3228185631,79326.3503568182,64492.4069675490
3004934000,7598,-2,0,55532.1636979218,47941.4312088072,69659.5897711669,71847.8770385920,65367.9092570502,75588.0323588152,75222.8676094619,79106.2610566848,79321.5319488763,64494.0861097106
3004934000,7598,-2,0,55511.7341349561,47883.0871025412,69660.2468267953,71838.1063780432,65358.2846088632,75602.4754149441,75221.8211875352,79106.3949013498,79321.2520918494,64491.1780301699
3004934000,7598,-2,0,55503.7642935371,47830.3766399042,69663.7146203898,71841.5011654568,65355.6685540463,75593.3253069332,75225.2768134329,79108.2565589638,79325.4377795565,64498.3326359018
3004934000,7598,-2,0,55517.2826047074,47873.5719636257,69659.1273986876,71848.7287773696,65356.3986158557,75580.8047469024,75223.9383667823,79103.8518527139,79323.5761219425,64500.5106536331
3004934000,7598,-2,0,55527.3331222831,47918.7384542324,69654.7835309218,71846.9887967240,65358.1020934109,75595.9535294470,75222.1253799557,79101.8928535254,79320.3638499813,64489.4380495242
3004934000,7598,-2,0,55529.9735124937,47914.6014373126,69662.3275029520,71850.1280625043,65362.8839982623,75602.7431042742,75233.2588225487,79112.1745573408,79326.4111953023,64486.8584977978
3004934000,7598,-2,0,55524.0600118377,47901.2899769883,69663.4347633629,71854.4110917860,65364.9768421158,75594.5420766155,75235.1569832531,79110.8604460839,79330.7793984617,64491.7134088301
3004957242,7599,-2,0,55506.8062177428,47866.3078486224,69657.6064365847,71847.5241753842,65357.0556714841,75594.5542443123,75232.1880652283,79107.6603418194,79327.2872694735,64487.5763919103
3004957242,7599,-2,0,55503.9589766862,47841.6439271623,69660.2346590985,71848.5705973109,65358.4184535283,75600.7476019952,75238.6126091508,79109.9843719126,79332.1665158995,64487.1383548247
3004957242,7599,-2,0,55520.5192120623,47888.5990692020,69657.7281135529,71854.7396196002,65361.0101729516,75584.4428882525,75232.9302947345,79106.8572738291,79330.0371689555,64493.4777248694
3004957242,7599,-2,0,55522.7824036713,47930.6871325126,69650.8898679384,71848.9964666997,65356.8974914254,75583.4208017193,75223.6341743618,79098.8630970165,79325.5594565247,64489.5475587956
3004957242,7599,-2,0,55504.9202247353,47875.2754411809,69653.8101151760,71842.8761151978,65353.9650764911,75603.0837997852,75227.9293713403,79104.7279268851,79331.1322616696,64488.6106461403
3004957242,7599,-2,0,55496.1594830227,47823.0395187200,69658.9448832352,71849.4710068758,65356.4837897334,75595.9656971438,75237.5540195272,79111.0916323235,79334.0281735134,64497.7364187575
3004957242,7599,-2,0,55504.5916969210,47850.5993520239,69654.2359845648,71852.5737695657,65356.8123175476,75581.3766286531,75233.3439964265,79105.6161687532,79332.6532237725,64500.0482811538
3004957242,7599,-2,0,55515.4817855776,47886.3237098961,69653.4329165744,71849.7751992964,65357.7613978998,75595.6006662391,75233.2466548519,79103.8031819266,79332.5437145011,64493.0640231775
3005016705,7600,-2,0,55520.1906842480,47897.8100156970,69656.6573562325,71851.9775524214,65357.9682487458,75593.0576176031,75234.8041200452,79105.4579886945,79332.0813420218,64492.5529799109
3005016705,7600,-2,0,55513.3159355431,47897.9803634525,69652.6055131905,71849.7995346901,65351.6532140947,75581.1819455039,75229.3043210813,79101.3331394715,79331.1809324569,64493.9522650455
3005016705,7600,-2,0,55494.0058006851,47853.2032391441,69648.3589869993,71842.4867488995,65345.6545395610,75592.0233633732,75226.8829494135,79100.6152453590,79327.3846110481,64490.4601360573
3005016705,7600,-2,0,55492.8498694869,47817.0408441863,69652.4716685254,71847.2443183572,65351.0691646472,75596.5497465913,75234.0253874486,79105.5309948754,79333.7361487897,64492.3826321554
3005016705,7600,-2,0,55512.7927245797,47872.9270756940,69654.4428354108,71858.3534255566,65359.5500493328,75580.6343991469,75237.8095411605,79105.5188271786,79336.2061912448,64498.8558468652
3005016705,7600,-2,0,55519.3876162577,47926.9273141943,69646.9840372583,71851.5395153357,65352.4927851755,75582.1310258561,75229.6328488955,79099.9460220337,79329.1854301779,64492.7598307569
3005016705,7600,-2,0,55504.0076474735,47885.2651202725,69648.9552041436,71844.7012697212,65348.5747867985,75601.1856390808,75233.6846919375,79102.1118720682,79332.3490313519,64489.5353910988
3005016705,7600,-2,0,55494.6628563135,47839.9891203943,69654.0778045061,71850.0185532329,65351.6410463979,75591.6705001653,75238.1137335811,79108.3782359320,79340.4405497391,64498.4056420827
3005031797,7601,-2,0,55492.8985402742,47848.9932160433,69647.7262667645,71849.7751992964,65349.5238671507,75579.9651758216,75230.8982893651,79102.0753689777,79334.2228566626,64497.0671954322
3005031797,7601,-2,0,55499.8949659474,47869.1915927694,69644.3558147445,71845.9302071004,65349.3291840015,75589.7236686736,75232.0420528664,79099.1794571339,79330.6333860999,64490.1194405463
3005031797,7601,-2,0,55512.9022338511,47892.9064338773,69649.6365951657,71853.1821544068,65355.3886970193,75589.0179422579,75237.7000318891,79103.7301757456,79331.8744911758,64493.8062526837
3005031797,7601,-2,0,55514.0094942620,47908.2742349647,69646.7771864123,71852.6102726562,65353.9772441879,75577.9818412395,75233.2344871551,79098.6805815641,79328.6257161241,64500.1577904252
3005031797,7601,-2,0,55494.2369869247,47856.7075358291,69642.2508031942,71840.2113895936,65345.9222288911,75589.3464700721,75227.9537067339,79097.8410104833,79327.7253065592,64497.9432696034
3005031797,7601,-2,0,55490.2581500636,47809.7767291830,69651.5469235669,71844.5065865721,65355.5590447749,75600.3825710905,75235.9843866371,79107.5995033353,79337.0579300224,64506.7161790128
3005031797,7601,-2,0,55510.6633776357,47867.9261522998,69657.7524489466,71859.8135491753,65368.4689711040,75589.2369608007,75239.3791740507,79109.8140241571,79342.5090581991,64515.9636285982
3005031797,7601,-2,0,55520.6043859400,47925.7713829961,69653.2869042126,71856.3822586713,65369.4667222435,75590.1617057593,75234.1713998104,79104.4845729487,79338.2503643110,64507.1177130080
3005047612,7602,-2,0,55511.7828057434,47898.8199345333,69657.3509149514,71852.0018878150,65368.7123250405,75607.4276675510,75241.0826516059,79110.0208750031,79341.5234747564,64500.9730261124
3005047612,7602,-2,0,55504.2266660163,47870.2015116057,69662.4978507075,71856.3700909745,65370.8416719845,75600.3704033937,75244.1854142957,79113.3183208421,79345.7091624635,64508.1276318443
3005047612,7602,-2,0,55503.0707348182,47878.3295330834,69659.2004048685,71854.8612965684,65368.8948404928,75594.4325673441,75236.1790697862,79106.0298704452,79341.4626362723,64506.3998188954
3005047612,7602,-2,0,55508.1811674838,47892.8820984837,69659.8209574065,71851.7098630913,65369.0651882483,75601.6480115601,75234.9988031944,79107.4656586703,79339.6739848393,64501.1312061711
3005047612,7602,-2,0,55519.4362870450,47926.5257801991,69659.5167649859,71854.9708058398,65372.4599756619,75590.6119105417,75236.4467591163,79110.3494028173,79340.3797112550,64501.0947030806
3005047612,7602,-2,0,55517.1974308296,47950.9463477227,69651.7902775033,71850.2740748662,65365.1350221745,75583.9075095923,75230.3629107049,79104.8739392470,79331.5459633616,64498.8801822588
3005047612,7602,-2,0,55497.0477248908,47894.5977437357,69651.5104204764,71842.4137427185,65359.5257139392,75602.0617132521,75232.7356115853,79105.1781316676,79330.7307276744,64495.9964381118
3005047612,7602,-2,0,55490.2338146700,47836.6551714649,69658.7136969956,71847.5606784746,65363.2855322574,75597.3041437943,75238.3814229112,79113.7563579277,79336.6685637240,64500.0482811538
3005084826,7603,-2,0,55503.8616351117,47881.1889418368,69654.6740216504,71854.6787811161,65367.1913629376,75575.7794881145,75233.5386795756,79106.5774168022,79331.8014849949,64500.9486907187
3005084826,7603,-2,0,55515.5547917585,47938.2676076332,69648.4441608770,71851.3691675802,65365.9015870744,75583.3356278416,75230.8739539714,79102.9879462394,79326.3381891214,64492.3826321554
3005084826,7603,-2,0,55513.8878172938,47925.4306874850,69653.4694196649,71850.4200872280,65367.3860460868,75599.8471924303,75236.6779453560,79109.4124901620,79331.4121186965,64490.2167821209
3005084826,7603,-2,0,55507.7187950045,47896.9339415257,69657.2049025896,71853.3403344655,65364.6118112111,75587.3388000963,75235.7775357911,79109.4368255556,79332.4585406233,64494.7796684295
3005084826,7603,-2,0,55497.8751282748,47878.2686945993,69652.9462087015,71847.1591444795,65358.0777580172,75584.6740744921,75230.1560598589,79102.1118720682,79328.8325669701,64491.4335518032
3005084826,7603,-2,0,55501.2820833852,47870.6273809945,69655.9272944231,71845.1393068069,65361.7402347609,75596.6592558627,75233.7820335121,79105.1659639707,79332.0448389313,64492.7598307569
3005084826,7603,-2,0,55518.7183929325,47915.8182069949,69658.1904860322,71852.1235647832,65369.9534301164,75584.8079191572,75231.9325435950,79107.9158634527,79335.4882971322,64497.3227170655
3005084826,7603,-2,0,55522.8675775491,47968.9788744144,69654.8930401932,71849.9090439615,65370.8660073781,75585.4893101792,75229.5598427145,79102.0145304936,79332.2516897773,64498.8193437747
3005177394,7604,-2,0,55505.6137834542,47931.3928589283,69660.8552116364,71845.1758098973,65368.6636542532,75609.0824743189,75236.8969638988,79108.9622853795,79338.2990350983,64497.6755802733
3005177394,7604,-2,0,55494.4073346802,47878.4755454453,69671.9278157453,71848.5219265237,65373.9687700680,75609.0459712285,75241.7640426280,79116.1777295955,79347.0841122045,64506.6675082255
3005177394,7604,-2,0,55503.6791196593,47909.2719861042,69671.2829278137,71848.1447279221,65371.4987276129,75594.4812381314,75232.5044253457,79109.0961300445,79344.2612065415,64511.6805993166
3005177394,7604,-2,0,55512.0869981640,47949.3888825294,69666.4280167813,71841.1848053394,65365.3175376269,75599.0562921368,75222.2105538335,79099.3376371926,79338.1530227364,64505.2438876972
3005177394,7604,-2,0,55510.0306574009,47928.8376425955,69669.0684069919,71837.9725333782,65363.0178429273,75602.2563964013,75223.6950128459,79102.9757785426,79341.5599778469,64504.5624966751
3005177394,7604,-2,0,55500.6615308472,47897.2381339463,69667.5231094954,71843.5331708262,65361.2048561007,75595.0409521853,75229.7423581669,79099.1794571339,79343.6649893972,64513.7491077764
3005177394,7604,-2,0,55485.8291084201,47856.5615234672,69663.4469310597,71839.6881786302,65357.1408453619,75598.7155966258,75227.0654648658,79098.9482708942,79339.2359477537,64512.1916425831
3005177394,7604,-2,0,55484.0891277744,47828.7461685299,69667.0485693193,71839.2988123319,65362.4216257830,75609.6908591601,75228.3430730322,79106.3827336530,79343.1174430402,64511.0357113849
3005183616,7605,-2,0,55499.5907735268,47874.6305532493,69669.1414131729,71842.9856244692,65369.0165174610,75593.5078223856,75223.6341743618,79105.4093179072,79342.3387104435,64513.0920521480
3005183616,7605,-2,0,55508.7773846281,47933.4491996914,69661.6461119299,71838.8364398526,65365.0863513872,75591.0621153242,75214.5935756223,79097.7558366056,79337.0092592351,64511.9239532530
3005183616,7605,-2,0,55497.3762527050,47892.6509122440,69663.9214712358,71835.3078077739,65360.5721358659,75610.7859518741,75220.2515546450,79100.0555313051,79335.8411603401,64507.7260978491
3005183616,7605,-2,0,55488.3964924497,47835.7547619000,69674.3978582004,71843.7643570659,65367.2765368154,75609.9950515806,75230.7401093064,79108.3417328415,79345.2467899842,64514.6373496445
3005183616,7605,-2,0,55495.2834088515,47860.6742049933,69675.3834416430,71849.2519883330,65374.2972978822,75601.1248005967,75230.3507430080,79108.4390744161,79344.3828835098,64519.4679252832
3005183616,7605,-2,0,55506.6602053809,47907.2278130379,69676.3933604793,71847.6823554429,65377.4974021466,75613.5845221434,75230.0222151938,79110.8117752966,79343.8475048496,64517.3994168233
3005183616,7605,-2,0,55511.5151164133,47925.0534888835,69680.9805821816,71849.5561807536,65382.9241949297,75613.0856465737,75233.9402135708,79116.0317172336,79349.6393285373,64516.8031996790
3005183616,7605,-2,0,55503.1802440896,47928.9714872605,69677.1599253792,71849.0938082743,65377.6555822053,75597.5474977308,75230.3629107049,79110.4345766951,79345.3562992556,64518.9568820167
3005188657,7606,-2,0,55483.0062027571,47892.7604215154,69669.9931519505,71839.2623092414,65368.5176418913,75605.3591590911,75227.4791665578,79106.1880505039,79340.2093634995,64513.6761015955
3005188657,7606,-2,0,55476.4721495632,47850.2099857256,69674.3735228067,71838.3984027670,65370.8051688940,75613.7061991116,75229.1948118099,79110.7144337220,79341.6694871183,64513.7004369892
3005188657,7606,-2,0,55494.0666391692,47892.6995830313,69676.6367144158,71845.7476916480,65376.9011850023,75599.7498508557,75226.8464463230,79108.7067637462,79343.9691818178,64515.2335667889
3005188657,7606,-2,0,55507.0495716793,47952.9053469112,69674.3856905035,71844.4335803911,65377.4487313593,75601.8548624061,75223.0866280047,79105.3606471199,79341.3652946977,64511.7779408911
3005188657,7606,-2,0,55494.1153099565,47914.6257727063,69675.1035846161,71835.3564785612,65373.0805281999,75615.9207199334,75224.5102485330,79106.7720999514,79342.9470952847,64504.1974657704
3005188657,7606,-2,0,55480.9985327813,47858.5205226557,69679.1189245677,71837.7291794417,65371.1458644051,75610.1288962457,75227.4183280737,79110.4589120887,79347.1571183854,64510.4273265438
3005188657,7606,-2,0,55481.9719485272,47870.2988531803,69678.0238318536,71843.1559722247,65371.7177461557,75604.6777680690,75227.4548311642,79108.6337575653,79346.1593672459,64516.1583117474
3005188657,7606,-2,0,55493.2635711789,47898.7834314428,69677.9143225822,71843.9833756087,65375.5262352613,75616.3709247159,75231.6161834776,79109.9235334285,79347.0962799013,64514.8685358842
3005212940,7607,-2,0,55503.5087719038,47920.8434657828,69679.4352846851,71845.3826607433,65377.4122282689,75609.8490392188,75230.0708859811,79110.5562536633,79348.7875897597,64516.9492120409
3005212940,7607,-2,0,55500.3816738203,47936.6128008653,69673.8381441465,71841.7445193933,65370.6348211385,75596.5862496818,75220.9207779703,79105.0077839120,79343.3851323703,64520.5995210878
3005212940,7607,-2,0,55480.0007816419,47889.8645096716,69668.8128853586,71832.6795852602,65360.7789867119,75608.2550709350,75216.5039040235,79100.5787422685,79337.5689732889,64517.0222182218
3005212940,7607,-2,0,55470.2422887899,47829.6222427012,69674.3491874131,71832.3145543555,65361.9957563942,75613.0004726959,75220.0447037990,79103.8153496234,79343.3364615830,64517.7279446376
3005212940,7607,-2,0,55485.8534438137,47868.7413879870,69672.8768960975,71838.8607752462,65366.4734688251,75595.6736724200,75220.7382625179,79102.2457167332,79342.4603874117,64522.8870480905
3005212940,7607,-2,0,55499.0675625634,47938.1824337555,69668.0584881556,71838.7877690653,65368.5541449818,75599.5308323129,75221.4074858432,79099.5566557354,79336.7537376018,64517.9956339677
3005212940,7607,-2,0,55488.1896416037,47920.7704596019,69669.5794502585,71833.8355164584,65368.6879896468,75614.5457701924,75229.4503334431,79102.8906046648,79340.9637607025,64509.5147492821
3005212940,7607,-2,0,55478.0174470597,47880.0451783355,69677.2450992569,71839.6638432365,65371.4987276129,75608.3037417223,75232.8816239472,79108.9622853795,79345.4779762238,64513.4449153559
3005258648,7608,-2,0,55473.1260329369,47872.4038647307,69671.9886542294,71836.9017760577,65367.6780708105,75601.9157008902,75221.6386720828,79102.8419338776,79342.3022073531,64511.6805993166
3005258648,7608,-2,0,55481.3027252019,47877.0762603107,69673.3392685768,71837.2059684783,65370.2941256275,75614.2172423782,75221.1276288162,79103.7788465329,79345.2346222874,64509.8311093995
3005258648,7608,-2,0,55498.1428176049,47902.7379329103,69677.2085961665,71844.8472820831,65374.3216332758,75605.9067054481,75224.6562608949,79106.5409137117,79345.6239885857,64514.0167971066
3005258648,7608,-2,0,55501.8661328327,47933.7655598088,69670.9787353931,71844.2875680293,65370.1602809624,75592.8994375444,75221.1276288162,79098.5589045959,79340.7204067661,64515.7202746618
3005258648,7608,-2,0,55481.4000667765,47889.2439571336,69665.1747440086,71833.1419577395,65359.6960616947,75604.3614079516,75220.6409209433,79097.5489857596,79336.8997499637,64508.6386751108
3005258648,7608,-2,0,55470.7776674501,47828.2959637475,69670.8448907281,71833.2392993140,65365.4635499887,75611.1874858693,75228.0267129149,79106.5530814086,79343.4581385512,64511.9239532530
3005258648,7608,-2,0,55483.2252212999,47862.8765581183,69671.0639092709,71836.6827575149,65369.6249023022,75593.2036299650,75223.3299819412,79104.5697468264,79342.5455612895,64516.1218086569
3005258648,7608,-2,0,55496.1473153259,47926.3919355341,69668.2775066984,71835.4538201358,65369.4910576371,75597.6813423958,75218.3290585470,79101.7346734667,79336.3765390003,64509.0767121964
3005278018,7609,-2,0,55493.9814652914,47915.4896791807,69670.8935615154,71832.7890945316,65370.0264362973,75609.0946420158,75222.5877524350,79105.9811996579,79338.0556811618,64506.0469556875
3005278018,7609,-2,0,55485.0747112170,47880.9212525067,69673.8624795402,71837.4493224148,65372.9831866253,75599.7376831589,75225.8365274867,79108.2322235701,79342.5942320768,64511.8874501625
3005278018,7609,-2,0,55478.7475088691,47864.4705264021,69672.5118651928,71838.0212041654,65371.9732677890,75602.7309365774,75228.1362221863,79107.7090126067,79341.6329840278,64513.9316232288
3005278018,7609,-2,0,55483.9187800189,47858.1189886605,69677.2816023474,71841.8905317551,65376.6334956722,75618.6949548090,75234.6337722897,79112.4665820645,79346.0498579745,64515.4039145444
3005278018,7609,-2,0,55501.2699156884,47899.2093008316,69682.0270041084,71853.9243839130,65384.3234800643,75606.6489349543,75240.4377636743,79114.8514506418,79348.0331925567,64522.3881725207
3005278018,7609,-2,0,55506.5750315032,47950.9341800259,69673.4852809387,71853.4255083433,65378.3613086211,75591.5001524098,75236.1790697862,79109.5950056143,79341.5356424532,64521.3295828971
3005278018,7609,-2,0,55486.3888224739,47911.2309852927,69669.4821086839,71842.9734567724,65369.7952500577,75610.7859518741,75233.9645489644,79110.4832474824,79339.7104879298,64514.0776355907
3005278018,7609,-2,0,55477.2873852503,47846.0486334122,69677.4276147093,71849.2763237267,65375.6114091391,75613.1464850578,75241.8005457184,79120.0835602757,79348.8605959406,64515.4525853317
3005303727,7610,-2,0,55485.5249159995,47871.0532503833,69672.9255668848,71850.9554658882,65378.5438240734,75591.3419723511,75236.3980883290,79116.2020649891,79348.0696956471,64516.8640381631
3005303727,7610,-2,0,55495.6119366657,47926.2945939595,69664.7975454071,71844.8107789927,65375.7087507137,75595.2843061217,75229.1583087194,79109.5098317365,79340.9515930057,64507.8964456046
3005303727,7610,-2,0,55496.5366816242,47930.5776232411,69669.8714749822,71843.2898168898,65379.0183642495,75612.0270569501,75232.9302947345,79114.0483826515,79342.2292011721,64509.5269169789
3005303727,7610,-2,0,55494.9913841277,47918.3125848436,69677.1599253792,71850.8337889200,65384.5059955167,75605.4443329689,75237.9920566128,79118.9762998648,79347.1571183854,64519.9911362466
3005303727,7610,-2,0,55485.4640775154,47891.9573535251,69675.9553233937,71850.2984102598,65382.2914746949,75606.0527178100,75240.8879684567,79116.2385680796,79347.0476091140,64519.9302977625
3005303727,7610,-2,0,55485.5857544836,47857.1577406115,69677.2937700442,71849.1546467584,65382.1332946362,75615.4096766669,75242.7374583738,79118.7207782315,79349.5298192659,64516.3651625934
3005303727,7610,-2,0,55504.6160323147,47892.0546950997,69680.2383526754,71854.3745886955,65388.9228694634,75606.2839040496,75239.6711987744,79120.8866282660,79352.3527249288,64521.3904213813
3005303727,7610,-2,0,55514.3015189857,47951.8832603781,69674.6655475305,71851.5638507294,65387.9129506271,75599.5551677066,75230.1560598589,79114.1092211356,79347.6924970456,64520.2466578799
3005335305,7611,-2,0,55494.3951669834,47920.3202548194,69673.1567531244,71841.6350101219,65381.7439283378,75616.0180615080,75231.0077986365,79114.9487922164,79345.7578332508,64513.5422569305
3005335305,7611,-2,0,55474.5496534652,47853.4222576869,69676.1013357556,71843.0707983470,65382.2671393012,75609.8368715220,75235.5828526419,79119.0128029552,79347.9966894662,64515.0510513365
3005335305,7611,-2,0,55477.1048697980,47865.6142899035,69670.7353814567,71849.0938082743,65381.0990404062,75594.7854305520,75235.2299894340,79116.2507357764,79342.8497537101,64517.8374539090
3005335305,7611,-2,0,55491.4140812618,47909.0651352582,69668.9954008110,71848.8504543379,65382.8268533551,75606.9409596781,75234.4512568374,79115.7031894194,79342.4482197149,64512.4228288228
3005335305,7611,-2,0,55506.1004913271,47924.1287439250,69676.9530745332,71853.5958560988,65387.6574289938,75612.4650940357,75240.7419560948,79121.2394914738,79347.9236832852,64515.1118898206
3005335305,7611,-2,0,55503.5209396006,47922.2792540079,69674.3978582004,71851.3326644897,65381.9386114870,75593.1914622682,75235.6558588228,79115.5936801480,79345.8673425222,64517.7887831217
3005335305,7611,-2,0,55483.5415814173,47885.7639958423,69666.2333336322,71839.1649676668,65367.5198907518,75595.1747968503,75227.3818249832,79106.3949013498,79337.2526131715,64512.6783504560
3005335305,7611,-2,0,55476.9101866488,47839.6970956706,69670.5772013980,71837.2789746592,65366.1327733140,75608.3524125096,75230.8252831841,79110.3250674237,79338.9682584236,64510.6950158739
3005375039,7612,-2,0,55493.3122419662,47875.8229875379,69673.3879393641,71846.1005548559,65372.3017956032,75598.0098702101,75232.3949160743,79109.6071733111,79342.2048657785,64515.3795791507
3005375039,7612,-2,0,55504.7377092829,47948.5979822359,69669.4821086839,71845.1271391100,65372.2774602096,75594.8219336424,75229.3043210813,79105.5309948754,79337.6054763794,64513.1772260258
3005375039,7612,-2,0,55492.9958818488,47929.1783381065,69672.1224988945,71837.5344962925,65369.5275607276,75610.5791010282,75231.3849972380,79108.3904036288,79337.7393210445,64510.0379602455
3005375039,7612,-2,0,55478.9178566246,47865.0910789401,69675.8579818191,71837.9481979845,65369.9777655101,75603.9233708660,75233.9402135708,79112.5760913359,79342.8862568006,64516.5598457426
3005375039,7612,-2,0,55480.1102909133,47858.0216470859,69670.4068536424,71843.4966677358,65369.2477037007,75585.8908441744,75229.8883705288,79107.2344724306,79335.7924895528,64519.8937946720
3005375039,7612,-2,0,55483.4320721459,47875.4336212396,69661.9624720473,71837.1938007815,65365.5365561697,75590.9526060527,75227.2479803182,79101.9658597063,79330.9375785204,64511.0113759913
3005375039,7612,-2,0,55488.6641817798,47896.2403828068,69663.2522479106,71839.0432906986,65369.0651882483,75593.9701948648,75231.9203758982,79102.8054307871,79332.4220375328,64512.6296796687
3005375039,7612,-2,0,55488.9562065035,47924.8344703407,69661.6826150204,71839.0919614859,65369.9047593291,75584.6132360080,75227.4183280737,79101.7711765571,79331.6676403298,64519.9424654593
3005406702,7613,-2,0,55474.1846225605,47899.4891578585,69659.7722866192,71831.0977846732,65362.9691721400,75595.6615047232,75224.2425592029,79102.3795613983,79332.1908512932,64518.0078016645
3005406702,7613,-2,0,55464.9250052782,47843.2622308397,69666.4766875686,71829.4064748148,65366.5951457933,75603.8016938978,75226.1163845136,79107.4413232766,79337.4351286239,64516.6571873171
3005406702,7613,-2,0,55479.7695954022,47872.4282001243,69669.3725994125,71838.6295890066,65376.3901417357,75591.3054692606,75224.9117825282,79110.0087073063,79341.1949469422,64519.2124036500
3005406702,7613,-2,0,55495.9891352672,47942.5141338245,69665.5397749133,71839.1284645763,65378.0571162005,75587.9958557248,75221.1762996035,79105.7378457214,79336.8145760859,64516.1583117474
3005406702,7613,-2,0,55488.5181694179,47924.1044085313,69663.8241296612,71832.4362313237,65371.5352307034,75597.8881932418,75223.0622926111,79105.1902993644,79334.1985212690,64506.3754835017
3005406702,7613,-2,0,55475.9611062966,47869.0699158012,69663.5199372407,71832.6552498665,65366.5829780965,75589.5289855245,75228.4404146068,79107.2101370370,79334.7338999292,64507.4219054285
3005406702,7613,-2,0,55469.3418792250,47858.0581501764,69658.7380323892,71835.2104661994,65358.0169195331,75584.4185528588,75231.2754879666,79101.6494995889,79334.8190738069,64511.9604563435
3005406702,7613,-2,0,55474.0507778954,47864.0324893165,69657.7037781593,71833.6895040965,65358.8199875234,75595.6858401169,75233.4413380011,79100.3840591193,79331.7528142076,64511.7901085880
3005430334,7614,-2,0,55490.0512992176,47896.2403828068,69664.2134959596,71842.1582210853,65366.3639595536,75594.1770457108,75235.2543248277,79106.3340628657,79335.6951479782,64514.8198650969
3005430334,7614,-2,0,55497.7169482161,47936.8196517113,69659.8209574065,71842.5232519899,65365.8650839839,75576.6190591953,75225.6661797312,79100.8951023859,79330.2318521047,64512.6053442751
3005430334,7614,-2,0,55478.7475088691,47900.6815921472,69651.2183957527,71831.7305049080,65357.0435037873,75586.1828688981,75219.5093251388,79096.5512346201,79324.0384944218,64500.9730261124
3005430334,7614,-2,0,55463.1241861484,47828.9773547696,69656.4870084770,71831.6088279398,65357.8344040808,75596.2212187771,75228.5985946655,79101.7590088603,79328.9177408478,64503.5525778388
3005430334,7614,-2,0,55472.1039464038,47845.7687763852,69657.4360888292,71838.0942103464,65360.7789867119,75580.1233558803,75228.8662839956,79101.5886611048,79331.2782740315,64508.9428675314
3005430334,7614,-2,0,55488.4938340243,47909.4545015565,69654.2116491711,71837.6440055639,65361.5212162181,75582.3743797926,75227.2601480150,79096.8554270407,79328.2485175226,64508.0059548760
3005430334,7614,-2,0,55489.6862683129,47907.6050116394,69655.5014250344,71834.5169074804,65363.3950415288,75591.4271462288,75229.1218056289,79101.4548164397,79327.7374742560,64504.1852980736
3005430334,7614,-2,0,55482.3613148255,47873.6814728971,69655.5014250344,71837.5831670798,65361.9105825164,75582.0215165847,75230.7157739127,79101.7346734667,79327.5671265005,64506.3268127145
3005480312,7615,-2,0,55474.0751132891,47854.8337105183,69648.9795395372,71836.4515712753,65354.4517843640,75573.4797934150,75226.5665892961,79095.3344649378,79322.5662031062,64506.2903096240
3005480312,7615,-2,0,55475.4135599396,47837.6042518170,69647.5072482217,71834.0910380916,65351.2516800996,75583.4816402035,75226.4327446310,79092.8400870891,79318.6968755165,64503.1267084500
3005480312,7615,-2,0,55491.2193981126,47862.2803409740,69651.8024452002,71836.3420620039,65357.2381869364,75580.6343991469,75226.8829494135,79097.4516441850,79322.7852216491,64507.9572840887
3005480312,7615,-2,0,55500.8683816932,47913.7375308382,69649.4905828038,71833.9815288202,65357.0556714841,75570.3405276347,75218.4750709088,79092.3777146098,79321.3737688176,64510.2204756978
3005480312,7615,-2,0,55483.0305381508,47883.6711519887,69645.5239136395,71823.3104587065,65348.6234575858,75582.4960567608,75215.4209790063,79091.9275098274,79321.1912533653,64504.3191427387
3005480312,7615,-2,0,55465.1440238210,47804.7514703951,69649.0038749309,71824.7097438412,65346.4454398545,75585.9881857490,75221.1641319067,79099.1551217402,79324.1601713900,64503.6012486261
3005480312,7615,-2,0,55473.9169332304,47815.2400250565,69648.9673718404,71833.4461501600,65347.3336817226,75568.8439009255,75220.2637223418,79096.0401913535,79324.2696806615,64507.9329486951
3005480312,7615,-2,0,55487.6420952467,47876.8207386774,69644.8425226174,71830.7449214653,65349.2318424269,75574.7939046719,75215.6156621555,79089.0437656803,79317.3827642597,64501.4232308948
3005491753,7616,1,0,55491.8277829538,47889.0127708940,69648.6996825103,71829.5646548735,65351.1665062218,75583.3721309321,75220.6165855497,79091.4651373481,79319.3782665386,64495.9599350213
3005491753,7616,1,0,55486.6930148945,47876.7477324964,69647.4220743439,71829.7350026290,65349.1101654587,75573.4554580214,75219.7040082880,79090.3578769372,79320.1813345289,64497.0793631290
3005491753,7616,1,0,55473.2720452988,47856.0991509879,69640.6690026072,71822.9575954987,65340.7631254382,75566.8362309497,75212.1722039546,79086.6467294062,79313.9514737556,64491.8837565856
3005491753,7616,1,0,55468.4049665696,47826.2396229844,69640.4743194580,71820.1833606230,65340.9578085873,75576.8624131318,75212.4520609815,79087.4254620029,79311.8099591148,64483.5732196556
3005491753,7616,1,0,55484.8313572806,47855.5394369341,69644.7938518302,71829.5038163894,65350.1079165982,75568.6127146858,75216.8324318377,79090.3578769372,79312.1993254131,64486.9680070692
3005491753,7616,1,0,55502.2676668278,47925.2238366391,69641.5694121721,71834.0545350012,65352.1034188772,75563.8551452281,75217.5381582535,79088.2041945996,79311.8464622052,64489.6327326734
3005491753,7616,1,0,55493.7137759613,47913.4455061144,69642.4333186465,71831.0734492795,65350.1200842950,75580.7074053278,75220.6774240338,79091.8910067369,79312.1141515353,64483.3176980223
3005491753,7616,1,0,55482.5073271874,47850.6845259017,69649.7096013466,71836.9139437546,65357.8830748681,75585.2824593332,75233.2223194582,79103.2191324791,79319.4391050227,64485.8485789614
3005521805,7617,1,0,55487.6299275498,47857.6444484844,69649.4540797133,71845.3583253497,65364.9890098126,75575.7064819336,75238.0163920065,79104.6062499169,79320.6072039178,64493.8914265614
3005521805,7617,1,0,55501.8661328327,47905.1593045780,69649.6487628625,71851.4543414580,65374.7231672710,75585.9881857490,75247.1665000173,79106.2975597753,79322.5053646221,64492.4678060331
3005521805,7617,1,0,55512.0383273767,47922.7416264872,69653.9317921442,71851.3691675802,65379.8214322398,75589.6506624927,75248.8213067853,79110.3372351205,79323.6369604267,64489.2190309814
3005521805,7617,1,0,55510.3591852151,47924.2260854996,69652.1309730144,71848.0960571348,65377.1567066356,75572.2630237327,75234.7676169548,79105.4944917850,79320.0353221671,64488.2334475387
3005521805,7617,1,0,55494.0423037755,47900.7302629345,69646.9475341678,71836.9017760577,65367.8849216565,75573.9908366816,75224.0113729633,79101.2479655937,79313.9758091492,64480.4582892689
3005521805,7617,1,0,55484.5515002536,47853.6412762297,69650.5978432147,71832.5822436856,65368.7974989182,75589.0422776515,75225.6296766407,79104.6549207042,79316.5310254821,64477.4285327600
3005521805,7617,1,0,55498.6903639619,47877.2466080662,69656.5478469611,71843.5453385231,65375.6479122295,75576.1201836256,75233.2344871551,79108.2808943574,79318.5386954578,64486.0067590201
3005521805,7617,1,0,55515.0315807951,47949.0116839279,69652.1674761049,71848.0473863475,65378.2152962592,75571.6789742852,75232.6261023139,79106.4557398340,79312.7833748606,64489.9247573971
3005559962,7618,1,0,55507.6457888236,47935.9192421464,69650.0259614640,71842.1217179948,65374.7840057551,75586.4140551378,75233.9888843581,79107.6116710322,79316.0321499123,64486.7489885263
3005559962,7618,1,0,55493.6529374772,47871.9293245546,69653.7857797823,71841.2456438235,65374.5041487282,75582.6177337290,75236.2399082703,79110.8117752966,79320.7410485828,64489.3893787369
3005559962,7618,1,0,55492.4240000981,47867.0135750381,69647.8601114295,71843.3506553739,65373.9566023712,75567.2255972480,75229.4259980495,79106.2002182007,79314.6206970809,64493.4290540821
3005559962,7618,1,0,55501.9999774977,47898.5400775063,69645.7307644855,71842.8274444105,65379.0548673400,75579.0404308631,75229.3164887781,79103.1339586013,79311.8342945084,64490.5818130256
3005559962,7618,1,0,55510.7242161198,47921.8290492255,69651.1088864813,71845.7111885576,65386.9517025781,75588.2757127517,75233.7090273312,79108.5972544748,79318.7212109102,64490.7886638716
3005559962,7618,1,0,55516.0049965409,47949.0846901088,69655.4284188534,71848.5219265237,65392.5245077230,75579.2594494059,75234.0618905390,79110.4832474824,79320.8992286415,64496.7995061021
3005559962,7618,1,0,55500.2721645489,47926.2702585658,69653.5545935427,71841.2821469140,65390.1031360552,75586.5357321060,75230.6306000350,79110.0573780936,79320.7653839765,64495.4610594516
3005559962,7618,1,0,55486.0116238724,47866.2105070478,69658.9448832352,71842.0243764202,65392.3784953611,75598.3870688116,75238.6004414540,79115.2894877274,79324.2088421773,64495.1081962437
3005608670,7619,1,0,55499.8827982506,47883.2331149031,69660.5875223063,71854.0338931844,65397.9391328092,75578.3955429315,75241.9830611708,79114.0727180451,79324.5252022947,64497.8702634225
3005608670,7619,1,0,55514.0946681397,47948.5614791454,69649.1012165055,71848.8991251252,65393.4370849847,75565.3274365436,75229.7180227732,79101.0411147478,79313.7811260001,64489.1825278909
3005608670,7619,1,0,55507.2685902221,47937.7687320635,69646.6311740504,71837.9481979845,65386.3798208274,75581.8998396165,75225.5445027630,79099.4958172512,79311.2502450609,64482.1982699146
3005608670,7619,1,0,55493.6042666899,47882.5517238810,69650.4518308528,71836.0622049770,65385.3455665974,75578.1035182077,75226.2745645723,79102.3917290951,79315.2899204061,64482.4902946383
3005608670,7619,1,0,55490.6475163619,47868.2790155077,69646.0592922997,71837.7656825322,65383.1188780788,75564.2445115264,75225.0334594964,79099.3498048894,79314.0853184206,64483.5245488683
3005608670,7619,1,0,55492.5213416727,47872.5985478798,69638.6613326314,71833.2392993140,65380.3203078096,75571.2896079869,75223.5611681808,79096.2227068059,79309.3399166597,64475.9319060507
3005608670,7619,1,0,55505.8206343001,47895.1939608800,69638.9290219615,71839.4934954810,65387.8521121430,75571.7519804661,75233.0033009154,79102.5864122443,79311.5301020878,64475.0679995763
3005608670,7619,1,0,55511.3934394451,47933.1936780581,69634.6824957703,71839.8585263857,65386.1608022846,75552.7825411192,75228.3309053354,79096.7459177693,79308.0501407965,64478.2681038408
3005617937,7620,1,0,55489.6984360097,47902.0930449786,69625.3255369134,71824.3568806333,65369.6492376958,75554.9848942441,75217.9275245518,79086.3182015920,79298.3159833381,64473.8512298940
3005617937,7620,1,0,55470.4491396358,47821.3847119521,69628.5378088747,71819.7331558406,65363.2490291670,75569.3671118888,75219.6918405911,79089.8224982770,79302.1366401405,64477.8909052392
3005617937,7620,1,0,55480.2684709720,47823.1855310819,69633.0885274865,71826.9120969661,65367.1791952408,75554.8632172759,75223.2083049730,79089.1046041645,79303.6941053339,64485.6295604186
3005617937,7620,1,0,55497.2789111304,47888.5747338084,69627.8807532463,71827.4961464136,65366.1814441013,75553.6586152904,75218.4264001215,79081.4389551660,79296.4421580274,64485.1063494552
3005617937,7620,1,0,55496.0621414481,47896.1552089290,69630.0831063712,71824.6975761443,65365.7312393188,75570.9854155663,75224.3277330807,79084.4078731908,79298.7175173333,64483.9625859539
3005617937,7620,1,0,55485.8899469042,47860.8323850520,69633.9280985673,71828.3722205849,65366.5708103996,75561.4216058635,75231.3728295412,79088.8977533185,79304.6918564733,64490.8981731430
3005617937,7620,1,0,55473.8074239590,47836.8376869172,69627.8442501558,71823.9188435477,65358.5157951028,75550.7383680529,75222.7581001905,79082.0351723103,79299.7761069569,64490.2411175145
3005617937,7620,1,0,55472.6028219735,47817.9412537512,69625.9825925419,71821.9598443592,65355.1453430829,75564.9989087294,75220.3732316132,79082.6070540610,79298.0482940080,64484.3762876459
3005651734,7621,1,0,55488.0679646355,47832.9196885402,69630.6671558187,71829.4429779053,65360.2557757485,75558.7933833497,75223.9627021760,79082.6800602419,79300.3601564044,64484.2424429808
3005651734,7621,1,0,55500.3695061235,47888.6234045956,69625.8730832705,71826.9851031470,65359.9394156311,75541.6977693135,75217.6720029185,79078.2753539920,79297.0262074749,64484.7534862474
3005651734,7621,1,0,55482.8358550016,47874.6427209461,69619.3633654702,71811.6416374533,65349.9862396300,75553.5004352317,75206.9644297143,79070.7800527491,79290.6625020365,64476.9661602807
3005651734,7621,1,0,55464.3166204371,47805.3841906299,69623.5612208741,71807.8696514382,65350.1565873855,75563.1372511155,75208.9842673869,79075.4281129355,79295.5052453720,64475.0436641827
3005651734,7621,1,0,55469.7190778265,47813.2080196870,69624.1209349280,71815.3041141970,65353.4783686181,75543.2917375973,75207.4268021936,79073.6881322898,79293.8626063009,64479.7890659436
3005651734,7621,1,0,55484.4906617695,47876.0785091712,69619.2051854115,71816.9710886618,65354.5977967259,75548.0736424487,75205.3582937337,79073.6272938057,79291.1492099094,64477.7448928774
3005651734,7621,1,0,55493.7867821423,47890.4728945127,69625.8852509673,71820.7552423737,65360.7181482278,75567.4081127003,75213.6323275733,79083.9089976211,79297.7197661938,64477.2703527013
3005651734,7621,1,0,55495.3807504261,47869.5444559773,69630.7279943028,71829.5159840862,65367.2522014217,75561.7014628904,75223.4881619999,79092.7427455145,79305.0933904685,64483.5610519587
3005680205,7622,1,0,55483.9674508061,47840.9747038370,69624.0114256566,71827.2527924771,65364.1129356414,75554.6441987331,75223.2448080634,79091.8545036464,79302.4651679547,64484.0842629221
3005680205,7622,1,0,55476.1557894458,47805.7127184441,69625.3620400039,71825.4763087410,65364.2467803065,75570.1701798792,75226.8951171103,79096.5268992264,79304.5945148988,64481.5168788925
3005680205,7622,1,0,55490.3554916382,47834.8178492446,69633.2345398484,71834.1640442726,65378.0692838973,75567.4689511845,75233.4048349106,79105.1416285771,79311.7247852370,64487.6980688785
3005680205,7622,1,0,55505.0053986130,47918.2030755722,69631.9082608947,71835.4416524390,65381.0016988316,75556.2016639264,75226.3719061469,79098.5467368991,79308.6341902440,64489.5232234020
3005680205,7622,1,0,55490.3433239414,47919.9917270052,69628.6473181461,71823.8945081540,65373.5672360728,75566.7023862846,75221.8698583224,79097.9626874516,79305.2515705272,64480.1419291515
3005680205,7622,1,0,55474.7565043112,47853.0085559949,69635.6559115161,71824.3325452396,65374.1391178235,75576.4852145303,75228.3917438195,79103.0609524204,79309.8996307136,64483.8530766825
3005680205,7622,1,0,55480.1467940037,47849.4069177353,69638.0529477902,71833.7868456711,65378.7263395258,75564.6582132184,75232.7356115853,79105.2633055453,79315.0952372570,64492.8571723315
3005680205,7622,1,0,55493.0567203329,47892.5535706694,69631.7135777455,71835.2591369866,65382.2428039076,75562.1760030665,75232.0785559569,79104.1803805281,79308.7802026058,64487.7832427563
3005726936,7623,1,0,55502.2189960406,47903.8451933211,69634.0011047482,71837.5831670798,65386.8665287003,75573.2607748722,75241.9587257771,79107.8550249686,79311.1772388800,64483.4515426873
3005726936,7623,1,0,55500.5398538790,47898.0046988461,69635.2422098242,71838.4349058574,65387.9251183239,75560.3143454526,75241.7883780216,79108.5607513843,79310.4593447674,64486.8219947073
3005726936,7623,1,0,55483.0305381508,47866.8553949794,69628.9880136572,71826.6444076360,65377.6799175990,75558.4161847482,75229.7666935605,79100.4327299066,79304.1686455100,64482.3807853669
3005726936,7623,1,0,55466.3364581097,47805.8830661996,69629.2435352904,71818.4068768869,65369.6249023022,75569.1480933460,75226.6152600834,79098.7170846546,79303.7549438180,64474.4596147352
3005726936,7623,1,0,55478.7718442627,47812.5266286650,69633.8429246895,71828.5304006436,65374.1877886108,75561.7744690713,75230.7157739127,79102.0388658872,79305.0082165907,64479.1076749215
3005726936,7623,1,0,55499.6881151014,47883.9510090156,69629.0488521413,71835.1861308057,65374.1269501267,75548.0006362678,75230.8131154873,79095.5169803902,79302.1366401405,64478.7426440168
3005726936,7623,1,0,55497.3154142209,47882.1501898858,69627.2358653147,71831.2194616414,65372.3748017842,75564.1836730423,75237.0551439575,79098.2182090848,79302.6111803166,64474.8854841240
3005726936,7623,1,0,55483.8701092316,47812.9524980538,69634.2322909878,71831.7670079985,65375.2707136280,75573.2972779627,75242.6766198897,79105.9325288706,79305.6409368255,64479.2780226771
3005753605,7624,1,0,55485.6709283614,47801.0038197736,69634.7189988608,71836.9869499355,65379.5172398192,75562.2855123379,75237.5418518304,79105.5188271786,79308.7071964249,64487.1018517342
3005753605,7624,1,0,55496.5731847147,47833.5037379877,69633.8185892959,71836.9017760577,65380.6731710174,75567.1647587639,75229.3651595654,79102.6107476379,79304.6918564733,64482.4416238510
3005753605,7624,1,0,55507.9378135473,47862.8522227247,69639.0263635361,71837.8386887131,65385.4794112625,75576.6798976794,75231.4945065094,79105.3606471199,79307.5512652267,64478.7913148041
3005753605,7624,1,0,55511.8923150148,47894.5612406452,69639.8294315264,71837.5223285957,65386.7448517321,75564.3175177073,75229.1704764162,79102.5377414570,79308.8897118773,64481.8089036162
3005753605,7624,1,0,55494.0544714724,47883.3182887808,69633.5995707531,71827.4231402327,65378.5194886798,75565.0962503040,75220.8356040925,79095.6629927520,79303.7184407275,64477.6840543933
3005753605,7624,1,0,55474.4158088001,47818.2211107781,69634.6581603766,71819.2099448772,65368.8826727960,75575.3901218162,75220.4340700973,79094.3367137983,79303.4507513974,64475.9075706571
3005753605,7624,1,0,55486.0359592660,47821.0805195315,69638.2232955458,71828.7980899737,65374.1026147330,75563.5266174138,75219.9960330117,79094.4218876761,79307.0767250506,64485.8850820519
3005753605,7624,1,0,55503.5209396006,47888.7329138670,69631.4945592027,71827.9706865897,65372.3626340874,75553.2814166889,75212.6710795243,79085.0649288192,79302.0271308691,64486.4812991962
3005796776,7625,1,0,55502.3406730088,47888.5747338084,69630.2291187331,71820.2441991071,65369.9777655101,75568.1990129938,75211.3448005706,79083.9576684083,79302.8180311626,64478.0612529948
3005796776,7625,1,0,55490.0391315208,47826.4464738304,69634.4756449243,71818.9665909407,65370.6713242290,75568.9290748032,75218.6332509675,79091.4529696513,79308.4516747916,64478.8156501978
3005796776,7625,1,0,55481.3757313829,47802.9019804780,69631.1295282980,71819.9765097770,65366.3882949473,75551.8942992511,75216.4552332362,79086.8900833427,79304.2051486004,64480.5069600562
3005796776,7625,1,0,55482.1787993732,47811.9060761270,69626.1286049038,71818.5772246424,65365.4878853824,75557.9416445721,75215.4939851872,79085.3691212398,79299.2772313871,64474.1189192241
3005796776,7625,1,0,55495.7579490276,47841.0720454116,69629.9370940094,71825.8048365552,65372.3869694810,75563.1129157219,75223.0379572174,79089.2506165263,79303.8644530894,64473.7295529258
3005796776,7625,1,0,55506.1491621144,47891.8721796474,69629.0245167476,71830.4042259543,65374.8935150265,75550.2151570895,75221.6873428701,79088.4475485360,79301.2970690597,64477.7327251805
3005796776,7625,1,0,55493.9571298978,47884.6567354314,69622.6729790060,71819.8061620215,65368.4933064977,75557.2602535500,75217.4286489821,79085.3082827557,79296.6855119638,64475.0679995763
3005796776,7625,1,0,55477.8714346978,47814.0597584647,69627.4427161606,71819.6114788723,65372.8128388698,75574.2585260117,75225.8608628804,79092.6575716368,79299.7517715632,64476.2726015618
3005802879,7626,1,0,55486.3158162930,47808.9614934958,69632.6869934913,71834.9671122629,65381.8412699124,75561.4702766508,75237.7000318891,79099.7026680972,79304.4728379305,64484.1451014062
3005802879,7626,1,0,55502.1946606469,47875.1172611222,69624.7536551628,71840.2965634713,65381.3545620395,75548.8645427422,75233.5143441820,79091.9275098274,79296.0527917290,64479.3753642516
3005802879,7626,1,0,55499.2014072285,47889.0249385908,69620.8113213921,71830.5989091035,65374.0782793394,75559.2922589194,75227.1506387436,79089.3114550105,79290.7963467015,64470.5416163582
3005802879,7626,1,0,55488.8710326258,47855.5272692372,69624.9483383119,71829.1022823942,65367.8727539597,75558.2823400831,75227.7346881911,79092.2803730352,79291.7940978410,64473.5957082607
3005802879,7626,1,0,55477.7862608201,47836.6308360712,69621.0668430254,71825.9021781298,65356.5081251271,75551.8821315543,75219.7770144689,79089.3722934946,79287.7665901926,64474.8976518208
3005802879,7626,1,0,55476.8858512552,47828.7826716204,69621.8577433189,71826.9729354502,65351.1056677377,75570.1458444855,75228.8054455115,79090.8810879006,79290.6381666428,64473.1820065688
3005802879,7626,1,0,55494.6141855262,47849.3339115544,69633.3075460293,71843.2168107089,65361.8740794260,75572.3360299136,75246.1079103938,79103.4868218092,79300.0924670743,64478.8156501978
3005802879,7626,1,0,55509.1667509265,47905.3661554240,69631.4458884154,71842.6449289582,65365.1471898713,75554.8753849727,75237.7243672827,79099.4593141608,79298.4376603063,64481.8210713131
3005836688,7627,1,0,55494.1274776533,47894.4152282834,69623.3178669377,71826.4618921837,65356.9218268190,75559.0002341957,75221.5413305082,79090.1996968785,79292.4998242568,64472.5006155467
3005836688,7627,1,0,55473.7952562622,47811.6018837064,69625.5810585467,71821.4366333958,65359.5743847264,75567.6271312432,75222.7337647969,79094.2637076174,79294.9942021055,64471.7705537373
3005836688,7627,1,0,55476.9710251330,47796.3314241936,69627.3818776765,71831.4628155779,65366.3031210695,75557.0412350072,75226.4449123279,79094.2028691333,79299.2893990840,64476.2847692586
3005836688,7627,1,0,55491.4749197459,47857.8026285431,69622.3079481014,71834.3100566345,65369.2477037007,75553.1475720239,75223.6828451491,79086.0748476555,79294.3006433866,64475.8102290825
3005836688,7627,1,0,55493.8476206264,47882.6855685460,69623.9262517788,71830.3312197733,65370.1846163560,75568.7587270477,75223.9261990855,79087.2307788537,79295.2740591324,64473.3645220211
3005836688,7627,1,0,55486.6321764104,47869.4349467059,69629.0366844445,71829.8445119004,65368.7731635246,75563.6361266852,75225.7148505185,79090.1510260912,79300.6400134313,64481.4682081052
3005836688,7627,1,0,55474.1116163796,47854.4443442200,69625.9339217546,71824.0648559095,65362.9813398369,75556.1286577455,75219.2659712023,79085.0527611224,79296.5516672988,64486.1771067757
3005836688,7627,1,0,55463.8055771705,47822.4311338788,69626.4693004148,71820.4997207404,65360.0732602962,75570.9975832631,75221.8576906256,79085.3812889366,79294.4588234453,64485.7269019932
3005866934,7628,1,0,55478.0174470597,47834.1729613130,69633.2588752420,71829.8201765068,65366.7289904583,75567.2012618544,75231.0929725142,79090.9419263847,79304.2781547814,64489.3650433433
3005866934,7628,1,0,55498.0089729398,47901.4603247438,69630.5454788505,71835.5024909231,65367.3617106931,75552.4905163954,75226.2258937851,79085.2596119684,79300.1046347711,64490.5331422383
3005866934,7628,1,0,55491.6087644110,47904.8429444606,69625.7392386054,71825.3546317728,65355.7415602272,75564.1836730423,75220.1542130704,79077.1072550970,79295.0915436800,64486.0554298074
3005866934,7628,1,0,55474.2332933478,47831.3622233469,69629.7789139506,71823.0184339828,65354.2936043053,75575.1589355766,75226.3840738438,79081.0617565645,79300.7738580963,64491.7620796174
3005866934,7628,1,0,55474.2454610446,47812.1129269730,69629.7424108602,71832.1320389031,65358.5157951028,75557.8929737848,75227.7833589784,79082.9720849657,79302.9275404340,64500.1091196379
3005866934,7628,1,0,55486.5104994421,47853.3614192028,69623.2448607567,71831.2924678224,65358.9294967948,75554.8388818823,75222.9771187333,79076.0486654734,79298.3038156413,64496.0329412022
3005866934,7628,1,0,55495.6484397562,47870.3718593612,69623.7437363265,71828.6764130054,65358.8686583107,75566.4955354386,75223.4273235158,79075.5011191164,79298.2794802477,64489.1703601941
3005866934,7628,1,0,55496.8530417416,47869.4349467059,69625.9095863610,71830.0878658369,65356.2647711906,75557.6982906356,75223.6828451491,79076.0973362607,79300.8590319741,64490.2289498177
3005893749,7629,1,0,55483.0913766349,47853.0815621758,69620.2394396415,71826.2915444281,65349.4995317571,75551.9551377352,75219.6675051975,79070.9017297173,79296.8923628098,64490.6426515097
3005893749,7629,1,0,55470.7654997533,47809.3873628846,69621.6995632602,71822.7142415622,65350.1687550823,75567.6271312432,75224.4737454425,79075.3794421482,79297.5737538319,64490.6061484192
3005893749,7629,1,0,55482.4099856128,47818.5861416828,69629.6085661951,71834.8697706883,65361.9835886974,75567.3594419131,75232.2610714092,79081.9743338262,79303.4750867910,64498.9045176525
3005893749,7629,1,0,55504.4091814687,47896.6419168020,69627.1993622242,71842.2555626598,65367.4225491772,75554.8753849727,75229.7788612573,79079.2000989506,79299.0825482380,64503.0415345723
3005893749,7629,1,0,55502.0608159819,47905.7311863287,69621.4805447174,71836.1108757643,65365.4513822919,75567.1769264607,75229.7058550764,79079.6989745203,79297.5980892256,64493.6480726250
3005893749,7629,1,0,55484.1499662585,47835.6695880222,69625.9825925419,71836.1838819452,65366.2666179791,75570.8150678108,75239.2331616888,79086.1600215333,79302.4773356516,64488.6958200180
3005893749,7629,1,0,55471.2035368389,47806.5036187376,69622.0767618617,71829.7228349322,65364.1007679446,75550.1421509086,75229.1583087194,79081.1347627454,79297.5129153478,64491.3240425318
3005893749,7629,1,0,55469.8529224915,47831.0458632295,69614.8491499489,71823.1522786478,65362.5067996608,75552.3931748208,75219.3511450801,79073.7854738644,79291.9279425061,64487.0653486437
3005958000,7630,1,0,55480.8038496322,47858.4718518684,69619.6553901940,71827.3014632644,65369.5397284244,75566.4468646513,75225.0577948901,79078.5065402317,79293.3028922471,64488.0996028737
3005958000,7630,1,0,55494.6020178294,47888.2097029037,69622.9406683361,71833.0567838617,65376.4023094326,75558.0633215403,75225.7878566994,79083.5317990195,79298.1578032794,64495.2420409088
3005958000,7630,1,0,55488.2383123910,47877.7819867264,69617.5503786436,71826.1942028536,65370.2819579306,75553.7559568650,75217.0149472901,79077.7764784223,79290.8693528825,64493.3438802044
3005958000,7630,1,0,55469.7312455233,47813.2080196870,69618.7671483259,71819.1612740899,65365.4513822919,75565.9479890816,75216.6012455981,79079.2000989506,79292.2321349266,64487.9535905118
3005958000,7630,1,0,55472.7610020322,47802.9506512653,69624.0479287470,71827.5569848977,65370.5496472607,75559.9371468511,75219.1442942341,79083.0572588435,79297.0140397781,64489.6814034607
3005958000,7630,1,0,55492.2414846457,47878.1835207216,69622.6486436124,71834.1518765758,65375.7087507137,75553.8167953491,75217.6476675249,79081.8039860707,79297.8414431620,64490.1072728495
3005958000,7630,1,0,55495.3442473356,47905.0741307003,69624.0357610502,71832.5092375047,65376.7551726404,75572.3603653073,75221.5413305082,79083.1059296308,79298.0239586144,64486.4326284089
3005958000,7630,1,0,55483.3834013586,47863.6187876245,69632.8816766405,71833.7016717933,65378.9696934622,75577.4099594888,75232.3097421965,79092.4020500035,79305.8599553683,64491.2753717445
3005964126,7631,1,0,55472.2012879784,47848.3726635053,69633.5143968753,71832.6065790792,65377.5217375403,75562.4193570029,75230.2655691303,79090.2240322722,79305.3245767081,64495.7530841753
3005964126,7631,1,0,55470.1814503057,47854.9553874866,69628.6716535398,71825.6953272838,65375.0030242979,75563.8794806217,75223.8288575109,79085.4421274207,79298.8878650888,64491.4943902873
3005964126,7631,1,0,55481.3270605956,47863.1199120548,69631.1051929043,71827.5204818073,65378.8236811003,75570.9732478695,75225.9095336677,79088.5327224138,79299.5935915045,64490.3506267859
3005964126,7631,1,0,55498.9093825047,47890.5093976032,69630.9226774520,71836.3298943071,65384.7858525436,75557.2359181564,75229.3773272622,79087.9121698758,79299.9099516219,64495.3028793929
3005964126,7631,1,0,55489.7957775843,47875.9933352934,69622.0280910744,71830.0270273528,65376.8890173055,75552.9893919652,75223.5976712713,79084.9554195478,79293.3150599439,64486.7246531327
3005964126,7631,1,0,55468.2224511173,47799.7505470009,69621.1276815095,71822.6412353812,65370.1116101751,75567.5784604559,75225.4593288852,79084.4322085844,79293.0960414011,64480.9328294450
3005964126,7631,1,0,55471.9701017387,47790.4787620218,69627.2967037988,71831.2924678224,65374.4798133345,75562.1760030665,75228.5499238782,79088.3867100519,79298.8026912110,64489.3528756465
3005964126,7631,1,0,55490.2338146700,47868.2668478109,69625.7635739991,71835.5633294072,65376.3901417357,75557.2359181564,75222.8311063715,79085.2352765748,79297.5129153478,64495.2055378183
3005993227,7632,1,0,55493.2027326948,47898.9781145920,69625.9947602387,71827.9828542865,65367.7510769915,75570.1093413950,75222.2470569240,79084.9432518510,79296.0162886386,64489.3893787369
3005993227,7632,1,0,55485.7195991486,47864.0568247101,69631.7257454423,71829.2604624529,65360.5599681691,75570.8637385981,75225.4958319757,79089.1532749518,79302.5381741357,64492.6624891823
3005993227,7632,1,0,55473.7709208685,47839.6605925801,69628.4891380874,71828.0558604675,65348.5504514049,75557.0777380977,75221.8455229288,79085.4299597239,79301.1267213042,64496.6899968307
3005993227,7632,1,0,55467.0178491318,47829.8047581535,69622.4539604632,71823.6268188239,65341.4810195507,75561.0079041715,75218.7549279358,79080.5142102075,79295.9311147608,64490.6548192065
3005993227,7632,1,0,55478.9300243214,47850.2586565129,69627.1385237401,71829.7350026290,65348.2584266811,75570.9367447790,75225.6783474280,79086.4520462571,79300.0681316806,64491.1293593826
3005993227,7632,1,0,55496.7313647734,47916.9498027994,69629.0731875349,71837.2668069624,65353.9894118847,75555.8609684154,75228.1605575799,79087.4132943061,79303.1952297641,64499.2817162540
3005993227,7632,1,0,55486.3644870803,47925.3090105168,69619.6553901940,71827.1554509026,65345.9830673752,75557.4427690024,75221.6021689923,79080.3681978456,79297.3790706828,64493.9035942582
3005993227,7632,1,0,55465.6185639971,47844.8927022140,69621.6265570793,71819.5749757819,65340.6536161668,75569.6226335221,75224.6805962885,79084.4808793717,79300.7981934900,64492.2244520967
3006022891,7633,1,0,55465.4238808480,47812.1372623666,69624.5468043168,71826.1576997631,65344.6689561183,75557.7347937261,75228.3674084259,79087.4619650934,79304.4119994464,64498.6246606255
3006022891,7633,1,0,55480.0494524292,47861.5137760741,69619.8500733431,71827.4474756263,65345.6788749546,75548.8158719549,75219.9595299212,79080.8184026280,79298.2308094604,64495.5218979357
3006022891,7633,1,0,55482.5316625810,47882.2962022477,69616.1510935089,71819.4167957232,65341.4688518539,75559.6937929146,75216.3092208744,79079.2000989506,79293.4245692153,64488.5741430498
3006022891,7633,1,0,55476.6790004092,47864.4705264021,69619.5702163162,71818.1270198599,65341.3106717952,75557.7104583325,75218.1465430946,79082.8504079975,79295.3105622228,64492.6259860918
3006022891,7633,1,0,55466.9448429508,47848.7376944100,69617.6963910055,71816.4235423047,65337.5751888706,75554.3400063125,75215.7860099110,79083.0572588435,79294.0694571469,64498.4908159605
3006022891,7633,1,0,55457.7095610622,47820.5573085681,69619.6067194067,71815.3771203780,65338.7432877656,75569.6713043094,75218.8766049040,79085.6976490540,79298.6688465460,64497.4687294274
3006022891,7633,1,0,55468.3806311760,47827.0305232779,69627.8807532463,71825.7926688584,65348.1732528033,75571.0219186568,75228.6107623624,79092.9495963605,79308.1961531584,64501.4719016821
3006022891,7633,1,0,55484.8921957647,47893.2471293884,69624.3886242581,71829.6254933576,65352.4319466914,75550.4950141165,75224.6684285917,79088.4962193233,79303.7549438180,64503.7594286848
3006072931,7634,1,0,55479.1855459547,47906.3152357762,69614.4841190442,71818.9544232439,65344.8271361770,75553.9506400142,75216.1753762093,79081.0374211708,79296.0649594259,64493.1126939647
3006072931,7634,1,0,55457.2350208861,47830.1576213614,69615.2750193377,71810.8020663725,65340.6292807731,75561.0930780492,75219.6675051975,79082.4002032150,79295.3470653133,64489.6570680670
3006072931,7634,1,0,55448.0484097848,47795.8325486239,69613.3525232397,71811.5077927883,65339.1934925480,75547.3800837298,75216.9419411092,79079.7841483981,79294.4344880516,64493.0640231775
3006072931,7634,1,0,55461.1773546568,47840.5123313577,69608.9234815961,71815.9611698255,65341.0186470715,75546.3701648935,75215.6521652459,79077.7156399382,79290.1757941636,64494.0982774074
3006072931,7634,1,0,55472.9678528782,47871.1870950484,69612.6589645208,71818.1026844663,65346.0804089498,75560.3751839367,75220.8964425766,79080.2708562710,79290.6868374301,64489.7544096416
3006072931,7634,1,0,55478.8570181405,47880.5318862084,69620.3002781256,71824.9044269903,65352.3467728136,75560.3265131494,75227.5886758292,79086.3060338952,79296.4056549369,64498.3934743859
3006072931,7634,1,0,55469.9015932788,47872.8784049068,69618.2439373625,71823.0792724669,65349.6212087253,75553.3787582635,75224.3033976870,79083.4222897481,79291.0640360316,64500.6931690854
3006072931,7634,1,0,55457.1011762211,47826.6533246764,69618.1222603943,71819.8670005056,65345.5693656832,75565.6194612674,75228.0023775212,79086.2695308047,79292.1956318362,64495.8747611436
3006087484,7635,1,0,55464.4382974053,47814.9966711200,69621.4075385365,71825.4276379537,65349.3656870920,75559.6816252178,75233.4291703042,79087.8756667853,79296.3569841496,64498.0041080876
3006087484,7635,1,0,55484.9895373393,47885.2894556662,69617.0880061643,71831.7061695143,65352.0425803930,75546.0781401697,75230.3385753112,79084.2253577385,79292.2686380171,64499.0505300143
3006087484,7635,1,0,55485.2693943662,47912.8736243638,69612.5007844621,71826.2428736408,65350.9109845885,75557.7104583325,75233.0033009154,79082.5583832737,79289.9202725303,64492.5529799109
3006087484,7635,1,0,55471.2157045357,47853.9819717407,69615.8225656947,71824.5637314793,65351.8965680312,75568.1016714193,75239.0993170237,79090.7837463260,79294.4101526580,64491.2753717445
3006087484,7635,1,0,55465.0223468528,47826.4708092241,69616.3822797486,71828.2992144039,65354.7438090877,75553.6707829872,75235.3029956150,79089.9928460325,79297.0262074749,64496.4953136815
3006087484,7635,1,0,55469.3662146186,47855.5151015404,69612.2209274351,71826.1211966726,65355.8997402859,75549.5215983706,75228.3917438195,79085.0284257288,79293.0473706138,64494.8161715200
3006087484,7635,1,0,55474.7321689175,47880.2641968783,69614.5571252251,71824.4542222079,65358.3211119537,75560.9227302937,75233.6968596344,79087.1334372791,79291.0031975475,64488.7079877148
3006087484,7635,1,0,55483.5294137205,47903.2003053895,69619.4972101353,71828.3965559785,65360.3287819295,75555.0457327282,75234.2322382946,79087.9730083599,79294.4344880516,64492.3704644585
3006116974,7636,1,0,55473.7465854749,47897.7613449097,69614.8491499489,71820.3050375912,65351.4950340360,75551.3954236814,75223.0257895206,79080.5750486916,79288.9225213908,64490.5453099351
3006116974,7636,1,0,55458.7803183827,47837.0323700664,69616.8689876215,71815.4744619525,65347.3580171162,75566.7510570719,75224.5345839267,79082.3271970341,79292.5363273472,64487.3817087611
3006116974,7636,1,0,55463.3188692976,47815.3860374183,69623.6463947519,71822.1788629020,65353.9164057038,75562.5288662744,75229.7910289542,79086.2451954111,79297.0262074749,64491.0563532017
3006116974,7636,1,0,55478.5406580231,47885.3016233630,69619.7162286781,71826.8512584820,65358.3697827410,75547.7207792408,75224.5345839267,79082.0473400071,79293.1082090979,64493.5385633535
3006116974,7636,1,0,55477.1413728885,47918.4951002960,69614.0582496554,71818.1391875568,65353.6973871610,75556.2016639264,75218.9496110849,79080.4412040265,79287.8760994640,64484.7656539442
3006116974,7636,1,0,55463.1485215421,47867.0014073413,69618.1952665752,71815.1946049256,65354.3909458799,75563.9889898931,75223.3299819412,79085.9044999000,79294.2884756897,64485.3375356949
3006116974,7636,1,0,55455.3246924849,47831.8002604325,69618.4264528148,71817.7863243489,65350.5337859870,75552.0403116130,75222.8797771587,79084.0915130734,79294.9090282277,64490.8008315684
3006116974,7636,1,0,55459.5347155857,47831.6664157675,69613.3403555429,71817.6281442902,65345.3990179277,75555.3864282393,75220.0203684054,79079.7354776108,79291.6967562664,64490.6669869033
3006159007,7637,1,0,55473.5397346289,47844.2843173728,69617.9397449419,71824.5880668729,65352.0669157867,75566.5685416196,75229.5841781082,79085.2231088779,79295.8459408831,64491.7742473142
3006159007,7637,1,0,55483.9674508061,47883.8293320474,69618.8036514164,71829.0901146974,65356.6541374889,75554.1939939506,75231.1294756047,79087.2064434601,79299.6179268982,64498.6368283224
3006159007,7637,1,0,55472.5663188830,47894.4882344643,69614.7396406775,71820.9620932197,65349.2805132142,75554.2304970411,75224.5467516235,79083.5561344132,79294.7386804722,64497.6269094861
3006159007,7637,1,0,55453.3535255996,47828.8070070141,69616.1875965994,71811.8728236929,65343.6955403725,75569.6226335221,75227.5886758292,79086.5858909221,79298.2673125508,64495.0473577596
3006159007,7637,1,0,55455.8600711451,47801.9407324290,69620.0204210986,71820.2198637135,65348.4044390430,75560.3265131494,75229.6206811987,79090.4187154213,79301.7959446295,64498.6489960192
3006159007,7637,1,0,55475.2797152746,47870.1285054248,69615.7008887265,71825.8048365552,65354.1962627307,75547.7937854218,75222.5390816477,79084.3957054940,79296.2231394846,64496.5804875593
3006159007,7637,1,0,55482.9331965762,47905.2323107590,69612.7928091858,71820.6822361928,65353.6243809800,75560.2413392716,75222.4660754668,79080.9522472931,79292.4633211663,64489.6083972797
3006159007,7637,1,0,55477.8227639106,47868.0478292680,69619.6188871035,71823.2009494351,65359.1850184281,75564.1715053455,75230.4115814922,79091.1122741402,79299.7031007759,64492.8450046346
3006190943,7638,1,0,55469.2080345599,47836.8741900077,69616.4552859295,71823.6146511271,65355.3521939289,75548.5481826248,75230.5454261572,79089.1411072549,79299.2893990840,64496.0207735054
3006190943,7638,1,0,55464.9736760655,47819.7055697905,69610.5661206672,71819.7696589310,65349.8280595713,75550.7870388402,75230.4724199763,79085.6003074794,79293.5949169708,64489.3163725560
3006190943,7638,1,0,55473.0286913623,47823.8182513167,69612.2695982224,71824.5150606920,65352.3467728136,75559.8276375797,75238.1259012779,79089.1411072549,79295.6755931275,64486.8098270105
3006190943,7638,1,0,55488.9318711099,47877.2587757630,69612.6832999144,71831.6696664239,65356.0944234351,75546.4310033776,75237.7852057668,79087.7053190298,79295.9676178513,64492.0297689475
3006190943,7638,1,0,55480.4509864243,47894.8410976722,69605.7598804222,71822.5317261099,65348.5017806176,75547.2462390647,75229.0366317512,79084.0671776798,79292.1469610489,64487.3695410643
3006190943,7638,1,0,55457.6973933654,47822.3216246074,69607.9500658503,71814.3915369353,65343.5738634043,75560.9714010810,75230.2290660398,79086.1235184428,79292.3781472885,64481.3586988338
3006190943,7638,1,0,55452.8546500299,47783.4945040454,69611.2231762957,71822.4343845353,65346.4454398545,75550.5193495101,75236.0695605148,79087.8513313917,79294.9820344086,64483.9139151666
3006190943,7638,1,0,55467.1881968873,47837.6529226043,69607.2808425250,71828.5669037340,65350.0349104173,75541.1867260469,75234.1713998104,79083.5926375037,79291.8427686283,64485.1550202425
3006212649,7639,1,0,55477.0805344044,47872.9757464813,69606.6481222902,71824.4055514206,65349.6577118157,75557.6739552420,75230.9712955460,79082.6678925451,79290.9301913666,64481.4438727115
3006212649,7639,1,0,55477.4212299154,47859.4939384015,69611.7585549559,71826.0603581885,65354.2327658212,75559.6207867337,75230.9226247587,79088.1433561154,79297.3547352891,64486.8584977978
3006212649,7639,1,0,55468.2832896014,47840.1107973626,69611.2596793861,71825.6588241933,65351.5680402169,75548.8645427422,75226.5300862056,79087.0725987950,79296.9288659003,64492.4434706395
3006212649,7639,1,0,55457.6365548813,47810.8596542002,69609.9090650388,71818.7840754884,65350.5824567743,75562.8573940886,75225.6905151249,79087.2794496410,79296.0041209418,64488.6228138371
3006212649,7639,1,0,55460.8123237521,47805.1895074807,69617.9275772451,71822.0085151465,65356.9339945159,75565.8993182943,75232.1272267442,79092.6697393336,79305.0933904685,64489.8274158225
3006212649,7639,1,0,55476.9710251330,47867.2447612777,69617.3556954944,71826.0360227949,65358.3332796505,75549.7284492166,75226.6152600834,79088.8855856216,79304.1929809036,64493.5020602631
3006212649,7639,1,0,55476.8736835584,47896.9826123130,69613.3890263301,71817.3969580506,65350.6311275616,75558.0633215403,75218.1465430946,79083.0694265403,79298.3038156413,64492.9788492997
3006212649,7639,1,0,55463.3797077817,47835.9737804428,69621.1033461159,71816.5087161825,65352.2859343295,75579.3689586773,75228.5255884846,79091.3677957735,79305.8112845811,64496.8238414957
3006242049,7640,1,0,55464.9250052782,47799.7870500913,69628.7446597207,71829.1387854847,65359.8785771470,75566.2643491990,75240.9001361535,79096.6364084979,79312.1628223226,64505.1952169099
3006242049,7640,1,0,55472.4689773085,47834.2094644034,69618.2074342720,71828.2018728293,65356.7149759731,75548.9862197104,75230.3994137953,79086.9022510395,79301.3700752407,64496.4223075006
3006242049,7640,1,0,55479.9521108546,47863.3389305976,69612.8293122763,71822.0328505401,65354.5247905449,75558.6473709878,75229.2556502940,79084.9432518510,79297.1965552304,64485.4227095726
3006242049,7640,1,0,55487.8854491831,47871.1749273515,69617.2826893135,71826.5227306678,65357.6397209316,75554.6441987331,75232.0177174728,79088.1433561154,79297.7075984970,64491.4578871968
3006242049,7640,1,0,55483.8944446252,47868.1695062363,69612.3791074938,71829.3213009371,65355.2548523543,75548.6211888057,75230.9104570619,79084.6268917336,79295.4809099784,64495.7774195690
3006242049,7640,1,0,55473.6492439003,47830.6443292343,69614.3259389855,71829.3091332402,65354.5369582417,75564.5365362501,75238.7342861190,79089.5669766437,79296.6368411766,64495.5949041166
3006242049,7640,1,0,55476.9345220425,47813.1958519902,69620.0447564923,71833.0202807712,65358.2116026823,75561.4459412571,75243.5648617578,79093.0591056319,79298.0361263112,64497.2983816718
3006242049,7640,1,0,55492.4240000981,47876.4070369854,69616.9419938024,71832.9351068935,65360.1340987803,75540.9312044136,75232.9302947345,79085.8071583254,79293.9842832692,64499.5615732809
3006271959,7641,1,0,55486.5956733199,47905.6216770573,69607.0983270727,71817.8228274394,65349.6090410285,75544.3624949177,75219.7648467721,79073.8219769548,79285.8684294883,64489.0243478322
3006271959,7641,1,0,55465.8984210241,47845.7687763852,69609.3980217722,71809.7069736585,65341.2254979174,75557.9903153594,75220.3610639164,79076.2920194099,79289.0928691463,64486.8828331914
3006271959,7641,1,0,55453.0371654822,47806.1020847425,69610.3105990339,71812.2013515072,65338.6581138878,75544.4598364923,75218.3412262438,79074.9900758498,79290.0662848922,64493.7697495932
3006271959,7641,1,0,55456.5901329545,47832.6763346038,69605.0784894001,71811.1670972772,65334.8252893886,75539.6535962472,75214.5570725319,79068.3830164750,79285.2722123439,64492.6624891823
3006271959,7641,1,0,55464.1341049847,47858.0094793891,69606.0640728427,71810.6073832234,65335.8595436185,75552.4418456081,75216.2362146934,79070.0743263334,79286.8661806277,64486.4326284089
3006271959,7641,1,0,55471.2887107166,47881.8216620716,69611.2110085988,71816.8494116935,65342.1502428760,75550.6775295688,75224.2668945966,79075.2821005736,79290.8571851857,64492.4434706395
3006271959,7641,1,0,55463.4162108722,47884.4498845854,69605.1393278842,71809.9259922013,65335.1416495060,75537.8041063301,75216.0536992411,79067.2270852768,79284.3961381727,64490.5574776319
3006271959,7641,1,0,55448.1335836626,47826.2761260749,69602.9734778497,71798.3666802195,65327.6463482630,75548.9132135295,75209.7629999836,79066.6795389198,79282.6439898302,64485.1915233330
3006316751,7642,1,0,55451.5770418635,47792.7419536309,69608.2907613613,71804.4261932373,65333.7910351586,75548.2196548106,75210.2618755534,79071.0720774729,79286.8418452341,64490.3871298764
3006316751,7642,1,0,55473.5032315384,47859.3479260396,69609.4101894690,71816.2531945492,65342.9289754727,75541.2353968342,75211.5151483261,79070.8895620205,79287.8395963736,64499.6467471587
3006316751,7642,1,0,55480.7065080576,47903.9181995021,69608.3029290581,71815.2797788034,65347.1876693607,75552.5026840923,75215.0072773143,79071.2545929252,79285.9049325787,64497.0306923417
3006316751,7642,1,0,55466.9083398604,47862.8035519374,69615.2871870345,71814.6957293559,65349.6820472094,75564.5608716438,75225.4349934916,79080.8914088090,79293.9356124819,64498.7220022001
3006316751,7642,1,0,55455.7992326610,47825.6434058401,69617.1975154357,71818.2365291313,65349.3048486079,75548.2318225074,75226.7369370516,79082.3637001246,79296.3691518464,64502.0559511296
3006316751,7642,1,0,55451.2120109588,47827.0061878843,69608.3881029359,71812.0431714485,65342.6491184457,75542.7806943307,75216.7715933536,79075.2821005736,79289.8959371366,64494.6093206740
3006316751,7642,1,0,55462.2116088867,47842.3983243653,69611.8437288336,71811.5321281819,65346.8713092433,75557.5766136674,75219.8743560435,79077.7886461191,79291.9036071124,64492.5529799109
3006316751,7642,1,0,55475.8637647221,47879.4246257975,69613.7662249316,71815.4257911653,65352.1034188772,75547.8059531186,75218.4872386057,79079.5407944616,79294.3249787802,64496.9820215544
3006336729,7643,1,0,55468.3927988728,47894.2448805278,69606.6237868966,71810.1085076536,65344.4499375755,75543.2552345068,75211.4299744484,79073.8341446517,79288.0707826132,64495.9599350213
3006336729,7643,1,0,55445.8703920535,47834.9881970001,69607.8283888821,71802.2603432028,65338.9379709147,75562.3220154284,75215.5913267618,79078.1171739333,79289.8472663493,64491.7985827079
3006336729,7643,1,0,55445.1281625473,47798.1687464139,69616.4917890200,71812.1405130231,65345.3625148372,75560.0344884256,75220.1907161609,79084.3226993130,79297.1113813526,64500.1699581220
3006336729,7643,1,0,55462.4549628232,47855.8679647483,69615.1411746727,71816.8129086031,65348.8181407350,75544.4233334018,75214.8004264683,79080.0396700314,79295.9797855481,64501.8856033741
3006336729,7643,1,0,55470.0597733375,47894.1597066501,69607.9135627598,71806.7988941178,65342.9898139568,75551.8456284638,75205.8206662130,79073.7368030771,79288.4236458211,64493.3803832948
3006336729,7643,1,0,55462.7591552438,47858.0338147828,69613.4011940270,71803.6109575502,65345.1799993849,75563.0642449346,75210.7850865167,79079.5529621584,79295.3714007070,64493.3317125076
3006336729,7643,1,0,55452.1367559173,47822.7718293899,69613.0848339096,71805.5942921323,65345.3990179277,75549.2295736469,75210.8702603945,79078.4700371412,79293.7896001200,64496.5926552561
3006336729,7643,1,0,55447.9267328166,47817.8439121766,69612.5737906430,71804.8885657166,65348.0759112288,75557.1507442786,75211.2596266928,79079.1392604665,79293.8991093914,64496.5683198625
3006379087,7644,1,0,55454.0470843185,47826.8601755224,69617.8667387610,71807.6506328954,65353.9042380070,75565.4734489055,75216.4674009331,79084.3957054940,79296.0041209418,64498.0771142685
3006379087,7644,1,0,55470.1571149121,47882.2840345509,69620.2759427319,71813.5276304609,65359.5865524233,75553.5247706254,75215.0559481016,79083.9576684083,79297.4034060764,64502.9198576040
3006379087,7644,1,0,55467.4437185206,47913.7375308382,69613.8757342031,71809.4514520252,65353.3688593467,75549.7162815198,75208.7044103600,79078.7255587745,79290.0176141049,64496.5318167720
3006379087,7644,1,0,55449.6423780686,47854.2131579804,69617.3191924040,71804.5235348119,65351.2395124027,75567.8218143923,75216.7715933536,79083.5074636259,79295.7972700958,64491.2753717445
3006379087,7644,1,0,55447.0993294326,47807.5865437548,69625.8852509673,71812.6393885928,65356.8609883349,75561.7866367682,75225.0821302837,79086.9630895236,79300.3723241012,64497.0428600385
3006379087,7644,1,0,55464.3166204371,47852.2419910950,69622.4296250696,71817.4212934442,65360.3774527168,75549.6797784293,75217.5381582535,79082.4002032150,79294.5196619294,64501.1677092615
3006379087,7644,1,0,55474.9755228540,47890.8257577206,69620.1299303701,71814.3185307544,65358.1264288045,75559.0610726798,75211.0041050596,79080.6237194789,79291.1005391221,64494.8770100041
3006379087,7644,1,0,55473.7222500812,47875.5918012983,69621.9185818030,71815.9855052191,65362.4581288735,75561.4581089539,75216.9419411092,79085.1014319097,79293.0838737043,64496.9576861608
3006421588,7645,1,0,55462.7104844565,47859.2749198587,69617.8059002769,71813.0895933752,65358.3819504378,75546.5405126490,75211.0892789373,79083.5561344132,79290.0906202858,64499.8170949142
3006421588,7645,1,0,55449.9952412765,47835.3532279048,69613.9000695967,71805.6064598291,65356.1187588287,75556.8343841612,75206.5750634160,79081.0495888677,79286.8783483245,64499.5980763714
3006421588,7645,1,0,55458.6586414144,47829.1111994346,69622.2106065268,71810.4613708615,65363.1151845019,75567.2377649448,75212.5372348593,79088.8004117439,79291.5750792982,64501.2650508361
3006421588,7645,1,0,55482.6168364588,47888.3800506592,69625.4350461849,71822.5682292003,65370.3792995052,75554.6807018236,75218.0978723073,79089.4087965850,79294.0451217533,64504.4164843133
3006421588,7645,1,0,55486.9728719214,47930.8574802681,69620.7383152112,71820.7065715864,65368.1647786834,75554.2304970411,75216.9784441996,79087.8148283012,79288.5453227893,64496.0451088991
3006421588,7645,1,0,55466.4216319875,47874.6062178556,69624.1939411089,71810.6925571011,65364.3319541842,75569.3792795857,75221.0546226353,79089.8833367611,79291.2100483935,64491.6404026492
3006421588,7645,1,0,55456.5292944704,47824.0007667690,69626.3111203561,71815.2189403193,65363.7844078272,75559.0975757703,75220.8234363957,79094.0933598619,79295.0063698023,64496.9576861608
3006421588,7645,1,0,55468.6726558997,47855.5029338436,69621.0303399350,71817.6281442902,65362.5798058417,75548.1953194169,75216.8932703219,79090.0050137294,79290.5529927651,64496.6413260434
3006464977,7646,1,0,55482.5559979747,47890.3755529381,69616.6864721692,71818.2000260409,65362.8231597782,75558.6352032910,75217.0392826837,79089.6034797342,79288.2167949751,64490.0342666685
3006464977,7646,1,0,55487.5204182784,47893.7825080486,69620.7261475144,71822.0085151465,65367.0575182726,75562.6870463331,75222.5269139509,79092.7670809082,79292.6823397091,64493.8062526837
3006464977,7646,1,0,55480.8890235099,47889.5846526447,69620.5679674557,71822.7020738654,65367.2765368154,75556.4328501661,75220.6165855497,79094.3488814951,79295.5782515530,64499.9874426697
3006464977,7646,1,0,55462.5888074882,47848.2874896276,69621.2980292651,71815.0729279574,65364.8186620571,75569.5739627348,75221.3466473591,79094.4097199793,79296.8071889321,64498.2231266304
3006464977,7646,1,0,55462.2724473708,47824.4874746419,69632.0664409534,71819.9278389897,65373.0683605031,75576.6068914985,75231.1781463920,79103.4138156282,79301.4065783312,64502.8590191199
3006464977,7646,1,0,55479.9886139450,47885.7883312359,69634.2931294720,71828.3843882817,65378.6168302543,75562.1516676728,75229.9735444065,79102.5864122443,79301.6620999644,64507.9694517856
3006464977,7646,1,0,55484.4784940727,47934.8484848260,69628.6838212366,71823.1644463446,65373.5063975887,75565.6437966610,75225.1308010710,79095.7116635393,79296.7098473575,64500.7783429632
3006464977,7646,1,0,55473.7465854749,47888.8545908353,69633.7212477213,71822.7385769558,65372.7763357793,75582.8124168782,75235.6436911260,79104.6549207042,79303.5480929720,64502.2141311883
3006480279,7647,1,0,55467.9547617872,47844.2113111919,69637.9434385188,71828.8954315482,65377.8137622640,75570.0606706078,75240.5959437330,79108.0253727241,79305.7747814906,64507.8964456046
3006480279,7647,1,0,55473.5397346289,47863.8986446514,69634.5729864989,71828.1653697389,65379.7605937557,75565.5829581769,75233.1128101868,79104.4237344645,79303.2682359451,64506.8621913747
3006480279,7647,1,0,55480.9011912068,47886.6644054071,69633.4657260880,71823.1279432542,65380.1012892667,75573.5893026864,75229.4016626558,79101.6738349825,79300.2993179203,64498.2961328113
3006480279,7647,1,0,55487.8854491831,47903.8451933211,69635.4977314574,71829.6376610544,65382.3036423917,75570.6568877521,75233.7211950280,79105.2268024549,79304.3146578718,64498.9896915302
3006480279,7647,1,0,55482.0814577986,47910.4279173024,69631.9325962883,71830.2947166829,65377.2297128165,75562.2976800347,75233.7576981185,79099.8973512464,79300.9685412455,64501.7274233154
3006480279,7647,1,0,55461.1773546568,47857.9121378145,69630.1074417649,71817.2387779919,65366.4126303409,75573.8934951070,75230.1560598589,79096.3565514709,79300.4940010694,64496.9941892513
3006480279,7647,1,0,55457.4418717321,47816.3107823769,69634.0862786260,71814.8052386273,65364.2711157001,75569.5131242507,75227.1141356531,79097.9505197547,79301.3944106343,64500.2307966062
3006480279,7647,1,0,55473.9777717145,47871.0289149897,69627.9780948208,71817.6646473807,65363.4193769225,75548.6820272898,75217.4286489821,79089.3722934946,79293.8869416946,64501.6544171345
3006490219,7648,1,0,55480.4996572116,47921.4153475335,69618.7428129322,71810.7898986757,65357.7857332935,75552.7217026351,75211.4421421452,79080.8184026280,79284.8828460456,64494.6823268549
3006490219,7648,1,0,55468.3927988728,47881.0916002622,69621.1520169032,71809.4027812379,65356.3377773715,75566.0088275657,75216.9419411092,79085.7584875381,79286.5498205103,64490.4479683605
3006490219,7648,1,0,55459.2183554683,47839.6484248833,69624.0357610502,71812.7367301674,65358.5401304965,75555.5081052075,75221.8820260193,79086.2208600174,79289.9811110144,64494.6701591581
3006490219,7648,1,0,55459.4373740111,47845.5375901456,69621.1885199937,71812.2135192040,65358.1507641982,75550.6896972656,75217.4894874662,79081.4389551660,79285.3817216153,64491.3483779254
3006490219,7648,1,0,55463.7082355959,47860.1144909395,69620.4706258811,71810.7655632821,65360.8884959833,75559.7424637019,75218.3655616374,79083.5926375037,79283.8120887252,64486.5421376804
3006490219,7648,1,0,55477.3725591281,47894.8654330658,69624.2791149867,71817.6524796838,65368.7609958278,75555.2890866647,75221.4926597209,79087.2672819442,79287.5475716498,64491.8107504047
3006490219,7648,1,0,55473.1868714210,47913.5428476890,69620.7261475144,71814.8904125050,65363.6018923748,75549.0835612850,75215.6643329427,79083.6413082910,79285.8805971851,64490.2046144241
3006490219,7648,1,0,55455.4828725436,47858.0581501764,69623.2813638472,71812.0918422358,65358.8808260075,75568.3815284462,75219.0347849627,79087.4497973965,79289.3240553860,64486.8584977978
3006543717,7649,1,0,55447.9875713007,47805.5180352949,69626.8708344100,71813.6736428227,65360.6086389564,75561.8231398586,75222.4539077699,79092.5358946685,79293.8382709073,64489.9612604876
3006543717,7649,1,0,55460.6054729061,47852.7408666648,69616.7959814406,71815.4744619525,65358.3089442569,75540.9068690200,75214.5570725319,79082.0838430976,79286.9513545055,64490.9955147175
3006543717,7649,1,0,55474.8295104921,47907.2764838252,69611.0041577528,71812.3473638690,65356.3012742811,75551.2859144099,75211.9410177149,79079.0784219824,79284.9680199234,64488.6471492307
3006543717,7649,1,0,55474.1116163796,47885.6179834804,69621.0060045413,71814.5253816004,65363.0421783210,75566.8118955560,75222.0888768653,79086.8657479490,79290.9545267602,64493.4655571726
3006543717,7649,1,0,55466.7866628921,47850.8548736572,69625.7514063023,71820.4632176499,65364.4779665461,75556.2868378042,75225.4714965820,79086.3303692888,79293.8139355136,64504.8788567925
3006543717,7649,1,0,55460.7636529648,47840.7800206878,69624.7658228596,71819.3559572391,65361.0953468293,75559.4747743718,75226.0190429391,79081.7553152834,79291.0031975475,64505.3899000591
3006543717,7649,1,0,55464.8398314005,47839.7822695484,69627.7955793685,71819.5384726914,65364.2711157001,75566.3251876831,75227.5035019515,79085.5273012985,79291.3560607554,64503.0780376627
3006543717,7649,1,0,55477.3238883408,47875.0564226381,69627.0655175591,71819.1004356058,65363.6992339494,75547.7694500281,75217.1609596520,79082.2906939436,79289.9446079239,64501.1677092615
3006589903,7650,1,0,55474.8295104921,47897.0799538876,69616.7594783501,71807.4802851399,65354.4517843640,75538.9113667410,75202.5232203740,79069.7701339128,79281.0743569400,64493.9400973487
3006589903,7650,1,0,55453.9132396535,47833.4428995036,69613.9974111713,71797.9894816180,65345.5085271991,75558.8542218338,75202.7300712200,79071.2424252284,79280.3321274338,64487.7102365754
3006589903,7650,1,0,55451.4918679857,47784.4192490040,69622.2227742236,71809.3176073601,65354.9871630242,75561.8596429491,75221.4196535400,79083.6899790782,79290.1392910731,64496.2397920482
3006589903,7650,1,0,55469.2567053472,47836.8741900077,69621.4075385365,71818.1635229504,65362.0930979688,75545.8712893237,75218.9617787818,79081.0739242613,79291.3803961490,64500.2916350903
3006589903,7650,1,0,55475.0606967318,47893.4053094471,69615.6643856360,71811.5686312724,65359.1485153376,75551.6631130115,75211.1622851183,79074.8318957911,79283.7877533315,64491.7012411333
3006589903,7650,1,0,55470.4126365454,47888.4043860528,69618.4021174212,71810.8750725535,65359.3675338805,75553.9749754078,75212.7927564925,79079.9058253663,79284.1406165394,64489.2920371623
3006589903,7650,1,0,55458.8533245636,47867.3177674587,69614.6544667997,71812.0796745389,65354.6099644227,75538.4854973522,75212.2330424387,79076.4380317718,79282.8630083730,64489.8152481257
3006589903,7650,1,0,55444.8483055204,47838.8940276803,69609.8725619483,71805.8619814624,65348.1610851065,75542.3426572451,75209.4101367758,79073.8463123485,79278.6651529691,64487.3087025802
3006605185,7651,1,0,55447.2210064009,47815.3617020247,69613.0604985159,71806.6528817559,65350.2782643537,75551.8577961606,75212.8414272798,79076.9855781288,79280.8675060940,64488.2942860229
3006605185,7651,1,0,55463.5743909309,47857.1090698242,69615.0925038854,71812.1283453262,65355.6077155622,75536.2223057432,75210.7850865167,79078.0806708429,79280.2469535561,64492.3826321554
3006605185,7651,1,0,55465.8740856304,47903.1272992086,69606.8549731362,71806.3243539417,65350.4972828965,75533.0465368724,75206.5142249319,79069.3077614335,79273.6277264844,64487.9535905118
3006605185,7651,1,0,55446.9898201612,47857.4132622448,69608.0352397281,71799.4374375399,65342.9776462599,75550.7748711434,75206.9279266239,79070.2203386952,79273.6398941812,64483.0256732985
3006605185,7651,1,0,55440.3340899991,47810.0687539067,69615.0803361885,71806.8110618146,65347.1633339670,75550.2516601800,75216.2118792998,79077.4357829113,79282.4006358937,64490.3627944828
3006605185,7651,1,0,55449.5207011004,47852.5096804252,69613.8635665062,71810.5100416488,65353.7703933419,75541.8437816753,75217.3799781948,79073.0189089645,79280.1861150719,64496.3614690165
3006605185,7651,1,0,55459.1940200746,47905.9258694779,69612.0627473764,71808.0034961033,65357.3598639047,75550.5436849038,75218.5359093930,79071.2302575316,79279.5655625340,64491.1293593826
3006605185,7651,1,0,55459.4495417079,47912.7276120019,69614.7761437680,71807.0179126606,65358.0169195331,75543.9244578321,75217.8788537645,79074.5277033706,79282.3641328032,64488.7323231085
3006623980,7652,1,0,55448.6811300196,47897.2868047336,69607.1713332536,71799.5104437208,65349.1466685492,75528.7635075907,75201.2091091171,79069.5997861573,79277.6674018296,64489.8274158225
3006623980,7652,1,0,55431.4030005310,47846.1338072899,69598.7147839617,71789.6911123847,65337.8307105038,75537.6702616651,75191.1220884509,79064.5015211885,79273.0680124305,64486.1892744725
3006623980,7652,1,0,55431.5003421056,47804.7758057887,69604.7134584954,71794.9353897154,65341.3228394920,75551.1399020481,75199.2744453222,79072.1793378837,79278.1784450962,64489.3042048592
3006623980,7652,1,0,55456.2007666562,47850.6115197208,69609.6900464960,71810.9724141280,65351.2273447059,75536.8063551907,75208.1811993966,79074.0409954976,79282.4493066810,64496.7021645275
3006623980,7652,1,0,55467.5532277920,47903.8086902307,69604.2875891066,71810.8020663725,65350.1200842950,75536.9645352494,75208.6435718759,79070.9625682014,79278.4461344263,64490.1681113336
3006623980,7652,1,0,55455.5802141182,47861.1122420790,69607.4268548869,71804.7547210515,65349.3170163047,75552.2714978526,75214.5935756223,79076.9125719479,79281.3177108765,64483.8409089857
3006623980,7652,1,0,55440.7721270847,47802.8776450844,69609.0451585643,71801.7492999363,65346.0925766466,75540.7486889613,75216.7594256568,79076.6813857082,79283.2280392777,64483.0865117826
3006623980,7652,1,0,55439.8595498230,47812.0034177016,69601.8662174388,71800.3500148016,65341.5296903380,75530.4304820554,75209.6656584090,79069.6606246414,79278.3244574580,64481.5168788925
3006659833,7653,1,0,55446.9046462835,47835.4140663889,69598.1915729983,71798.2815063417,65339.8383804796,75541.9411232499,75210.1401985851,79067.5556130910,79274.8688315603,64476.1509245936
3006659833,7653,1,0,55456.7239776196,47852.4366742442,69602.4137637958,71802.0413246600,65345.7032103483,75541.4422476802,75210.1767016756,79069.7092954287,79278.0567681279,64483.2325241445
3006659833,7653,1,0,55451.7717250126,47866.1861716541,69600.2235783677,71798.3788479163,65343.9753973994,75532.4746551217,75204.0563501737,79067.1054083086,79274.4672975651,64487.7832427563
3006659833,7653,1,0,55431.9262114944,47827.6389081191,69599.6395289202,71790.1169817735,65339.8262127828,75546.4310033776,75201.3551214790,79067.2027498832,79274.9418377413,64484.8143247315
3006659833,7653,1,0,55430.4052493916,47788.9821353126,69609.7508849801,71796.4928549087,65347.6500418400,75557.5279428801,75209.4466398662,79077.7764784223,79280.5998167639,64485.7755727805
3006659833,7653,1,0,55450.8591477509,47844.2113111919,69614.1434235332,71806.4703663036,65354.8533183591,75543.1092221449,75207.9986839443,79079.3096082220,79284.5786536250,64493.0153523902
3006659833,7653,1,0,55464.2557819530,47908.4324150234,69612.6832999144,71807.4437820494,65355.8875725891,75547.6599407567,75204.9445920417,79075.4037775418,79279.4682209594,64491.9080919793
3006659833,7653,1,0,55453.2561840250,47874.8617394889,69617.8545710642,71801.3355982443,65355.2670200511,75559.4747743718,75209.5683168345,79081.1712658359,79283.0820269158,64485.6538958123
3006677636,7654,1,0,55440.4557669673,47820.5694762649,69619.5458809226,71804.1950069977,65355.3035231416,75550.9330512021,75212.9387688544,79085.3204504525,79285.6859140359,64486.7124854359
3006677636,7654,1,0,55442.1592445225,47820.8615009887,69618.4264528148,71806.6528817559,65357.8830748681,75550.5680202974,75212.4763963751,79085.1501026970,79286.1482865152,64491.2388686540
3006677636,7654,1,0,55450.2264275161,47837.2635563060,69621.5048801110,71807.4194466558,65364.4171280620,75566.0940014435,75215.4696497936,79088.2406976900,79287.9369379482,64490.3262913923
3006677636,7654,1,0,55469.0133514107,47873.6571375034,69629.4260507428,71818.6137277329,65375.5505706550,75560.8983949001,75221.7603490510,79095.9793528694,79293.4489046089,64495.8990965372
3006677636,7654,1,0,55472.1282817974,47902.5797528516,69622.4782958569,71815.4014557716,65372.0219385763,75545.1655629080,75214.6300787128,79089.2141134359,79287.5962424371,64491.1780301699
3006677636,7654,1,0,55451.1390047778,47853.1789037504,69615.7860626043,71803.8786468803,65358.7104782520,75551.9551377352,75208.7895842378,79082.2785262468,79281.0621892432,64480.5069600562
3006677636,7654,1,0,55439.3728419501,47793.0948168387,69619.7648994654,71805.4969505577,65356.4959574302,75557.7956322102,75213.6566629670,79084.7972394891,79284.3839704759,64485.6660635091
3006677636,7654,1,0,55452.6477991839,47830.0846151805,69617.8789064578,71813.7466490037,65358.8321552202,75543.3525760814,75215.8955191824,79081.3537812882,79283.1793684904,64494.0252712265
3006711568,7655,1,0,55462.9173353025,47889.2561248304,69614.1312558363,71811.9823329644,65357.7370625062,75549.8379584880,75216.9541088060,79074.5033679769,79276.5114706314,64491.1050239890
3006711568,7655,1,0,55456.9429961624,47871.6981383149,69615.4088640027,71808.4780362794,65355.5712124717,75559.0002341957,75217.5989967376,79078.6403848967,79278.1541097025,64487.5763919103
3006711568,7655,1,0,55444.5441130998,47835.0003646969,69612.7441383985,71807.8453160445,65351.1056677377,75543.6202654115,75212.9266011576,79079.1514281633,79275.6840672475,64487.5155534262
3006711568,7655,1,0,55438.1074014805,47825.7894182020,69608.6557922660,71806.9205710860,65349.2075070333,75545.3967491477,75209.5196460472,79074.3938587055,79272.9463354623,64485.7877404773
3006711568,7655,1,0,55443.4125172953,47825.8867597765,69612.3061013129,71809.4636197220,65353.0768346230,75559.8884760638,75214.5205694414,79079.5772975521,79275.2825332523,64485.4105418758
3006711568,7655,1,0,55459.3278647397,47864.6287064608,69615.0803361885,71817.7498212584,65359.6838939978,75550.0204739404,75218.5967478771,79080.1126762123,79276.9860108075,64488.5984784434
3006711568,7655,1,0,55462.7713229406,47907.3008192189,69611.0649962370,71816.8007409062,65356.2282681001,75543.6567685020,75213.7418368447,79078.0320000556,79273.0071739464,64488.9635093481
3006711568,7655,1,0,55442.5729462145,47859.6521184602,69609.2033386230,71805.8498137656,65351.0569969504,75560.4968609049,75212.8292595830,79078.2266832047,79273.2870309733,64481.5290465893
3006738970,7656,1,0,55433.9582168639,47795.7960455334,69616.9176584088,71810.1693461377,65353.2593500753,75560.9714010810,75219.7283436816,79084.6998979145,79280.9040091845,64485.6295604186
3006738970,7656,1,0,55445.2741749092,47825.8259212924,69614.8978207362,71815.7664866763,65353.8068964324,75548.6455241994,75218.4507355152,79080.7453964471,79282.8265052825,64490.1316082431
3006738970,7656,1,0,55457.6000517908,47881.6391466193,69613.0483308191,71816.5573869698,65354.2936043053,75555.9583099900,75216.6255809917,79076.6327149209,79280.7214937321,64487.9779259055
3006738970,7656,1,0,55455.9087419324,47877.8549929073,69617.6477202182,71815.9490021286,65354.5856290290,75565.3761073309,75221.0302872417,79080.2586885742,79284.9801876202,64490.2046144241
3006738970,7656,1,0,55445.2133364251,47851.5119292857,69615.1533423695,71811.2157680645,65349.6942149062,75547.8302885122,75213.8635138129,79075.7688084465,79284.2014550235,64495.7409164785
3006738970,7656,1,0,55429.6630198854,47820.8980040791,69607.0131531949,71800.8853934618,65341.1038209492,75544.6423519446,75201.8296616551,79064.7570428217,79277.1806939567,64492.6624891823
3006738970,7656,1,0,55426.6210956796,47797.3535107268,69607.8892273662,71796.3468425469,65340.3615914430,75554.6076956426,75203.3871268484,79067.1540790959,79276.8156630520,64492.6989922728
3006738970,7656,1,0,55445.4201872711,47840.3906543895,69612.5494552494,71807.8088129541,65348.2949297716,75547.3070775488,75205.0662690100,79070.0499909397,79280.7336614290,64498.6611637160
3006800726,7657,1,0,55456.0425865975,47897.5301586700,69608.5219476010,71811.1670972772,65349.6577118157,75544.5693457637,75203.8616670245,79065.6696200835,79276.9860108075,64498.3569712954
3006800726,7657,1,0,55441.5995304687,47861.6354530424,69610.2132574594,71805.7768075847,65347.6500418400,75560.9470656874,75206.9644297143,79070.2325063921,79279.2126993261,64493.1613647520
3006800726,7657,1,0,55429.6630198854,47804.4959487618,69619.1808500179,71808.2468500397,65350.2539289601,75560.7888856287,75216.5404071140,79077.3749444271,79285.3087154344,64497.0185246449
3006800726,7657,1,0,55438.5089354756,47834.4041475526,69618.9739991719,71815.1215987447,65356.8609883349,75550.4585110260,75217.9153568550,79077.6304660604,79285.6007401581,64500.0482811538
3006800726,7657,1,0,55454.1687612868,47886.4453868643,69618.6454713577,71818.3338707059,65363.6018923748,75565.6072935706,75222.7215971001,79082.0838430976,79286.8296775373,64494.0374389233
3006800726,7657,1,0,55464.5843097672,47900.0367042156,69626.1042695101,71821.8868381782,65370.9633489527,75570.9854155663,75227.4548311642,79088.8734179248,79292.7431781932,64496.0816119895
3006800726,7657,1,0,55459.9727526713,47892.4440613980,69624.5833074072,71821.3879626085,65369.1016913388,75555.1187389092,75227.5400050419,79086.4642139539,79292.2077995330,64501.9464418582
3006800726,7657,1,0,55445.1646656378,47856.9265543719,69616.9906645897,71816.3627038206,65360.8641605897,75558.8420541370,75226.1528876041,79082.3028616404,79288.2046272783,64495.5462333293
3006808989,7658,1,0,55444.4589392221,47817.3693720005,69620.6896444239,71819.2707833613,65362.3242842084,75570.9489124758,75229.9005382256,79086.6588971030,79292.0009486870,64495.5705687230
3006808989,7658,1,0,55465.4238808480,47858.5205226557,69625.1673568548,71830.8300953431,65368.8583374023,75559.2435881322,75230.2168983430,79085.8314937191,79295.2862268292,64502.8468514231
3006808989,7658,1,0,55475.3892245460,47921.1719935970,69619.5702163162,71827.8368419247,65364.4049603652,75553.0989012366,75220.6774240338,79075.5619576005,79286.2334603929,64500.3889766649
3006808989,7658,1,0,55459.3522001333,47889.6941619161,69621.7725694411,71818.9422555471,65359.2823600027,75571.0827571409,75222.0037029875,79078.3726955666,79287.9369379482,64494.6458237644
3006808989,7658,1,0,55443.8140512904,47829.6100750044,69629.0731875349,71823.3956325843,65361.8497440323,75568.8195655318,75228.0510483085,79086.5007170443,79296.9410335971,64498.7950083811
3006808989,7658,1,0,55447.9023974229,47834.1242905257,69627.1385237401,71825.6466564965,65364.0520971573,75556.5058563470,75227.4304957705,79079.8693222758,79294.1181279342,64498.6733314128
3006808989,7658,1,0,55460.4716282410,47862.3046763676,69627.1020206496,71824.7340792348,65367.9214247470,75569.2089318301,75229.7423581669,79082.6557248483,79292.6701720123,64494.2321220725
3006808989,7658,1,0,55470.3152949708,47876.3340308045,69631.7014100487,71826.2185382472,65373.4820621951,75572.5428807596,75233.3926672138,79088.8247471375,79298.3159833381,64498.7706729874
3006869349,7659,1,0,55470.5464812104,47887.4309703070,69628.6351504493,71827.3623017486,65371.6082368843,75559.1827496480,75229.4503334431,79088.0825176313,79299.7274361696,64503.9541118340
3006869349,7659,1,0,55448.0119066944,47844.6736836712,69618.5237943894,71813.1625995562,65358.5766335870,75557.7469614229,75220.2150515545,79078.6890556840,79291.7697624474,64495.0108546691
3006869349,7659,1,0,55435.0776449716,47786.7311114003,69617.5503786436,71806.9814095701,65352.4319466914,75562.0543260983,75218.1343753978,79078.3240247793,79293.7530970295,64489.7544096416
3006869349,7659,1,0,55451.8690665872,47824.8646732434,69615.9442426630,71816.8250762999,65357.8344040808,75548.2196548106,75217.5503259503,79077.3992798208,79291.9887809902,64497.1036985227
3006869349,7659,1,0,55467.9425940903,47896.7149229829,69612.2939336161,71817.5916411997,65358.4184535283,75551.3224175004,75216.1875439061,79077.5574598795,79289.3483907796,64494.4876437057
3006869349,7659,1,0,55464.4017943149,47882.9654255730,69618.2682727561,71818.9057524566,65362.8839982623,75571.4842911360,75225.3011488265,79083.3979543545,79293.5584138804,64492.7233276664
3006869349,7659,1,0,55451.9299050713,47839.1738847072,69625.3498723071,71823.1279432542,65369.3085421848,75563.6117912916,75230.1682275557,79089.8468336707,79299.6909330791,64499.7805918237
3006869349,7659,1,0,55442.2687537939,47844.9535406981,69619.8500733431,71818.0783490726,65364.8429974508,75554.2426647379,75223.1231310952,79082.0351723103,79296.3083133623,64499.3425547381
3006872463,7660,1,0,55443.4733557794,47869.7999776105,69620.9816691477,71816.0828467937,65368.4933064977,75570.0485029109,75223.7315159363,79084.0063391956,79297.5007476510,64494.8526746104
3006872463,7660,1,0,55457.3201947639,47899.2944747094,69626.8586667131,71824.6975761443,65377.5947437212,75571.3869495614,75230.1438921620,79090.4917216023,79303.2195651578,64497.6877479702
3006872463,7660,1,0,55464.1097695911,47919.2129944085,69623.7559040233,71827.2649601740,65374.0174408553,75555.8001299313,75227.6860174038,79084.8215748828,79296.4421580274,64499.5007347968
3006872463,7660,1,0,55446.0650752027,47866.0158238986,69619.1565146242,71816.8494116935,65363.5653892844,75563.3441019615,75222.8919448556,79079.7233099140,79289.4700677478,64492.8693400283
3006872463,7660,1,0,55434.1407323162,47789.7608679092,69625.2525307325,71817.6159765934,65363.9304201891,75570.8272355076,75227.6008435260,79085.1135996065,79295.9554501545,64494.1956189820
3006872463,7660,1,0,55446.5274476819,47816.2012731055,69625.4107107912,71826.3645506091,65368.5663126786,75553.0380627525,75226.9316202008,79084.1280161639,79294.5926681103,64502.8955222104
3006872463,7660,1,0,55459.6198894634,47884.5350584631,69617.4652047658,71823.9188435477,65367.8849216565,75552.1376531876,75222.2592246208,79078.6525525935,79289.6769185938,64501.9707772518
3006872463,7660,1,0,55456.0304189007,47883.0992702380,69619.8014025558,71823.8580050636,65366.7898289424,75565.7898090229,75234.7432815611,79085.2596119684,79291.7454270537,64500.0117780634
3006905906,7661,1,0,55441.6725366496,47849.1148930115,69618.9739991719,71823.6998250048,65364.5874758175,75552.1863239748,75237.2984978939,79087.6323128489,79290.5408250683,64502.1411250074
3006905906,7661,1,0,55433.1308134799,47837.6650903012,69614.8369822521,71817.4699642315,65361.6428931863,75546.9785497346,75225.2159749487,79079.4799559775,79284.2257904172,64499.4642317063
3006905906,7661,1,0,55437.9857245122,47834.5623276113,69615.9320749661,71817.7133181680,65361.9470856069,75559.4869420686,75223.2204726698,79079.6138006426,79284.8950137424,64495.1933701215
3006905906,7661,1,0,55453.6455503234,47867.4029413364,69620.5436320620,71826.9972708439,65368.5663126786,75554.5711925521,75229.5720104114,79083.6778113814,79288.0829503100,64495.9599350213
3006905906,7661,1,0,55456.3346113212,47913.1656490875,69613.3403555429,71821.9476766623,65362.9326690496,75539.0695467997,75223.3421496380,79076.7057211019,79283.4470578205,64492.0906074316
3006905906,7661,1,0,55437.0244764632,47879.4489611911,69609.4588602563,71808.2955208270,65354.3787781830,75552.7217026351,75218.6089155739,79075.7566407497,79282.9481822507,64481.8819097972
3006905906,7661,1,0,55428.0933869952,47812.1859331539,69614.1555912300,71809.4271166315,65357.4207023888,75560.8983949001,75221.5534982050,79082.3271970341,79289.2753845987,64484.7778216410
3006905906,7661,1,0,55442.9866479065,47835.6209172349,69615.3480255186,71820.6457331023,65363.3950415288,75544.6910227319,75221.6751751733,79081.7188121929,79289.2388815082,64491.5552287714
3006926836,7662,1,0,55456.0425865975,47890.4850622096,69611.4178594448,71816.9954240554,65360.6573097437,75547.0028851283,75215.9076868792,79078.3483601730,79282.6074867397,64489.7179065511
3006926836,7662,1,0,55453.4508671742,47880.9212525067,69614.9343238267,71813.9169967592,65360.6816451373,75559.9371468511,75219.4849897451,79083.1424327212,79286.1726219088,64488.3794599006
3006926836,7662,1,0,55444.7752993394,47849.9301286987,69618.4386205117,71815.6326420112,65360.2679434454,75550.4220079355,75221.1032934226,79080.9400795963,79288.2167949751,64493.7332465027
3006926836,7662,1,0,55429.7481937631,47824.7429962752,69613.1213370000,71809.8894891108,65351.5315371265,75545.8591216269,75215.1532896762,79075.9878269893,79283.7269148474,64493.0153523902
3006926836,7662,1,0,55422.6544265153,47803.2548436859,69613.1213370000,71803.8786468803,65349.9254011458,75556.4571855597,75211.8923469276,79074.4303617960,79283.4348901237,64489.7057388543
3006926836,7662,1,0,55436.8297933141,47838.7236799248,69614.4841190442,71809.7069736585,65353.8068964324,75546.4431710744,75214.4840663509,79073.1040828423,79284.6029890187,64492.1027751284
3006926836,7662,1,0,55448.4621114768,47899.8541887632,69607.3781840996,71808.1981792524,65348.7451345540,75534.3241450388,75207.2199513476,79065.0612352423,79276.3776259664,64487.4790503357
3006926836,7662,1,0,55441.0398164148,47872.5863801830,69606.5994515029,71802.7835541662,65344.6811238152,75551.6509453146,75211.9045146245,79066.9472282499,79277.1685262598,64481.2005187751
3006959075,7663,1,0,55432.9604657244,47803.7293838620,69613.7783926285,71807.3221050812,65347.7717188082,75557.6982906356,75219.3511450801,79073.5299522311,79283.0698592190,64484.6439769760
3006959075,7663,1,0,55442.0740706448,47817.7587382988,69616.1389258121,71816.0828467937,65353.9164057038,75544.1313086781,75222.1132122589,79075.9269885052,79280.5754813703,64493.2587063266
