steady_timestamp,sequence,battery,flags,EEG-ch1,EEG-ch2,EEG-ch3,EEG-ch4,EEG-ch5,EEG-ch6,EEG-ch7,EEG-ch8,EEG-ch9,EEG-ch10
5592085958,6419,-2,0,11752.2429826195,44835.9551225655,36862.3295498265,47240.6327102899,48175.1726647759,47746.5168734005,51060.1214137987,67160.5273591869,50505.5421280026,7685.4580088812
5592085958,6419,-2,0,11749.9432879199,44833.7284340469,36857.2434525545,47233.3077568025,48172.7999638954,47738.3766842260,51057.5175266785,67156.1348206338,50505.7611465454,7685.2998288225
5592085958,6419,-2,0,11751.8657840180,44836.4174950448,36859.9325135524,47233.2347506215,48177.8130549865,47755.5574721399,51059.1479980528,67159.2984218078,50508.3041951814,7691.0186463293
5592085958,6419,-2,0,11757.8401231580,44845.6649446302,36870.1777142773,47239.5254498790,48186.7076413641,47758.6115640425,51064.7816416818,67167.2439278332,50515.9820118767,7694.1944152001
5592085958,6419,-2,0,11755.2970745220,44849.4247629485,36872.8424398816,47238.8197234632,48188.3624481320,47752.1748524232,51065.7550574277,67165.7107980335,50518.1235265175,7693.0506516987
5592085958,6419,-2,0,11751.9387901989,44852.7222087875,36878.6220958725,47241.1924243437,48191.5503846996,47770.7549254718,51067.4585349829,67168.1808404885,50517.7341602192,7697.2485071026
5592085958,6419,-2,0,11761.2957490557,44862.5172047300,36888.5144333895,47250.1965199927,48199.6419030869,47765.4619773538,51076.6694814779,67173.9848318731,50522.1266987723,7702.0790827413
5592085958,6419,-2,0,11757.1100613486,44855.9831515360,36875.5315008794,47238.4668602554,48190.1754349586,47730.6745321370,51066.6189639021,67157.0960686828,50512.9522553678,7691.6757019577
5592114752,6420,-2,0,11747.3028977094,44841.8807909183,36861.9401835282,47225.6421078040,48173.0798209224,47738.8147213116,51054.0253976904,67141.7404352923,50497.7426343391,7688.0253929109
5592114752,6420,-2,0,11756.7085273535,44849.0353966501,36873.1587999990,47238.1383324412,48178.7256322482,47769.0392802198,51062.7861394029,67152.2046545600,50506.0896743596,7699.1223324134
5592114752,6420,-2,0,11761.4904322049,44852.5153579415,36878.8897852026,47242.2388462705,48180.4047744098,47752.8075726580,51065.4386973103,67155.1370694943,50513.0252615487,7699.1345001102
5592114752,6420,-2,0,11749.7486047708,44841.3210768644,36865.7730080274,47230.0589817507,48170.2325798658,47740.6763789255,51056.8118002628,67144.3564901092,50505.4082833376,7692.6612854004
5592114752,6420,-2,0,11746.5971712936,44838.4738358078,36865.4688156069,47228.6475289193,48168.2127421932,47754.6205594846,51056.1182415439,67146.4615016596,50502.6948869460,7697.0173208630
5592114752,6420,-2,0,11749.0185429614,44841.9659647960,36870.0925403996,47232.7358750518,48172.1307405702,47746.2248486767,51058.6004516958,67148.9558795083,50505.2136001884,7698.8668107801
5592114752,6420,-2,0,11746.7188482619,44841.4549215295,36866.1502066289,47228.5866904351,48168.8576301248,47745.6407992293,51055.5950305805,67146.6683525056,50504.2280167457,7696.3602652346
5592114752,6420,-2,0,11752.8026966733,44847.1250682489,36871.8446887421,47234.4758556975,48176.4867760328,47767.5669889042,51060.2795938573,67154.6990324087,50507.0752578023,7702.4441136460
5592140667,6421,-2,0,11765.2745859168,44857.5527844262,36882.7469450954,47242.3970263292,48186.9874983910,47763.5516489526,51067.4220318924,67166.0514935445,50516.8215829575,7705.8754041501
5592140667,6421,-2,0,11759.5192653196,44852.4545194574,36871.8690241357,47234.5245264847,48181.3051839747,47738.6687089497,51062.1047483808,67157.2664164384,50515.7508256370,7693.8415519922
5592140667,6421,-2,0,11748.5805058758,44845.0078890018,36865.2011262768,47227.7471193544,48172.0333989956,47753.4402928928,51056.0087322725,67150.8783756063,50508.6935614797,7691.4080126276
5592140667,6421,-2,0,11753.8977893874,44856.3238470471,36880.6054304546,47238.8927296442,48180.4412775003,47781.1704739522,51064.2097599312,67165.0659101019,50517.8923402779,7704.0867527171
5592140667,6421,-2,0,11761.2105751780,44863.7948128964,36886.8231235311,47244.9765780557,48187.4012000830,47762.7729163559,51069.0403355699,67169.0569146598,50524.2925488068,7709.4770424097
5592140667,6421,-2,0,11753.6057646636,44854.8637234283,36874.0227064734,47233.4781045580,48179.4070232703,47747.8553200510,51059.4156873829,67156.7918762623,50513.6701494803,7703.4540324823
5592140667,6421,-2,0,11750.2231449469,44846.4436772269,36867.6224979445,47228.1243179559,48172.9581439542,47749.2546051857,51053.6725344825,67151.4867604475,50504.5687122568,7698.1732520612
5592140667,6421,-2,0,11749.7364370739,44843.1097282974,36862.4755621884,47225.8367909532,48171.2790017926,47735.5781139567,51051.7135352940,67150.5133447016,50500.7723908480,7692.7586269750
5592188182,6422,-2,0,11746.9500345015,44837.6951032112,36858.9712655034,47223.8656240679,48168.0058913472,47749.0234189460,51050.9348026973,67149.1992334448,50495.5646166078,7692.9411424273
5592188182,6422,-2,0,11762.7802080681,44855.4964436631,36880.9582936625,47244.3681932145,48187.8879079559,47792.5107673912,51068.5536276970,67172.7802298876,50511.3096162967,7711.4603769918
5592188182,6422,-2,0,11779.1092572045,44875.9625097193,36900.0859130681,47263.1672848060,48205.3607205936,47790.7464513519,51085.0165214984,67189.6446576842,50531.6661730815,7723.5185645434
5592188182,6422,-2,0,11776.0186622115,44874.2346967705,36892.1769101332,47256.0491821645,48200.1407786566,47763.3204627130,51082.6681560116,67181.9668409889,50532.8829427638,7716.8141635939
5592188182,6422,-2,0,11766.3940140246,44862.6632170918,36881.4815046259,47247.7629806281,48191.4773785187,47774.2470544600,51075.1241839813,67176.5035451154,50526.6774173841,7711.6307247474
5592188182,6422,-2,0,11770.6040371253,44863.9651606519,36888.1007316975,47254.0780152792,48193.6797316436,47788.3737504714,51080.4414674930,67181.2854499668,50531.7148438688,7716.0354309973
5592188182,6422,-2,0,11771.5044466902,44863.2472665393,36887.0056389835,47255.1122695092,48193.3633715262,47771.7040058240,51081.1350262119,67180.5797235511,50533.9415323873,7711.0588429967
5592188182,6422,-2,0,11766.5765294769,44858.1611692674,36879.5103377405,47248.8945764326,48188.7761498240,47769.9396897847,51075.0755131940,67175.7491479124,50530.5710803674,7708.6739744194
5592234614,6423,-2,0,11771.0542419077,44860.9597395366,36882.6739389145,47252.5813885700,48189.9320810222,47773.0302847777,51079.5653933217,67176.9659175947,50529.4394845629,7712.0200910457
5592234614,6423,-2,0,11769.7522983477,44857.7474675754,36875.9573702682,47246.9234095473,48184.4322820582,47748.8774065841,51076.9006677175,67168.5337036964,50524.6940828019,7706.6906398372
5592234614,6423,-2,0,11761.0523951193,44848.9137196819,36866.1502066289,47237.8949785047,48176.6814591820,47754.5232179100,51068.7118077556,67159.6877881061,50516.9797630162,7702.8821507317
5592234614,6423,-2,0,11770.0686584651,44856.5185301963,36880.7149397260,47250.8779110148,48186.6224674863,47792.9609721737,51078.0809343093,67171.6242986894,50524.5724058337,7716.1327725718
5592234614,6423,-2,0,11787.1277694108,44871.7524866186,36896.6789579577,47265.6616626547,48199.4350522409,47789.9190479679,51091.1855437876,67183.7676601187,50540.1105546766,7725.2828805827
5592234614,6423,-2,0,11788.2228621249,44867.1409295227,36885.1561490664,47259.2371187321,48190.8811613743,47761.1667803753,51088.1436195819,67173.0357515209,50535.5598360648,7716.2666172369
5592234614,6423,-2,0,11783.6356404227,44857.7109644849,36874.7649359796,47250.8535756211,48181.1226685223,47765.3403003856,51083.4225532146,67163.4232710308,50522.7350836134,7710.3287811873
5592234614,6423,-2,0,11789.0380978120,44860.2540131209,36878.8046113248,47256.8035793676,48183.3980278282,47770.4872361417,51085.8804279728,67167.9009834616,50521.1289476328,7710.2436073095
5592240630,6424,-2,0,11786.8600800807,44858.4896970816,36876.6995997744,47253.0559287461,48177.2898440231,47757.8206637490,51081.5243925102,67160.8437193043,50517.0162661066,7704.2571004727
5592240630,6424,-2,0,11783.2584418211,44857.5406167294,36876.4197427475,47250.5493832006,48177.8130549865,47773.3344771983,51080.4414674930,67160.7098746393,50516.2983719941,7701.8357288049
5592240630,6424,-2,0,11790.0236812547,44865.9606629309,36884.6329381030,47258.6043984974,48187.2673554179,47779.4913317907,51087.6204086185,67169.0447469630,50522.8202574912,7704.0380819298
5592240630,6424,-2,0,11787.5779741933,44865.8146505690,36878.9992944740,47252.9099163842,48184.0672511535,47755.1681058416,51080.5753121580,67162.4741906786,50519.8391717696,7696.0439051172
5592240630,6424,-2,0,11777.0164133510,44859.3414358592,36870.6279190598,47240.4015240502,48177.0708254803,47766.0095237109,51069.6122173205,67154.5408523500,50510.5308837000,7694.3647629556
5592240630,6424,-2,0,11784.5725530780,44870.4870461490,36887.7843715801,47250.8535756211,48186.5129582149,47801.1985029228,51075.9150842748,67167.5967910410,50521.1167799360,7708.7591482971
5592240630,6424,-2,0,11796.0345234852,44887.2054615837,36902.7506386724,47261.6949934904,48201.2358713707,47796.0272317731,51083.6537394542,67180.0686802846,50538.5287540896,7718.7609950856
5592240630,6424,-2,0,11792.4815560129,44885.8548472364,36896.2044177816,47255.8179959249,48201.7104115468,47776.6319230373,51078.2634497617,67176.5400482059,50540.3539086130,7714.4657981071
5592269503,6425,-2,0,11789.9141719833,44882.3870536418,36894.5982818010,47254.1145183697,48202.0146039673,47788.5927690142,51077.2413632285,67180.1295187687,50538.8694496006,7711.5333831728
5592269503,6425,-2,0,11797.9570195833,44891.3911492908,36904.3932777434,47264.7125823025,48214.7541825410,47800.2737579643,51090.6136620369,67195.8988538512,50550.7207863062,7713.1760222439
5592269503,6425,-2,0,11796.3630512995,44891.5858324400,36906.1454260860,47264.6639115152,48219.0737149131,47795.4431823256,51092.8525182524,67200.9362803359,50557.3521810747,7713.4193761803
5592269503,6425,-2,0,11796.5090636613,44890.2960565767,36909.6375550741,47265.3331348404,48218.0272929863,47808.9371581022,51092.9741952206,67202.7614348593,50557.9605659158,7722.3869687388
5592269503,6425,-2,0,11800.6582482780,44892.0725403129,36916.0134282094,47268.3872267430,48216.0074553137,47806.5036187376,51095.5780823407,67204.5135832018,50559.5058634123,7730.5271579134
5592269503,6425,-2,0,11791.8853388686,44881.3771348055,36904.0769176261,47255.7936605312,48204.8375096303,47773.1519617459,51085.7222479141,67189.3769683541,50552.2904191963,7724.6623280447
5592269503,6425,-2,0,11773.7676382993,44865.4496196643,36888.8794642942,47239.9026484805,48189.3845346651,47777.7756865386,51072.0944274724,67177.5134639517,50539.4900021386,7721.2310375407
5592269503,6425,-2,0,11775.5562897322,44871.7281512249,36899.6600436793,47247.9576637773,48195.9550909495,47803.7050484683,51079.0665177520,67189.2796267795,50546.3282477531,7733.9219453270
5592313390,6426,-2,0,11776.1525068765,44876.2910375335,36903.7848929023,47250.0870107213,48199.7027415710,47787.8627072049,51080.1616104660,67192.0051908679,50550.9154694554,7736.3798200852
5592313390,6426,-2,0,11761.8311277159,44864.1111730138,36890.0353954924,47235.6804576829,48188.8248206113,47769.2339633689,51068.8943232080,67180.6405620352,50543.6635221489,7727.8624323092
5592313390,6426,-2,0,11753.1312244875,44852.8438857557,36883.5256776921,47231.1419067680,48182.9113199553,47775.0744578439,51065.4873680976,67177.5012962549,50537.2754813168,7728.8601834486
5592313390,6426,-2,0,11750.2839834310,44849.8628000341,36882.3575787971,47230.0103109634,48181.3416870652,47766.0581944981,51065.5238711880,67176.5035451154,50534.0023708715,7731.2085489355
5592313390,6426,-2,0,11741.6084155962,44842.8298712704,36874.5945882241,47223.1720653489,48173.9558950936,47758.6115640425,51058.9046441164,67168.9474053884,50527.9185224600,7733.6055852096
5592313390,6426,-2,0,11738.8950192047,44843.3895853243,36877.0281275887,47224.6686920582,48174.4912737538,47783.2511501090,51058.5396132117,67170.7968953055,50524.8765982543,7746.4181699641
5592313390,6426,-2,0,11750.7706913039,44852.7830472716,36889.4270106512,47236.3861840987,48183.4223632219,47787.8140364176,51068.1399260050,67180.4093757956,50536.3750717519,7759.2429224155
5592313390,6426,-2,0,11743.2510546673,44843.9127962877,36878.5369219947,47224.6930274518,48173.6273672794,47754.0121746434,51062.7861394029,67171.0767523324,50536.4359102360,7750.3118329475
5592334349,6427,-2,0,11725.0238448265,44821.3538863780,36858.5332284178,47205.6505819239,48154.4632447833,47748.1351770780,51047.7346984329,67151.6206051125,50518.5128928159,7742.1594760761
5592334349,6427,-2,0,11721.1301818432,44815.9757643822,36861.0884447506,47207.8407673520,48149.5596629636,47766.4353930997,51050.4602625212,67149.8806244668,50513.3537893629,7749.4479264731
5592334349,6427,-2,0,11719.9377475546,44815.7445781426,36861.1614509315,47208.1084566821,48146.2378817310,47749.6074683935,51049.2678282326,67143.8211114490,50512.0031750156,7750.7620377299
5592334349,6427,-2,0,11707.3320136460,44804.6476386401,36847.8864936977,47196.1232753115,48136.1386933679,47737.0139021818,51039.7648570139,67132.3348056481,50504.6173830441,7747.1969025608
5592334349,6427,-2,0,11702.8786366088,44801.6543852216,36845.1852650030,47194.2129469103,48135.5059731331,47747.9161585351,51037.8666963095,67133.6854199955,50504.8242338900,7749.4235910794
5592334349,6427,-2,0,11702.7812950342,44802.1289253977,36848.2636922992,47194.5414747246,48136.8930905709,47743.4262784075,51039.1078013854,67137.3600644360,50509.6304741351,7750.1779882824
5592334349,6427,-2,0,11695.6510246960,44794.6214564579,36841.5836267434,47186.1579316136,48131.5393039689,47740.1653356589,51032.9266113994,67132.7728427338,50508.3285305751,7748.8030385414
5592334349,6427,-2,0,11699.9948924618,44799.7440568204,36850.3322007591,47193.1908603772,48136.6862397250,47772.8477693253,51040.3124033709,67145.5854274883,50512.9887584582,7763.6962994527
5592355290,6428,-2,0,11710.6051240914,44811.7170704942,36862.1957051615,47204.4094768480,48146.5907449388,47767.5548212074,51051.4215105702,67156.7310377782,50523.9396855989,7775.7909900947
5592355290,6428,-2,0,11699.5811907698,44804.1000922830,36847.7769844263,47191.1466873110,48137.2459537788,47729.3725885770,51045.4228360365,67146.6318494151,50518.8049175396,7762.4916974673
5592355290,6428,-2,0,11680.4779067578,44783.5488523491,36827.8219616367,47174.7324642968,48122.3405251707,47726.3915028554,51032.8779406121,67132.6998365528,50500.2005090973,7748.1581506098
5592355290,6428,-2,0,11678.0078643027,44780.8597913512,36829.9756439743,47177.7500531089,48121.2697678503,47745.5191222610,51034.5692504705,67137.7615984312,50499.7989751022,7747.5862688592
5592355290,6428,-2,0,11684.5540851934,44787.4911861197,36838.2010070266,47186.7298133642,48130.4198758611,47749.0355866429,51042.5512595863,67144.0401299918,50511.2001070253,7753.1347386104
5592355290,6428,-2,0,11690.3337411843,44793.0639912646,36845.7449790569,47191.7915752426,48137.7935001358,47763.8801767668,51045.8730408190,67150.6958601540,50519.3402961998,7763.4651132131
5592355290,6428,-2,0,11706.0544054796,44805.0370049384,36861.5021464426,47204.6284953908,48150.7642649491,47778.7004314972,51058.2597561847,67162.4863583754,50530.5224095801,7777.9325047356
5592355290,6428,-2,0,11711.1526704484,44808.0302583568,36862.8040900026,47204.7866754495,48150.9954511887,47758.5872286489,51057.9920668546,67161.9144766247,50531.2281359958,7778.7112373322
5592390664,6429,-2,0,11699.8732154935,44797.9797407811,36850.4052069401,47192.2052769346,48140.1662010163,47754.0608454307,51046.6152703252,67151.4624250538,50520.1190287965,7776.0951825153
5592390664,6429,-2,0,11702.6839534596,44801.6057144343,36858.1681975131,47199.4207211506,48145.5199876184,47786.7311114003,51052.1150692892,67163.1069109134,50527.6264977362,7785.2452905262
5592390664,6429,-2,0,11716.2509354172,44815.4768888125,36871.4066516565,47213.5352494652,48156.9941257224,47778.8707792527,51065.8889020927,67174.5567136238,50541.2543181779,7789.9663568935
5592390664,6429,-2,0,11709.6438760423,44807.5192150903,36856.7202415912,47201.1241987058,48148.8174334574,47745.2392652341,51057.7243775245,67164.7130468940,50535.6936807298,7774.6350588966
5592390664,6429,-2,0,11699.1309859873,44793.7332145899,36844.2970231349,47188.9199987924,48139.7281639307,47748.8530711905,51046.9924689267,67154.5408523500,50526.1907095111,7766.1663419078
5592390664,6429,-2,0,11704.1075739879,44794.7674688198,36850.5268839083,47195.2593688371,48143.4636468553,47765.1942880237,51053.5995283016,67160.2961729473,50527.2736345284,7771.3862838448
5592390664,6429,-2,0,11707.2955105555,44798.8314795587,36853.7513235664,47196.5613123972,48146.0431985818,47759.2686196709,51053.6360313920,67162.7053769182,50529.1839629296,7777.7986600705
5592390664,6429,-2,0,11707.2103366778,44798.2961008985,36851.6341443192,47193.4098789200,48144.7899258090,47763.9775183414,51052.5044355875,67161.2330856026,50525.7526724255,7780.2565348288
5592433004,6430,-2,0,11710.7876395437,44803.0049995690,36857.5233095815,47199.7249135711,48147.7831792275,47770.4994038385,51057.1889988643,67164.9320654368,50527.6386654331,7781.2664536651
5592433004,6430,-2,0,11704.8984742814,44801.3380251042,36850.4903808178,47195.1376918689,48144.8994350804,47748.7678973127,51054.8893041648,67159.8824712553,50524.3898903813,7773.9901709649
5592433004,6430,-2,0,11691.7816971063,44790.5939488096,36838.5538702345,47185.2818574423,48134.4838866000,47747.9039908383,51046.6639411125,67147.7269421292,50514.4975528643,7767.7481424948
5592433004,6430,-2,0,11695.5050123341,44794.4146056120,36847.8499906072,47194.5779778150,48138.7182450944,47777.3863202403,51053.2831681842,67157.3150872257,50516.5903967178,7778.2123617625
5592433004,6430,-2,0,11710.5807886977,44808.1154322346,36862.0496927996,47207.5122395378,48148.6835887924,47772.1542106064,51064.4166107772,67168.7040514519,50526.0446971493,7788.7374195143
5592433004,6430,-2,0,11704.9836481592,44802.9441610848,36851.6828151065,47198.3864669206,48145.5199876184,47749.0477543397,51059.4156873829,67161.6346195978,50520.9829352709,7784.0893593280
5592433004,6430,-2,0,11697.0503098306,44793.3073452011,36844.2605200445,47192.6189786265,48138.6939097007,47759.2807873678,51054.3539255046,67158.1911613969,50517.1866138622,7781.5584783888
5592433004,6430,-2,0,11701.0534820854,44797.7485545414,36849.4682942847,47199.7249135711,48143.2567960094,47762.2497053926,51059.4521904734,67163.0217370356,50522.7594190071,7782.4953910442
5592450547,6431,-2,0,11696.3202480212,44791.7498800077,36841.8756514672,47195.6974059227,48137.8300032263,47744.5092034247,51055.1691611917,67154.7963739833,50519.1699484443,7772.3110288034
5592450547,6431,-2,0,11691.4531692921,44787.3451737578,36838.3226839949,47193.2638665582,48136.0535194902,47757.5529744189,51052.9303049763,67153.4579273328,50516.3105396909,7768.2105149740
5592450547,6431,-2,0,11699.3865076206,44795.5462014165,36845.2826065776,47201.1972048867,48145.8120123422,47765.9973560140,51059.2331719306,67160.7098746393,50521.7251647771,7770.1330110721
5592450547,6431,-2,0,11699.9583893713,44793.1735005360,36837.5317837014,47196.3666292480,48143.5244853395,47738.5957027688,51053.6238636952,67154.6746970151,50520.4840597012,7764.4506966557
5592450547,6431,-2,0,11686.5252520788,44780.7867851703,36825.3640868784,47181.1935113098,48129.1787707852,47736.3568465533,51040.0933848281,67143.0667142460,50511.2001070253,7758.4033513347
5592450547,6431,-2,0,11690.6379336049,44786.5786088580,36835.0130704590,47186.6446394865,48131.8921671767,47764.4520585175,51042.3809118308,67149.9901337382,50512.6845660377,7772.2380226224
5592450547,6431,-2,0,11701.3333391123,44798.0892500525,36848.1541830278,47195.6730705291,48140.8475920384,47761.1181095880,51048.2944124867,67156.8162116559,50520.6787428503,7781.2786213619
5592450547,6431,-2,0,11701.3941775964,44798.7219702873,36846.3411962012,47191.5238859125,48141.2491260336,47752.4060386628,51048.0145554598,67154.0054736898,50522.6864128261,7780.6459011271
5592479546,6432,-2,0,11699.1918244714,44792.7476311472,36842.6908871543,47188.4941294036,48138.3775495833,47759.4754705169,51045.4715068238,67150.8905433031,50516.6147321115,7780.3903794938
5592479546,6432,-2,0,11704.3022571371,44795.0108227563,36847.8134875168,47191.8889168172,48142.8795974078,47759.7188244534,51048.8297911470,67155.0397279198,50521.1654507233,7783.6026514551
5592479546,6432,-2,0,11698.6077750239,44790.8738058365,36842.6422163670,47186.4499563373,48137.3311276566,47749.5101268189,51045.0699728287,67151.7057789903,50519.6809917109,7781.4976399047
5592479546,6432,-2,0,11696.5270988672,44790.7642965651,36845.7328113600,47189.3702035748,48138.1341956469,47770.5359069290,51047.2601582568,67154.5530200468,50518.9387622047,7788.3358855192
5592479546,6432,-2,0,11703.7425430832,44799.5858767617,36856.9392601340,47198.0214360159,48146.6150803325,47771.0226148019,51055.9113906979,67162.6080353436,50525.2537968558,7793.7261752117
5592479546,6432,-2,0,11698.1088994542,44796.2884309227,36848.1298476342,47188.8348249146,48140.8354243416,47741.0170744365,51048.3674186677,67152.6913624329,50522.5160650706,7784.6734087755
5592479546,6432,-2,0,11681.2688070512,44783.8652124665,36836.8017218920,47172.9194774702,48128.4000381885,47739.2527583972,51034.7395982260,67138.6985110865,50510.2510266731,7775.0000898012
5592479546,6432,-2,0,11682.5464152177,44789.2920052495,36847.0347549201,47181.0596666447,48133.0359306781,47770.6819192909,51038.7306027839,67147.4105820118,50512.4168767076,7780.6337334303
5592515816,6433,-2,0,11693.1323114536,44803.0293349626,36861.9645189218,47191.4508797315,48145.3983106502,47771.8621858827,51048.6472756946,67158.9090555095,50525.0469460098,7790.2948847077
5592515816,6433,-2,0,11695.0791429453,44807.1055133983,36863.5706549025,47190.6599794380,48148.5984149146,47768.1023675644,51049.8153745896,67160.1379928886,50529.3908137756,7792.3998962580
5592515816,6433,-2,0,11699.5325199825,44809.7215682152,36867.0871192843,47194.7604932674,48154.0252076977,47781.8396972775,51053.4656836365,67166.4773629333,50533.5034953017,7795.1862988305
5592515816,6433,-2,0,11704.7402942227,44813.2867033843,36868.2552181793,47194.9308410229,48156.8116102701,47769.5746588800,51054.7311241061,67164.4696929575,50535.2799790379,7792.8987718278
5592515816,6433,-2,0,11695.6631923928,44804.3556139163,36857.9248435766,47182.3981132953,48146.1770432469,47755.5453044431,51043.8045323591,67154.9058832547,50527.3709761030,7784.9289304088
5592515816,6433,-2,0,11693.2053176346,44802.2384346691,36858.8982593225,47182.0209146938,48143.2081252221,47774.9771162694,51041.7238562024,67154.3705045945,50525.4484800049,7785.2209551325
5592515816,6433,-2,0,11701.3576745059,44811.4372134673,36870.6035836661,47193.1665249836,48151.0927927633,47779.0532947050,51051.2146597243,67163.9708173878,50534.4160725634,7789.5404875047
5592515816,6433,-2,0,11698.1819056351,44808.1275999314,36862.4512267948,47187.3381982054,48149.4866567827,47751.9923369708,51048.9271327215,67158.6535338762,50532.0433716830,7785.2574582230
5592559612,6434,-2,0,11690.9786291160,44798.8679826492,36851.2812811113,47177.9204008644,48143.5244853395,47756.4213786144,51040.4584157328,67152.2533253473,50522.1388664691,7786.0118554260
5592559612,6434,-2,0,11700.2504140950,44810.0135929390,36863.1326178169,47191.8767491203,48156.5439209400,47784.8937891801,51051.2024920274,67165.8933134858,50531.1429621181,7802.4382461370
5592559612,6434,-2,0,11707.7700507316,44818.8960116197,36869.3016401061,47198.3134607397,48164.2704084226,47773.9185266458,51058.2475884879,67170.6387152468,50539.1614743244,7805.1151394380
5592559612,6434,-2,0,11701.7105377138,44812.8364986019,36859.4579733763,47189.1025142447,48157.0306288129,47760.6800725024,51050.5089333085,67160.9653962725,50532.4084025877,7797.1331303222
5592559612,6434,-2,0,11701.4550160805,44807.1298487919,36855.7589935421,47187.1556827530,48154.4145739960,47765.6688281998,51048.2700770931,67159.1402417491,50524.8644305574,7789.3701397491
5592559612,6434,-2,0,11704.8376357973,44804.7571479115,36853.7269881727,47185.0871742931,48151.6281714235,47750.5078779584,51047.2723259536,67154.2974984136,50522.5038973738,7782.4832233473
5592559612,6434,-2,0,11698.7294519922,44795.7043814752,36842.6057132765,47175.8153893141,48143.7435038823,47740.1410002653,51038.0613794587,67143.9792915077,50513.6579817835,7773.8076555126
5592559612,6434,-2,0,11697.5248500067,44794.5119471865,36845.3677804554,47177.8230592898,48143.6948330950,47764.5615677889,51038.2803980015,67146.4858370532,50509.5331325605,7780.3417087065
5592579339,6435,-2,0,11707.1616658905,44803.9905830116,36856.4160491706,47188.3481170417,48148.9756135161,47765.5228158379,51044.1817309606,67153.8594613279,50516.0063472703,7788.2993824287
5592579339,6435,-2,0,11706.3585979002,44800.6444663853,36847.3146119470,47181.7045545764,48144.5465718726,47741.6619623681,51039.8987016789,67146.8630356548,50514.9599253436,7783.0186020076
5592579339,6435,-2,0,11700.2504140950,44791.1293274698,36837.5561190950,47174.5134457540,48136.7349105122,47755.8494968637,51032.1843818932,67141.4849136590,50509.9955050398,7779.4291314448
5592579339,6435,-2,0,11710.6902979691,44800.6688017789,36850.3930392432,47185.4035344105,48146.6515834230,47771.9473597605,51039.4363291996,67151.9613006236,50519.5471470458,7785.6833276118
5592579339,6435,-2,0,11712.6614648544,44804.6233032464,36854.5665592535,47187.8249060783,48147.8440177116,47756.5552232794,51040.9937943930,67153.1415672154,50524.0856979608,7784.9776011961
5592579339,6435,-2,0,11704.4482694990,44800.0482492410,36849.0910956832,47182.0939208747,48141.2491260336,47754.9004165115,51036.0050386956,67149.3574135034,50518.2695388794,7781.6071491761
5592579339,6435,-2,0,11707.0278212254,44804.9518310606,36853.6661496886,47187.8857445624,48145.9336893104,47762.7607486591,51041.1763098453,67155.4899327022,50520.4597243075,7785.8050045800
5592579339,6435,-2,0,11702.2824194645,44803.9540799211,36846.6575563186,47182.3616102048,48142.5997403809,47733.2905869540,51036.3335665098,67147.0455511071,50517.0771045907,7777.5918092245
5592615826,6436,-2,0,11687.6446801865,44789.8882223938,36828.0288124827,47164.1344003640,48127.5117963205,47724.5176775446,51019.9315111925,67129.8160924058,50502.9747439730,7768.8188998152
5592615826,6436,-2,0,11688.2530650276,44790.6426195968,36832.5430280040,47168.8067959440,48128.9719199392,47756.9202541841,51021.4281379017,67136.1554624506,50503.9481597188,7775.6936485201
5592615826,6436,-2,0,11700.2017433077,44798.7949764682,36843.9563276239,47183.3593613443,48139.2414560578,47759.8039983312,51034.2893934435,67144.7458564075,50514.4732174706,7781.4246337238
5592615826,6436,-2,0,11701.7713761979,44798.1257531430,36841.6079621371,47180.5729587718,48137.6231523803,47739.1797522163,51034.3258965340,67141.7160998986,50514.8625837690,7776.4115426327
5592615826,6436,-2,0,11698.9849736255,44791.9567308537,36836.5218648651,47172.3475957195,48131.9530056608,47742.4285272680,51030.0306995555,67135.6565868808,50507.6714749466,7773.4912953952
5592615826,6436,-2,0,11702.5136057041,44795.3028474800,36842.8855703035,47176.7644696662,48134.6177312651,47745.7746438943,51032.7440959470,67137.8954430962,50508.5475491179,7773.4426246079
5592615826,6436,-2,0,11696.9894713465,44793.5020283502,36839.9288199755,47174.0754086684,48131.8069932990,47730.1026503864,51026.1370365722,67132.7606750370,50505.0919232201,7768.0523349153
5592615826,6436,-2,0,11687.4865001278,44784.4979327013,36831.3992645026,47167.9550571664,48126.8669083888,47732.9255560493,51018.1793628500,67127.5894038872,50493.7637974780,7764.7913921668
5592664864,6437,-2,0,11694.3247457423,44789.2433344622,36837.6169575791,47177.7135500184,48131.3202854260,47747.0887551512,51023.5939879362,67134.5128233795,50495.4916104268,7771.8608240209
5592664864,6437,-2,0,11702.0147301344,44795.6922137784,36838.9310688360,47180.0254124148,48136.7227428154,47735.1279091742,51028.1568742448,67137.7007599471,50501.9039866525,7773.9658355713
5592664864,6437,-2,0,11695.5780185150,44788.2212479291,36829.5011037982,47171.4471861546,48129.4221247217,47735.6632878344,51021.6471564445,67132.0549486212,50498.3631868771,7769.9991664070
5592664864,6437,-2,0,11702.6231149755,44792.9058112059,36837.9576530902,47180.5121202877,48135.5059731331,47762.9797672019,51029.4953208953,67141.7647706859,50505.0067493424,7778.4678833958
5592664864,6437,-2,0,11712.1017508006,44801.9099068549,36847.7648167295,47190.6234763476,48141.5898215446,47754.9004165115,51039.0591305981,67149.5520966526,50514.8260806785,7781.1569443936
5592664864,6437,-2,0,11702.9394750929,44794.5241148834,36836.8503926793,47180.2687663512,48132.4883843210,47732.9133883525,51029.8481841032,67140.1342993117,50511.5773056268,7771.4714577226
5592664864,6437,-2,0,11695.2494907008,44785.3618391757,36829.7931285220,47172.8343035924,48124.7862322321,47737.0625729691,51022.9977707919,67132.8823520052,50505.0797555233,7766.2758511792
5592664864,6437,-2,0,11696.6001050482,44784.1815725839,36829.4402653141,47175.1583336856,48123.6911395181,47730.4798489879,51023.4479755743,67131.7994269879,50502.1838436795,7764.1100011447
5592678749,6438,-2,0,11686.6104259565,44772.6952667830,36815.8124448724,47165.4241762273,48111.5477780888,47709.0768702763,51015.1861094315,67119.7290717396,50489.0183957170,7752.1978259550
5592678749,6438,-2,0,11679.0421185326,44766.5262444938,36811.5659186812,47161.7130286963,48108.7370401227,47730.6380290466,51013.4947995731,67118.5974759351,50482.8372057310,7753.3537571532
5592678749,6438,-2,0,11692.4265850379,44782.6849458746,36829.8904700966,47179.6725492069,48123.4842886721,47755.4844659590,51029.1302899906,67136.8733565631,50498.1320006374,7770.2668557371
5592678749,6438,-2,0,11699.8245447062,44789.3041729463,36834.1613316814,47183.3958644347,48130.2251927120,47734.2761703966,51033.6323378151,67139.6840945292,50507.6349718561,7773.1505998842
5592678749,6438,-2,0,11686.6104259565,44777.7083578741,36821.2270699586,47169.9627271422,48118.9579054539,47722.4491690847,51022.1460320143,67127.9787701855,50495.1265795222,7763.1852561862
5592678749,6438,-2,0,11681.3296455354,44774.3135704605,36823.8917955629,47169.9140563549,48115.3075964071,47741.9053163046,51021.0996100875,67128.8791797504,50489.9309729788,7759.6931271980
5592678749,6438,-2,0,11687.5838417024,44780.9449652290,36831.6426184391,47176.8618112408,48119.8704827157,47737.4641069642,51026.5507382642,67132.9431904893,50493.7759651748,7756.4078490558
5592678749,6438,-2,0,11688.4842512673,44783.1959891412,36832.0319847374,47176.7157988789,48122.2310158993,47736.8800575167,51028.0595326702,67130.5704896088,50495.9661506029,7755.2275824640
5592706986,6439,-2,0,11693.6311870234,44790.3019240858,36837.2275912808,47181.4612006399,48128.4365412790,47749.0842574301,51032.1235434091,67135.9607793014,50498.6308762072,7763.4042747290
5592706986,6439,-2,0,11697.2328252829,44799.4155290062,36844.9784141570,47188.6523094623,48136.2603703362,47746.7237242465,51040.6896019724,67142.8355280064,50507.9026611863,7767.4196146805
5592706986,6439,-2,0,11693.2418207250,44796.5926233433,36839.4299444058,47183.7122245521,48134.2405326635,47737.6466224166,51039.1199690823,67140.3411501576,50508.3285305751,7763.2460946703
5592706986,6439,-2,0,11692.3657465538,44794.7187980325,36842.5692101861,47184.5152925425,48135.4573023458,47758.1126884728,51040.6530988819,67143.9549561141,50510.1171820080,7766.3366896633
5592706986,6439,-2,0,11704.3022571371,44802.6521363611,36856.2457014151,47197.8389205636,48143.1229513443,47763.8193382827,51052.7234541303,67155.6237773673,50519.5593147426,7770.8509051846
5592706986,6439,-2,0,11702.0512332248,44798.2230947175,36848.6043878103,47190.7938241031,48137.8421709231,47727.8759618678,51047.1141458949,67145.6584336693,50515.4953040038,7758.3668482443
5592706986,6439,-2,0,11685.1016315505,44780.3000772973,36830.6448672996,47170.3764288342,48125.8448218557,47726.6713598823,51030.5295751253,67129.4510615011,50499.2270933515,7746.6736915974
5592706986,6439,-2,0,11686.1358857804,44785.4591807503,36840.5372048166,47178.4071087373,48136.0900225806,47764.8414248159,51036.7107651113,67140.7548518496,50505.7368111518,7757.9288111587
5592736111,6440,-2,0,11691.1854799619,44796.7751387956,36851.1474364463,47189.4188743621,48149.3528121176,47765.2794619015,51044.9117927700,67153.6891135724,50519.6931594077,7766.0081618491
5592736111,6440,-2,0,11688.2043942403,44797.3470205463,36847.2051026756,47187.9344153497,48149.1459612716,47754.0365100371,51042.3079056499,67153.0077225503,50522.8689282785,7762.9175668561
5592736111,6440,-2,0,11690.4554181526,44796.5439525560,36845.7571467537,47186.9244965134,48147.4911545037,47757.8206637490,51040.8599497279,67150.0753076160,50516.1158565417,7758.7318791490
5592736111,6440,-2,0,11696.7461174100,44801.5448759502,36847.5701335803,47187.2895274181,48147.3573098387,47743.7183031312,51038.8887828426,67147.4349174054,50515.3736270355,7753.0982355199
5592736111,6440,-2,0,11697.9628870923,44799.9509076664,36842.2406823719,47181.5707099113,48142.5510695936,47733.8868040983,51033.5593316342,67137.3843998297,50507.4402887070,7741.4659173572
5592736111,6440,-2,0,11708.7921372647,44807.2271903665,36848.2758599960,47188.3724524353,48145.1671244106,47761.7386621260,51038.0857148523,67140.3046470672,50507.5254625847,7739.3244027164
5592736111,6440,-2,0,11737.4348955859,44832.1466334599,36872.3922350991,47212.9146969272,48163.7715328528,47781.7058526125,51056.9699803215,67158.2641675778,50521.9685187136,7745.9314620912
5592736111,6440,-2,0,11755.4187514903,44848.2201609630,36878.4760835106,47221.7362771238,48171.7413742719,47765.2916295983,51065.7063866404,67161.5981165073,50532.2015517417,7746.8562070498
5592784443,6441,-2,0,11755.8811239695,44845.8231246889,36870.2385527615,47216.0782981012,48166.2780783984,47762.8580902337,51061.3868542682,67154.2974984136,50524.3777226845,7742.1229729857
5592784443,6441,-2,0,11762.0014754715,44850.2278309388,36874.9839545224,47223.6831086155,48169.5998596310,47775.3786502645,51067.2273487432,67159.7607942871,50524.8035920733,7740.5290047018
5592784443,6441,-2,0,11769.8009691350,44855.1192450616,36878.1840587868,47231.3487576140,48172.7999638954,47767.1046164249,51070.3909499172,67161.8901412311,50527.7968454918,7732.9728649748
5592784443,6441,-2,0,11777.6978043731,44857.7474675754,36877.9285371536,47233.3320921961,48173.9315597000,47765.8878467426,51071.0480055457,67159.7972973775,50526.9572744110,7724.4433095019
5592784443,6441,-2,0,11792.2625374701,44864.9629117914,36883.1728144842,47244.1613423685,48178.2510920721,47775.3421471741,51076.9128354143,67164.9077300432,50525.9108524842,7719.6492369537
5592784443,6441,-2,0,11803.3959800631,44870.8277416600,36882.9781313351,47249.3082781246,48181.0009915541,47757.2122789079,51081.1958646960,67163.5449479990,50525.0347783130,7710.6816443952
5592784443,6441,-2,0,11800.2810496764,44866.8489047989,36873.2439738767,47242.1415046959,48176.0000681599,47750.0820085696,51074.6983145925,67154.4556784723,50518.8657560237,7702.5779583111
5592784443,6441,-2,0,11804.6249174422,44873.8696658658,36881.5545108068,47249.5881351515,48181.9744073000,47785.7941987450,51080.2954551311,67162.1456628644,50523.7693378434,7709.2215207764
5592805735,6442,-2,0,11820.5524325835,44893.3258130857,36902.4221108581,47267.9370219605,48197.0136805731,47795.3093376605,51094.5194927171,67174.4472043524,50539.8672007401,7717.4347161319
5592805735,6442,-2,0,11823.3510028527,44900.2005617906,36904.6853024672,47267.6693326304,48199.8487539328,47773.0911232618,51097.2207214118,67175.2381046458,50546.9001295038,7712.6893143710
5592805735,6442,-2,0,11816.2085648177,44893.5448316285,36897.0196534687,47257.5093057833,48192.5359681423,47772.6652538730,51090.6623328242,67166.5868722047,50539.4900021386,7704.2205973822
5592805735,6442,-2,0,11823.4361767305,44899.5921769495,36902.3126015867,47263.9703527963,48196.2471156733,47785.0154661483,51096.1012933041,67172.1475096528,50538.8329465102,7707.0313353483
5592805735,6442,-2,0,11829.3253419928,44904.2402371358,36900.6699625156,47265.7346688356,48197.6342331111,47774.7702654234,51097.6830938911,67173.6198009684,50539.5751760164,7703.9407403553
5592805735,6442,-2,0,11829.9702299244,44903.3884983582,36896.6546225641,47265.5521533833,48196.9285066953,47782.9591253852,51095.2738899201,67172.0014972909,50536.2898978742,7703.7095541156
5592805735,6442,-2,0,11839.6192135050,44911.6381968042,36905.5248735480,47274.1547150371,48204.5698203002,47799.1908329470,51100.1531363461,67180.6283943384,50542.1060569555,7711.9592525616
5592805735,6442,-2,0,11844.3037767818,44914.6436179194,36907.1553449223,47277.1844715460,48208.5973279485,47776.0113704993,51103.6209299407,67182.0520148667,50547.8005390687,7709.8785764049
5592844816,6443,-2,0,11831.8805583256,44900.9671266905,36891.0209789350,47262.6805769330,48198.9605120648,47761.1911157690,51093.6920893331,67170.1276719802,50538.8451142070,7698.9154815674
5592844816,6443,-2,0,11826.8918026282,44897.8643640006,36889.8163769496,47262.3520491188,48197.1475252382,47776.5832522500,51094.2396356902,67173.1695961860,50534.5377495317,7701.0813316019
5592844816,6443,-2,0,11832.0265706875,44902.0257163141,36896.3991009308,47269.7500087872,48201.2358713707,47775.9748674088,51100.4208256762,67178.8762459959,50539.4778344418,7704.1840942917
5592844816,6443,-2,0,11828.2302492787,44896.6840974088,36890.0232277956,47262.9482662631,48197.1353575413,47758.5020547711,51096.7705166294,67171.7094725672,50537.4823321628,7698.1002458802
5592844816,6443,-2,0,11822.3410840164,44888.8846037453,36885.8497077853,47259.8576712701,48192.2682788122,47770.1830437211,51093.2053814602,67169.2150947185,50533.6981784509,7696.6644576551
5592844816,6443,-2,0,11826.4659332394,44892.8756083032,36891.7388730476,47263.2402909869,48195.5900600448,47777.0456247293,51097.5857523165,67174.1065088413,50536.0952147250,7698.3557675135
5592844816,6443,-2,0,11825.3708405253,44894.3600673156,36890.6559480303,47261.6341550063,48194.5923089053,47765.2794619015,51096.4419888151,67171.4052801466,50536.7766057471,7697.2120040122
5592844816,6443,-2,0,11825.4560144031,44895.8688617216,36890.6194449399,47261.6584903999,48195.6387308321,47776.3398983135,51095.9066101549,67172.5855467385,50535.3773206125,7702.4806167365
5592856877,6444,-2,0,11835.2510103456,44903.5588461138,36900.4022731855,47270.8085984108,48201.9902685737,47783.0564669598,51102.9882097059,67181.7964932334,50538.0663816103,7708.9781668400
5592856877,6444,-2,0,11838.9743255734,44902.1717286759,36896.4234363244,47271.1614616186,48200.9560143437,47758.7332410107,51106.5898479655,67181.8451640207,50542.3737462856,7704.1597588981
5592856877,6444,-2,0,11832.3064277144,44889.2009638627,36882.0533863765,47261.6706580967,48194.3854580593,47753.1482681690,51099.6785961700,67173.6563040589,50536.1195501187,7696.1290789949
5592856877,6444,-2,0,11835.2023395583,44891.0869568702,36887.6748623087,47268.3628913494,48199.6053999964,47784.0298827056,51105.9936308211,67180.5067173702,50538.3219032436,7702.4197782524
5592856877,6444,-2,0,11846.6643099655,44905.4691745150,36902.6289617041,47281.7595255514,48213.1358788635,47790.9776375915,51118.2465015218,67194.3170532642,50552.2782514995,7710.6451413047
5592856877,6444,-2,0,11840.1910952557,44905.3596652435,36898.2972616352,47277.5860055411,48209.6802529658,47774.2835575505,51115.1680742256,67191.5184829949,50554.6387846832,7704.2692681695
5592856877,6444,-2,0,11831.5885336019,44902.3177410378,36892.5906118252,47270.9181076822,48205.1295343540,47776.4494075849,51111.3474174232,67189.9610178016,50554.0425675388,7700.4364436703
5592856877,6444,-2,0,11831.6615397828,44901.3929960793,36891.9700592872,47270.0663689046,48203.7302492194,47767.9563552025,51113.1239011594,67189.7663346524,50552.8866363407,7698.5382829659
5592910322,6445,-2,0,11827.6096967408,44894.6642597362,36883.5865161762,47262.4615583902,48197.4030468714,47756.7864095191,51109.8021199267,67183.7919955124,50545.5008443691,7693.7563781145
5592910322,6445,-2,0,11829.7633790784,44894.5669181616,36884.3044102888,47264.7734207866,48198.9848474584,47779.5156671843,51110.6660264012,67186.6270688721,50543.2011496696,7699.0979970197
5592910322,6445,-2,0,11844.6931430802,44908.1582355128,36900.5726209410,47280.6766005342,48213.3062266190,47794.4332634892,51121.2275872435,67201.8245222040,50554.4441015340,7710.6208059111
5592910322,6445,-2,0,11844.6809753834,44910.7499549361,36897.7253798845,47278.9366198885,48215.1192134456,47771.1077886797,51118.8427186662,67199.1111258125,50555.6852066099,7706.1795965707
5592910322,6445,-2,0,11828.9116403008,44900.0667171256,36881.1164737212,47263.5079803170,48203.1948705592,47758.3803778029,51105.4582521609,67184.9965974978,50546.0605584230,7697.1511655281
5592910322,6445,-2,0,11825.5655236745,44897.5480038832,36881.8100324401,47261.8288381554,48199.8122508424,47776.7292646119,51101.7957754172,67185.3859637962,50541.1326412097,7697.9542335184
5592910322,6445,-2,0,11830.3230931323,44901.2469837174,36890.3395879130,47265.3939733245,48199.5932322996,47771.5944965526,51104.8985381071,67188.8659250875,50545.9145460611,7701.4585302034
5592910322,6445,-2,0,11826.6484486918,44896.7814389834,36885.4116706997,47258.8720878275,48193.7284024309,47760.0716876613,51100.6520119159,67179.8618294386,50541.9357092000,7697.4675256455
5592928392,6446,-2,0,11825.0666481048,44891.4033169876,36884.1949010174,47256.0978529518,48190.0172548999,47768.8202616770,51098.7051804242,67176.6373897805,50537.0564627740,7696.2750913568
5592928392,6446,-2,0,11825.2856666476,44890.8922737211,36883.9637147777,47256.0856852550,48190.4674596824,47759.8770045121,51099.1797206003,67176.6495574773,50538.8086111165,7693.5738626621
5592928392,6446,-2,0,11816.6466019033,44879.0409370155,36870.3237266392,47245.3051058699,48180.2465943511,47744.8620666326,51090.0904510736,67163.4232710308,50530.3398941278,7686.5287662016
5592928392,6446,-2,0,11814.2495656292,44875.9990128098,36867.5981625509,47244.2221808526,48178.0807443166,47767.0072748503,51086.0872788188,67161.4642718423,50526.2758833889,7689.3273364709
5592928392,6446,-2,0,11830.1284099831,44891.9873664351,36884.8276212522,47262.7292477203,48193.8865824896,47785.8428695323,51100.2261425271,67178.0610103088,50537.8595307643,7701.7262195335
5592928392,6446,-2,0,11833.7422159395,44895.8201909344,36883.0511375160,47264.0555266740,48195.7604078003,47756.4943847953,51101.8444462045,67177.4526254676,50540.2443993416,7697.9785689120
5592928392,6446,-2,0,11818.3744148522,44883.4943140527,36865.0064431276,47249.5637997579,48183.0329969235,47739.3257645781,51089.2265445991,67163.0825755197,50526.2880510857,7682.3674138882
5592928392,6446,-2,0,11813.4464976389,44880.7930853580,36863.3029655724,47249.6003028484,48179.0541600624,47756.7255710349,51087.9976072200,67163.9464819942,50521.8955125326,7681.8928737121
5592959603,6447,-2,0,11818.7759488473,44885.9400211141,36868.8514353236,47253.3966242571,48183.8238972170,47756.7134033381,51091.0882022130,67166.1731705128,50525.5214861859,7685.3119965193
5592959603,6447,-2,0,11821.1364820310,44890.1135411244,36868.7784291427,47253.2871149857,48185.8802379801,47763.0649410797,51090.2973019195,67167.7184680093,50527.9915286409,7690.7387893024
5592959603,6447,-2,0,11834.0342406633,44900.1032202160,36882.0047155892,47261.3908010698,48196.5756434875,47786.7432790972,51098.6200065464,67178.5720535753,50536.8009411407,7702.0790827413
5592959603,6447,-2,0,11844.9486647135,44910.4335948187,36891.4468483238,47268.6914191636,48206.6139933664,47778.1407174433,51104.2414824786,67187.3084598942,50548.8956317827,7705.2670193090
5592959603,6447,-2,0,11839.0838348448,44906.0775593561,36883.5135099953,47259.0302678862,48201.6982438499,47761.6413205514,51098.3888203068,67178.3408673357,50545.5981859437,7697.3580163740
5592959603,6447,-2,0,11830.4447701005,44897.9252024847,36880.4715857895,47251.7053143987,48196.0402648273,47776.6927615214,51091.5992454796,67172.0866711687,50536.6670964757,7694.0118997477
5592959603,6447,-2,0,11832.3429308049,44903.0964736345,36889.1471536243,47259.2492864290,48201.4913930039,47781.0122938935,51095.2008837392,67177.6838117073,50538.2975678500,7697.9298981247
5592959603,6447,-2,0,11827.7435414058,44901.3078222015,36883.3918330271,47254.3822076998,48199.4228845441,47754.8030749369,51091.6114131764,67172.4395343766,50537.0686304708,7691.7730435323
5592978683,6448,-2,0,11815.2473167687,44888.4587343565,36867.5008209763,47240.8395611359,48188.8491560049,47747.7336430828,51081.4027155420,67160.5395268837,50523.8666794180,7684.5210962258
5592978683,6448,-2,0,11817.3523283190,44891.3424785035,36869.8248510695,47247.5682974789,48190.3822858046,47763.5759843463,51083.7510810288,67165.0050716178,50524.2560457163,7691.2376648721
5592978683,6448,-2,0,11823.9350523002,44898.8621151401,36875.6410101508,47254.4795492744,48195.9185878590,47764.1600337938,51088.3869735183,67170.4927028849,50533.5034953017,7698.6721276309
5592978683,6448,-2,0,11822.9251334639,44900.9549589936,36876.4684135348,47253.6521458904,48196.3687926415,47772.7625954476,51087.3527192884,67171.9893295941,50534.5742526221,7702.9916600031
5592978683,6448,-2,0,11832.5011108636,44910.8472965107,36889.1714890180,47262.3398814220,48204.0587770336,47788.9091291316,51095.6145854312,67181.1394376050,50541.1691443002,7713.8209101755
5592978683,6448,-2,0,11835.6160412503,44914.5341086480,36889.8407123432,47263.0334401409,48206.2976332490,47766.7030824298,51098.0846278862,67183.3539584268,50545.6711921247,7712.2512772853
5592978683,6448,-2,0,11821.7570345689,44898.8499474433,36870.0925403996,47245.1590935080,48192.8644959565,47744.1563402169,51090.1391218608,67169.5192871391,50534.8297742554,7697.4675256455
5592978683,6448,-2,0,11814.1035532673,44890.0405349435,36865.9555234798,47241.8494799722,48187.2308523275,47769.0757833102,51087.9367687359,67170.2615166453,50528.7702612376,7696.4454391123
5593037042,6449,-2,0,11822.7547857084,44896.6354266215,36876.4440781412,47251.8634944574,48192.8279928660,47777.4958295117,51093.7529278173,67176.1871849980,50535.4503267934,7700.8744807559
5593037042,6449,-2,0,11822.9981396449,44894.0315395014,36872.3435643118,47249.5881351515,48187.8270694718,47754.5962240909,51089.6159108975,67169.7748087723,50531.3498129641,7696.0195697235
5593037042,6449,-2,0,11817.6565207396,44883.2144570258,36861.4899787458,47241.0342442850,48176.6814591820,47749.6926422713,51080.4658028866,67158.4466830302,50521.0681091487,7686.9668032873
5593037042,6449,-2,0,11823.0468104322,44885.3681393635,36862.6337422471,47245.6214659873,48178.5552844927,47756.6769002477,51084.5419813223,67162.4863583754,50520.8490906059,7686.4679277175
5593037042,6449,-2,0,11823.2171581877,44885.9886919014,36858.8739239288,47243.8206468575,48179.0663277593,47748.3541956208,51083.6294040606,67161.1235763312,50523.8423440243,7680.3110731251
5593037042,6449,-2,0,11818.7881165441,44884.1148665907,36856.1726952341,47242.2875170578,48178.6526260673,47757.0054280619,51081.5487279038,67160.2718375536,50523.8301763275,7679.6540174967
5593037042,6449,-2,0,11829.8120498657,44896.1365510518,36868.4985721158,47255.5746419884,48189.0681745477,47773.8576881617,51092.3901457731,67172.5247082543,50528.7337581471,7690.9699755420
5593037042,6449,-2,0,11839.9720767129,44903.4006660551,36873.9862033829,47260.5390622922,48195.5778923480,47759.3294581551,51097.2085537150,67174.0456703572,50533.7225138445,7695.1191601586
5593049672,6450,5,0,11831.9048937193,44894.4330734965,36864.7752568880,47249.7098121198,48189.6643916921,47749.4492883348,51089.1657061150,67164.4331898671,50529.0501182645,7688.3052499378
5593049672,6450,5,0,11829.3496773865,44895.0414583377,36868.5837459935,47251.9486683352,48192.8158251692,47772.4097322397,51090.8083451861,67171.4782863276,50529.7801800739,7688.8162932043
5593049672,6450,5,0,11831.3573473622,44900.1275556097,36875.9208671778,47257.7161566293,48196.9528420890,47764.8779279063,51094.4464865362,67175.1894338586,50533.9171969937,7689.7288704661
5593049672,6450,5,0,11825.2613312539,44894.6399243425,36864.6049091324,47250.6953955624,48189.3601992715,47743.7913093122,51085.6249063395,67165.2119224637,50527.0789513792,7680.1893961569
5593049672,6450,5,0,11821.6231899039,44887.3879770361,36856.2822045055,47243.2974358941,48181.9987426936,47754.1703547021,51078.8840022996,67159.0429001745,50522.1753695596,7678.4250801175
5593049672,6450,5,0,11830.8463040957,44893.5569993253,36864.2277105309,47252.1190160907,48187.9852495305,47761.2397865563,51085.3085462221,67166.4043567524,50532.0555393798,7687.9888898204
5593049672,6450,5,0,11828.0599015232,44891.5614970463,36859.5066441636,47248.6633901930,48184.4809528455,47750.0820085696,51082.1936158355,67163.1555817007,50532.5300795559,7688.2809145441
5593049672,6450,5,0,11826.5632748140,44892.3889004303,36862.7675869122,47250.2938615673,48184.7486421756,47770.3047206894,51083.9700995716,67166.2461766937,50531.1551298149,7695.2773402173
5593078668,6451,5,0,11836.2852645755,44903.7048584756,36877.0037921950,47263.0334401409,48196.2836187637,47786.9622976400,51094.1301264188,67178.9857552673,50537.9325369453,7703.4296970887
5593078668,6451,5,0,11839.3758595686,44910.3240855473,36878.6951020534,47265.9415196816,48200.3354618058,47764.5250646985,51100.0436270747,67181.8086609302,50540.6702687304,7700.3025990052
5593078668,6451,5,0,11827.2446658361,44898.9107859274,36864.2398782277,47252.6178916605,48192.4021234772,47746.9427427893,51088.6181597580,67170.7482245182,50531.1064590276,7691.7365404418
5593078668,6451,5,0,11827.7800444963,44897.9495378784,36864.2398782277,47253.5913074063,48192.4872973550,47767.3723057550,51088.7033336357,67173.6563040589,50527.0546159856,7693.0141486083
5593078668,6451,5,0,11836.0297429422,44905.6151868768,36871.9663657103,47261.8775089427,48200.0069339915,47765.8148405617,51093.9111078760,67181.3097853605,50532.0555393798,7695.8735573616
5593078668,6451,5,0,11834.0099052696,44902.9504612726,36867.6103302477,47255.5016358075,48197.0258482699,47756.0076769224,51089.0561968436,67176.2115203917,50528.3443918488,7690.0695659771
5593078668,6451,5,0,11833.3163465507,44901.0036297809,36866.7464237733,47255.1487725996,48197.5612269301,47763.1987857448,51089.0805322373,67175.7126448219,50523.8058409338,7689.1083179281
5593078668,6451,5,0,11835.9445690645,44904.3862494977,36868.0118642428,47257.2416164532,48199.6297353900,47760.1203584485,51094.1544618124,67178.8397429054,50526.7260881713,7689.7775412534
5593133392,6452,5,0,11830.0432361054,44900.2127294874,36860.2853767603,47249.0162534009,48194.4341288466,47747.1009228480,51089.0440291468,67171.9406588068,50527.7968454918,7688.3904238155
5593133392,6452,5,0,11823.5578536987,44895.8810294185,36858.3628806623,47246.6922233077,48190.7594844061,47766.0460268013,51087.8394271613,67174.8730737412,50530.0843724945,7693.1844963638
5593133392,6452,5,0,11834.5209485362,44907.8540430923,36874.7284328891,47263.2159555932,48204.2169570923,47787.8505395080,51099.8489439256,67190.6910796110,50544.1015592345,7708.9538314463
5593133392,6452,5,0,11838.0860837053,44913.6215313863,36875.9208671778,47265.1141162976,48208.0497815915,47768.3335538040,51103.6574330311,67192.2850478948,50550.7937924871,7711.4847123855
5593133392,6452,5,0,11828.9724787849,44905.1041436103,36862.8770961836,47253.8346613428,48197.9749286221,47757.2487819983,51094.6533373822,67181.5288039033,50542.3859139825,7704.8776530106
5593133392,6452,5,0,11832.0387383843,44903.9725478057,36864.6657476165,47255.8423313185,48199.8122508424,47775.9992028025,51097.9021124339,67186.5905657816,50542.8726218554,7707.0069999546
5593133392,6452,5,0,11837.6115435292,44908.6936141730,36871.1024592359,47261.7314965808,48202.9150135322,47769.5989942736,51100.8953658523,67190.5572349459,50546.6202724769,7706.8853229864
5593133392,6452,5,0,11832.4159369858,44905.1163113071,36866.7099206828,47256.4142130692,48198.4981395855,47756.8837510937,51095.8701070645,67183.2079460649,50542.3250754984,7701.7018841398
5593140899,6453,5,0,11828.4857709120,44903.1573121186,36867.0749515875,47254.8567478759,48196.2957864606,47763.1257795638,51092.0129471716,67178.6450597563,50537.9812077326,7699.8523942227
5593140899,6453,5,0,11830.2135838609,44907.2699936447,36870.5062420916,47256.8522501548,48199.3498783631,47758.1248561696,51093.9719463601,67178.3895381230,50540.0497161925,7696.4089360219
5593140899,6453,5,0,11821.6353576007,44900.5169219080,36860.9302646919,47247.9454960805,48195.5413892575,47748.7678973127,51087.1823715329,67169.5071194422,50533.7955200255,7688.0862313950
5593140899,6453,5,0,11821.7083637816,44901.9040393458,36867.0627838907,47250.8049048338,48199.6662384805,47779.8563626954,51088.7641721199,67175.8708248806,50536.8739473217,7693.3670118161
5593140899,6453,5,0,11838.7309716369,44916.8946418317,36885.7767016044,47269.7621764840,48216.0804614947,47798.2052495044,51103.6209299407,67193.7938423008,50550.0150598905,7706.2160996611
5593140899,6453,5,0,11845.6422234324,44922.9054840622,36886.5676018978,47272.5729144501,48218.8425286735,47768.2483799263,51106.1396431830,67193.4044760025,50553.1908287612,7703.0159953967
5593140899,6453,5,0,11835.0806625901,44909.2168251364,36868.4133982380,47257.8378335975,48204.5454849065,47749.9603316014,51093.9232755728,67177.5499670422,50538.3462386372,7691.6513665641
5593140899,6453,5,0,11835.6160412503,44904.7999511897,36863.7653380516,47258.6652369815,48203.0245228036,47767.5548212074,51094.8966913186,67176.3818681472,50533.3209798494,7690.8361308769
5593173354,6454,5,0,11841.8580697204,44909.6548622220,36869.4841555584,47263.5566511043,48208.4148124962,47765.2307911142,51100.9075335492,67180.7500713066,50540.3052378257,7694.8758062222
5593173354,6454,5,0,11838.3051022481,44907.2578259479,36868.6324167808,47260.0888575097,48206.6383287601,47766.6787470361,51098.3158141259,67178.6572274531,50540.9379580605,7694.5229430143
5593173354,6454,5,0,11847.3091978971,44915.5805305748,36881.5423431100,47269.3971455793,48213.9997853379,47789.9433833616,51105.1175566499,67190.2408748285,50547.7640359782,7705.5712117295
5593173354,6454,5,0,11855.9847657319,44919.3768519836,36887.2124898295,47273.7896841324,48217.9664545022,47768.9419386452,51108.9747165428,67194.1588732055,50552.0348975631,7707.6153847958
5593173354,6454,5,0,11843.2573548551,44906.6737765004,36869.9951988250,47257.6309827515,48204.4238079383,47740.2018387494,51094.5194927171,67177.1727684407,50535.8031900013,7696.6036191710
5593173354,6454,5,0,11836.0175752454,44898.5822581132,36864.6779153134,47251.5836374305,48197.0623513604,47764.9996048746,51086.7808375377,67173.9848318731,50528.0523671250,7696.7617992297
5593173354,6454,5,0,11848.4164583080,44911.7720414692,36880.9582936625,47267.3529725130,48207.6117445059,47788.4467566524,51096.2473056660,67186.9799320800,50539.8185299528,7707.3963662530
5593173354,6454,5,0,11854.7923314432,44917.1623311618,36882.5400942494,47267.4746494813,48209.4368990293,47772.4462353302,51096.1621317882,67186.6514042658,50544.5152609265,7709.7447317398
5593205332,6455,5,0,11854.3299589640,44910.4944333028,36874.6675944050,47261.5976519158,48204.0344416399,47771.0956209828,51089.3725569610,67181.5288039033,50541.2178150875,7709.1971853828
5593205332,6455,5,0,11860.7058320992,44912.7941280024,36877.6486801266,47264.4083898819,48206.4071425204,47776.7170969150,51091.1125376067,67185.9091747596,50542.5684294348,7713.1395191534
5593205332,6455,5,0,11859.4768947201,44913.6823698704,36873.6090047814,47262.4007199061,48205.8595961634,47758.8427502821,51089.1535384182,67183.1106044903,50542.6049325253,7710.3409488841
5593205332,6455,5,0,11851.2271962741,44908.4989310239,36867.0992869811,47256.5358900374,48201.0411882215,47762.2253699989,51083.8119195129,67179.1074322355,50537.5553383438,7708.5644651480
5593205332,6455,5,0,11854.5854805972,44915.5318597875,36874.7040974955,47267.1339539702,48206.4193102172,47783.4580009550,51093.5095738808,67188.0506894004,50542.7752802808,7713.8695809628
5593205332,6455,5,0,11853.8189156974,44918.4277716314,36874.7649359796,47269.1051208556,48205.9569377380,47764.1478660969,51095.4442376756,67188.5739003638,50543.6391867552,7706.6906398372
5593205332,6455,5,0,11834.2410915093,44905.2744913658,36856.6837385007,47252.6908978414,48193.1443529834,47742.0391609697,51083.4347209114,67175.1650984649,50531.3619806609,7688.3052499378
5593205332,6455,5,0,11822.4262578942,44895.8201909344,36849.0424248959,47246.7408940950,48186.3426104594,47756.6282294604,51078.1296050966,67170.9550753642,50522.1510341659,7679.9338745236
5593256030,6456,5,0,11825.3951759190,44902.4150826124,36856.3187075960,47255.8179959249,48191.5747200933,47762.1158607275,51083.8362549066,67177.4769608613,50525.0834491002,7680.9437933599
5593256030,6456,5,0,11828.4371001247,44905.6516899673,36855.0897702169,47256.5602254311,48195.3710415020,47753.1604358658,51087.8150917677,67177.4039546803,50528.0523671250,7680.7734456044
5593256030,6456,5,0,11832.1847507462,44905.1163113071,36854.1650252583,47258.7625785560,48198.0479348031,47764.8049217254,51090.2729665259,67178.4990473944,50528.4173980297,7686.7234493508
5593256030,6456,5,0,11844.1699321168,44915.0816550051,36864.4953998610,47270.3340582347,48207.5509060218,47777.1307986070,51101.7592723268,67190.8249242760,50537.5431706469,7697.3093455868
5593256030,6456,5,0,11847.8689119510,44918.4521070250,36864.9821077339,47271.3561447678,48210.6658364085,47763.2596242289,51104.7038549579,67189.6811607747,50542.1425600460,7698.2949290294
5593256030,6456,5,0,11838.9743255734,44914.5827794353,36861.5873203203,47267.7301711146,48206.4923163982,47777.4593264212,51100.8953658523,67190.1435332540,50542.0208830778,7700.6067914258
5593256030,6456,5,0,11847.6012226209,44928.3201091484,36877.9650402440,47280.5670912628,48220.0227952653,47799.5071930644,51110.0941446505,67204.5744216860,50552.4972700423,7714.0034256278
5593256030,6456,5,0,11852.4561336532,44934.0754297457,36880.0092133103,47283.2074814733,48224.5613461802,47771.5944965526,51111.9314668707,67203.8565275734,50554.8091324387,7712.7014820678
5593272285,6457,5,0,11839.2663502971,44917.0893249809,36859.3971348922,47265.5034825960,48209.2543835770,47743.0004090187,51096.0526225168,67183.9258401774,50536.9712888963,7696.0560728140
5593272285,6457,5,0,11830.5177762815,44907.8905461827,36851.6341443192,47257.4606349960,48200.4693064708,47761.7751652165,51088.9101844817,67177.1849361375,50524.1952072322,7689.1934918059
5593272285,6457,5,0,11839.1933441162,44915.0573196114,36861.4899787458,47265.6859980483,48207.0885335425,47769.1974602785,51096.6731750548,67183.0497660062,50528.3930626361,7692.1502421338
5593272285,6457,5,0,11840.9089893682,44914.7044564036,36860.7112461491,47263.9825204931,48206.8086765156,47760.7652463802,51093.6312508490,67179.7888232576,50529.7680123771,7689.5828581042
5593272285,6457,5,0,11840.9454924587,44914.1812454402,36863.8748473231,47264.7977561802,48208.1592908629,47777.9582019910,51092.6091643159,67181.5044685097,50532.0920424703,7692.7464592782
5593272285,6457,5,0,11848.5746383667,44921.6035405022,36874.1565511384,47273.3394793499,48215.3260642916,47779.7955242113,51099.1310498130,67188.9876020558,50541.2543181779,7699.2561770784
5593272285,6457,5,0,11844.5592984151,44918.5859516901,36868.9366092014,47265.9050165911,48212.6005002033,47759.5484766979,51095.0792067710,67183.7919955124,50537.3971582851,7695.8978927553
5593272285,6457,5,0,11836.9423202040,44912.6846187310,36864.3493874991,47259.4439695781,48208.2201293470,47768.8080939801,51091.5019039050,67181.7113193557,50532.6639242209,7694.8879739190
5593293781,6458,5,0,11842.9044916472,44923.5138689034,36875.2029730652,47268.9347731000,48217.1633865119,47787.7897010239,51097.8412739498,67192.4432279535,50538.9302880848,7703.3445232109
5593293781,6458,5,0,11844.0847582390,44928.2471029675,36874.8987806446,47269.6648349094,48217.7352682626,47767.4209765423,51098.4739941846,67189.8515085302,50542.8482864617,7699.8280588291
5593293781,6458,5,0,11833.3528496412,44918.5372809028,36861.7089972886,47256.9860948199,48209.2057127897,47757.7719929617,51090.1634572545,67180.7135682162,50535.6450099426,7692.1015713465
5593293781,6458,5,0,11835.2753457392,44921.5792051085,36866.1015358416,47261.2447887079,48213.0263695921,47782.2412312727,51094.1422941156,67186.4202180261,50536.4115748424,7697.9664012152
5593293781,6458,5,0,11846.1045959116,44930.0722574909,36876.7726059554,47270.7720953203,48221.3612419158,47780.9757908031,51099.6907638669,67192.0660293520,50543.3593297283,7704.1840942917
5593293781,6458,5,0,11847.8445765573,44927.8942397596,36874.5702528304,47267.8275126891,48220.1079691430,47772.0568690319,51098.3401495195,67188.0750247940,50542.4710878602,7702.9551569126
5593293781,6458,5,0,11848.4772967921,44926.1664268108,36874.5215820431,47268.0952020192,48217.2363926928,47781.6085110379,51096.3081441501,67188.2332048527,50541.4124982366,7706.6298013531
5593293781,6458,5,0,11852.9428415261,44930.5589653639,36878.9992944740,47271.9888650026,48219.7794413288,47773.2493033205,51099.9584531970,67189.0727759335,50544.1623977186,7706.7758137150
5593326460,6459,5,0,11845.6665588260,44922.5404531575,36866.4543990495,47259.9306774510,48210.5806625307,47754.6935656655,51090.4798173719,67175.6274709442,50536.1803886028,7697.2971778899
5593326460,6459,5,0,11840.5926292509,44916.6269525016,36860.1028613079,47253.9685060078,48207.8794338360,47773.3953156824,51085.4910616745,67172.3665281956,50529.1352921423,7696.9686500757
5593326460,6459,5,0,11851.9572580835,44927.6630535200,36875.1664699747,47267.4138109972,48217.6135912944,47795.5648592938,51095.6632562185,67185.9213424564,50537.8473630675,7708.1020926687
5593326460,6459,5,0,11859.1118638154,44935.2678640343,36879.2304807136,47270.8451015012,48222.3346576616,47774.3200606409,51100.0071239843,67187.0651059578,50543.6878575425,7705.8023979692
5593326460,6459,5,0,11848.7936569095,44925.2781849427,36866.5882437146,47258.1663614117,48211.1768796750,47760.9842649230,51090.6014943401,67174.9095768316,50534.2092217175,7697.7838857628
5593326460,6459,5,0,11844.7174784738,44921.5913728053,36865.7851757243,47255.0879341155,48208.5851602517,47780.3917413556,51087.7420855867,67174.7027259856,50530.6927573356,7699.2075062911
5593326460,6459,5,0,11850.6796499171,44928.9649970801,36873.4994955100,47262.3277137252,48214.7298471473,47784.3097397326,51090.2364634354,67182.3805426809,50539.0397973562,7707.5302109180
5593326460,6459,5,0,11850.1807743473,44927.6508858232,36871.5039932310,47259.5291434559,48211.7974322130,47776.6562584309,51086.2941296648,67180.7865743971,50537.5675060406,7707.1773477102
5593379775,6460,5,0,11851.5435563915,44927.7603950946,36872.6355890356,47262.6440738426,48211.3350597337,47784.9911307546,51088.2287934596,67181.1394376050,50537.0199596836,7708.4792912702
5593379775,6460,5,0,11854.6706544750,44927.6873889136,36872.0150364976,47266.3065505863,48211.4445690051,47766.8125917012,51090.3703081005,67181.3097853605,50537.6648476152,7702.3102689810
5593379775,6460,5,0,11843.3668641265,44916.2010831128,36856.7932477721,47252.5448854795,48205.4337267746,47747.5511276305,51078.3851267299,67168.0834989140,50530.5589126706,7690.1547398549
5593379775,6460,5,0,11832.2212538367,44908.7787880508,36852.1573552826,47245.0130811461,48200.3841325931,47765.6566605030,51072.3377814089,67164.9807362241,50525.5458215795,7688.3174176346
5593379775,6460,5,0,11842.6976408012,44921.9199006196,36867.7928457000,47260.2713729621,48212.8560218366,47785.4291678403,51083.4590563051,67180.1538541623,50535.1217989792,7698.3679352104
5593379775,6460,5,0,11848.1366012811,44928.0037490310,36872.1002103754,47264.2258744295,48217.8691129276,47768.1753737453,51087.1702038361,67184.8749205296,50540.8527841828,7699.6455433768
5593379775,6460,5,0,11837.6602143165,44919.4985289518,36859.6404888287,47253.2992826826,48210.6536687116,47761.0207680134,51077.7767418887,67173.9726641763,50530.2303848563,7692.0285651656
5593379775,6460,5,0,11835.3605196170,44915.6170336653,36857.1461109800,47255.2582818710,48208.1836262566,47764.4398908207,51080.6483183390,67175.3476139173,50525.4849830954,7689.5341873169
5593393190,6461,5,0,11829.0089818754,44910.5066009997,36850.7824055416,47251.0239233767,48204.2291247891,47749.6318037872,51076.9736738984,67167.6332941315,50517.4786385859,7681.5035074138
5593393190,6461,5,0,11821.8422084467,44905.4326714245,36845.7814821473,47246.3636954935,48200.1894494439,47755.0829319639,51072.1430982597,67165.7594688208,50516.4443843560,7677.0744657702
5593393190,6461,5,0,11829.9945653181,44914.0352330783,36857.8153343052,47257.2902872405,48211.0673704036,47777.2281401816,51081.2080323928,67177.6229732231,50523.8666794180,7686.8694617127
5593393190,6461,5,0,11843.2573548551,44923.7328874462,36868.6445844776,47268.4358975303,48222.0426329379,47764.3790523366,51090.4433142814,67185.1669452534,50533.6495076636,7694.9609800999
5593393190,6461,5,0,11834.8859794409,44913.1834943007,36854.9315901582,47254.4552138807,48210.5076563497,47739.5569508178,51081.9015911117,67170.0790011929,50525.0591137066,7689.3760072582
5593393190,6461,5,0,11825.7845422173,44904.9702989452,36850.0158406417,47249.5151289706,48200.5788157422,47759.7188244534,51073.6032218785,67165.4309410066,50516.2862042973,7691.6757019577
5593393190,6461,5,0,11835.2631780424,44914.1690777434,36866.0285296607,47261.6219873094,48208.1471231661,47776.0965443771,51082.3639635910,67176.8685760201,50523.3434684546,7700.2660959147
5593393190,6461,5,0,11836.9423202040,44916.0550707509,36866.8072622574,47261.3056271920,48207.5752414154,47758.8670856758,51082.3639635910,67175.0434214967,50525.1929583716,7697.2363394058
5593424356,6462,5,0,11831.5398628146,44910.7499549361,36861.2344571125,47258.4948892259,48203.8519261876,47758.0761853823,51079.6140641090,67171.3687770562,50520.9829352709,7694.0484028382
5593424356,6462,5,0,11832.9878187365,44911.9545569216,36864.2520459246,47264.1772036423,48207.7699245646,47761.0694388007,51085.1016953762,67175.8343217902,50521.5548170216,7692.2597514052
5593424356,6462,5,0,11826.2834177871,44906.3574163830,36855.7711612390,47257.4362996023,48198.9726797616,47736.8435544263,51081.1715293023,67168.2903497599,50518.7684144491,7682.1727307390
5593424356,6462,5,0,11814.3225718101,44895.3821538487,36845.5624636045,47247.0937573028,48188.0339203178,47743.0369121091,51071.5955519027,67159.7972973775,50512.7332368250,7673.5823367820
5593424356,6462,5,0,11819.2261536298,44900.5047542112,36855.2479502756,47256.4750515533,48194.2516133943,47773.6386696188,51078.4337975172,67170.3466905230,50522.3943881024,7681.7833644407
5593424356,6462,5,0,11830.1405776799,44913.2808358753,36867.9266903651,47266.2457121022,48204.8983481144,47767.5669889042,51090.0539479831,67182.0763502603,50538.4192448182,7691.9312235910
5593424356,6462,5,0,11824.3122509018,44908.7301172635,36859.9690166429,47258.3002060768,48200.6274865295,47747.7579784764,51086.5739866917,67174.8852414380,50537.7621891898,7688.4999330869
5593424356,6462,5,0,11820.8322896104,44904.0698893803,36858.4358868432,47256.0491821645,48198.4494687982,47766.4110577060,51085.4910616745,67173.5832978779,50535.1583020696,7689.8627151311
5593479817,6463,5,0,11829.9337268340,44912.4169294009,36868.8757707173,47266.3795567672,48206.0907824030,47772.3732291493,51093.8259339982,67182.7577412824,50538.9302880848,7694.6932907698
5593479817,6463,5,0,11833.6813774554,44915.9577291763,36868.8392676268,47268.0465312320,48208.9745265501,47759.8405014216,51096.2959764533,67183.5608092727,50540.5850948527,7691.3593418403
5593479817,6463,5,0,11833.2920111571,44913.4025128435,36865.3958094259,47265.2114578722,48208.2444647407,47766.7760886107,51093.0958721888,67179.5941401085,50536.6305933852,7689.2299948963
5593479817,6463,5,0,11842.5029576521,44922.7838070940,36875.0204576129,47273.3516470468,48214.7055117537,47773.4926572570,51099.2162236908,67186.4080503293,50543.3958328188,7696.1412466918
5593479817,6463,5,0,11842.0040820823,44922.2240930401,36869.6058325267,47268.5940775890,48210.5198240466,47750.6538903203,51094.8966913186,67177.7689855850,50540.9622934542,7692.6247823099
5593479817,6463,5,0,11831.6007012987,44913.1226558166,36860.9911031760,47259.8941743606,48203.9736031558,47756.9689249714,51085.0895276793,67169.4097778677,50529.0257828709,7687.3318341919
5593479817,6463,5,0,11841.6025480872,44924.2926015000,36875.1056314906,47272.9501130516,48212.8195187461,47786.0983911655,51093.3513938221,67181.3341207541,50534.5012464412,7696.3967683250
5593479817,6463,5,0,11848.9396692714,44933.6860634474,36882.7226097018,47278.9731229790,48217.6622620816,47770.4020622639,51096.7340135389,67185.5076407644,50540.5729271559,7697.1146624376
5593517450,6464,5,0,11840.4709522826,44926.0934206298,36870.6644221503,47264.2867129137,48208.9988619437,47752.4060386628,51085.2963785253,67172.5490436480,50532.0920424703,7688.6702808425
5593517450,6464,5,0,11836.3947738469,44922.3701054020,36868.2917212698,47258.9085909179,48204.7523357525,47767.7860074470,51081.7312433562,67169.9694919215,50530.3520618246,7687.1249833460
5593517450,6464,5,0,11842.0527528696,44926.9329917106,36874.9717868256,47262.0721920919,48209.5220729071,47768.2483799263,51084.7123290778,67173.5589624843,50534.0753770524,7689.1691564122
5593517450,6464,5,0,11838.1104190990,44922.9541548495,36869.6180002235,47255.2096110838,48203.3773860115,47746.0058301339,51076.8276615365,67164.4818606544,50532.0190362893,7682.7324447929
5593517450,6464,5,0,11833.4380235190,44916.8703064380,36864.3372198023,47248.5295455280,48194.9573398100,47751.6394737630,51068.7118077556,67155.5629388831,50522.5160650706,7682.0632214676
5593517450,6464,5,0,11837.7940589816,44921.8225590450,36868.7054229618,47255.8179959249,48196.2106125828,47754.1216839148,51075.5135502797,67157.3029195288,50526.5070696285,7689.2178271995
5593517450,6464,5,0,11831.3573473622,44914.7774625845,36859.1659486526,47250.8292402275,48189.6278886016,47735.2009153552,51071.7172288709,67149.8197859827,50522.1632018627,7686.6869462603
5593517450,6464,5,0,11825.9792253665,44907.6715276399,36852.7170693364,47248.3470300756,48185.9775795547,47747.6241338114,51068.4441184255,67147.8607867942,50515.7751610307,7688.9136347789
5593522048,6465,5,0,11841.2861879698,44918.4277716314,36868.6445844776,47265.5156502928,48199.8122508424,47773.1032909586,51080.9281753659,67162.6323707373,50525.3633061272,7703.1741754554
5593522048,6465,5,0,11852.0911027485,44926.3367745663,36875.2151407620,47273.9235287974,48207.4657321440,47757.0175957587,51088.7155013326,67168.0591635203,50533.6738430572,7705.8145656660
5593522048,6465,5,0,11839.3150210844,44912.9279726674,36862.9257669709,47259.7846650892,48193.3512038294,47740.4451926859,51078.8353315123,67156.9743917146,50525.0712814034,7695.0583216745
5593522048,6465,5,0,11830.3109254355,44902.3420764315,36858.6914084765,47253.5183012254,48186.1722627039,47754.6692302719,51076.7059845683,67156.9622240178,50521.9685187136,7691.6513665641
5593522048,6465,5,0,11830.2379192545,44904.3984171945,36863.6801641739,47258.3245414704,48191.4652108218,47756.5795586731,51082.4004666815,67164.2871775052,50527.8941870663,7691.2011617816
5593522048,6465,5,0,11829.5808636261,44904.3619141041,36860.8937616014,47257.8986720816,48191.7207324551,47750.7025611076,51082.3882989846,67164.4210221703,50529.2691368073,7689.8140443438
5593522048,6465,5,0,11834.6061224140,44909.9347192490,36866.3570574749,47264.3962221851,48197.9262578348,47765.9730206204,51085.9534341538,67169.1907593248,50532.7004273114,7696.8834761980
5593522048,6465,5,0,11843.5615472756,44919.8270567660,36874.4972466495,47273.0474546262,48205.8352607697,47757.7233221744,51094.9088590154,67175.1285953744,50538.2732324563,7700.6797976067
5593547631,6466,5,0,11834.8981471377,44913.6093636895,36862.4755621884,47260.8310870159,48197.6707362015,47731.6601155797,51084.7609998651,67162.9243954610,50530.9604466657,7694.7541292539
5593547631,6466,5,0,11823.9958907844,44906.5399318354,36855.1384410042,47253.3601211667,48190.9785029489,47746.8332335179,51078.5433067886,67157.0595655924,50524.2073749290,7694.8149677381
5593547631,6466,5,0,11833.7787190300,44914.9599780368,36869.6423356171,47265.2844640531,48202.0389393610,47766.2042068600,51086.6226574790,67171.2714354816,50531.8243531402,7703.0890015777
5593547631,6466,5,0,11840.1667598620,44919.3403488931,36872.2705581309,47269.1902947333,48205.9204346475,47748.6827234350,51091.1733760908,67174.0700057509,50536.1073824218,7700.6554622131
5593547631,6466,5,0,11832.4402723795,44909.2654959237,36859.4458056795,47258.7017400719,48199.6419030869,47742.7448873854,51084.7731675619,67164.0316558719,50529.3421429883,7692.3692606766
5593547631,6466,5,0,11830.8584717925,44908.1582355128,36859.5796503446,47260.0280190256,48198.5589780696,47756.5673909762,51085.2598754349,67165.5769533684,50530.6927573356,7693.3061733320
5593547631,6466,5,0,11832.3307631081,44911.2366628090,36862.6337422471,47260.5025592017,48200.6031511359,47751.1892689805,51085.7222479141,67167.1587539554,50531.3741483577,7692.0163974688
5593547631,6466,5,0,11827.2933366234,44911.0419796599,36859.0321039875,47255.8179959249,48198.0722701967,47752.4790448437,51081.9259265054,67163.5084449085,50529.8410185580,7690.1060690676
5593578708,6467,5,0,11831.3816827559,44918.5372809028,36867.2452993430,47262.5223968743,48204.9835219921,47779.2358101574,51087.2310423202,67171.5147894180,50533.1749674875,7699.3778540467
5593578708,6467,5,0,11839.8869028351,44931.9947535890,36878.8411144153,47272.4999082692,48216.5428339739,47774.9406131789,51095.4442376756,67180.9325867590,50543.5905159679,7703.4296970887
5593578708,6467,5,0,11833.1703341889,44926.7261408646,36867.7563426096,47262.3885522093,48213.3792328000,47749.8143192395,51091.3193884527,67172.6220498289,50539.3804928672,7694.8393031317
5593578708,6467,5,0,11825.3465051317,44918.4764424187,36859.6039857382,47255.0757664187,48207.4657321440,47759.7918306343,51082.7411621925,67164.5426991385,50530.7779312134,7690.5684415468
5593578708,6467,5,0,11834.2167561156,44925.6310481506,36869.8735218568,47265.7955073197,48214.3283131522,47775.9992028025,51088.9223521786,67172.0988388655,50532.9924520352,7694.1214090191
5593578708,6467,5,0,11840.0450828938,44931.9217474080,36872.5747505515,47268.9591084937,48218.2463115291,47769.7450066355,51092.9011890397,67173.5346270906,50539.5995114100,7693.4886887844
5593578708,6467,5,0,11843.2816902487,44934.3552867726,36873.3048123608,47271.3561447678,48220.4364969573,47778.7247668908,51095.3712314947,67176.6982282646,50543.0429696109,7696.6766253520
5593578708,6467,5,0,11852.3344566850,44941.7045756537,36880.7392751197,47280.8469482897,48229.5866049681,47786.8284529749,51103.7426069089,67185.5806469454,50548.5306008781,7704.4274482282
5593613404,6468,5,0,11857.3962185633,44945.5252324561,36881.1164737212,47282.1123887593,48235.2445839908,47773.6386696188,51107.1617297161,67188.2575402464,50551.6698666584,7704.9628268884
5593613404,6468,5,0,11851.4827179074,44939.4535517414,36872.3678997055,47275.5053293844,48228.0778105621,47769.1487894912,51101.5280860871,67182.8064120697,50546.3039123595,7702.7239706730
5593613404,6468,5,0,11853.7337418196,44940.0862719762,36874.6189236177,47279.9587064216,48229.1485678825,47784.5044228817,51102.6961849821,67185.3737960994,50541.9843799873,7706.8123168055
5593613404,6468,5,0,11859.9392671993,44942.2764574044,36875.7261840286,47282.7207736004,48229.9273004792,47766.5449023711,51105.4582521609,67184.0475171457,50539.4656667450,7703.0038276999
5593613404,6468,5,0,11850.1442712569,44929.3421956816,36858.1681975131,47267.3286371194,48216.1291322819,47734.6777043918,51093.7042570300,67168.8622315106,50528.8676028122,7688.8892993853
5593613404,6468,5,0,11836.3947738469,44915.1181580955,36847.5823012771,47256.8157470644,48205.4823975619,47751.4082875233,51084.3351304763,67164.4453575639,50522.0171895009,7685.2024872479
5593613404,6468,5,0,11843.2208517646,44920.9099817833,36861.2222894157,47265.1384516913,48213.7807667951,47775.0257870567,51092.2076303208,67178.0123395215,50534.6350911063,7695.7275449998
5593613404,6468,5,0,11843.8535719994,44923.7815582335,36864.0451950786,47264.0433589772,48214.0119530348,47759.5484766979,51090.9056867607,67180.6283943384,50540.8892872732,7697.4431902518
5593646193,6469,5,0,11836.5894569961,44917.2718404332,36856.5498938356,47256.2925361010,48205.4823975619,47755.0220934797,51084.8096706524,67171.7581433545,50532.9681166415,7696.2264205695
5593646193,6469,5,0,11840.7994800968,44920.1799199739,36858.8860916256,47261.6098196126,48208.1106200756,47763.9653506446,51088.6303274548,67175.2137692522,50529.1961306264,7698.5991214500
5593646193,6469,5,0,11847.1388501416,44923.5990427811,36858.0586882417,47261.5976519158,48209.8140976308,47749.1572636111,51089.4212277483,67173.9848318731,50529.2448014137,7699.1710032007
5593646193,6469,5,0,11843.5007087915,44914.1934131370,36848.4097046611,47254.1996922474,48202.4283056593,47748.9260773714,51079.4315486567,67164.1898359306,50518.9022591142,7696.1777497822
5593646193,6469,5,0,11848.0879304938,44917.4421881887,36855.7833289358,47259.8698389669,48207.9159369265,47769.6720004546,51083.7267456352,67170.8455660928,50521.6764939898,7702.8091445507
5593646193,6469,5,0,11852.7238229833,44926.3002714758,36865.0064431276,47267.9978604447,48213.1358788635,47763.1014441702,51090.4798173719,67176.9415822011,50533.9171969937,7705.9240749374
5593646193,6469,5,0,11844.1212613295,44921.2020065070,36857.2799556450,47259.3709633972,48207.2832166917,47748.7557296159,51085.1990369507,67169.4341132613,50535.8275253949,7700.7528037876
5593646193,6469,5,0,11840.0450828938,44918.2695915727,36858.7400792638,47256.8035793676,48206.5774902759,47774.2835575505,51085.1260307698,67172.5368759511,50539.5508406227,7707.5788817053
5593675958,6470,5,0,11845.2893602245,44924.3656076810,36872.0637072849,47262.9726016568,48212.2354692986,47779.6373441526,51089.1048676309,67180.2876988274,50546.2309061785,7718.2621195159
5593675958,6470,5,0,11844.2186029041,44922.1997576465,36871.7108440770,47259.1519448544,48210.7510102862,47764.4398908207,51087.6569117090,67177.6473086168,50548.4089239098,7716.7533251098
5593675958,6470,5,0,11840.9089893682,44918.0627407267,36868.1700443016,47253.3357857730,48208.0254461979,47770.8766024400,51083.1183607940,67173.4007824256,50543.3349943347,7712.9813390947
5593675958,6470,5,0,11846.3236144545,44922.0415775878,36875.4949977890,47257.8621689912,48210.2764701101,47774.5877499710,51088.4113089120,67176.8199052328,50545.0384718899,7712.1782711044
5593675958,6470,5,0,11844.5106276278,44920.9464848737,36872.1610488595,47253.0559287461,48207.4657321440,47755.3384535971,51086.2576265743,67172.5125405575,50542.9699634300,7707.3111923752
5593675958,6470,5,0,11834.6182901108,44913.9622268974,36864.5440706483,47245.0009134493,48199.8000831456,47765.4376419602,51080.1372750724,67166.3435182683,50536.7887734439,7706.6419690500
5593675958,6470,5,0,11838.8039778179,44920.4476093040,36873.9983710797,47254.5282200617,48205.8109253761,47788.5927690142,51084.4689751414,67174.9947507094,50539.9523746179,7715.8164124545
5593675958,6470,5,0,11845.4718756768,44929.3421956816,36880.7636105133,47259.8941743606,48211.9556122717,47773.2858064110,51089.4820662324,67178.1583518834,50545.4156704914,7718.2742872127
5593700377,6471,5,0,11838.0252452212,44923.8667321112,36867.5859948541,47249.4664581833,48206.3098009458,47755.7764906828,51079.8817534391,67164.1411651433,50538.3827417277,7708.3211112115
5593700377,6471,5,0,11840.0085798033,44926.5314577155,36868.7905968395,47251.5349666432,48211.2012150687,47778.6152576194,51082.3761312878,67169.3854424740,50539.1128035371,7713.5288854517
5593700377,6471,5,0,11850.4119605870,44939.7212410715,36880.9704613593,47264.6882469088,48224.0624706105,47790.5639358996,51093.4122323062,67181.3827915414,50548.4210916066,7723.7497507830
5593700377,6471,5,0,11854.1352758148,44948.5549889650,36886.7501173502,47271.1371262250,48231.6429457312,47784.1637273707,51099.1310498130,67187.2232860165,50556.6829577494,7729.1522081724
5593700377,6471,5,0,11854.2326173894,44952.3513103737,36890.6316126367,47275.3836524162,48234.3076713354,47793.9952264036,51103.2315636423,67192.0660293520,50557.0358209573,7732.9485295812
5593700377,6471,5,0,11861.0465276102,44957.5225815235,36895.8515545737,47282.1610595466,48235.9503104065,47783.0321315661,51110.2158216187,67196.0692016067,50559.0799940235,7731.9386107448
5593700377,6471,5,0,11851.0568485186,44943.7974195072,36877.2714815251,47268.5332391049,48224.5978492707,47748.0013324129,51100.3843225858,67180.8109097908,50549.2849980811,7717.3130391637
5593700377,6471,5,0,11839.1690087226,44928.0037490310,36862.4755621884,47255.8544990154,48214.2066361839,47754.2555285799,51091.9886117779,67170.5413736722,50537.8351953707,7709.1606822923
5593740290,6472,5,0,11845.3136956182,44931.4837103224,36868.4985721158,47264.7855884834,48220.0714660526,47778.3110651988,51097.3545660769,67177.2701100153,50541.5706782953,7714.7334874372
5593740290,6472,5,0,11854.2691204798,44938.2367820591,36874.4364081654,47271.2101324059,48225.4617557451,47766.7030824298,51102.3676571679,67182.9159213411,50549.3458365652,7717.3130391637
5593740290,6472,5,0,11853.1253569785,44932.9803370316,36868.7540937490,47264.2623775200,48222.2859868744,47761.1911157690,51099.7516023510,67177.7081471009,50544.2719069900,7714.6239781658
5593740290,6472,5,0,11857.9924357077,44936.0465966310,36873.2439738767,47268.8495992223,48226.2891591291,47776.7170969150,51102.8178619504,67182.3562072873,50543.4931743934,7719.1990321712
5593740290,6472,5,0,11861.3142169403,44939.4413840446,36878.2692326646,47273.1204608071,48228.8930462492,47763.7950028891,51104.8011965325,67185.1426098597,50544.0042176599,7718.7001566015
5593740290,6472,5,0,11851.5922271788,44934.7811561614,36870.5184097884,47263.1794525028,48221.4220803999,47755.1559381448,51095.8336039740,67176.6252220837,50538.3219032436,7715.2323630069
5593740290,6472,5,0,11849.7427372617,44934.1727713203,36871.7960179548,47263.9946881899,48219.5725904828,47773.3223095014,51094.3856480521,67176.4427066313,50535.4381590966,7718.6149827237
5593740290,6472,5,0,11856.2159519715,44940.3296259127,36881.2259829926,47269.5309902444,48223.7339427963,47779.1263008860,51097.6952615879,67181.6018100842,50541.0109642415,7722.4234718293
5593768393,6473,5,0,11854.6949898686,44938.2732851496,36875.3003146398,47261.4881426444,48218.6843486148,47761.3492958277,51092.1711272303,67174.5323782301,50540.6581010336,7717.2035298923
5593768393,6473,5,0,11851.1541900932,44932.4814614619,36872.7694337006,47257.2416164532,48217.5284174166,47779.2601455510,51088.8615136944,67173.2791054574,50539.5873437132,7719.0773552030
5593768393,6473,5,0,11863.2123776447,44943.2742085438,36886.4824280201,47270.2123812664,48228.6983631000,47801.5148630402,51099.9706208938,67187.4423045593,50550.4165938856,7731.6709214147
5593768393,6473,5,0,11869.1502136943,44949.0781999284,36890.9966435414,47273.7653487387,48234.1251558831,47785.2344846911,51104.4970041119,67192.6014080122,50559.1773355981,7735.9296153028
5593768393,6473,5,0,11860.3894719818,44942.5806498249,36881.8222001369,47263.9460174026,48229.0268909143,47775.0257870567,51100.9683720333,67187.9655155227,50554.8091324387,7732.2914739527
5593768393,6473,5,0,11856.9703491745,44939.1858624113,36881.2016475989,47262.1695336665,48228.1751521367,47782.1925604854,51101.8687815982,67187.3814660751,50550.2949169174,7730.7340087594
5593768393,6473,5,0,11858.0654418886,44938.7599930225,36880.1065548849,47261.4881426444,48227.2139040877,47771.0834532860,51102.8787004345,67184.9114236201,50551.8767175044,7723.5307322402
5593768393,6473,5,0,11851.4583825137,44932.3111137064,36872.5504151578,47255.3434557488,48221.5437573682,47770.0857021465,51096.3568149374,67177.8419917660,50547.2408250148,7718.2256164254
5593795272,6474,5,0,11855.5588963431,44938.8573345971,36883.1484790906,47263.0091047473,48224.9872155690,47802.3787695146,51102.0391293537,67184.7289081677,50552.1444068345,7727.3027182553
5593795272,6474,5,0,11866.6801712392,44954.1764648972,36900.1224161586,47274.8117706655,48234.4293483037,47802.1840863655,51112.1139823231,67194.7064195626,50566.7943138093,7737.2193911660
5593795272,6474,5,0,11858.9293483630,44947.5085670382,36892.6271149157,47264.1528682486,48226.1918175545,47774.2348867632,51105.6529353101,67183.8163309060,50566.8186492029,7730.3324747642
5593795272,6474,5,0,11850.9108361567,44936.1561059024,36886.1782355995,47255.8910021058,48218.5261685561,47783.4823363486,51099.4960807177,67178.4868796976,50559.3355156568,7729.2130466565
5593795272,6474,5,0,11861.4358939085,44941.4247186267,36895.1701635517,47265.9293519848,48224.9142093881,47797.4143492109,51106.3343263322,67187.3936337720,50562.5234522244,7735.4064043394
5593795272,6474,5,0,11868.7973504864,44944.6856613753,36891.5806929889,47269.7865118776,48224.4518369088,47777.1551340007,51109.9237968950,67185.7874977913,50559.2746771727,7732.4374863146
5593795272,6474,5,0,11868.3958164913,44942.2642897075,36883.3309945429,47267.4989848749,48221.1422233730,47780.9514554094,51107.9161269192,67183.2809522458,50553.9938967516,7730.6610025784
5593795272,6474,5,0,11876.7185211182,44947.5085670382,36888.3319179372,47274.6657583036,48227.2260717845,47797.6333677537,51112.5885224992,67191.3116321490,50555.3445110989,7735.8322737282
5593844396,6475,5,0,11880.5635133142,44951.2318822660,36888.2224086658,47274.6779260005,48228.8808785524,47783.1781439280,51114.2920000544,67191.2629613617,50559.2746771727,7734.1409638698
5593844396,6475,5,0,11872.7275165602,44946.2066234782,36881.0434675402,47267.0122770020,48225.5225942293,47781.5233371601,51107.9526300096,67186.4567211166,50555.7338773972,7730.1864624023
5593844396,6475,5,0,11875.8546146437,44950.2097957329,36888.3319179372,47273.7166779514,48230.8642131345,47801.3201798910,51111.1405665772,67192.8569296455,50558.2282552459,7739.6529305306
5593844396,6475,5,0,11880.7581964634,44955.8312716651,36894.8781388279,47278.5350858933,48236.1449935557,47789.3958370046,51112.6371932865,67194.4995687166,50562.0002412610,7741.6484328096
5593844396,6475,5,0,11872.8248581348,44947.8857656397,36883.1119760001,47267.2191278480,48228.4550091636,47766.5570700679,51102.8665327376,67181.1881083923,50553.8113812992,7735.5159136108
5593844396,6475,5,0,11863.9424394541,44941.1083585094,36878.0867172122,47260.9040931969,48222.6753531727,47780.0510458445,51097.7074292847,67175.1894338586,50546.1700676944,7736.5014970535
5593844396,6475,5,0,11871.5107468779,44950.4166465789,36891.2643328715,47272.4755728755,48231.7159519121,47792.1335687897,51104.5578425960,67186.3715472388,50553.3976796072,7743.4857550298
5593844396,6475,5,0,11874.8203604138,44956.1232963889,36895.0484865834,47275.7973541082,48234.2468328513,47780.6350952920,51105.8841215497,67189.6811607747,50559.3841864441,7740.4681662177
5593863738,6476,5,0,11873.2263921300,44953.5194092688,36893.2963382409,47273.2908085626,48232.4825168120,47790.5517682027,51103.9251223612,67188.7320804225,50557.3278456810,7737.8521114008
5593863738,6476,5,0,11877.6310983799,44957.2913952839,36900.0494099777,47280.4332465977,48238.8583899472,47795.4066792351,51111.7732868120,67197.3589774700,50559.8465589234,7741.8187805651
5593863738,6476,5,0,11874.1511370885,44953.9817817480,36892.5541087347,47275.3471493257,48234.8065469052,47774.3200606409,51108.5610148508,67191.6279922664,50557.6198704048,7738.8255271466
5593863738,6476,5,0,11862.3363034734,44942.4103020694,36878.1353879995,47263.1064463218,48226.4230037942,47769.9031866942,51099.6664284732,67181.4557977224,50548.0925637924,7734.6155040459
5593863738,6476,5,0,11863.4678992780,44942.4468051599,36881.3233245672,47268.5332391049,48228.1143136525,47787.8870425985,51099.3500683558,67188.7199127257,50547.6910297973,7737.5235835866
5593863738,6476,5,0,11867.4954069264,44947.1192007399,36883.2579883620,47274.1668827339,48231.4969333693,47778.3840713798,51104.1563086009,67193.9155192691,50555.7338773972,7733.8489391460
5593863738,6476,5,0,11860.6206582214,44940.8285014824,36871.8690241357,47265.7590042292,48225.8389543467,47761.4588050991,51098.9485343607,67186.4567211166,50550.8424632744,7724.3581356242
5593863738,6476,5,0,11854.9748468956,44938.2367820591,36869.6910064044,47262.5345645712,48224.2571537597,47780.1970582064,51098.4983295782,67187.4666399529,50548.3845885162,7727.9232707933
5593891969,6477,5,0,11861.3142169403,44947.6667470969,36879.5346731342,47268.3507236525,48231.4360948852,47786.7311114003,51105.6772707037,67195.4851521592,50555.0889894656,7735.8444414250
5593891969,6477,5,0,11857.5300632284,44948.3603058158,36877.2228107378,47266.5134014323,48233.0665662595,47771.4728195844,51105.8354507624,67195.0349473768,50556.8533055049,7732.8755234002
5593891969,6477,5,0,11850.5579729488,44944.2476242897,36874.0105387766,47264.1163651581,48229.7082819363,47781.6936849156,51103.7547746057,67194.6577487753,50553.9573936611,7730.0891208278
5593891969,6477,5,0,11853.2957047340,44948.0804487889,36881.4084984449,47272.9987838389,48237.3252601475,47786.5120928575,51110.1306477409,67203.8808629671,50558.4837768792,7733.5569144223
5593891969,6477,5,0,11851.4340471201,44945.8537602703,36874.6310913145,47267.2191278480,48233.7601249784,47761.8725067911,51106.0423016084,67196.1178723940,50558.3012614269,7730.6731702753
5593891969,6477,5,0,11842.5151253489,44934.4647960440,36861.6238234108,47255.6476481694,48223.4662534662,47764.7684186349,51095.2252191328,67185.1426098597,50549.8812152254,7725.9886069984
5593891969,6477,5,0,11852.5534752278,44942.4224697662,36873.3899862386,47265.5521533833,48229.8907973887,47791.5860224327,51103.1463897646,67193.6234945453,50552.6067793137,7735.4915782171
5593891969,6477,5,0,11862.8960175273,44951.9254409849,36881.7978647432,47277.2088069396,48236.3153413112,47778.1650528370,51110.8363741567,67198.8191010887,50558.4351060919,7735.8931122123
5593919408,6478,5,0,11856.1794488810,44945.2818785196,36868.4742367221,47265.9658550752,48227.4085872368,47755.5453044431,51103.8521161803,67186.8339197181,50550.5626062475,7721.7785838977
5593919408,6478,5,0,11850.7526560980,44939.5387256192,36861.5994880172,47263.2402909869,48225.1697310214,47765.9365175299,51103.3045698233,67186.4567211166,50544.7951179534,7715.5000523371
5593919408,6478,5,0,11857.0676907491,44942.9700161233,36866.3448897781,47269.1902947333,48229.0147232174,47765.7296666839,51106.1031400925,67189.4378068382,50546.0970615135,7714.1859410802
5593919408,6478,5,0,11853.0523507975,44939.2832039859,36861.9888543155,47262.6927446299,48223.4905888598,47759.0496011281,51100.0314593779,67184.4490511408,50544.3570808678,7712.1052649235
5593919408,6478,5,0,11850.0834327727,44936.2291120833,36862.6459099439,47261.4273041603,48220.0349629621,47771.7040058240,51095.5415792502,67183.7189893314,50540.8041133955,7718.5906473301
5593919408,6478,5,0,11855.4737224653,44939.0641854431,36867.0871192843,47268.8617669191,48223.9164582486,47765.8148405617,51100.0071239843,67187.9411801290,50541.8261999286,7720.9633482106
5593919408,6478,5,0,11846.5304653004,44927.5657119454,36850.5512193019,47257.1077717881,48213.2697235286,47732.8160467779,51090.4798173719,67174.6662228952,50532.4935764654,7706.5567951722
5593919408,6478,5,0,11832.6836263159,44911.3096689900,36833.8449715640,47242.2388462705,48199.4958907250,47739.4231061527,51078.2147789744,67162.7662154023,50519.1334453538,7697.0659916503
5593972365,6479,5,0,11841.0428340333,44917.2231696459,36844.4065324063,47252.1068483939,48205.4702298651,47773.2006325332,51084.3107950827,67172.6220498289,50524.7184181956,7709.1241792018
5593972365,6479,5,0,11857.6395724998,44934.3552867726,36863.9721888976,47267.5598233590,48221.0327141016,47777.6175064799,51097.0747090499,67187.6856584957,50544.2110685059,7725.2220420986
5593972365,6479,5,0,11858.6859944266,44938.1029373941,36866.2597159003,47267.1217862734,48221.1908941603,47768.5160692564,51097.7682677688,67186.1038579087,50544.9654657089,7731.9751138353
5593972365,6479,5,0,11859.0510253313,44937.2998694038,36867.2696347367,47267.2556309385,48221.6289312459,47776.3520660104,51098.4618264877,67185.1182744661,50542.0573861682,7737.0003726232
5593972365,6479,5,0,11862.1537880211,44937.7865772767,36867.0749515875,47264.2988806105,48218.7330194021,47762.0306868498,51097.7561000720,67181.6869839620,50539.5021698354,7737.0977141978
5593972365,6479,5,0,11856.2159519715,44928.1497613929,36855.9901797818,47251.4984635528,48207.4170613567,47751.9436661835,51086.2576265743,67167.5846233442,50530.5224095801,7730.5636610039
5593972365,6479,5,0,11860.0609441676,44932.8221569729,36861.4291402616,47256.8157470644,48212.3328108732,47781.0853000745,51089.4455631419,67174.0943411445,50532.2745579226,7738.5091670292
5593972365,6479,5,0,11875.2218944089,44949.7352555568,36878.1110526059,47273.9965349784,48227.7857858383,47785.3196585689,51103.2437313392,67189.2917944763,50548.8834640859,7747.5375980719
5593988506,6480,5,0,11870.4399895575,44945.2453754291,36868.7297583554,47266.2943828894,48222.7483593536,47748.4150341049,51099.6420930796,67179.4967985339,50547.5693528290,7738.2293100023
5593988506,6480,5,0,11854.8166668369,44928.3444445421,36852.3155353413,47253.1776057143,48210.2034639292,47747.8066492637,51088.9831906627,67167.8766480680,50529.1352921423,7728.9210219328
5593988506,6480,5,0,11855.3277101034,44929.5003757403,36853.2889510871,47256.2438653137,48209.0231973374,47763.0892764734,51091.3680592400,67171.4296155403,50523.8058409338,7731.7317598989
5593988506,6480,5,0,11855.1938654384,44931.6783934716,36852.7900755174,47257.3997965119,48212.4058170541,47749.7778161490,51093.5947477586,67171.1132554229,50524.0613625671,7731.3302259037
5593988506,6480,5,0,11847.5160487431,44925.0226633094,36846.2438546266,47248.5052101343,48208.6946695231,47744.2536817914,51086.7686698409,67165.8081396081,50518.7197436618,7726.3536379031
5593988506,6480,5,0,11849.4385448411,44928.5391276912,36850.0645114290,47252.1433514844,48215.1557165361,47757.5286390253,51090.7475067020,67172.6707206162,50521.2627922978,7727.2175443775
5593988506,6480,5,0,11852.8941707388,44931.2646917796,36850.4903808178,47253.9076675237,48215.9952876169,47744.1076694296,51092.4388165604,67173.6806394525,50523.2217914863,7723.1535336387
5593988506,6480,5,0,11848.9883400587,44925.4607003950,36839.9409876723,47245.5971305936,48208.8163464914,47734.6168659077,51085.6857448237,67166.4651952365,50516.8094152606,7714.7699905277
5594019797,6481,5,0,11849.9495881077,44925.4972034855,36843.0315826654,47248.7242286771,48206.6018256696,47757.7963283554,51086.4279743299,67170.6387152468,50514.4245466833,7715.9867602100
5594019797,6481,5,0,11858.8198390916,44933.9659204743,36854.2988699234,47259.2614541258,48214.6933440568,47757.9788438077,51097.1233798372,67181.9425055953,50523.7084993593,7719.4545538045
5594019797,6481,5,0,11852.5534752278,44926.7626439551,36845.7693144505,47249.6854767261,48208.3904771026,47738.7903859179,51091.9034379002,67173.2547700637,50523.3313007577,7714.1129348992
5594019797,6481,5,0,11842.3691129870,44918.4642747219,36837.8846469092,47241.6304614293,48202.9271812291,47752.6615602961,51085.5397324618,67167.9253188553,50521.4818108407,7716.7168220193
5594019797,6481,5,0,11846.9319992956,44927.8334012755,36848.5313816293,47251.0604264671,48211.3715628242,47768.0171936866,51091.2220468781,67176.8929114138,50530.3885649150,7729.8944376786
5594019797,6481,5,0,11844.7296461707,44927.9915813342,36847.9473321818,47248.2861915915,48209.6802529658,47749.5709653031,51090.0782833767,67174.1186765381,50532.3232287099,7730.6610025784
5594019797,6481,5,0,11839.2785179940,44919.3646842868,36841.2064281419,47240.3771886566,48200.4206356835,47745.7381408038,51080.7699953072,67165.9541519699,50524.3655549877,7728.5559910281
5594019797,6481,5,0,11839.9720767129,44917.1014926777,36842.6057132765,47242.6525479625,48200.4328033804,47753.4281251959,51084.3107950827,67168.6675483615,50525.4728153986,7730.5149902166
5594051208,6482,5,0,11834.7643024727,44911.1514889313,36834.8062196130,47236.3010102209,48194.7504889640,47729.6402779071,51077.5577233459,67161.7562965660,50522.9906052467,7720.6834911836
5594051208,6482,5,0,11820.4064202216,44899.7381893113,36819.9251263986,47224.0359718234,48185.7828964055,47729.7011163912,51067.1178394718,67152.7643686139,50513.7796587517,7712.7136497646
5594051208,6482,5,0,11822.0247238990,44904.7877834929,36829.1117374999,47232.6872042645,48191.1731860981,47766.8977655789,51072.7271477072,67161.7319611724,50515.6048132752,7721.0606897851
5594051208,6482,5,0,11837.6723820133,44923.0758318177,36850.3322007591,47251.4497927655,48209.3395574547,47775.6585072914,51086.4401420267,67179.4481277466,50530.4615710960,7733.7394298746
5594051208,6482,5,0,11838.9743255734,44924.7184708888,36849.9184990671,47249.3934520024,48213.5739159491,47757.9058376268,51086.3184650584,67178.9492521768,50533.5886691795,7731.9507784417
5594051208,6482,5,0,11836.4677800279,44921.2871803848,36848.4948785389,47247.3492789361,48213.8902760665,47770.6332485036,51084.2986273858,67178.8884136927,50531.1672975117,7728.5194879376
5594051208,6482,5,0,11847.0901793543,44930.1574313687,36861.0032708728,47258.4948892259,48223.0768871678,47780.6107598984,51094.9453621059,67187.7951677671,50539.3318220799,7733.2405543049
5594051208,6482,5,0,11849.6453956871,44934.6473114964,36861.1371155379,47258.7260754656,48223.1012225615,47767.8590136279,51095.2252191328,67186.7730812340,50541.3394920557,7732.2793062559
5594083881,6483,5,0,11846.0072543371,44930.6198038480,36852.6927339428,47252.2528607558,48216.6645109422,47767.1046164249,51088.8006752103,67181.3097853605,50536.7887734439,7730.4176486420
5594083881,6483,5,0,11848.5503029731,44933.3088648458,36855.7103227549,47258.2150321990,48217.1633865119,47770.6819192909,51092.3779780763,67185.8970070627,50539.0276296593,7730.0769531309
5594083881,6483,5,0,11844.2794413882,44929.2813571974,36847.0955934042,47254.7350709077,48213.6712575237,47745.7503085007,51089.8227617435,67179.8131586513,50536.5697549011,7723.2387075164
5594083881,6483,5,0,11833.9734021792,44919.0483241694,36835.8404738430,47245.4876213222,48205.6284099237,47743.3532722265,51081.0620200309,67168.3390205472,50527.6021623426,7718.3837964841
5594083881,6483,5,0,11843.4277026106,44928.4904569040,36850.0401760354,47257.4971380865,48216.0804614947,47780.5134183238,51089.8349294403,67180.4458788861,50532.5179118591,7730.4176486420
5594083881,6483,5,0,11858.8198390916,44947.3260515859,36870.2142173678,47271.6846725820,48231.0953993742,47782.5575913901,51104.7890288357,67193.2827990343,50547.3625019831,7740.9183710002
5594083881,6483,5,0,11855.3155424066,44946.2187911750,36866.9532746193,47266.0023581657,48229.4040895158,47763.8801767668,51102.6718495885,67188.7320804225,50549.2484949906,7737.6209251612
5594083881,6483,5,0,11847.4795456526,44938.4314652083,36859.3484641049,47261.1839502238,48222.2373160871,47766.0825298918,51100.3964902826,67183.9988463584,50544.2354038996,7734.0801253857
5594123369,6484,5,0,11845.5448818578,44936.1682735992,36856.4282168674,47264.2015390359,48220.5825093191,47762.6390716909,51101.7106015395,67181.8938348080,50541.7531937477,7730.2716362801
5594123369,6484,5,0,11841.1036725174,44928.9893324737,36850.4417100305,47262.1695336665,48216.6036724580,47750.6660580171,51100.3356517985,67178.0123395215,50539.7820268624,7726.4996502650
5594123369,6484,5,0,11833.7665513332,44920.5327831818,36844.2848554381,47257.7404920229,48209.5342406039,47755.8616645605,51096.2229702723,67174.0456703572,50530.8387696975,7725.9521039080
5594123369,6484,5,0,11837.2465126245,44921.8590621355,36848.3975369643,47262.3642168156,48212.6126679001,47762.9189287178,51101.1022166983,67179.9226679227,50533.4669922113,7725.1855390081
5594123369,6484,5,0,11832.3064277144,44916.4931078365,36839.1135842884,47252.8734132937,48204.5941556938,47737.4032684801,51096.0039517295,67172.4030312861,50530.8631050911,7715.6338970021
5594123369,6484,5,0,11822.1098977768,44906.5277641385,36829.8539670061,47240.2433439915,48195.2128614433,47738.0603241086,51085.4788939777,67161.6102842042,50525.2416291589,7709.8299056176
5594123369,6484,5,0,11828.6074478803,44914.7287917972,36841.1090865673,47249.0770918850,48203.3408829210,47771.9108566700,51092.3658103794,67172.9749130368,50533.3818183335,7717.5928961906
5594123369,6484,5,0,11841.4565357253,44930.1695990655,36853.9703421092,47261.2082856175,48215.1800519298,47768.7350877992,51103.5722591534,67183.6459831505,50548.4940977876,7722.9831858832
5594144768,6485,5,0,11838.0374129180,44924.3656076810,36843.7251413843,47253.7616551618,48210.9213580417,47748.4758725890,51098.7781866051,67174.8609060443,50542.7996156744,7715.6095616085
5594144768,6485,5,0,11833.7543836364,44917.2110019491,36840.5128694230,47251.2186065258,48206.8208442124,47758.1370238664,51098.8633604829,67172.0623357751,50535.9857054536,7712.7014820678
5594144768,6485,5,0,11835.9445690645,44920.5449508786,36846.5480470472,47255.0270956314,48208.3296386184,47758.2830362283,51100.2504779207,67171.5634602053,50535.3651529156,7715.1350214324
5594144768,6485,5,0,11831.5763659050,44921.4940312308,36847.1077611010,47250.3181969609,48205.6770807110,47751.5786352788,51095.6754239153,67166.5868722047,50536.4602456297,7717.5685607970
5594144768,6485,5,0,11828.2302492787,44924.5359554365,36852.7049016396,47253.9563383110,48205.8352607697,47770.9009378337,51096.0161194263,67169.0690823566,50535.6450099426,7722.4113041325
5594144768,6485,5,0,11837.4046926832,44933.6982311442,36865.4201448196,47266.1848736180,48211.6757552448,47770.7427577750,51106.6628541464,67178.6450597563,50543.5905159679,7726.2441286317
5594144768,6485,5,0,11832.7079617096,44926.3367745663,36855.8198320263,47260.4052176271,48205.5554037428,47737.3667653896,51105.7259414910,67168.6188775742,50542.0817215619,7711.0710106935
5594144768,6485,5,0,11821.8787115372,44912.7089541246,36842.7273902448,47248.4443716502,48194.7261535704,47740.8345589842,51096.0161194263,67158.6778692698,50531.8608562306,7701.1178346923
5594173242,6486,5,0,11829.2523358119,44920.2285907612,36854.4205468916,47258.8720878275,48203.9492677622,47775.1839671154,51101.9904585664,67167.6819649188,50540.2322316448,7713.2855315153
5594173242,6486,5,0,11844.0725905422,44935.1583547629,36869.2164662283,47270.8572691981,48217.3580696611,47775.2569732963,51110.1671508314,67178.3286996389,50554.9308094069,7725.6357437906
5594173242,6486,5,0,11846.6034714814,44936.5941429880,36867.1479577684,47269.1781270365,48215.8127721646,47769.3799757308,51108.9138780587,67174.7635644698,50553.3976796072,7730.4663194293
5594173242,6486,5,0,11852.0789350517,44938.5166390861,36868.6324167808,47273.1082931103,48216.9322002723,47780.5134183238,51112.1748208072,67179.2291092038,50551.9740590789,7735.1752180998
5594173242,6486,5,0,11857.9559326172,44941.5585632918,36869.2651370156,47274.5805844259,48217.4919143261,47765.3889711729,51116.3970116048,67180.5310527638,50551.8037113234,7731.8291014734
5594173242,6486,5,0,11851.2515316677,44933.1628524840,36858.8009177479,47264.9924393294,48209.6559175721,47753.0509265944,51110.5443494329,67171.1254231197,50543.1281434887,7722.6059872817
5594173242,6486,5,0,11851.6895687534,44930.3399468210,36860.7355815427,47265.4061410214,48207.5509060218,47773.7238434966,51111.7489514184,67173.8874902985,50539.1371389307,7724.6136572574
5594173242,6486,5,0,11861.8739309942,44937.4093786752,36872.4530735832,47276.3449004652,48215.8492752550,47776.2060536485,51121.3857673022,67183.9988463584,50545.5616828533,7730.3811455515
5594207075,6487,5,0,11855.2668716193,44931.7513996525,36863.1691209073,47268.4724006208,48209.4734021198,47750.7390641981,51115.3019188907,67173.2669377605,50541.4855044176,7721.5473976581
5594207075,6487,5,0,11843.7562304248,44921.0924972356,36852.7779078205,47260.1740313875,48203.2313736496,47759.5728120915,51109.4005859316,67168.1565050949,50537.6161768279,7717.3982130414
5594207075,6487,5,0,11848.5746383667,44926.9694948011,36860.5408983936,47269.2024624301,48210.1061223546,47779.0167916146,51114.0243107243,67177.2092715312,50541.8140322318,7723.9931047195
5594207075,6487,5,0,11855.7900825827,44937.4337140688,36867.6590010350,47275.9068633796,48218.7938578862,47773.5899988316,51120.1811653167,67184.8262497423,50550.3192523110,7727.4608983140
5594207075,6487,5,0,11860.2677950135,44940.4026320936,36868.3160566634,47276.1623850129,48220.8745340429,47769.7815097260,51120.4366869500,67185.1669452534,50550.2705815237,7727.0958674093
5594207075,6487,5,0,11862.6526635908,44940.2201166413,36867.8780195778,47276.6855959762,48220.4851677446,47770.1952114179,51122.2861768671,67186.9677643832,50545.2939935231,7722.9710181863
5594207075,6487,5,0,11856.9460137809,44934.0389266552,36859.3241287113,47271.8793557312,48214.6446732695,47752.3330324819,51119.0130664217,67180.7865743971,50542.7874479776,7712.3972896472
5594207075,6487,5,0,11843.6467211534,44921.4575281403,36846.6453886218,47260.1496959939,48204.5211495129,47751.7611507312,51109.4127536284,67172.8532360685,50537.7986922802,7706.9339937737
5594234626,6488,5,0,11842.7219761949,44921.3480188689,36852.0600137080,47261.9505151237,48204.4359756351,47776.5102460691,51108.7800333936,67176.7225636582,50540.6946041241,7711.2413584490
5594234626,6488,5,0,11852.0667673549,44932.2989460095,36864.2277105309,47272.9257776580,48213.7807667951,47776.0113704993,51116.9688933554,67187.2597891069,50550.9641402426,7718.9435105379
5594234626,6488,5,0,11845.1190124690,44928.7703139309,36857.7423281243,47264.2502098232,48206.7721734251,47749.1694313079,51109.7169460490,67177.4161223772,50548.6157747558,7713.4437115740
5594234626,6488,5,0,11834.3749361743,44919.6810444041,36849.0302571991,47254.0050090983,48198.5103072823,47756.6769002477,51101.4185768157,67169.1177531439,50539.3196543831,7709.0025022336
5594234626,6488,5,0,11840.2884368303,44924.6332970111,36858.7887500511,47261.7923350650,48204.7888388430,47773.6265019220,51106.4803386941,67175.5544647632,50544.1867331123,7714.5753073785
5594234626,6488,5,0,11843.9387458772,44926.9451594074,36862.1713697678,47262.2060367569,48206.9546888774,47763.4299719844,51105.3730782832,67173.4007824256,50547.7762036750,7714.1494379897
5594234626,6488,5,0,11844.8878262293,44927.8577366692,36863.5584872057,47261.3177948889,48208.2201293470,47767.7130012661,51104.4605010215,67172.6707206162,50548.5914393622,7717.6172315842
5594234626,6488,5,0,11852.0545996581,44934.9150008265,36873.8036879306,47268.9712761905,48214.3769839394,47780.9514554094,51110.4470078583,67180.1538541623,50551.9983944726,7726.7673395951
5594268699,6489,5,0,11852.4317982596,44937.3363724942,36872.7450983070,47268.7400899509,48213.9511145506,47760.8625879547,51111.4812620883,67176.4792097218,50555.0889894656,7726.2927994190
5594268699,6489,5,0,11839.4488657495,44927.1398425566,36858.8982593225,47256.3290391915,48205.1903728381,47750.1428470537,51102.1973094124,67165.1875870701,50546.7662848387,7722.2287886801
5594268699,6489,5,0,11839.6557165955,44927.2858549185,36863.7775057485,47261.8653412459,48208.7920110977,47781.4259955855,51105.2392336181,67170.6265475500,50544.2597392932,7729.9066053754
5594268699,6489,5,0,11856.0091011255,44943.3837178152,36881.3841630513,47277.8415271744,48222.7361916568,47786.5729313416,51116.9810610523,67181.1516053018,50556.9506470795,7738.7890240562
5594268699,6489,5,0,11849.6940664744,44939.9645950080,36875.5193331826,47268.6427483763,48217.9299514117,47758.0153468982,51110.0576415600,67171.7946464449,50552.5459408296,7731.8291014734
5594268699,6489,5,0,11837.3803572896,44931.1916855986,36867.6103302477,47257.3146226341,48208.3418063153,47761.5561466737,51101.6375953585,67165.3579348256,50543.6878575425,7725.6965822747
5594268699,6489,5,0,11838.9134870893,44933.6008895696,36872.2097196468,47262.4007199061,48211.9434445749,47763.9653506446,51106.1396431830,67171.1132554229,50544.9532980121,7725.4532283382
5594268699,6489,5,0,11830.7002917338,44927.5657119454,36860.7599169364,47255.4164619297,48204.2291247891,47746.0788363149,51099.8246085319,67160.9045577884,50537.2024751359,7718.2256164254
5594318917,6490,5,0,11823.0589781290,44920.9464848737,36853.7634912632,47249.1379303691,48196.6851527589,47759.4633028201,51093.3148907316,67154.9545540420,50529.9626955262,7719.5275599854
5594318917,6490,5,0,11831.7102105701,44929.1718479260,36862.3782206138,47259.9915159352,48205.0321927794,47776.3033952231,51101.9661231728,67164.1168297497,50535.3529852188,7727.1810412871
5594318917,6490,5,0,11836.3217676660,44933.0411755157,36862.0253574060,47260.4173853240,48208.1227877725,47749.8021515427,51103.1707251582,67164.8712269527,50539.1371389307,7722.1192794087
5594318917,6490,5,0,11826.5024363299,44924.6698001016,36849.6508097370,47248.4200362565,48201.7347469404,47745.7259731070,51096.2108025755,67157.3515903161,50531.1429621181,7712.9205006106
5594318917,6490,5,0,11831.2235026972,44931.1065117209,36855.5643103930,47255.7449897440,48207.2345459044,47774.6485884551,51099.9827885906,67166.1610028159,50536.2533947837,7720.3549633694
5594318917,6490,5,0,11849.6940664744,44944.6248228912,36869.7518448885,47269.8960211490,48218.7451870989,47779.3331517320,51110.3618339806,67178.9005813895,50551.4630158124,7732.3644801337
5594318917,6490,5,0,11857.7369140744,44946.7785052288,36869.4354847711,47269.0807854619,48222.3224899648,47768.2727153199,51111.4082559074,67177.7811532818,50558.0214044000,7736.2703108138
5594318917,6490,5,0,11857.8220879521,44941.9722649838,36867.2574670398,47265.9780227721,48219.6455966638,47771.7283412176,51108.7800333936,67175.4084524014,50553.5923627564,7737.8886144913
5594328893,6491,5,0,11858.4304727933,44940.7068245142,36868.2430504825,47266.6959168846,48220.8501986492,47762.2618730894,51111.5907713597,67175.4206200982,50552.9596425216,7737.0490434105
5594328893,6491,5,0,11850.1929420442,44929.6950588894,36859.3727994986,47260.0158513288,48213.5130774650,47748.1960155621,51107.5632637113,67165.8446426985,50546.9609679879,7730.2107977960
5594328893,6491,5,0,11844.4132860533,44922.3336023115,36855.1384410042,47255.4286296266,48206.6018256696,47760.7652463802,51104.2536501755,67162.4255198913,50543.0186342173,7731.1720458450
5594328893,6491,5,0,11847.7472349827,44924.7671416761,36860.2245382762,47263.7513342535,48212.1381277240,47766.4110577060,51109.7412814426,67169.6044610168,50546.6932786578,7733.1675481240
5594328893,6491,5,0,11843.0870070996,44920.7883048150,36850.5755546956,47255.4164619297,48208.0984523788,47736.9408960008,51102.7326880726,67160.7585454265,50543.6270190584,7723.9931047195
5594328893,6491,5,0,11827.6340321344,44907.2213228575,36834.5993687671,47238.9779035219,48196.9163389985,47738.0603241086,51088.6546628485,67148.4935070290,50531.6661730815,7717.2887037700
5594328893,6491,5,0,11829.5808636261,44915.9820645700,36845.4772897268,47245.3416089603,48204.1074478209,47770.2560499021,51093.7529278173,67159.5052726538,50535.5476683680,7729.7119222262
5594328893,6491,5,0,11835.2388426488,44928.7459785372,36856.5863969261,47253.1045995334,48214.3404808490,47767.4574796328,51101.3090675443,67168.7648899360,50547.0826449561,7735.6254228822
5594355196,6492,5,0,11832.5619493477,44927.3831964931,36854.2745345298,47247.9576637773,48211.1038734941,47761.5318112800,51098.1454663703,67164.1898359306,50548.1290668829,7730.6366671848
5594355196,6492,5,0,11837.5993758324,44926.1299237203,36857.7301604275,47250.1478492054,48212.8560218366,47774.0645390076,51103.7304392121,67168.8257284202,50551.2074941791,7734.9561995569
5594355196,6492,5,0,11843.7075596375,44929.0623386546,36863.3759717533,47254.9054186632,48214.6568409664,47765.8513436522,51106.3951648163,67168.5337036964,50555.9893990305,7737.6695959485
5594355196,6492,5,0,11837.3316865023,44922.0659129814,36854.8099131900,47246.6070494299,48205.9691054348,47750.9094119536,51098.7903543020,67158.9455585999,50548.0317253083,7730.6244994880
5594355196,6492,5,0,11836.2487614851,44920.8613109960,36858.5332284178,47246.5705463395,48204.0952801241,47774.7215946361,51094.6411696853,67158.7995462380,50542.8361187649,7734.9561995569
5594355196,6492,5,0,11848.7571538190,44932.7004800047,36874.4850789527,47259.9428451479,48214.5351639981,47782.0587158203,51102.2581478965,67168.6797160583,50549.9663891032,7744.0576367805
5594355196,6492,5,0,11848.0514274033,44934.4526283472,36872.9154460625,47257.0469333040,48212.1989662081,47755.4966336558,51101.9539554759,67165.3457671288,50553.5436919691,7739.9327875575
5594355196,6492,5,0,11834.9224825314,44925.9839113584,36859.8595073715,47244.6967210287,48202.1362809356,47756.7134033381,51094.0206171474,67154.4313430786,50545.4156704914,7734.0192869016
5594393171,6493,5,0,11837.6967174070,44930.3642822147,36866.0041942671,47251.0360910735,48208.2444647407,47780.8662815317,51096.7826843262,67164.2750098084,50547.7153651909,7740.6871847605
5594393171,6493,5,0,11846.3722852417,44942.0574388615,36875.5680039699,47262.0113536078,48219.9132859939,47777.1307986070,51107.5997668018,67176.7468990519,50560.5644530359,7744.8972078613
5594393171,6493,5,0,11844.3159444787,44937.9690927290,36870.2750558519,47257.4484672992,48216.1534676756,47763.6976613145,51103.2437313392,67171.1497585133,50556.1840821797,7741.9039544428
5594393171,6493,5,0,11842.8071500726,44934.5378022250,36868.7662614459,47256.0248467709,48213.8659406729,47767.2749641804,51100.3843225858,67167.4507786792,50548.2264084575,7743.7169412695
5594393171,6493,5,0,11843.3060256424,44933.8929142933,36866.1137035385,47252.3623700272,48211.3350597337,47753.9635038561,51097.1355475340,67161.3790979645,50545.1114780708,7740.0422968289
5594393171,6493,5,0,11834.5087808394,44924.8766509475,36853.4471311458,47238.7345495855,48200.2502879280,47740.2383418399,51084.0552734494,67146.1329738454,50536.2777301774,7731.0503688768
5594393171,6493,5,0,11834.6426255044,44923.8545644144,36855.7954966326,47241.9833246372,48200.8951758596,47768.7229201024,51084.7123290778,67151.3650834792,50536.4237425392,7737.0125403200
5594393171,6493,5,0,11851.5922271788,44939.7455764652,36874.4242404685,47260.0523544193,48218.8911994608,47785.0884723292,51100.3356517985,67170.0668334961,50552.7162885851,7749.5209326540
5594436974,6494,5,0,11856.2646227588,44944.8195060403,36875.3611531239,47259.5534788495,48221.3247388253,47763.4664750749,51103.3045698233,67170.3588582198,50559.2625094759,7748.0851444289
5594436974,6494,5,0,11850.8134945821,44940.1836135508,36869.5084909521,47252.6665624478,48217.4189081452,47765.5228158379,51100.1653040430,67166.3556859651,50551.9618913821,7743.2058980029
5594436974,6494,5,0,11856.1672811842,44944.3693012579,36876.7482705617,47258.3123737736,48218.1976407418,47778.9681208273,51102.2581478965,67171.7094725672,50552.9718102184,7746.4060022673
5594436974,6494,5,0,11859.2943792677,44948.0196103048,36878.4517481169,47259.5048080623,48219.3414042432,47770.7305900782,51104.0467993295,67172.7558944940,50553.6653689373,7744.3618292011
5594436974,6494,5,0,11856.8000014190,44948.5914920555,36876.2007242047,47257.3632934214,48219.9254536907,47776.5467491595,51102.5745080139,67171.4661186307,50554.7361262578,7745.2865741596
5594436974,6494,5,0,11862.8351790432,44957.4495753426,36883.8907085968,47266.6837491878,48230.1706544156,47786.5850990384,51111.4812620883,67181.4801331160,50561.8663965960,7751.9544720186
5594436974,6494,5,0,11864.8550167158,44961.6230953528,36884.1340625333,47267.8761834764,48232.2756659660,47762.9797672019,51115.9589745191,67182.6603997078,50564.1174205082,7749.3749202921
5594436974,6494,5,0,11852.2492828072,44950.2828019138,36868.5229075094,47254.3943753966,48222.3589930553,47750.5565487457,51105.9327923370,67170.8090630023,50555.8920574559,7738.8620302371
5594454755,6495,5,0,11850.9351715504,44946.7054990479,36867.6224979445,47256.6210639152,48220.0227952653,47778.5787545290,51107.1008912320,67175.3232785236,50553.1908287612,7741.2225634208
5594454755,6495,5,0,11864.2953026619,44957.4495753426,36880.7027720292,47271.0762877409,48232.1904920882,47789.1524830681,51119.5241096883,67189.7176638651,50566.0764196967,7747.9999705511
5594454755,6495,5,0,11863.1028683733,44955.0282036748,36874.4120727717,47266.5255691291,48229.3797541221,47768.0293613835,51118.5020231551,67187.6369877084,50566.7699784156,7743.1815626092
5594454755,6495,5,0,11857.0190199618,44947.4842316446,36866.2718835972,47259.3101249131,48223.1255579551,47768.2727153199,51112.0531438390,67181.5044685097,50559.1286648108,7740.6263462764
5594454755,6495,5,0,11859.4890624169,44947.7032501874,36868.7054229618,47261.1596148302,48224.4031661215,47775.1352963281,51113.5497705482,67181.1516053018,50558.8488077839,7742.8043640077
5594454755,6495,5,0,11858.1992865536,44947.8005917620,36867.6103302477,47259.6873235146,48222.3346576616,47762.9432641115,51110.7998710662,67178.6207243626,50558.8244723903,7739.6407628338
5594454755,6495,5,0,11850.1442712569,44940.6581537269,36861.8306742568,47252.8247425065,48217.5649205071,47764.7927540286,51103.7426069089,67172.8775714622,50552.4364315582,7735.9904537869
5594454755,6495,5,0,11854.6584867782,44947.0218591653,36870.3115589424,47260.8797578032,48223.1742287424,47779.4548287002,51108.1108100683,67180.5310527638,50555.7217097004,7741.7822774746
5594486956,6496,5,0,11854.8166668369,44946.9610206812,36869.5814971330,47260.8067516223,48223.0282163806,47760.2298677200,51107.8552884351,67176.1750173012,50558.0092367031,7738.8133594498
5594486956,6496,5,0,11844.8634908357,44936.6671491690,36857.3894649164,47248.4078685597,48212.0286184526,47751.7733184280,51097.3545660769,67166.3313505715,50551.6820343552,7731.7560952925
5594486956,6496,5,0,11844.6444722929,44935.3530379121,36861.3439663839,47250.1600169022,48211.0065319195,47777.6418418736,51097.6344231038,67168.1930081854,50549.2971657779,7737.2802296501
5594486956,6496,5,0,11855.5345609494,44945.7807540894,36872.5747505515,47260.9527639842,48218.3193177101,47775.1961348122,51103.1950605519,67174.0456703572,50551.9983944726,7740.4438308241
5594486956,6496,5,0,11854.2447850862,44940.2566197317,36863.5949902961,47253.9441706142,48212.0164507558,47751.0797597091,51096.1742994850,67162.5836999500,50543.2619881537,7730.1621270087
5594486956,6496,5,0,11851.2515316677,44932.6153061269,36856.0875213564,47248.0185022614,48206.3341363395,47760.5827309278,51091.8060963256,67157.9234720668,50536.0222085441,7725.7330853651
5594486956,6496,5,0,11857.6274048030,44936.7158199563,36863.6193256898,47254.5038846680,48211.2377181591,47769.0027771293,51096.2716410596,67166.3556859651,50542.2399016206,7727.6920845536
5594486956,6496,5,0,11853.2470339467,44937.3485401911,36862.0861958901,47251.1456003449,48210.7510102862,47758.5750609520,51094.6411696853,67164.1411651433,50544.9654657089,7726.4388117809
5594513926,6497,5,0,11845.3745341023,44934.2944482885,36857.9856820607,47246.0960061634,48208.1227877725,47764.4398908207,51089.0318614500,67160.1014897981,50537.1416366518,7727.8015938250
5594513926,6497,5,0,11848.6354768508,44940.0862719762,36864.3980582864,47253.8711644332,48213.5009097682,47773.4074833792,51094.4708219298,67166.4895306301,50539.3683251704,7732.8390203097
5594513926,6497,5,0,11846.4087883322,44940.1592781572,36859.8351719778,47250.4398739292,48212.7221771715,47750.7999026822,51092.3658103794,67160.8680546980,50538.1758908817,7726.1102839667
5594513926,6497,5,0,11838.3902761259,44932.1285982540,36846.9495810423,47239.9756546614,48207.9524400169,47749.0477543397,51086.1237819093,67154.2609953231,50531.1307944212,7720.0751063425
5594513926,6497,5,0,11843.8049012121,44940.0619365826,36857.2434525545,47248.5417132248,48213.6834252205,47779.9050334827,51093.3757292158,67162.8392215833,50536.8982827153,7727.8380969155
