steady_timestamp,sequence,battery,flags,EEG-ch1,EEG-ch2,EEG-ch3,EEG-ch4,EEG-ch5,EEG-ch6,EEG-ch7,EEG-ch8,EEG-ch9,EEG-ch10
8771205486,11193,-2,0,54244.2616600007,56486.9750353149,36849.5169650720,53228.3198137692,55543.1511281529,61761.4525895174,61782.3201895688,57716.9588363588,65850.9789886178,21483.3828521610
8771205486,11193,-2,0,54263.0850869858,56523.9648336566,36880.7636105133,53279.9960221762,55575.9917418781,61780.4463642581,61822.7291107178,57769.4137773625,65873.3675507720,21489.9412407485
8771205486,11193,-2,0,54272.0648472411,56593.6248979680,36924.2752943521,53345.3608895090,55638.4120265797,61768.5950275525,61856.8108295188,57844.8413299679,65874.9371836622,21506.7448300610
8771205486,11193,-2,0,54261.4667833083,56595.6325679438,36914.2734475637,53331.5262182213,55639.9451563794,61741.9112684198,61834.2154165186,57833.5010365289,65850.8938147400,21509.3730525748
8771205486,11193,-2,0,54242.2904931154,56526.9945901656,36863.2421270883,53256.0743302223,55581.1630130278,61737.2875436271,61786.3355295204,57752.9387158642,65835.5625167431,21494.2607731207
8771205486,11193,-2,0,54239.4067489683,56479.0051938959,36840.0870000342,53223.8055982478,55539.7076699520,61757.0965540548,61780.0083271724,57716.9223332683,65845.9415621331,21481.6550392121
8771205486,11193,-2,0,54259.2765978802,56512.4785278558,36873.3169800577,53273.8635029774,55570.4067690363,61778.0493279839,61823.6781910700,57772.1758445413,65865.0691815387,21487.6415460490
8771205486,11193,-2,0,54274.3767096375,56583.3675295462,36922.0972766208,53341.0656925305,55633.8004694839,61778.0736633776,61862.8460071430,57845.4253794154,65867.7825779303,21503.2648687697
8771253316,11194,-2,0,54271.6146424587,56605.7074209132,36928.3514727878,53351.8706073093,55653.1106043419,61753.1055494969,61858.5994809518,57855.4880646880,65851.0154917082,21506.9638486038
8771253316,11194,-2,0,54253.9836497622,56549.7238478308,36885.0223044013,53290.8861108327,55606.3866485418,61736.9955189033,61817.3874918125,57787.9451796239,65835.2218212321,21492.4356185972
8771253316,11194,-2,0,54245.3202496243,56481.5360748350,36845.8544883283,53234.4401652711,55545.9983692095,61743.9676091829,61793.4292967681,57717.9444198015,65840.3322538977,21474.0258933041
8771253316,11194,-2,0,54253.0224017132,56493.5942623866,36862.4877298852,53257.9603232298,55552.7392732494,61764.6161906914,61821.8530365465,57744.7376882056,65863.1710208344,21475.2426629864
8771253316,11194,-2,0,54262.3915282669,56562.7311157345,36909.3090272599,53325.4545375067,55608.7106786349,61764.1903213026,61853.1726881688,57822.4892709042,65870.3864650504,21492.7033079274
8771253316,11194,-2,0,54256.2346736745,56583.1485110034,36909.7713997392,53331.1490196198,55624.7111999571,61736.4236371526,61835.4078508073,57828.5487839220,65847.7180458692,21500.8069940114
8771253316,11194,-2,0,54247.3157519033,56530.5110545474,36866.2110451131,53272.7927456570,55579.3135231107,61726.3731195769,61791.1782728559,57761.1032404324,65831.3159905519,21494.2607731207
8771253316,11194,-2,0,54250.8200485883,56473.4688918414,36834.3560148306,53230.8385270115,55533.6481569342,61743.2618827671,61778.0493279839,57711.6902236345,65841.7923775165,21479.3918476031
8771269483,11195,-2,0,54264.8128999346,56484.1764650456,36849.6994805243,53256.9504043935,55545.3291458842,61762.5841853220,61806.6312478210,57739.3717339067,65860.2629412937,21473.5391854312
8771269483,11195,-2,0,54275.4596346547,56550.7459343639,36893.3450090282,53319.3828567921,55601.3735574507,61758.4350007054,61841.9419040012,57811.4410021890,65865.0448461451,21485.6947145573
8771269483,11195,-2,0,54266.1148434947,56587.9790866421,36907.4108665555,53340.7006616258,55633.8248048775,61733.6980730643,61837.9995702306,57837.8449042947,65845.2723388078,21495.9155798886
8771269483,11195,-2,0,54242.6676917169,56540.0626965534,36867.5981625509,53286.3840630082,55594.6204857140,61710.6281198880,61791.9691731494,57777.3106126006,65821.6548392745,21487.3981921125
8771269483,11195,-2,0,54232.5563356570,56464.7446532194,36820.7525297825,53218.7560040663,55531.6891577457,61720.6056312828,61760.5156768621,57699.4981914179,65822.2632241156,21466.7861136945
8771269483,11195,-2,0,54247.1089010573,56466.9348386475,36833.6502884149,53237.8471203815,55535.3151313990,61752.9960402255,61789.4261245134,57718.9786740314,65851.6117088526,21462.7951091366
8771269483,11195,-2,0,54264.1680120030,56540.3790566708,36887.6383592183,53311.2304999207,55598.4289748196,61757.4372495659,61834.4466027583,57806.9024512740,65866.6631498225,21474.2935826342
8771269483,11195,-2,0,54259.0575793374,56576.9186502301,36903.0061603056,53329.1535173409,55626.9135530821,61730.2911179539,61825.3695009284,57832.9778255656,65845.9780652235,21485.3540190463
8771311939,11196,-2,0,54236.5960110022,56529.7444896475,36865.2497970640,53269.5926413926,55587.9525878550,61712.3315974432,61777.3557692650,57774.7918993583,65822.1415471474,21485.0984974130
8771311939,11196,-2,0,54225.8884377981,56460.4494562409,36827.9314709081,53209.0096789111,55531.8351701076,61724.7304805058,61749.9662837166,57713.2598565246,65822.6404227171,21480.4382695298
8771311939,11196,-2,0,54237.6789360195,56451.7252176188,36836.9720696475,53221.0678664627,55529.8640032223,61759.2137333020,61772.1723304185,57722.2517844768,65848.1074121676,21483.6627091879
8771311939,11196,-2,0,54265.6403033186,56525.7899881801,36892.4324317665,53299.9267095722,55591.9435924129,61778.7307190060,61828.9346360975,57797.7036724759,65871.6519055200,21501.8047451509
8771311939,11196,-2,0,54272.9044183219,56589.1106824467,36925.4798963376,53350.8241853825,55643.8023162723,61749.3457311786,61845.8842377718,57850.0126011177,65861.1876862522,21514.1306220326
8771311939,11196,-2,0,54249.5059373314,56557.8275339149,36887.8573777611,53306.6554459153,55615.9869613351,61711.6258710275,61803.3824727693,57797.0222814538,65828.1523893779,21502.1211052683
8771311939,11196,-2,0,54231.4247398525,56475.8537604187,36827.7732908494,53229.2202233341,55545.9983692095,61714.0594103921,61756.7801939374,57707.9790761035,65816.0698664328,21475.5225200134
8771311939,11196,-2,0,54243.9087967928,56459.1718480745,36828.0044770890,53229.8772789625,55531.8838408949,61749.5404143278,61776.1876703700,57705.8740645531,65841.4273466118,21465.9465426137
8771333025,11197,-2,0,54264.8615707219,56522.9062440330,36879.8753686452,53300.6081005943,55590.7511581243,61767.3417547797,61823.0698062288,57786.9595961812,65864.6068090595,21475.2426629864
8771333025,11197,-2,0,54265.3604462917,56580.2282637659,36910.4649584581,53338.7173270437,55636.6842136309,61748.0924584059,61831.3316723716,57834.3406076097,65856.5274583690,21496.2076046124
8771333025,11197,-2,0,54246.8047086367,56559.3119929273,36884.4869257411,53300.2065665991,55616.3763276334,61718.8291475467,61793.7943276728,57797.6306662949,65835.8910445573,21499.1886903340
8771333025,11197,-2,0,54228.6261695832,56488.5568359019,36835.4997783319,53232.9070354714,55558.4945938467,61716.8579806614,61755.1862256536,57726.8390061790,65827.1546382385,21487.1791735697
8771333025,11197,-2,0,54231.9601185127,56456.9329918591,36822.5776843060,53219.2548796361,55534.1348648071,61744.0527830606,61761.7811173317,57707.9547407098,65844.0920722160,21479.4526860872
8771333025,11197,-2,0,54250.9903963438,56510.4951932736,36866.1258712353,53282.2835491789,55583.7912355416,61770.1646604427,61811.6443389121,57780.8392446793,65872.9295136864,21485.7920561319
8771333025,11197,-2,0,54263.0972546826,56583.9637466906,36911.9250820769,53348.1716274751,55650.1416863171,61759.8951243241,61843.9009031897,57855.8287601991,65874.7546682098,21506.4771407309
8771333025,11197,-2,0,54250.4063468963,56578.3787738488,36897.1169950433,53324.7366433941,55644.4350365071,61731.3983783648,61814.4672445750,57834.7664769985,65850.1880883243,21512.0499458758
8771384970,11198,-2,0,54235.9876261611,56505.3604252144,36846.7062271059,53247.4717685685,55582.1120933800,61730.0842671079,61770.3958466823,57749.6291023284,65839.6021920883,21498.4586285246
8771384970,11198,-2,0,54239.1147242446,56468.6261485059,36833.1879159356,53226.3608145807,55550.7802740609,61752.4971646558,61772.2088335089,57724.4663052986,65856.4057814008,21483.5897030070
8771384970,11198,-2,0,54253.2657556497,56513.1112480906,36870.5792482725,53277.3799673593,55588.4271280311,61763.4602594932,61810.5370785012,57784.5260568166,65870.8853406201,21482.3729333247
8771384970,11198,-2,0,54260.3473552006,56574.2174215354,36905.6465505162,53328.3382816537,55639.7869763207,61744.8923541414,61830.7841260146,57843.4177094397,65864.0470950056,21490.3306070469
8771384970,11198,-2,0,54248.5325215855,56572.5139439802,36891.8848854095,53315.2701752659,55637.4021077434,61719.4497000846,61809.0404517920,57826.8818094573,65839.2128257900,21493.7132267637
8771384970,11198,-2,0,54234.8195272661,56507.3559274933,36845.8909914187,53253.4947784958,55582.8178197957,61711.3825170910,61769.1182385159,57754.6543611163,65820.5475788636,21487.9457384696
8771384970,11198,-2,0,54231.3882367620,56450.3867709683,36815.0580476694,53216.0426076748,55532.6382380979,61724.3289465106,61757.2425664167,57705.3021828024,65824.9766205072,21475.0966506246
8771384970,11198,-2,0,54243.1909026803,56477.3260517343,36841.0239126896,53262.6327188099,55554.6496016506,61741.6800821802,61794.7069049345,57751.0283874630,65842.1087376339,21476.2525818227
8771417006,11199,-2,0,54259.0332439437,56556.0023793914,36894.2332508963,53341.3090464670,55622.9347162210,61743.2253796767,61837.5858685386,57836.7741469743,65848.7888031896,21497.1566849645
8771417006,11199,-2,0,54250.6253654391,56571.5040251439,36891.9578915904,53337.6587374201,55632.0604888382,61710.5429460103,61817.2171440570,57829.7412182107,65824.9766205072,21501.8169128477
8771417006,11199,-2,0,54234.8681980534,56506.9665611950,36841.1334219610,53262.4137002670,55573.6312086944,61703.1814894324,61769.8848034157,57745.6746008610,65808.1486958010,21478.0168978621
8771417006,11199,-2,0,54232.9457019554,56454.4264463135,36813.2207254491,53221.6032451229,55525.6904832120,61720.0094141385,61758.0943051943,57699.5590299020,65817.9558594403,21460.5440852243
8771417006,11199,-2,0,54244.0913122452,56478.5063183261,36836.1568339604,53257.0964167554,55545.4143197620,61736.2046186098,61791.2634467336,57740.7101805572,65836.9618018778,21469.0736406972
8771417006,11199,-2,0,54252.8885570482,56541.8756833800,36876.9551214077,53316.0489078626,55598.5871548783,61730.4006272253,61822.4492536909,57805.0651290537,65838.4705962838,21487.7997261077
8771417006,11199,-2,0,54246.5613547002,56564.1669039596,36883.8298701127,53321.7433899757,55617.3740787729,61707.8295496187,61811.1089602519,57815.3955036564,65821.6183361840,21501.5492235176
8771417006,11199,-2,0,54225.9127731917,56509.1932497136,36842.7882287289,53260.7953965896,55571.1246631489,61687.6555082863,61767.1714070242,57749.6047669348,65801.2009409151,21489.3936943915
8771433328,11200,-2,0,54216.5801497285,56437.3551676709,36798.6681600489,53201.9767501475,55512.8292276702,61700.7236146741,61742.1789577499,57685.2376507414,65802.0040089054,21468.0272187704
8771433328,11200,-2,0,54228.3584802531,56450.3867709683,36817.8566179387,53231.8971166351,55524.1695211091,61729.3542052985,61778.3535204045,57718.6501462172,65826.7287688497,21462.8924507111
8771433328,11200,-2,0,54243.6654428564,56528.6250615398,36871.4553224437,53309.6852024242,55591.3230398750,61728.4172926432,61824.0188865810,57806.5252526725,65836.4507586112,21476.9461405416
8771433328,11200,-2,0,54237.2652343275,56557.9492108831,36879.9118717357,53321.2323467091,55618.8463700885,61703.6560296085,61815.3554864431,57822.7934633248,65814.7070843886,21480.5721141949
8771433328,11200,-2,0,54224.1727925460,56512.9530680319,36841.4254466847,53262.5475449321,55580.0679203137,61699.4338388109,61772.9510630151,57758.1586578013,65800.0693451106,21475.8023770403
8771433328,11200,-2,0,54219.5369000565,56457.6995567589,36810.5316644513,53213.4143851610,55534.8527589197,61722.3334442317,61753.6774312476,57704.0732454233,65811.7503340606,21470.2174041986
8771433328,11200,-2,0,54233.8096084298,56472.8726746971,36833.1392451483,53235.8759534962,55547.8113560361,61752.5336677462,61778.3170173140,57732.2779666589,65840.2105769295,21475.9118863117
8771433328,11200,-2,0,54252.4018491752,56545.1731292190,36888.1372347880,53302.7496152351,55608.9053617841,61762.8518746521,61819.0422985804,57809.5793445750,65859.7153949366,21491.3283581864
8771477022,11201,-2,0,54251.9273089991,56589.5973903196,36910.2946107026,53331.1490196198,55642.6707204678,61737.2023697493,61824.3839174857,57844.6101437283,65847.3773503582,21501.9994283001
8771477022,11201,-2,0,54235.5374213786,56548.7382643882,36871.8203533484,53285.4593180497,55609.0635418428,61708.0729035552,61785.2161014126,57789.4053032426,65819.6836723892,21495.0273380205
8771477022,11201,-2,0,54223.0168613478,56468.7234900805,36817.2969038848,53215.4707259241,55540.4985702455,61708.2797544012,61751.7427674527,57707.6870513797,65807.3456278107,21473.1254837392
8771477022,11201,-2,0,54234.0407946694,56458.4174508714,36817.9539595133,53227.6505904439,55535.1082805530,61742.6291625324,61778.0858310744,57716.7276501192,65824.0518755486,21465.4233316503
8771477022,11201,-2,0,54258.9845731565,56534.7940838291,36874.1200480480,53312.0700710015,55600.6921664286,61759.7612796591,61833.3636777410,57807.8393639294,65840.3930923818,21484.5996218433
8771477022,11201,-2,0,54265.2144339298,56585.6793919426,36899.2950127746,53347.2590502134,55643.9726640278,61734.1726132404,61841.3821899473,57846.3379566772,65829.6368483903,21495.3071950475
8771477022,11201,-2,0,54246.5735223971,56548.7504320850,36865.9433557830,53296.2033943443,55606.4839901163,61708.1945805234,61800.1580331112,57787.1786147240,65807.8445033804,21485.4635283177
8771477022,11201,-2,0,54230.7798519209,56475.7199157537,36820.6795236016,53232.7245200191,55543.8325191750,61714.5582859618,61766.4778483053,57714.7564832339,65804.4375482700,21467.1754799928
8771505085,11202,-2,0,54240.3558293205,56457.8820722112,36819.1463938019,53234.0629666696,55529.3894630462,61737.3118790207,61779.7649732360,57712.5419624121,65827.2519798130,21464.4620836013
8771505085,11202,-2,0,54256.7943877283,56512.9895711223,36858.1073590290,53290.2047198106,55574.2882643228,61741.6679144833,61818.2148951965,57776.6048861849,65841.4151789149,21478.8443012460
8771505085,11202,-2,0,54257.2810956012,56565.7365368498,36887.1029805580,53330.9543364707,55617.5322588316,61717.8313964072,61829.8958841465,57826.0544060733,65830.4155809870,21493.9200776096
8771505085,11202,-2,0,54240.5748478633,56542.3502235561,36861.7333326822,53295.3759909604,55598.3803040323,61688.2638931274,61796.7754133944,57789.6973279664,65803.7318218543,21492.8493202892
8771505085,11202,-2,0,54228.0664555294,56465.3773734542,36808.0616219962,53222.3576423259,55535.5463176386,61693.5446735486,61755.0402132918,57704.8763134136,65793.3406087675,21474.6221104485
8771505085,11202,-2,0,54239.6744382984,56439.1316514071,36803.6812511400,53217.7582529268,55516.3213566583,61721.4695377573,61772.5981998073,57698.1354093737,65816.7999282421,21465.3989962567
8771505085,11202,-2,0,54257.5487849314,56498.4248380253,36850.3322007591,53285.1307902355,55566.2210813292,61731.5078876362,61819.3708263946,57772.9180740475,65833.9685484593,21471.9573848442
8771505085,11202,-2,0,54254.4460222415,56554.8464481933,36879.0844683517,53325.1138419957,55609.3799019602,61708.8759715455,61827.9977234421,57818.7537879795,65819.9878648098,21481.3021760043
8771520994,11203,-2,0,54237.1192219656,56537.0451077413,36855.0289317328,53289.1704655807,55589.7290715912,61687.9718684037,61790.9349189194,57781.9951758774,65793.6448011881,21477.8708855002
8771520994,11203,-2,0,54222.7248366241,56470.8163339340,36808.7186776247,53226.6406716076,55534.9987712816,61688.3490670052,61754.4926669347,57711.9579129646,65785.8696429182,21464.9609591710
8771520994,11203,-2,0,54228.6018341896,56439.3750053436,36795.5167265718,53210.7983303441,55511.3204332641,61720.7516436447,61760.1506459574,57691.5648530893,65806.1410258252,21458.2808936153
8771520994,11203,-2,0,54251.5501103976,56491.8299463473,36838.8580626551,53271.1257711923,55556.7546132010,61742.9698580434,61810.2815568679,57757.4772667792,65832.4962571437,21467.9542125895
8771520994,11203,-2,0,54258.9480700660,56563.6436929963,36882.5035911590,53335.3347073269,55618.3231591251,61728.2469448876,61839.3258491843,57831.0431617707,65832.9829650167,21486.4612794572
8771520994,11203,-2,0,54243.7871198246,56560.8086196365,36869.5936648298,53317.3630191194,55615.0622163765,61701.6970304200,61811.2793080074,57814.3247463360,65810.8985952830,21494.4067854826
8771520994,11203,-2,0,54232.4103232952,56491.5500893203,36821.4947592887,53246.9242222114,55558.3120783943,61704.1792405719,61769.2277477873,57733.7137548840,65802.5880583529,21486.2909317017
8771520994,11203,-2,0,54241.9863006948,56453.4286951740,36808.2441374486,53228.7821862484,55529.3164568653,61726.1662687309,61779.7528055391,57707.4558651401,65818.2722195577,21475.4130107420
8771552005,11204,-2,0,54254.3730160606,56491.0390460538,36842.3988624306,53278.7549171002,55560.9768039985,61732.3352910201,61819.8210311771,57762.7458795035,65831.6688537598,21477.2868360527
8771552005,11204,-2,0,54252.7668800799,56549.2371399579,36875.0204576129,53322.8384826898,55607.5182443463,61714.9111491697,61833.4610193156,57813.7771999790,65817.3231392055,21486.5586210318
8771552005,11204,-2,0,54233.6392606743,56545.9031910284,36862.5242329757,53300.4012497483,55603.2960535487,61691.3788235141,61799.0021019130,57793.3963078005,65791.0165786743,21486.6802980000
8771552005,11204,-2,0,54214.3412935131,56483.5437448108,36817.9539595133,53233.3450725570,55550.9141187260,61686.0737076993,61753.0325433160,57720.9741763104,65777.6807829564,21475.2183275928
8771552005,11204,-2,0,54214.9131752638,56432.6584366973,36791.6108958916,53194.8099767188,55508.2055028774,61710.6889583721,61740.3781386201,57677.0609584764,65792.8417331978,21461.8581964812
8771552005,11204,-2,0,54233.2255589823,56463.6738958990,36822.6628581838,53236.9832139071,55532.5408965233,61738.2001208888,61779.8501471137,57724.9043423842,65823.2609752551,21465.9222072201
8771552005,11204,-2,0,54249.4085957568,56543.7495086907,36876.6995997744,53312.3864311189,55599.3293843845,61732.1649432646,61822.5952660527,57810.0538847511,65834.7472810560,21487.4955336871
8771552005,11204,-2,0,54241.0737234331,56562.6094387663,36875.2516438525,53315.2945106595,55614.1496391148,61699.0323048158,61806.0228629799,57812.0858901206,65811.2392907941,21496.0859276441
8771602637,11205,-2,0,54222.2867995385,56500.4081726074,36824.8895467023,53246.0481480402,55561.3296672064,61686.1345461834,61758.2038144657,57734.3099720283,65791.8926528456,21482.7014611389
8771602637,11205,-2,0,54216.0204356746,56440.2510795148,36791.7204051630,53201.5995515460,55509.9211481295,61700.1273975298,61741.0838650358,57682.3782419880,65798.8039046410,21464.3525743299
8771602637,11205,-2,0,54225.4260653188,56456.2759362306,36817.1265561293,53232.6393461413,55527.8319978528,61724.8764928677,61774.3016773625,57719.0760156060,65819.4768215432,21464.4255805108
8771602637,11205,-2,0,54237.9709607432,56523.0400886981,36866.5882437146,53291.7013465199,55585.2513591603,61730.2667825602,61806.8624340607,57790.7802529836,65829.2109790015,21480.1097417156
8771602637,11205,-2,0,54239.0660534573,56556.2822364184,36882.9172928510,53308.3954265609,55612.1298014422,61724.9129959581,61803.6866651899,57811.4044990985,65822.9567828345,21497.4487096883
8771602637,11205,-2,0,54226.0344501599,56514.1455023205,36850.5390516051,53257.4006091760,55576.3446050859,61706.2964198190,61766.0763143102,57755.3114167447,65807.9175095614,21492.2166000544
8771602637,11205,-2,0,54220.8753467070,56448.1722501465,36809.6920933705,53200.6504711938,55523.0987637887,61715.4221924363,61740.7310018280,57692.4044241701,65812.6385759287,21477.0069790258
8771602637,11205,-2,0,54232.6658449284,56454.3777755262,36823.2834107217,53220.9096864040,55528.0996871830,61737.8715930746,61769.9213065062,57716.2166068526,65836.7427833349,21472.9794713774
8771612099,11206,-2,0,54244.6631939959,56526.0090067229,36872.1488811627,53292.7721038403,55587.5875569503,61736.1316124289,61814.1630521544,57801.1471306767,65845.0289848714,21487.7632230172
8771612099,11206,-2,0,54236.2309800976,56562.9866373678,36882.2602372225,53309.6608670305,55613.3587388213,61711.1878339419,61807.2518003590,57819.6055267572,65822.1293794506,21498.1544361040
8771612099,11206,-2,0,54219.0623598804,56515.6056259393,36840.1478385183,53252.9593998356,55569.6158687428,61690.6000909174,61764.7135322660,57751.2352383090,65797.8669919856,21486.0110746747
8771612099,11206,-2,0,54211.6765679089,56448.4886102639,36799.2522094964,53199.9690801717,55515.3601086093,61693.9583752406,61743.9554414860,57688.0483887075,65795.1657632909,21464.4255805108
8771612099,11206,-2,0,54224.5743265412,56449.3525167384,36810.8966953560,53219.7902582963,55520.0203364925,61721.1775130335,61769.7022879634,57705.9835738245,65813.3564700412,21461.5905071511
8771612099,11206,-2,0,54243.8966290960,56516.0923338122,36858.0586882417,53285.1429579323,55576.6487975065,61731.9945955091,61812.0458729072,57776.5927184880,65826.4245764291,21471.6045216364
8771612099,11206,-2,0,54249.8344651456,56568.1579085176,36886.2147386900,53322.0597500931,55620.7201953992,61717.3081854438,61820.4172483214,57819.6298621508,65822.7864350790,21482.0565732073
8771612099,11206,-2,0,54236.0849677357,56537.3858032523,36853.5079696299,53278.0370229877,55590.1427732831,61690.0890476509,61781.6266308499,57771.0685841304,65802.2960336292,21484.5631187528
8771643109,11207,-2,0,54223.0533644383,56463.2845296006,36799.5564019170,53207.5860583829,55523.5854716616,61695.0169648642,61745.2817204398,57690.9199651577,65798.5362153109,21473.7947070645
8771643109,11207,-2,0,54231.1083797351,56450.8856465381,36799.4347249488,53208.6203126128,55511.2839301736,61730.8751674014,61764.9082154152,57690.9564682482,65821.2776406730,21467.9055418022
8771643109,11207,-2,0,54254.3608483637,56524.3907030454,36860.4192214253,53288.3552298935,55578.3401073649,61748.0924584059,61819.6141803311,57782.0316789679,65846.0875744950,21487.3130182348
8771643109,11207,-2,0,54256.4415245205,56578.0624137314,36891.9943946809,53325.9169099860,55624.0054735414,61723.8544063345,61827.8760464739,57827.9038959904,65834.2240700926,21498.8723302166
8771643109,11207,-2,0,54236.3648247626,56544.3700612287,36858.2290359972,53276.7594148213,55594.4866410489,61697.0976410209,61784.2670210605,57777.2497741165,65809.3289623928,21490.7564764357
8771643109,11207,-2,0,54221.1795391276,56475.9511019933,36812.6731790921,53211.4067151853,55534.9987712816,61705.6515318874,61751.6210904845,57707.7843929543,65805.1067715953,21474.9384705659
8771643109,11207,-2,0,54230.0862932020,56459.7802329156,36813.6830979284,53209.5085544809,55523.8774963854,61734.0144331817,61766.2344943689,57706.6284617561,65828.7972773096,21469.1101437877
8771643109,11207,-2,0,54248.6663662506,56514.1333346237,36856.7567446816,53269.6413121799,55570.7109614569,61753.3854065238,61808.9674456110,57774.1348437298,65846.4282700060,21473.8068747613
8771675836,11208,-2,0,54252.9615632291,56572.3192608310,36889.3905075608,53318.1660871098,55619.1383948122,61732.5664772598,61830.5651074718,57829.6925474234,65839.8212106311,21486.8993165428
8771675836,11208,-2,0,54234.5761733296,56552.5345857969,36865.0916170053,53288.6229192237,55601.9089361109,61702.9381354959,61796.9335934531,57796.9979460601,65813.0522776207,21490.2089300787
8771675836,11208,-2,0,54218.5999874011,56475.1358663062,36812.2351420065,53214.4364716942,55538.5517387539,61700.4802607377,61752.8986986509,57711.5685466662,65801.2009409151,21476.7392896957
8771675836,11208,-2,0,54225.3652268347,56443.7310408062,36802.0994505530,53202.0375886316,55511.6246256847,61728.3686218559,61763.3385825250,57692.4044241701,65819.9878648098,21465.8857041296
8771675836,11208,-2,0,54246.3545038542,56503.0120597275,36851.0500948717,53273.1577765617,55561.7920396857,61742.4466470800,61813.6276734942,57769.7301374799,65840.5999432278,21478.7834627619
8771675836,11208,-2,0,54250.9295578597,56564.0452269914,36886.1295648122,53321.6582160979,55611.1077149091,61724.9008282613,61830.5772751686,57824.0832391880,65830.2574009283,21494.8448225682
8771675836,11208,-2,0,54238.0683023178,56551.7315178066,36866.1380389321,53294.5850906669,55601.1180358174,61696.7447778130,61798.7344125829,57793.7613387052,65805.5326409841,21498.2517776786
8771675836,11208,-2,0,54218.7094966725,56479.1268708641,36817.1265561293,53227.6140873534,55541.9343584706,61689.4684951129,61756.2083121868,57717.0683456302,65789.4591134810,21481.7158776962
8771736063,11209,-2,0,54220.3278003500,56437.3429999741,36797.3053780047,53203.1570167393,55509.3857694693,61712.9764853748,61753.5192511889,57689.5328477199,65801.5294687293,21468.3800819783
8771736063,11209,-2,0,54240.7816987093,56479.0051938959,36835.8161384494,53255.2225914447,55546.3025616301,61742.4344793832,61794.3297063330,57747.0130475115,65824.4290741501,21474.9263028690
8771736063,11209,-2,0,54253.4117680116,56553.7756908728,36886.4580926264,53322.2909363327,55608.6863432413,61728.7701558510,61830.1757411734,57824.8376363910,65830.0018792950,21493.5307113113
8771736063,11209,-2,0,54240.2706554428,56556.9271243500,36875.1177991875,53306.8987998517,55609.1000449333,61699.2999941459,61805.0981180213,57810.0782201448,65806.2140320062,21488.6758002790
8771736063,11209,-2,0,54224.7690096903,56489.5667547382,36822.0666410394,53231.9092843319,55551.5955097481,61698.6916093047,61758.5566776736,57725.7560811618,65793.6934719754,21469.5725162669
8771736063,11209,-2,0,54230.5973364685,56449.3768521320,36807.0395354631,53207.4765491115,55518.8400699007,61730.7899935236,61760.4305029843,57692.6356104098,65815.8143447995,21464.8027791123
8771736063,11209,-2,0,54249.1895772140,56490.6131766650,36846.6210532281,53261.5741291863,55554.4062477142,61751.1343826116,61803.5041497375,57752.1113124803,65842.3520915703,21474.6951166294
8771736063,11209,-2,0,54259.1792563056,56560.1393963112,36896.5937840799,53320.9159865917,55613.6385958482,61741.0716973390,61833.9233917949,57821.2238304346,65844.7977986317,21492.1314261767
8771743174,11210,-2,0,54246.9750563922,56567.0506481067,36892.1282393459,53308.5414389228,55617.6661034966,61704.4104268115,61814.4550768782,57812.8767904141,65822.9081120473,21497.7407344121
8771743174,11210,-2,0,54221.9339363306,56501.6857807738,36840.3303539707,53238.5285114036,55560.1615683114,61680.2332132243,61762.9370485298,57737.0598715103,65797.7331473206,21483.3585167673
8771743174,11210,-2,0,54214.5968151464,56439.5210177054,36800.4446437851,53188.2394204344,55507.0495716793,61694.7006047468,61742.3979762927,57679.2876469950,65797.1369301763,21465.8978718264
8771743174,11210,-2,0,54233.3837390410,56459.4882081919,36818.8665367750,53223.9029398224,55522.9405837300,61721.9197425397,61778.2196757395,57716.6181408478,65817.8220147753,21460.1060481387
8771743174,11210,-2,0,54251.8421351214,56534.1005251102,36868.9852799887,53302.0803919098,55590.3496241291,61721.6033824223,61822.8386199892,57801.1592983736,65826.5949241846,21472.8699621060
8771743174,11210,-2,0,54248.9218878839,56557.9978816704,36873.0979615148,53313.2990083806,55611.0225410313,61697.1949825955,61813.1896364086,57812.5725979935,65804.2185297272,21480.3530956521
8771743174,11210,-2,0,54233.9556207917,56499.1305644410,36826.1793225656,53251.1585807058,55562.0475613190,61691.2084757586,61768.4246797970,57738.8971937306,65787.0742449037,21471.5923539395
8771743174,11210,-2,0,54230.3174794416,56442.5751096080,36793.2170318722,53209.8735853856,55515.3357732157,61713.1833362208,61757.7657773801,57687.7563639838,65800.9575869787,21456.6139191505
8771771059,11211,-2,0,54249.1044033362,56466.9591740412,36820.1563126382,53249.7471278744,55536.7630873209,61737.9445992555,61796.8605872722,57729.9052657784,65828.3227371335,21460.9456192195
8771771059,11211,-2,0,54265.5064586536,56541.1821246611,36871.8933595294,53317.2656775449,55599.8769307415,61739.4655613584,61835.0428199026,57804.0430425206,65839.8212106311,21482.3607656279
8771771059,11211,-2,0,54264.6182167855,56576.2980976921,36886.5919372915,53329.9079145439,55627.3637578645,61714.6921306269,61831.3073369780,57820.8466318331,65821.6061684872,21500.9651740701
8771771059,11211,-2,0,54252.3045076007,56537.1789524064,36852.5710569745,53281.4561457949,55592.0044308970,61698.1562306445,61794.9624265678,57767.2235919344,65801.2739470961,21502.4983038698
8771771059,11211,-2,0,54243.6654428564,56465.6815658748,36805.2630517269,53220.2404630787,55530.9834313300,61696.0025483068,61764.3119982708,57693.6455292461,65793.5839627040,21481.6428715153
8771771059,11211,-2,0,54253.2414202560,56460.6319716932,36809.2905593753,53232.1648059652,55526.1285202976,61719.4740354783,61785.8244862538,57705.8253937658,65808.3555466470,21465.3138223789
8771771059,11211,-2,0,54270.3005312018,56534.5020591053,36863.1447855137,53307.8600479007,55590.6903196402,61723.0026675569,61832.1955788460,57792.8000906562,65820.0608709907,21475.0723152309
8771771059,11211,-2,0,54261.3451063401,56573.0006518531,36878.4395804201,53326.5617979176,55624.6868645635,61698.0588890699,61824.6151037253,57819.4960174857,65803.5249710083,21482.0565732073
8771801076,11212,-2,0,54237.3017374180,56525.4614603659,36836.5340325619,53259.4691176359,55584.3509495954,61683.1047896745,61774.2286711815,57753.2185728912,65782.8277187125,21470.8136213429
8771801076,11212,-2,0,54221.0213590689,56456.1542592624,36794.4216338577,53195.8685663424,55527.0045944689,61696.9516286590,61743.6755844591,57683.9965456655,65786.5145308498,21458.6580922168
8771801076,11212,-2,0,54230.9988704637,56455.0835019420,36805.4090640888,53212.0516031169,55528.8054135987,61725.6308900707,61768.9600584572,57701.6762091492,65814.7922582663,21462.8194445302
8771801076,11212,-2,0,54248.2648322554,56519.5844628004,36853.1916095125,53275.6643221072,55579.6785540154,61736.6183203018,61811.1941341296,57772.2001799350,65830.0748854760,21478.1750779208
8771801076,11212,-2,0,54249.7006204806,56570.4697709139,36882.0047155892,53313.6032008012,55619.6616057756,61719.5227062656,61819.5168387565,57813.7285291917,65822.3970687807,21490.0020792327
8771801076,11212,-2,0,54238.8105318240,56548.7139289945,36859.8595073715,53280.1176991444,55597.8935961593,61699.9570497743,61786.0191694030,57774.4998746345,65804.0481819717,21484.6969634179
8771801076,11212,-2,0,54233.4932483124,56478.5793245071,36814.6078428870,53218.0016068633,55541.1434581771,61705.5541903128,61755.6607658297,57700.8853088557,65802.3203690228,21470.2295718954
8771801076,11212,-2,0,54247.3035842064,56462.2989461580,36818.0269656942,53222.8078471084,55529.5111400144,61738.1879531920,61777.7694709570,57698.4274340975,65825.7553531038,21470.9109629175
8771852118,11213,-2,0,54264.5330429077,56523.6241381456,36869.4719878616,53295.0109600557,55582.8908259767,61741.4853990310,61825.0409731141,57777.9920036227,65841.0866511007,21481.0709897646
8771852118,11213,-2,0,54254.9327301144,56571.4796897502,36893.6126983583,53325.4667052035,55618.9923824503,61714.2662612381,61826.0752273441,57817.3179997544,65821.3993176412,21483.1151628309
8771852118,11213,-2,0,54232.8483603808,56540.2695473994,36861.0762770538,53274.7517448455,55591.4082137527,61694.6762693531,61781.5901277594,57767.3939396899,65797.6236380492,21478.7834627619
8771852118,11213,-2,0,54218.1862857091,56473.1890348145,36815.6299294201,53209.7884115078,55532.9789336090,61694.5910954754,61745.0870372906,57696.4075964249,65792.0873359947,21469.3778331178
8771852118,11213,-2,0,54221.8852655433,56446.6147849532,36807.0152000694,53203.2056875266,55513.0847493034,61717.8192287104,61755.8554489789,57688.8392890010,65808.2582050724,21464.6932698409
8771852118,11213,-2,0,54237.2895697211,56495.2855722450,36844.7107248269,53259.9923285993,55552.2769007701,61729.5123853572,61795.5221406217,57748.4975065239,65824.5872542088,21470.5215966191
8771852118,11213,-2,0,54245.1012310815,56557.0366336214,36879.5468408310,53314.0169024931,55603.1987119742,61717.0283284169,61819.0057954900,57806.3549049170,65819.0996229417,21485.2810128654
8771852118,11213,-2,0,54236.3161539753,56549.8333571022,36867.0019454065,53295.4733325350,55598.2951301545,61692.6199285901,61795.6073144994,57784.3070382738,65797.5627995651,21486.1692547334
8771865773,11214,-2,0,54222.7005012304,56474.5274814650,36813.3910732047,53220.2647984724,55535.6801623036,61683.6158329411,61752.0104567828,57699.6198683861,65784.6285378423,21468.6842743989
8771865773,11214,-2,0,54219.5125646628,56430.3952450882,36791.6352312852,53191.7437171194,55497.5100973701,61702.6826138626,61749.1267126358,57665.7084973406,65794.4965399657,21448.2668791300
8771865773,11214,-2,0,54230.9745350700,56477.8492626977,36832.8958912118,53246.7538744559,55538.4178940888,61723.8179032441,61791.4459621860,57735.2468846837,65811.8111725447,21455.9081927348
8771865773,11214,-2,0,54235.0020427184,56544.7472598302,36874.4242404685,53301.1191438608,55595.7034107312,61716.6389621185,61814.6375923305,57799.0664545200,65810.3267135323,21482.0444055105
8771865773,11214,-2,0,54229.0155358816,56545.2583030968,36863.8261765358,53286.5909138542,55594.4988087457,61705.1283209240,61791.8718315748,57782.2628652075,65796.7232284843,21493.5793820986
8771865773,11214,-2,0,54218.8433413376,56487.2913954323,36821.2635730491,53231.3374025812,55543.3336436053,61701.0521424884,61759.1772302115,57714.4766262069,65790.7488893442,21482.8718088944
8771865773,11214,-2,0,54223.9172709127,56445.5318599360,36800.6149915406,53208.1336047399,55507.8648073664,61715.5073663140,61759.0312178497,57683.3881608243,65805.5204732873,21466.4332504866
8771865773,11214,-2,0,54238.8957057018,56479.2850509228,36832.7012080627,53250.2095003536,55535.6558269100,61734.9270104434,61794.0133462156,57728.9075146389,65825.2199744436,21464.3769097235
8771908352,11215,-2,0,54247.2670811160,56549.5900031658,36882.7712804891,53309.6243639400,55594.2189517188,61724.8278220804,61825.3816686252,57803.0087882907,65828.2010601652,21480.1584125029
8771908352,11215,-2,0,54234.4179932709,56557.7058569467,36877.3931584933,53298.2597351074,55600.7651726096,61692.6320962869,61801.2652935221,57797.5576601140,65804.0238465780,21485.4513606209
8771908352,11215,-2,0,54214.9618460511,56486.1597996278,36823.8917955629,53222.0291145117,55542.3358924658,61678.5175679723,61750.9153640688,57713.1016764659,65787.3662696274,21473.0403098615
8771908352,11215,-2,0,54218.8190059439,56435.2379884237,36797.0741917651,53190.3079288943,55501.4280957471,61708.0120650711,61747.0703718727,57671.6828364806,65802.1135181768,21462.3570720509
8771908352,11215,-2,0,54243.4342566167,56473.5053949319,36833.6137853244,53249.4186000601,55534.9135974038,61732.3596264138,61796.0575192819,57730.9760230988,65832.1798970263,21468.2584050101
8771908352,11215,-2,0,54262.3306897828,56548.5922520263,36882.4305849780,53321.3175205869,55597.5163975578,61730.6074780713,61834.3735965773,57806.1115509805,65837.6796959903,21484.5631187528
8771908352,11215,-2,0,54257.7434680805,56564.3007486247,36880.6419335451,53320.2467632665,55608.3456477303,61701.3198318185,61819.2491494264,57804.0673779143,65815.5953262567,21490.7321410420
8771908352,11215,-2,0,54238.2021469829,56505.0075620065,36832.4091833389,53254.7845543591,55556.4747561741,61680.0506977720,61774.3381804529,57733.4217301603,65794.6060492371,21478.8321335492
8771923271,11216,-2,0,54231.9966216032,56444.9721458821,36795.4802234813,53203.0475074679,55505.0540694003,61697.6451873779,61751.8766121178,57678.6427590634,65798.2928613744,21467.4431693229
8771923271,11216,-2,0,54245.2229080497,56459.1110095904,36815.3135693027,53227.5654165661,55517.6233002184,61722.5037919872,61778.5847066441,57708.8916533652,65818.0775364085,21459.6436756594
8771923271,11216,-2,0,54255.6262888333,56534.1735312911,36864.9577723403,53292.8816131117,55579.3500262012,61722.0049164175,61815.8300266192,57789.1497816093,65825.9378685562,21472.3832542330
8771923271,11216,-2,0,54242.3391639027,56561.2466567221,36875.0082899160,53303.2849938953,55603.0526996123,61694.9804617737,61804.8182609944,57805.4423276552,65803.6588156734,21481.7888838772
8771923271,11216,-2,0,54222.5666565654,56505.2265805493,36830.9125566297,53238.5041760100,55557.4360042231,61681.7906784176,61756.8288647247,57734.3708105124,65784.5311962677,21476.8731343607
8771923271,11216,-2,0,54216.0569387651,56440.9811413242,36793.3873796277,53190.4661089530,55506.3438452635,61702.0863967183,61737.6647422286,57677.3286478065,65796.7353961811,21463.8536987602
8771923271,11216,-2,0,54234.5883410265,56459.2205188618,36816.2139788676,53226.8718578472,55526.0798495103,61730.4492980126,61772.2940073867,57718.2486122220,65826.9234519988,21464.2674004521
8771923271,11216,-2,0,54251.7691289405,56530.7787438775,36864.8482630689,53294.0375443099,55586.3221164807,61730.7534904332,61809.0282840951,57794.5157359082,65838.9938072472,21478.9659782143
8771972163,11217,-2,0,54247.2549134191,56564.2764132310,36880.2038964594,53309.4661838814,55613.4682480927,61706.3694260000,61803.5771559185,57817.0989812116,65824.8671112357,21489.1381727582
8771972163,11217,-2,0,54226.1196240377,56516.8710664089,36840.1478385183,53254.9670698114,55573.3148485770,61680.2210455275,61760.3088260161,57759.0590673662,65797.3072779318,21480.8276358282
8771972163,11217,-2,0,54216.7991682713,56446.9919835547,36796.4049684398,53197.3043545675,55518.5237097833,61700.2612421949,61732.5178064725,57693.2196598573,65796.3216944891,21467.3579954452
8771972163,11217,-2,0,54241.0128849490,56452.1632547045,36813.4762470824,53221.2747173087,55527.5399731291,61745.9387760682,61768.6193629462,57716.1436006717,65828.9311219746,21472.1764033870
8771972163,11217,-2,0,54270.1180157494,56534.3438790466,36877.6000093393,53311.3400091921,55600.9355203651,61751.5359166067,61830.4434305035,57809.3116552449,65853.9722420362,21491.7663952720
8771972163,11217,-2,0,54264.2045150935,56575.4706943082,36895.0849896739,53339.9584321196,55631.8171349017,61709.6060333549,61828.2289096817,57837.5650472678,65829.4665006348,21495.1003442015
8771972163,11217,-2,0,54236.5595079118,56524.3907030454,36848.3366984802,53277.7936690512,55582.3919504069,61681.2431320606,61775.5549501352,57764.6197048143,65797.5141287778,21476.7149543020
8771972163,11217,-2,0,54219.2935461200,56449.3281813447,36798.0354398141,53212.9763480754,55517.5137909470,61700.2247391044,61742.4466470800,57690.0925617738,65797.1734332667,21459.8140234149
8772005934,11218,-2,0,54228.6991757642,56444.8991397012,36807.8304357566,53222.9903625607,55515.2627670348,61733.2357005850,61764.6283583882,57704.8398103232,65821.6548392745,21461.3714886083
8772005934,11218,-2,0,54245.6609451353,56508.9377280803,36855.1262733074,53285.3619764751,55568.9223100239,61744.0649507575,61803.9056837327,57775.8869920723,65838.0568945918,21478.8686366397
8772005934,11218,-2,0,54246.6586962748,56563.4125067566,36883.0754729097,53321.5730422202,55611.8621121121,61715.4586955267,61814.3212322131,57816.5879379451,65826.5584210941,21494.3581146953
8772005934,11218,-2,0,54228.0664555294,56537.8360080348,36852.8752493951,53284.1330390960,55590.3861272196,61681.2674674543,61776.9420675730,57776.1303460088,65796.7353961811,21491.9610784212
8772005934,11218,-2,0,54212.4553005055,56461.3133627153,36797.0985271587,53213.1710312246,55526.5300542928,61680.7685918845,61737.6404068349,57693.1344859795,65783.0589049521,21471.1786522476
8772005934,11218,-2,0,54220.8266759197,56435.4570069666,36791.1241880187,53206.6004749402,55506.1734975080,61709.5938656581,61750.7085132228,57681.5386709072,65802.7097353212,21450.9681078247
8772005934,11218,-2,0,54240.6478540443,56501.2964144755,36842.8003964257,53280.2758792031,55560.3927545510,61726.6894796943,61802.0683615124,57761.6021160022,65823.6381738566,21460.2520605006
8772005934,11218,-2,0,54241.9497976043,56562.9744696710,36877.6000093393,53327.8272383872,55609.5502497157,61708.1580774330,61817.7160196267,57815.2251559009,65816.2645495819,21481.2900083074
8772023845,11219,-2,0,54229.4657406640,56545.3799800650,36858.0708559385,53294.3904075177,55593.2090328825,61696.9029578717,61786.9317466647,57777.1159294514,65797.8426565920,21493.1170096193
8772023845,11219,-2,0,54223.9781093968,56483.9939495933,36820.6065174207,53236.5086737310,55543.4431528767,61702.5366015008,61757.2912372040,57707.9912438003,65800.0450097169,21487.3495213253
8772023845,11219,-2,0,54232.9335342585,56460.0600899425,36815.6786002074,53228.8186893389,55524.6318935884,61723.2216860998,61767.4877671416,57698.1719124642,65819.2456353036,21480.7424619504
8772023845,11219,-2,0,54248.5933600697,56504.3626740749,36850.9405856003,53278.8400909780,55561.0984809668,61729.3420376017,61805.1467888086,57751.7584492724,65832.0095492708,21481.1561636424
8772023845,11219,-2,0,54249.7249558742,56561.1371474507,36881.7370262591,53324.4202832767,55608.1631322779,61699.7015281410,61819.8575342676,57806.8051096994,65818.7954305211,21483.6992122784
8772023845,11219,-2,0,54229.6482561163,56548.5070781485,36860.0785259143,53298.6977721931,55597.7110807070,61671.1926144849,61786.9074112710,57784.0028458532,65787.9868221654,21481.9105608454
8772023845,11219,-2,0,54212.8203314102,56474.2232890445,36806.5284921965,53224.7060078127,55535.4976468513,61668.7347397266,61739.1735366346,57699.6077006893,65771.1588974593,21467.9177094990
8772023845,11219,-2,0,54216.3002927016,56432.2447350053,36788.9583379842,53200.5044588319,55502.6813685198,61699.7745343220,61741.9599392071,57669.0181108764,65787.9503190749,21455.4823233460
8772079748,11220,-2,0,54233.5784221902,56479.2485478323,36832.3118417643,53258.0698325012,55544.8667734050,61716.9188191455,61786.2868587331,57737.5830824737,65813.5389854936,21461.0307930972
8772079748,11220,-2,0,54239.4554197556,56546.0613710871,36872.8546075784,53312.1552448792,55600.9111849714,61700.0178882584,61808.2252161048,57800.7212612879,65809.1464469405,21478.1264071335
8772079748,11220,-2,0,54225.3043883506,56542.9707760941,36858.3750483591,53289.5476641822,55592.8318342810,61673.9303462700,61780.7870597691,57778.3813699210,65785.5654504976,21483.8452246402
8772079748,11220,-2,0,54211.6644002120,56482.3148074317,36811.8336080113,53227.2247210551,55537.8460123381,61667.7369885871,61744.3813108749,57705.5942075262,65773.7871199730,21473.7582039740
8772079748,11220,-2,0,54214.2926227258,56439.6548623705,36786.5126309228,53201.6847254237,55503.4479334197,61684.7352610488,61741.7774237547,57670.8432653999,65781.9273091476,21463.1358046476
8772079748,11220,-2,0,54231.6072553048,56471.5950665307,36813.1477192682,53242.6046898393,55529.7544939509,61702.3662537452,61778.0858310744,57717.0805133270,65798.5727184014,21466.5670951517
8772079748,11220,-2,0,54242.3756669931,56543.5183224511,36860.0906936111,53307.2394953628,55590.2766179482,61702.4392599262,61813.3234810736,57795.4039777763,65804.3158713018,21481.2656729138
8772079748,11220,-2,0,54231.8506092413,56558.5332603306,36860.8085877237,53308.1642403213,55607.0193687766,61678.0308600994,61800.0363561430,57801.3904846132,65785.1517488057,21489.2963528169
8772088307,11221,-2,0,54214.4508027845,56492.0124617996,36809.0593731357,53237.3482448118,55550.7437709704,61661.2637738773,61751.4142396385,57721.0350147945,65766.5595080602,21475.3278368642
8772088307,11221,-2,0,54205.2155208959,56423.6908441388,36768.4436011407,53183.7738757004,55493.8719560200,61673.5166445780,61730.7169873427,57663.2384548855,65771.8159530877,21452.4525668371
8772088307,11221,-2,0,54214.1709457576,56442.3317556715,36794.3851307672,53223.0390333480,55516.6377167757,61698.5942677301,61764.2998305740,57707.0786665386,65791.8074789678,21449.7148350519
8772088307,11221,-2,0,54224.3796433920,56511.5416152004,36843.5426259319,53290.2655582948,55577.6952194333,61699.6893604442,61797.7366614435,57782.7617407773,65799.9720035360,21470.6311058905
8772088307,11221,-2,0,54219.5612354501,56532.2510351931,36849.0910956832,53295.7653572587,55594.9855166187,61680.0872008624,61785.6906415887,57786.5945652765,65785.2125872898,21485.3783544399
8772088307,11221,-2,0,54207.7342341382,56485.4175701216,36813.0017069063,53242.6898637170,55552.4472485257,61668.7469074234,61750.0636252912,57725.5857334063,65771.4752575767,21480.0610709283
8772088307,11221,-2,0,54205.7630672529,56427.1829731270,36776.2065917138,53196.2335972471,55501.8904682263,61678.4323940945,61735.5718983750,57669.7725080794,65775.0768958363,21463.9753757284
8772088307,11221,-2,0,54221.4350607609,56437.1239814313,36789.2503627079,53219.3278858170,55509.0450739582,61705.2621655891,61765.8572957673,57695.2151621362,65793.9368259118,21460.5805883148
8772120686,11222,-2,0,54238.2264823765,56510.5803671514,36836.2176724445,53289.7788504218,55571.5505325377,61707.0751524157,61810.6830908631,57777.5661342339,65804.9607592334,21478.6982888841
8772120686,11222,-2,0,54231.4125721557,56540.5737398200,36846.8522394678,53305.1831545997,55597.6259068292,61678.4445617913,61801.7398336982,57794.8685991161,65783.5942836123,21491.0241657658
8772120686,11222,-2,0,54214.1587780607,56487.7416002147,36806.8448523139,53242.9453853503,55552.9096210049,61670.8762543675,61753.5800896730,57725.1233609270,65764.3084841480,21482.5311133834
8772120686,11222,-2,0,54210.1921088965,56422.2307205200,36770.7432958403,53191.7680525130,55498.2644945731,61682.9952804031,61733.5763960961,57661.8635051445,65770.5261772245,21461.0916315813
8772120686,11222,-2,0,54223.6009107953,56431.6606855578,36790.0412630014,53221.8465990593,55507.9986520315,61707.4888541077,61763.9591350630,57694.4120941459,65794.7885646894,21459.1204646960
8772120686,11222,-2,0,54238.6280163717,56503.3405875418,36841.8148129831,53290.6792599867,55567.2918386496,61709.5330271739,61802.0318584219,57771.1537580082,65806.2261997030,21476.9704759353
8772120686,11222,-2,0,54233.9191177012,56541.9243541673,36861.4169725648,53308.7726251624,55597.2973790150,61688.5680855480,61799.0872757908,57796.3895612190,65791.9291559360,21490.7929795262
8772120686,11222,-2,0,54213.7085732783,56503.5839414782,36829.1604082872,53260.6372165309,55564.3229206249,61668.3697088219,61760.8807077668,57744.5186696628,65769.3824137231,21480.7059588599
8772139858,11223,-2,0,54203.1713478296,56436.3087457442,36785.5757182674,53197.9127394086,55506.1491621144,61679.0286112388,61731.6417323012,57673.7026741533,65769.4919229945,21460.5075821338
8772139858,11223,-2,0,54213.3435423736,56427.0856315524,36788.0457607225,53201.1371790667,55496.4150046560,61700.5289315250,61749.4674081468,57676.7567660558,65787.7313005321,21450.6639154041
8772139858,11223,-2,0,54235.1115519898,56499.8849616440,36844.0049984112,53276.0171853151,55559.9912205559,61720.7394759479,61800.8515918301,57766.3353500663,65810.3510489260,21472.3467511426
8772139858,11223,-2,0,54244.3833369689,56560.3827502477,36880.7514428165,53320.9159865917,55611.3754042392,61701.2711610312,61813.3843195578,57815.6875283802,65805.1797777762,21499.7119012974
8772139858,11223,-2,0,54225.4138976220,56521.6773066539,36844.7958987047,53265.2244382331,55577.2450146508,61672.8352535560,61764.2998305740,57754.3380009989,65778.6663663990,21495.9642506759
8772139858,11223,-2,0,54210.0582642314,56446.1280770803,36796.0642729288,53195.1628399266,55513.1090846971,61681.4134798161,61728.8553297288,57676.0875427306,65772.8258719240,21474.7194520230
8772139858,11223,-2,0,54216.4584727603,56432.6949397878,36799.0696940441,53199.8474032035,55500.9657232678,61708.6934560932,61746.9486949045,57681.9888756897,65794.1315090610,21464.5837605695
8772139858,11223,-2,0,54234.4909994519,56493.2657345724,36844.5525447682,53266.4533756123,55553.3598257874,61726.2757780023,61791.1417697654,57754.7151996004,65815.1086183837,21474.3787565120
8772197121,11224,2,0,54239.1025565478,56549.8941955863,36875.2881469430,53310.1475749034,55600.8260110937,61707.7930465283,61808.0305329557,57804.3472349412,65809.6331548134,21489.3085205138
8772197121,11224,2,0,54220.2912972595,56528.5277199652,36850.8797471162,53275.7859990755,55583.7669001479,61677.5319845296,61772.8293860469,57769.5597897244,65786.4658600625,21488.1890924060
8772197121,11224,2,0,54199.5818772668,56448.8049703813,36795.8574220828,53197.9614101959,55516.3091889615,61671.0831052135,61726.6408089070,57682.3174035039,65772.6311887749,21472.2250741743
8772197121,11224,2,0,54204.4732913897,56415.9035181721,36782.9596634505,53181.3160009421,55488.1044677259,61700.0908944393,61731.6660676949,57660.7805801273,65790.1648398967,21462.4300782319
8772197121,11224,2,0,54224.6716681158,56477.7762565168,36831.4966060772,53249.9539787203,55537.4444783430,61719.8512340798,61782.2715187815,57736.1594619454,65811.1297815226,21467.2728215674
8772197121,11224,2,0,54235.6225952564,56548.3488980898,36873.0736261212,53308.7361220720,55597.6745776165,61700.2004037107,61803.6258267058,57799.4923239088,65804.8390822652,21486.8019749682
8772197121,11224,2,0,54223.2723829811,56532.4092152518,36850.0036729449,53277.8666752322,55583.7425647543,61674.6969111699,61766.8307115132,57762.3200101147,65779.0070619101,21489.5397067534
8772197121,11224,2,0,54212.1024372977,56463.2480265102,36803.6447480495,53212.6234848676,55526.9437559848,61677.7753384661,61731.1185213378,57691.2484929719,65772.7406980463,21479.6352015395
8772223658,11225,2,0,54217.1885345697,56430.1153880613,36793.3387088405,53199.1781798782,55504.2144983195,61703.3883402784,61739.6115737203,57677.5598340461,65792.4036961121,21473.2836637979
8772223658,11225,2,0,54233.8217761266,56471.9357620417,36829.2090790745,53250.7692144075,55542.7982649451,61722.5767981681,61780.4828673485,57735.7822633439,65810.1076949895,21478.9416428206
8772223658,11225,2,0,54245.5392681671,56539.0406100203,36873.5846693878,53307.3976754215,55602.8945195536,61718.0625826468,61809.1134579729,57804.2985641539,65811.2879615813,21493.3968666463
8772223658,11225,2,0,54238.3359916479,56545.5746632142,36871.0172853581,53299.3061570342,55605.7295929133,61688.7384333035,61791.4702975796,57796.0488657079,65792.3793607185,21496.7673186662
8772223658,11225,2,0,54217.5292300807,56476.2066236266,36817.5402578213,53226.6285039108,55543.8811899623,61676.3760533314,61745.0505342001,57711.7510621186,65774.3590017237,21476.0335632799
8772223658,11225,2,0,54214.9253429606,56427.6818486967,36789.9682568205,53192.8388098335,55503.1072379086,61707.5253571982,61740.1469523805,57672.1695443536,65787.0985802973,21456.3949006077
8772223658,11225,2,0,54237.7762775941,56479.0173615927,36835.1104120336,53255.6362931367,55551.3399881148,61736.0342708543,61790.5455526211,57746.0761348561,65818.2965549514,21466.5670951517
8772223658,11225,2,0,54248.3378384364,56555.3939945503,36880.9461259656,53317.7888885083,55616.9482093841,61716.1887573361,61818.0445474409,57822.1972461804,65818.6372504624,21483.8087215498
8772242050,11226,2,0,54236.4134955499,56561.9402154410,36868.0483673333,53299.1236415819,55619.7224442597,61687.0714588388,61792.0786824208,57808.3382394991,65794.4965399657,21486.2665963080
8772242050,11226,2,0,54218.4053042519,56499.2644091061,36821.0810575968,53231.4347441558,55565.9290566055,61679.0286112388,61747.9221106503,57732.9228545905,65777.6321121691,21475.0114767468
8772242050,11226,2,0,54216.3367957920,56448.2817594179,36794.5189754323,53194.3841073300,55523.7436517203,61702.1715705961,61739.6359091139,57693.0371444049,65789.5077842683,21462.7951091366
8772242050,11226,2,0,54236.8028618482,56477.6059087612,36826.1914902624,53238.4920083131,55548.8091071756,61726.0445917627,61781.1764260674,57738.4834920386,65815.4493138948,21464.8879529901
8772242050,11226,2,0,54250.8565516787,56547.6553393709,36871.6256701993,53306.8014582771,55607.7250951923,61719.0481660895,61819.9062050549,57814.4099202138,65823.1879690742,21479.1728290602
8772242050,11226,2,0,54241.8281206361,56567.3791759209,36876.3102334761,53317.5820376623,55623.4579271843,61695.4428342530,61810.5370785012,57824.9836487529,65802.8192445926,21488.5662910076
8772242050,11226,2,0,54230.6216718622,56513.3059312397,36835.4997783319,53258.7268881297,55581.3576961770,61697.5235104097,61770.8582191616,57756.4916833365,65791.7953112710,21484.8916465670
8772242050,11226,2,0,54233.3350682537,56458.7459786857,36806.8691877076,53216.6388248191,55535.6558269100,61718.4519489452,61760.1871490479,57705.1074996533,65807.1022738742,21472.1520679934
8772269553,11227,2,0,54250.8687193756,56486.6343398039,36836.4975294714,53258.0211617140,55559.8208728004,61740.8526787962,61802.3847216298,57752.6101880500,65833.6643560387,21474.1719056660
8772269553,11227,2,0,54259.9214858118,56556.5985965358,36883.5135099953,53324.4446186704,55619.6129349883,61729.0621805748,61838.0360733210,57824.9836487529,65834.7351133591,21482.1660824787
8772269553,11227,2,0,54250.0291482948,56571.9663976231,36882.7347773986,53325.5762144749,55634.6157051710,61699.1053109967,61821.2811547958,57826.6384555208,65810.2658750482,21482.2390886596
8772269553,11227,2,0,54229.8429392655,56514.5348686189,36835.6579583906,53264.3726994555,55586.8453274441,61681.7298399335,61776.7838875143,57756.1996586128,65786.6970463022,21470.8136213429
8772269553,11227,2,0,54221.3985576704,56446.3835987136,36791.9150883122,53208.1701078304,55528.7689105082,61689.9430352890,61750.3313146213,57692.6842811970,65786.0034875833,21459.0961293024
8772269553,11227,2,0,54235.9024522833,56452.5891240933,36805.7862626903,53228.5753354024,55534.8892620102,61725.3997038311,61777.3436015682,57716.2531099431,65809.5723163293,21460.0695450482
8772269553,11227,2,0,54259.9093181150,56532.5187245232,36865.7243372401,53307.2151599691,55602.6389979203,61739.1735366346,61827.9733880485,57806.0750478900,65830.7562764981,21478.4184318572
8772269553,11227,2,0,54255.8939781634,56575.5193650954,36887.6870300056,53331.7330690673,55636.5868720563,61708.4622698535,61826.0873950409,57836.9444947298,65814.4150596648,21487.6172106554
8772318397,11228,2,0,54238.9565441859,56530.4988868506,36848.8964125340,53273.3524597109,55596.7011618707,61692.6929347710,61778.7672220965,57769.3407711816,65793.1459256183,21479.1484936666
8772318397,11228,2,0,54228.7843496419,56458.2836062064,36803.7907604114,53210.2994547744,55534.8284235260,61698.9592986348,61749.6499235992,57697.7703784690,65793.3771118580,21460.3859051656
8772318397,11228,2,0,54240.4410031983,56459.8775744902,36813.3789055078,53229.3419003023,55537.1402859224,61722.2726057476,61777.6842970792,57718.5528046426,65811.1054461290,21456.0055343094
8772318397,11228,2,0,54254.2026683050,56526.3740376276,36860.3097121539,53298.4179151661,55593.3672129412,61728.1009325258,61820.2712359595,57794.9051022066,65819.7323431765,21468.0637218609
8772318397,11228,2,0,54255.8696427698,56570.5671124885,36881.7370262591,53327.3283628174,55629.1889123880,61704.3739237210,61823.6416879795,57825.3730150512,65804.3767097859,21483.2003367086
8772318397,11228,2,0,54238.7983641272,56535.3051270956,36848.9937541086,53283.0257786851,55597.9057638562,61680.7320887940,61784.5103749969,57774.0983406393,65781.9151414508,21482.5554487770
8772318397,11228,2,0,54225.2313821696,56461.9582506469,36802.0629474625,53219.6564136312,55538.1745401524,61689.7118490494,61749.5039112373,57702.0777431444,65778.7393725800,21469.9010440812
8772318397,11228,2,0,54237.4964205671,56448.3791009925,36804.2044621033,53223.7812628542,55530.1560279460,61724.2316049361,61767.4634317480,57702.9538173156,65807.9540126519,21465.8613687359
8772330995,11229,2,0,54260.1891751419,56515.3866073965,36858.7157438701,53298.9532938263,55587.7822400995,61737.3605498080,61821.3784963704,57784.9640939022,65833.1533127722,21480.6816234663
8772330995,11229,2,0,54261.3451063401,56570.1899138870,36890.1327370670,53342.5258161493,55631.2330854542,61718.7439736689,61832.6944544158,57832.1625898784,65822.9202797441,21497.0471756931
8772330995,11229,2,0,54237.8371160782,56533.4434694817,36854.6030623440,53289.2313040648,55596.3969694501,61687.6433405895,61785.1674306254,57773.4412850109,65794.4235337847,21490.1845946850
8772330995,11229,2,0,54218.5148135234,56452.6377948806,36798.8020047140,53213.7185775816,55528.2943703321,61690.1377184382,61743.9676091829,57691.0173067323,65783.8376375488,21470.6311058905
8772330995,11229,2,0,54225.6694192552,56436.0532241109,36797.7799181808,53215.3247135623,55515.8468164822,61712.8183053161,61760.3939998938,57693.2683306445,65800.5438852867,21463.7441894887
8772330995,11229,2,0,54241.4265866409,56491.0755491442,36839.4177767089,53274.9707633883,55562.5221014951,61717.3081854438,61800.5717348032,57762.2470039338,65811.6164893956,21472.6022727758
8772330995,11229,2,0,54244.1034799420,56544.7229244366,36869.0704538665,53315.2458398723,55605.2672204340,61695.9417098227,61812.2162206628,57809.6523507560,65798.5727184014,21483.8087215498
8772330995,11229,2,0,54229.6239207227,56529.9635081904,36848.1785184215,53284.9117716927,55590.4834687942,61670.7789127929,61781.2494322484,57778.7464008257,65772.6920272590,21483.7965538530
8772360119,11230,2,0,54216.0082679778,56458.2957739032,36797.4635580634,53216.1399492494,55529.0852706256,61672.9569305242,61738.0176054365,57700.0822408654,65761.9966217516,21464.4134128140
8772360119,11230,2,0,54224.0389478810,56424.7859368528,36785.7460660229,53198.7523104894,55501.4280957471,61708.0972389488,61742.9576903466,57677.6936787112,65781.6839552111,21452.2822190815
8772360119,11230,2,0,54244.4441754530,56480.2341312750,36834.2343378624,53266.6115556710,55550.7316032736,61724.3046111170,61794.6095633600,57752.0748093898,65806.3235412776,21464.0118788189
8772360119,11230,2,0,54248.6055277665,56546.7914328965,36875.6166747572,53322.4004456041,55607.4452381654,61704.7146192321,61817.6186780521,57817.8168753242,65801.1766055215,21482.8353058039
8772360119,11230,2,0,54232.9700373490,56534.0031835356,36853.5201373267,53294.6824322415,55595.8737584867,61677.0331089599,61784.4860396033,57783.5769764644,65775.5757714060,21482.9934858626
8772360119,11230,2,0,54213.2218654054,56464.4891315861,36801.5519041959,53222.5036546878,55533.5264799660,61669.9393417121,61740.3659709233,57704.0854131201,65763.5419192481,21465.4841701344
8772360119,11230,2,0,54212.4918035960,56427.7426871808,36785.4540412992,53199.8595709003,55505.0540694003,61695.2481511038,61741.0960327327,57680.2975658313,65777.9606399833,21455.1294601381
8772360119,11230,2,0,54230.3296471384,56472.7023269416,36823.0400567853,53250.0513202949,55545.7793506667,61718.9994953022,61781.4927861848,57740.4789943176,65800.5073821962,21463.0506307698
8772388642,11231,2,0,54242.9110456534,56542.2285465879,36869.5206586489,53310.6829535636,55605.0482018912,61714.3392674190,61811.9972021199,57812.1710639983,65804.0603496685,21483.7600507625
8772388642,11231,2,0,54237.4842528703,56549.8941955863,36868.2552181793,53306.8744644581,55614.4051607481,61694.4450831135,61796.4225501866,57809.3603260322,65787.3297665370,21497.4608773851
8772388642,11231,2,0,54224.1362894555,56483.1422108157,36822.9548829075,53238.9543807924,55559.7235312258,61685.0272857725,61750.6355070418,57730.4041413482,65776.3545040027,21489.7465575994
8772388642,11231,2,0,54222.9681905605,56430.1640588486,36795.7114097209,53198.5454596434,55512.1965074354,61707.3915125331,61740.1591200773,57684.1547257242,65791.4546157599,21475.4373461356
8772388642,11231,2,0,54237.5329236576,56468.1881114203,36830.5353580282,53248.0071472287,55542.4575694340,61732.1892786583,61781.0182460087,57742.3284842346,65818.4669027069,21479.3675122094
8772388642,11231,2,0,54245.1377341719,56542.1555404069,36875.5193331826,53314.7347966057,55603.5029043947,61719.0725014831,61814.4185737877,57817.5126829036,65824.1248817295,21495.6357228617
8772388642,11231,2,0,54232.4103232952,56550.2957295815,36867.0871192843,53304.5504343649,55610.2559761315,61693.5568412454,61792.5045518096,57806.9997928486,65802.4055429006,21499.0670133658
8772388642,11231,2,0,54214.7671629019,56487.6442586402,36819.4140831320,53239.3194116971,55555.2823218854,61680.7320887940,61753.1055494969,57731.4505632749,65784.5676993582,21485.2931805622
8772443787,11232,2,0,54212.2849527500,56432.4637535481,36789.4937166444,53204.8726619913,55511.2474270832,61696.1728960624,61745.3668943175,57684.9821291081,65788.8507286398,21470.5459320128
8772443787,11232,2,0,54227.5189091723,56450.0825785477,36808.0007835121,53240.9012122841,55527.4669669482,61712.7818022257,61780.2030103216,57717.3238672635,65805.6543179523,21467.5648462912
8772443787,11232,2,0,54240.0029661127,56514.5227009220,36851.3056165050,53306.6189428248,55582.5744658593,61705.7488734620,61817.5335041744,57787.1299439367,65807.1752800552,21480.7911327377
8772443787,11232,2,0,54232.7266834125,56540.2695473994,36858.3872160559,53315.9272308943,55602.6024948298,61680.1115362561,61805.1832918991,57801.4148200069,65787.0012387227,21491.7663952720
8772443787,11232,2,0,54211.7252386961,56483.4099001458,36813.4032409015,53245.2085769594,55551.2791496307,61663.8433256038,61750.6355070418,57724.4054668145,65762.2521433849,21480.0610709283
8772443787,11232,2,0,54204.8626576880,56420.5637460553,36774.9533189410,53189.3710162389,55494.8940425531,61686.8646079928,61727.2613614450,57662.0825236873,65770.6721895864,21457.1006270234
8772443787,11232,2,0,54224.9393574459,56446.3714310167,36803.1458724797,53228.9525340039,55519.5457963164,61715.9089003092,61767.6581148971,57707.5167036242,65800.3613698343,21452.3430575657
8772443787,11232,2,0,54242.3634992963,56523.1374302727,36851.9261690429,53301.5450132496,55585.1905206762,61712.6966283479,61811.3766495820,57791.3521347343,65808.4893913121,21470.9961367952
8772457173,11233,2,0,54236.4013278531,56549.4561585007,36857.2191171609,53311.2183322239,55606.5204932068,61689.1399672987,61802.4820632044,57803.4103222858,65787.2810957497,21484.3441002100
8772457173,11233,2,0,54222.4571472940,56503.5352706909,36822.1274795235,53259.7246392692,55567.3526771338,61675.7433330966,61764.4945137232,57746.2343149148,65768.7253580947,21484.8186403861
8772457173,11233,2,0,54219.0015213963,56442.5994450016,36788.7879902287,53209.6423991459,55516.7958968344,61687.9475330100,61742.3858085959,57689.0339721502,65773.7019460953,21473.9285517296
8772457173,11233,2,0,54231.8749446349,56442.7576250603,36800.8705131739,53224.2558030303,55516.0780027219,61712.7939699225,61764.1294828185,57704.7303010518,65795.0684217164,21466.4575858803
8772457173,11233,2,0,54246.6951993653,56515.3257689123,36856.5377261388,53295.2299785985,55576.8556483525,61724.2802757234,61805.5118197133,57785.1222739609,65811.4096385496,21479.2701706348
8772457173,11233,2,0,54246.4640131256,56565.7973753339,36884.1097271396,53325.6127175654,55619.8076181375,61699.2756587522,61809.0647871856,57824.1927484594,65800.9332515850,21496.7551509694
8772457173,11233,2,0,54229.5752499354,56526.7390685323,36848.3853692674,53271.6611498525,55586.8088243536,61685.3314781931,61764.5310168136,57764.7778848730,65778.9097203355,21491.1945135213
8772457173,11233,2,0,54229.6847592068,56466.1804414445,36810.0206211847,53217.7095821395,55536.4467272035,61721.3600284858,61749.4917435405,57703.9515684551,65795.0440863227,21478.8443012460
8772488256,11234,2,0,54251.8908059087,56475.4643941204,36829.0143959253,53244.6853659960,55547.8478591266,61746.3889808506,61785.8853247379,57733.3730593730,65827.6413461114,21479.1971644539
8772488256,11234,2,0,54267.2707746929,56537.6413248856,36872.0393718912,53308.9673083116,55603.2960535487,61738.9180150013,61825.3451655347,57806.8172773962,65836.1587338874,21488.5419556139
8772488256,11234,2,0,54259.7146349658,56572.6356209484,36883.5256776921,53326.1967670129,55628.8482168769,61709.8858903818,61821.1838132213,57830.3982738391,65815.6805001344,21495.1125118983
8772488256,11234,2,0,54238.8470349145,56535.8405057558,36850.3078653655,53281.8090090028,55596.2266216946,61692.0480468394,61783.7924808844,57780.9122508602,65790.7367216474,21488.6879679758
8772488256,11234,2,0,54227.4824060819,56467.9812605743,36809.7894349451,53221.7735928784,55539.1722912918,61709.8980580786,61753.3610711302,57710.2422677126,65790.1161691094,21472.3224157489
8772488256,11234,2,0,54240.1976492618,56456.5314578639,36814.2914827696,53221.2382142182,55529.7666616477,61750.4408238927,61769.6901202666,57707.8695668321,65817.1649591468,21461.6148425447
8772488256,11234,2,0,54262.3671928732,56528.6980677208,36871.9663657103,53293.0762962608,55590.7876612148,61765.8937988578,61819.5533418470,57791.3764701279,65845.0533202650,21476.7149543020
8772488256,11234,2,0,54266.9665822723,56593.0408485205,36908.1165929713,53345.7502558074,55645.4936261307,61743.5904105814,61836.0770741325,57849.4163839734,65835.3191628067,21497.4487096883
8772528031,11235,2,0,54251.8299674246,56567.5738590701,36878.1718910900,53307.1056506977,55621.7909527196,61712.0882435068,61797.3351274483,57801.1836337672,65807.6498202313,21498.3369515564
8772528031,11235,2,0,54236.4621663372,56487.7172648211,36823.9161309565,53236.6181830024,55553.3598257874,61713.0251561621,61760.1628136542,57715.0728433513,65798.5362153109,21478.9538105174
8772528031,11235,2,0,54241.5847666996,56460.7658163583,36814.9728737916,53230.4978315005,55530.6305681221,61731.5808938171,61773.2917585262,57705.2291766215,65813.7823394301,21468.1367280418
8772528031,11235,2,0,54257.6947972932,56511.0670750243,36853.4958019331,53288.0632051698,55574.3247674133,61740.5606540724,61815.1851386875,57770.8495655876,65825.4633283801,21475.1453214118
8772528031,11235,2,0,54261.4667833083,56567.0384804099,36883.8663732031,53330.2364423581,55620.5133445532,61722.8201521046,61828.7034498578,57819.8732160873,65814.3542211807,21487.3130182348
8772528031,11235,2,0,54250.1751606566,56559.4701729860,36870.8591052994,53307.6775324484,55616.0234644255,61699.9327143806,61800.2067038985,57797.6550016886,65791.7709758773,21489.6492160248
8772528031,11235,2,0,54235.8051107088,56492.2801511297,36822.8088705456,53238.3946667386,55558.2634076070,61697.5478458033,61755.1983933504,57721.2783687310,65780.7957133430,21475.8510478276
8772528031,11235,2,0,54242.9718841375,56455.1078373356,36807.9399450280,53213.5117267356,55530.3507110952,61729.6705654159,61754.8942009299,57692.3435856860,65798.3658675554,21460.6779298894
8772565287,11236,2,0,54269.2297738814,56512.4663601590,36858.6305699924,53280.1176991444,55580.3234419470,61756.4881692137,61806.9962787257,57767.3696042963,65828.4322464049,21474.1232348787
8772565287,11236,2,0,54283.6849977070,56591.0088431511,36909.2846918663,53346.0544482279,55644.3741980230,61737.7255807127,61836.1744157071,57841.9575858209,65829.6368483903,21496.9254987249
8772565287,11236,2,0,54265.6646387123,56576.1885884207,36888.4535949054,53314.6496227279,55631.6224517525,61702.9868062832,61799.0264373067,57811.5140083699,65801.6024749103,21493.7253944605
8772565287,11236,2,0,54243.3369150421,56498.5343472967,36836.1933370509,53239.9642996287,55566.9633108354,61701.2103225471,61752.8013570763,57730.0634458371,65788.9602379112,21475.3035014705
8772565287,11236,2,0,54239.5892644207,56454.0979184993,36818.0999718751,53214.7649995084,55532.5043934329,61724.9373313518,61753.1177171937,57704.2435931788,65807.3699632044,21466.2020642470
8772565287,11236,2,0,54255.5046118651,56491.7569401663,36855.2236148819,53267.8039899596,55566.2819198133,61748.0316199217,61796.0818546755,57760.5921971659,65832.3989155692,21476.5202711528
8772565287,11236,2,0,54270.1666865367,56560.5287626096,36901.0349934203,53333.8624160114,55626.7797084170,61746.7905148458,61831.1248215256,57832.4059438149,65838.1664038632,21496.0007537664
8772565287,11236,2,0,54261.4059448242,56569.4355166840,36898.5771186621,53331.5627213118,55636.2096734548,61711.4433555751,61813.5424996165,57830.5077831105,65815.1694568679,21500.6731493464
8772582344,11237,2,0,54239.6379352080,56499.9092970377,36841.0604157800,53256.2446779778,55573.6555440880,61687.8380237386,61760.2723229256,57744.7376882056,65788.9967410017,21481.7280453931
8772582344,11237,2,0,54234.0042915790,56440.3240856957,36805.7740949935,53208.0971016494,55519.8864918275,61714.7286337173,61744.1866277257,57689.0218044533,65794.9345770513,21464.5107543886
8772582344,11237,2,0,54250.6253654391,56474.1502828635,36840.5007017262,53256.6583796698,55547.2394742854,61740.1591200773,61786.3233618235,57741.8052732713,65821.6791746681,21470.7892859492
8772582344,11237,2,0,54260.9679077386,56548.1785503343,36892.1525747396,53325.8074007146,55610.4263238870,61731.4835522425,61820.8552854070,57818.9119680382,65826.3880733386,21486.3639378826
8772582344,11237,2,0,54252.0368182706,56562.1714016807,36892.9313073362,53320.6604649585,55621.7301142355,61705.3230040732,61799.7443314192,57813.7406968885,65804.8999207493,21490.0264146263
8772582344,11237,2,0,54233.5054160092,56502.3063333118,36846.4507054726,53255.8918147699,55571.1124954520,61691.4639973919,61755.1862256536,57741.1968884301,65788.6560454907,21474.3544211184
8772582344,11237,2,0,54227.7744308056,56442.8306312413,36812.3324835811,53213.1345281341,55522.6850620967,61704.4347622051,61737.9811023460,57692.2219087178,65794.4113660879,21465.1799777139
8772582344,11237,2,0,54237.6667683227,56455.3025204848,36828.7102035048,53241.7286156680,55536.3128825384,61724.2681080265,61765.6626126182,57724.2716221494,65808.5015590089,21468.3192434942
8772613288,11238,2,0,54253.0832401973,56524.7922370406,36876.6752643808,53309.6852024242,55595.5939014598,61724.0855925742,61805.0494472340,57800.5995843197,65814.5367366331,21482.6406226548
8772613288,11238,2,0,54247.3157519033,56556.6594350199,36890.2665817320,53324.5054571545,55622.7887038591,61695.5036727371,61796.5077240643,57823.4261835596,65792.8660685914,21494.2486054239
8772613288,11238,2,0,54225.9979470695,56506.2121639920,36846.2681900203,53259.7976454501,55581.0291683628,61677.9821893121,61749.0902095453,57754.9342181432,65769.1998982708,21488.0065769537
8772613288,11238,2,0,54217.5413977775,56440.0563963656,36805.1170393651,53200.0299186558,55525.5931416374,61696.0512190941,61724.0490894837,57688.8392890010,65777.4252613231,21472.6509435631
8772613288,11238,2,0,54230.2323055638,56453.4286951740,36826.8728812845,53230.7411854369,55540.7175887883,61733.0531851327,61758.6661869450,57724.4298022081,65808.7084098549,21473.8068747613
8772613288,11238,2,0,54244.2981630912,56527.4204595544,36881.8952063178,53305.0249745410,55603.9652768740,61738.2122885856,61805.5118197133,57809.3481583354,65823.5529999789,21487.4955336871
8772613288,11238,2,0,54236.4865017308,56556.3795779930,36894.6834556787,53318.0444101415,55627.2664162899,61706.1747428508,61795.9236746168,57825.5068597163,65807.4064662948,21497.4852127788
8772613288,11238,2,0,54216.0326033715,56507.6114491266,36853.7026527791,53260.2721856262,55583.4748754242,61683.6523360315,61749.6255882055,57761.6264513958,65785.0909103216,21490.8538180103
8772669388,11239,2,0,54203.5972172184,56438.8517943802,36810.9453661433,53203.3882029789,55525.5566385470,61695.4550019498,61719.9364079576,57694.3512556618,65783.4239358568,21477.0191467226
8772669388,11239,2,0,54219.0623598804,56440.0807317593,36822.0179702521,53221.0922018563,55527.5278054323,61731.8485831472,61745.4885712857,57708.5752932478,65808.2947081629,21478.1020717398
8772669388,11239,2,0,54239.2364012128,56512.4785278558,36870.2507204583,53294.2930659431,55587.5510538598,61738.3217978570,61795.2909543820,57789.6973279664,65824.7210988739,21491.8394014529
8772669388,11239,2,0,54231.4977460334,56560.4192533382,36888.1250670912,53325.4423698099,55623.7621196049,61702.3419183516,61800.8880949206,57829.4613611837,65806.5912306077,21501.9629252096
8772669388,11239,2,0,54210.0825996250,56521.9814990745,36847.0590903137,53272.2573669968,55588.4636311216,61677.6536614978,61755.8311135852,57773.4169496173,65777.6199444723,21496.0737599473
8772669388,11239,2,0,54196.8684808753,56445.6170338137,36797.1228625524,53204.2399417566,55524.0600118377,61682.6789202857,61722.0414195079,57692.5747719256,65773.7506168826,21474.6099427516
8772669388,11239,2,0,54206.0550919767,56434.5931004921,36804.3018036779,53213.8767576403,55518.1343434850,61707.9390588901,61744.9531926255,57703.2093389489,65796.5407130319,21464.3890774204
8772669388,11239,2,0,54222.4084765067,56498.1693163920,36852.1086844953,53282.6972508709,55572.0737435011,61714.2905966317,61789.9858385672,57778.8924131876,65811.0081045544,21471.4828446681
8772689861,11240,2,0,54225.0488667173,56547.5336624027,36876.3710719602,53316.5964542196,55611.2537272709,61697.9737151922,61798.1138600450,57817.9872230797,65802.2473628419,21482.0809086009
8772689861,11240,2,0,54209.9365872632,56522.3830330697,36849.5047973752,53277.0271041514,55590.0941024958,61675.8893454585,61761.8906266031,57776.4710415198,65780.5401917098,21484.2345909386
8772689861,11240,2,0,54197.1970086896,56452.7229687583,36802.0629474625,53210.0074300506,55531.9690147727,61674.7942527444,61725.3388653470,57704.1097485138,65774.1886539682,21477.2381652654
8772689861,11240,2,0,54202.4777891107,56422.6322545152,36790.8686663854,53194.6639643569,55507.5362795522,61699.3973357204,61730.5223041935,57686.1015572158,65788.1936730114,21467.7473617435
8772689861,11240,2,0,54221.4107253672,56482.5216582777,36839.5759567676,53260.1991794453,55558.3850845753,61721.6520532096,61777.0272414508,57760.4096817135,65807.8688387741,21478.5157734318
8772689861,11240,2,0,54227.0443689962,56549.3101461388,36880.8974551783,53314.5036103661,55613.7237697260,61705.3595071637,61799.1237788813,57824.0832391880,65803.7683249448,21496.1102630378
8772689861,11240,2,0,54213.3678777672,56528.5398876621,36859.1416132589,53278.1586999559,55595.5939014598,61678.1282016739,61763.9591350630,57784.2461997897,65780.8930549176,21492.3261093258
8772689861,11240,2,0,54199.9955789588,56452.0659131299,36807.4532371551,53206.6856488180,55531.7743316235,61678.4323940945,61724.6696420217,57699.8145515353,65773.6897783984,21472.6266081695
8772724270,11241,2,0,54206.7364829987,56423.8855272879,36798.4978122934,53198.7644781862,55511.4421102323,61702.3175829579,61737.3483821112,57689.8978786246,65793.9246582150,21460.1668866228
8772724270,11241,2,0,54222.8586812891,56474.8681769761,36835.9621508112,53255.9769886477,55555.4283342473,61715.6898817664,61778.1588372553,57754.8003734782,65812.2127065399,21466.1777288533
8772724270,11241,2,0,54231.3395659747,56539.7463364360,36872.1975519499,53303.6743601936,55606.7151763560,61711.6015356338,61797.2621212674,57810.3580771717,65810.2172042609,21484.3075971195
8772724270,11241,2,0,54222.0069425115,56539.7463364360,36862.2808790392,53287.6130003873,55603.9896122676,61688.0327068878,61775.2264223210,57794.4183943337,65794.2288506356,21492.5451278687
8772724270,11241,2,0,54204.5828006611,56471.9600974354,36813.7682718062,53220.1674568978,55545.3291458842,61677.0696120503,61732.6881542280,57719.1733571806,65781.8421352698,21481.3265113979
8772724270,11241,2,0,54204.3881175119,56423.7395149261,36789.9804245173,53190.1375811388,55507.0860747697,61699.5920188696,61729.2811991176,57680.8451121883,65793.4501180389,21470.7406151619
8772724270,11241,2,0,54222.2624641448,56465.0366779431,36829.3429237395,53248.1409918937,55542.4575694340,61722.2117672635,61778.1588372553,57743.1802230122,65817.6394993229,21480.6816234663
8772724270,11241,2,0,54230.9380319796,56534.7454130418,36874.9352837351,53314.1750825518,55601.7629237490,61707.8903881029,61809.2473026380,57814.6532741502,65814.8652644473,21497.8745790771
8772739408,11242,2,0,54218.9528506090,56532.4822214327,36862.3660529170,53295.2299785985,55598.9278503893,61683.6766714252,61780.3976934708,57790.4760605630,65788.1693376178,21497.8380759866
8772739408,11242,2,0,54206.0672596735,56466.0465967794,36813.6465948379,53225.3995665316,55543.2119666370,61676.9722704758,61735.5353952846,57708.7578087001,65773.9209646381,21480.5234434076
8772739408,11242,2,0,54205.4345394387,56421.3668140456,36789.8830829427,53195.3210199853,55506.5993668968,61693.4473319740,61730.3032856507,57673.8608542120,65786.3806861848,21465.2408161980
8772739408,11242,2,0,54221.4593961545,56455.8744022355,36820.1563126382,53239.2342378193,55538.0406954873,61715.5925401918,61763.8131227011,57724.2716221494,65803.8413311257,21465.5571763154
8772739408,11242,2,0,54236.5595079118,56529.5498064984,36867.6711687318,53303.2119877144,55599.1590366289,61718.6709674880,61797.5541459911,57796.3408904317,65811.3731354591,21475.9727247958
8772739408,11242,2,0,54232.8118572903,56554.6639327409,36877.2714815251,53308.8456313434,55618.6395192425,61694.7736109277,61788.5622180390,57805.3084829902,65795.9444958876,21489.6127129343
8772739408,11242,2,0,54215.7527463445,56494.8962059466,36832.3848479453,53244.7340367833,55568.3869313637,61673.3219614289,61743.2740504640,57732.8133453191,65777.2670812644,21483.3950198578
8772739408,11242,2,0,54212.2241142659,56431.0644684135,36795.9790990510,53195.2115107139,55515.0315807951,61692.6199285901,61727.6507277433,57674.4327359626,65783.4969420377,21468.6599390052
8772795890,11243,2,0,54228.7600142483,56455.7648929640,36826.1549871719,53240.5848521667,55540.1700424313,61722.3577796253,61770.5175236505,57722.4099645355,65811.4704770337,21473.7460362772
8772795890,11243,2,0,54243.1665672866,56534.6480714672,36879.4981700437,53316.3531002831,55606.9950333829,61716.9553222359,61811.6930096994,57806.5617557630,65817.2744684182,21494.4919593603
8772795890,11243,2,0,54235.7077691342,56555.4670007312,36880.5567596673,53314.4062687915,55619.9657981962,61692.7659409519,61794.0255139125,57807.7785254453,65793.6691365817,21500.1256029893
8772795890,11243,2,0,54222.4814826876,56504.7155372827,36840.3060185770,53254.4681942417,55573.5460348166,61689.1399672987,61748.6400047629,57740.4789943176,65779.7492914163,21491.9732461180
8772795890,11243,2,0,54218.0524410441,56445.2520029090,36808.6456714437,53206.4301271847,55524.8509121312,61704.3252529337,61733.5033899151,57689.4476738421,65788.2301761019,21473.3201668884
8772795890,11243,2,0,54228.1637971039,56455.5945452085,36827.5421046097,53231.4834149431,55536.8725965923,61728.6119757923,61760.5400122557,57718.5163015521,65811.7990048479,21471.4098384872
8772795890,11243,2,0,54243.3369150421,56524.9017463120,36877.7581893980,53298.4787536502,55600.0229431034,61734.2942902086,61802.0196907251,57797.1317907252,65827.3128182972,21489.7587252962
8772795890,11243,2,0,54237.7276068068,56559.2146513527,36891.5198545048,53320.2224278728,55630.7098744908,61702.0012228405,61801.7641690918,57821.8443829726,65810.5457320751,21498.1057653167
8772801755,11244,2,0,54214.6819890241,56507.4897721584,36846.0126683870,53258.9459066725,55586.6019735077,61678.8582634833,61754.4561638442,57752.7318650183,65784.2756746344,21488.2134277997
8772801755,11244,2,0,54204.0595896977,56433.1329768734,36799.7875881566,53194.7369705378,55521.3466154462,61695.2481511038,61723.9639156060,57680.0055411075,65785.4316058326,21470.6919443746
8772801755,11244,2,0,54216.4949758507,56436.4790934997,36816.6155128627,53216.2737939144,55523.7679871140,61723.1973507061,61753.3124003429,57705.3995243770,65807.7106587154,21467.8568710149
8772801755,11244,2,0,54234.6613472074,56512.4176893717,36870.2872235487,53292.7599361435,55586.2491102998,61726.7016473911,61799.3914682114,57792.1065319373,65819.5619954209,21485.0011558384
8772801755,11244,2,0,54231.2543920970,56550.3200649751,36883.7446962349,53313.8830578281,55617.1550602301,61701.6605273295,61796.3617117025,57816.0403915880,65802.5150521720,21497.4852127788
8772801755,11244,2,0,54214.7063244178,56511.1644165989,36849.6386420402,53264.1901840032,55580.3599450375,61684.9786149853,61755.7824427980,57760.1784954739,65784.8962271724,21488.1039185283
8772801755,11244,2,0,54206.2862782163,56447.8680577260,36812.1256327351,53210.8591688282,55529.9248417064,61694.0070460279,61729.5488884477,57699.0358189386,65786.7578847863,21470.2417395922
8772801755,11244,2,0,54214.9496783542,56440.3849241799,36816.1288049898,53216.5779863350,55525.5688062438,61720.1554265004,61748.3358123423,57703.9394007583,65806.4330505490,21463.1844754349
8772832128,11245,2,0,54231.9722862095,56506.8570519236,36861.9280158314,53282.0280275456,55583.1585153068,61731.6417323012,61792.8817504111,57782.3723744789,65823.6381738566,21476.0213955831
8772832128,11245,2,0,54233.6149252806,56562.2809109521,36890.1327370670,53320.9889927727,55630.6247006131,61710.4821075261,61803.5406528280,57831.1770064358,65813.5389854936,21492.4356185972
8772832128,11245,2,0,54218.8068382471,56535.2321209147,36860.2367059730,53276.5038931880,55606.3379777545,61690.4419108588,61763.2655763441,57783.4309641025,65791.0287463711,21496.7064801821
8772832128,11245,2,0,54207.9167495906,56461.7270644073,36811.1765523829,53201.6968931206,55539.7563407393,61693.4229965804,61725.1685175914,57700.9583150366,65785.3585996516,21481.7523807867
8772832128,11245,2,0,54218.4539750392,56450.1920878191,36814.0237934395,53205.0551774437,55526.8585821070,61719.8755694735,61741.9356038134,57701.2868428509,65802.6853999275,21475.8753832212
8772832128,11245,2,0,54235.5617567723,56516.4208616264,36862.8527607899,53274.0216830361,55580.7979821231,61723.7692324568,61788.0268393787,57775.9356628596,65814.4637304521,21486.4491117604
8772832128,11245,2,0,54236.4134955499,56567.5495236764,36887.4315083723,53308.4197619546,55622.9103808273,61701.3198318185,61795.4978052280,57817.5248506004,65800.4708791057,21496.7429832726
8772832128,11245,2,0,54219.0501921836,56544.0902042018,36862.4512267948,53272.5980625078,55602.1279546537,61680.9267719432,61761.2944094587,57779.5616365129,65779.3234220275,21490.0142469295
8772865871,11246,2,0,54201.7355596045,56471.8749235576,36815.1188861535,53208.4743002509,55542.4332340404,61677.2521275027,61723.5867170044,57705.1926735310,65771.7064438163,21475.3156691674
8772865871,11246,2,0,54203.0618385582,56436.5399319838,36798.5951538680,53191.7558848162,55513.0847493034,61699.5555157791,61727.7967401052,57681.3196523644,65787.1715864783,21464.2917358458
8772865871,11246,2,0,54220.9483528879,56489.5667547382,36841.0360803864,53253.3244307403,55557.5820165849,61721.6033824223,61776.2241734605,57749.3005745142,65811.6164893956,21475.8997186149
8772865871,11246,2,0,54225.2070467760,56556.3187395088,36880.3499088213,53309.6486993337,55611.1807210900,61702.9746385864,61801.5086474586,57816.9894719402,65808.2460373756,21491.7663952720
8772865871,11246,2,0,54208.4764636444,56542.9586083973,36860.5287306967,53278.5480662543,55598.1247823990,61680.2940517084,61769.2642508778,57785.9983481322,65785.2490903802,21491.4743705482
8772865871,11246,2,0,54193.2790103126,56469.1736948629,36811.1400492924,53203.0353397711,55536.7265842304,61681.4621506034,61724.9738344423,57702.5401156236,65779.6032790544,21474.8411289913
8772865871,11246,2,0,54194.7147985377,56431.3078223499,36797.2567072174,53184.4309313288,55506.8183854396,61702.1350675056,61726.7381504816,57680.0907149853,65793.4866211294,21462.6612644715
8772865871,11246,2,0,54210.3137858647,56475.4035556363,36836.3028463223,53241.3027462792,55549.8798644960,61718.7926444562,61769.2034123937,57744.0197940930,65812.6629113223,21473.7947070645
8772908361,11247,2,0,54217.4927269902,56537.2884616778,36872.8181044879,53294.7554384224,55602.6998364044,61708.2189159171,61792.8209119270,57803.2278068335,65810.0468565054,21489.6492160248
8772908361,11247,2,0,54206.1280981576,56536.8139215017,36861.6603265013,53279.3024634573,55601.4100605412,61684.8691057138,61770.2620020173,57788.2128689540,65789.0697471826,21490.9998303721
8772908361,11247,2,0,54193.8630597601,56475.9997727806,36817.7471086673,53217.0160234206,55551.1939757529,61685.2341366185,61732.4204648979,57719.1490217869,65778.0579815579,21479.1606613634
8772908361,11247,2,0,54196.6007915452,56430.2370650295,36797.8285889681,53185.4043470746,55514.3745251667,61705.3595071637,61724.1707664519,57680.2853981345,65793.3649441611,21469.8037025066
8772908361,11247,2,0,54214.1587780607,56469.9767628532,36834.7453811289,53235.3527425328,55547.8721945202,61728.6119757923,61766.1371527943,57736.0134495835,65821.1559637047,21477.9195562875
8772908361,11247,2,0,54223.3210537684,56548.0447056692,36885.5211799711,53303.4553416508,55612.9207017357,61719.3158554196,61800.2675423826,57816.0403915880,65826.0230424339,21499.6388951164
8772908361,11247,2,0,54214.9740137479,56555.6981869709,36876.5657551094,53291.5431664612,55618.5665130615,61692.2548976854,61774.5571989957,57804.7974397236,65801.5903072135,21504.5303092392
8772908361,11247,2,0,54197.3186856578,56488.3499850559,36824.7557020373,53218.6708301886,55560.6239407907,61679.8560146228,61728.2712802813,57722.5803122910,65781.7569613921,21485.7677207383
8772934554,11248,2,0,54191.5511973637,56433.7900325018,36794.9448448211,53181.2186593675,55518.0248342136,61694.9926294705,61719.4618677815,57681.8063602373,65789.6537966302,21463.8536987602
8772934554,11248,2,0,54202.1979320838,56458.7094755952,36822.6628581838,53222.9416917734,55542.6035817959,61716.9066514486,61754.3101514824,57729.4185579055,65808.5015590089,21471.3976707904
8772934554,11248,2,0,54217.0303545109,56529.4159618333,36870.6765898471,53288.0510374730,55600.3758063112,61716.0914157615,61786.5910511536,57799.8330194199,65815.0477798996,21496.6091386075
8772934554,11248,2,0,54213.7694117624,56552.2425610732,36876.8821152268,53297.0186300315,55617.1915633205,61695.4428342530,61777.5869555047,57810.9299589224,65799.3514509980,21510.0301082032
8772934554,11248,2,0,54203.8892419422,56501.0287251454,36835.4632752415,53239.9886350224,55572.4266067089,61682.8492680412,61736.2411217003,57742.2798134474,65782.5235262919,21500.7583232241
8772934554,11248,2,0,54199.3871941177,56434.0090510446,36792.5113054565,53185.3435085905,55518.0735050009,61697.8885413144,61712.8426407098,57677.4624924715,65787.4027727179,21477.7005377447
8772934554,11248,2,0,54214.1952811512,56451.7860561030,36814.4861659187,53219.0845318805,55538.2840494238,61726.5799704229,61749.1023772422,57715.6203897083,65813.8066748237,21477.0069790258
8772934554,11248,2,0,54227.3728968105,56528.0653474860,36866.6490821987,53292.3462344515,55603.9531091772,61723.1121768283,61789.8519939022,57799.5288269993,65821.6548392745,21496.9620018154
8772962244,11249,2,0,54220.1452848976,56550.3322326720,36872.5260797642,53297.9677103837,55621.0608909102,61697.5843488938,61774.6058697830,57807.6690161738,65801.1887732183,21508.2414567702
8772962244,11249,2,0,54203.2565217074,56496.1008079321,36834.1613316814,53237.6767726260,55576.3202696923,61693.9097044533,61735.7057430401,57740.0166218383,65788.3153499796,21495.1368472919
8772962244,11249,2,0,54200.6648022841,56438.3285834168,36801.9534381911,53192.4859466256,55528.4282149972,61709.9345611691,61723.5258785203,57687.3669976854,65798.1103459221,21479.0633197888
8772962244,11249,2,0,54216.2637896111,56451.2993482300,36821.2879084428,53218.9750226091,55538.7950926903,61731.3010367902,61755.4539149837,57713.1260118596,65820.8031004969,21478.9294751238
8772962244,11249,2,0,54229.9037777496,56519.2315995925,36868.7905968395,53284.9604424799,55592.2721202271,61732.6394834407,61792.9912596825,57783.4187964057,65827.9333708351,21491.8759045434
8772962244,11249,2,0,54222.8100105019,56557.7423600371,36885.1318136727,53310.2449164780,55622.4358406512,61708.1094066457,61791.4337944892,57811.5505114604,65812.5290666573,21505.0170171122
8772962244,11249,2,0,54207.4422094145,56516.2140107804,36848.8842448372,53260.3695272008,55587.7579047058,61689.9552029858,61748.8590233057,57755.1045658987,65790.3108522586,21501.3545403685
8772962244,11249,2,0,54201.5408764554,56445.1789967281,36802.1481213403,53195.9780756138,55528.0753517893,61702.7434523467,61718.1842596151,57679.0442930585,65789.5321196619,21481.7158776962
8773010783,11250,2,0,54216.6774913031,56450.3137647874,36814.6321782806,53214.1079438800,55530.8009158776,61730.1816086825,61750.5016623768,57700.3499301955,65815.9968602518,21476.0578986736
8773010783,11250,2,0,54232.0574600873,56520.1441768542,36864.8725984625,53285.8608520448,55590.1549409800,61729.5975592350,61795.3517928662,57785.0857708705,65825.4389929864,21481.3143437011
8773010783,11250,2,0,54226.6428350011,56555.7346900613,36877.2958169188,53304.5260989712,55619.6737734724,61705.0674824399,61792.6140610810,57810.6379341986,65804.5227221478,21488.2986016774
8773010783,11250,2,0,54212.1511080850,56516.5912093819,36841.6688006212,53259.2014283058,55589.8264131657,61697.3166595637,61758.4593360990,57760.7747126182,65786.5145308498,21490.0142469295
8773010783,11250,2,0,54207.2718616590,56453.2340120249,36801.7100842546,53209.8979207792,55539.4521483188,61702.9381354959,61735.5962337687,57702.0655754475,65791.0530817648,21481.1439959456
8773010783,11250,2,0,54216.6653236063,56440.2875826053,36799.5198988265,53214.2296208482,55530.3142080047,61722.3212765349,61749.5404143278,57701.0799920049,65807.2117831457,21471.2151553380
8773010783,11250,2,0,54232.3129817206,56502.6226934292,36843.3722781764,53274.2163661853,55581.9904164118,61731.5078876362,61789.1340997896,57771.0685841304,65820.2312187462,21480.5234434076
8773010783,11250,2,0,54237.4964205671,56563.4733452407,36877.5026677647,53316.1462494372,55632.3890166524,61711.7840510862,61802.3968893266,57821.4306812806,65811.8720110288,21499.9917583243
8773025873,11251,2,0,54225.2070467760,56538.4078897855,36851.9748398302,53275.7494959850,55613.2492295499,61684.2485531759,61765.0907308675,57778.3448668306,65786.0886614610,21499.4320442704
8773025873,11251,2,0,54212.7838283197,56461.1916857471,36802.1846244307,53201.4778745777,55547.3489835568,61693.5690089422,61724.1220956647,57696.7847950264,65782.5843647760,21481.5820330312
8773025873,11251,2,0,54220.4008065309,56440.4092595735,36801.8317612229,53198.8253166703,55529.9370094032,61718.3302719769,61738.8571765172,57697.6973722881,65806.7859137569,21474.0988994851
8773025873,11251,2,0,54232.6901803221,56499.3860860743,36848.8234063531,53263.7034761303,55578.4131135458,61725.7890701294,61785.0214182635,57769.9369883259,65822.6039196267,21485.9867392811
8773025873,11251,2,0,54231.2665597938,56551.9505363494,36878.7316051439,53302.3602489368,55620.0753074676,61710.1900828024,61796.5807302453,57811.8303684873,65810.2658750482,21499.9187521434
8773025873,11251,2,0,54221.2403776117,56537.8846788221,36861.0032708728,53273.1456088649,55605.8877729720,61694.2260645707,61767.8284626527,57775.5949673486,65791.3816095790,21502.3522915079
8773025873,11251,2,0,54211.6765679089,56474.6978292205,36821.2757407459,53216.3224647017,55552.8366148240,61702.2810798675,61736.2654570939,57705.8253937658,65789.0697471826,21492.5937986559
8773025873,11251,2,0,54222.1772902671,56448.5251133544,36812.1378004319,53203.1083459520,55531.1902821760,61727.7115662274,61743.1037027084,57686.3449111523,65810.4362228037,21486.5707887286
8773050362,11252,2,0,54240.9277110712,56500.3595018201,36855.1384410042,53263.7521469176,55575.3103508560,61747.9221106503,61789.7668200244,57756.1509878255,65834.7716164496,21492.7276433210
8773050362,11252,2,0,54247.0237271795,56570.0317338283,36894.2210831995,53323.8605692229,55631.5981163589,61721.5303762414,61814.4064060909,57824.9958164497,65826.4854149132,21504.0679367600
8773050362,11252,2,0,54227.7987661993,56555.7955285455,36870.9199437835,53293.3196501973,55617.0333832618,61687.6311728927,61777.6842970792,57791.5954886707,65793.0242486501,21500.9286709797
8773050362,11252,2,0,54210.3137858647,56478.2872997833,36816.6276805596,53215.5680674987,55549.0159580216,61690.2228923159,61729.8774162619,57704.4382763280,65776.5491871518,21481.5698653344
8773050362,11252,2,0,54219.0136890931,56447.5516976086,36809.4852425245,53201.2466883381,55526.2258618722,61726.5556350292,61740.7553372216,57689.0948106343,65800.9210838882,21473.9163840327
8773050362,11252,2,0,54242.6068532328,56502.0873147690,36856.2213660214,53263.4722898906,55575.6145432765,61744.7706771732,61789.3166152420,57759.9959800216,65827.2641475099,21484.1129139704
8773050362,11252,2,0,54247.7172858984,56566.0285615735,36893.3085059377,53312.5689465712,55628.8238814833,61727.8697462861,61811.2793080074,57820.1774085078,65824.5629188152,21493.1535127098
8773050362,11252,2,0,54231.4734106398,56564.3859225025,36880.2647349436,53291.3728187056,55624.6381937762,61695.6861881894,61782.3931957497,57802.3760680559,65797.9643335602,21488.7974772472
8773079527,11253,2,0,54207.9410849842,56493.9714609881,36829.2212467713,53222.4063131132,55567.7663788257,61680.3792255862,61736.3384632749,57726.4983106680,65779.0070619101,21475.4008430451
8773079527,11253,2,0,54202.3804475361,56435.2623238174,36795.1151925766,53179.3326663600,55520.0325041893,61698.0588890699,61721.0680037621,57676.8662753272,65782.4261847173,21463.1723077381
8773079527,11253,2,0,54218.3688011615,56469.3197072248,36825.2667453039,53224.4383184826,55548.6509271169,61723.8544063345,61761.5255956984,57727.8732604090,65806.4330505490,21472.5049312013
8773079527,11253,2,0,54231.1083797351,56549.4926615912,36875.6045070604,53298.9654615232,55617.5200911348,61715.9210680060,61799.3427974241,57812.9254612014,65811.2757938845,21495.6113874680
8773079527,11253,2,0,54221.7392531814,56563.9843885073,36872.7694337006,53296.2764005253,55631.3304270288,61687.3878189562,61781.1885937643,57809.8835369956,65787.7434682289,21500.2351122608
8773079527,11253,2,0,54205.3858686514,56499.7267815853,36823.2955784185,53227.2247210551,55576.9286545334,61686.4509063008,61736.0099354607,57732.1684573875,65774.5171817824,21482.6284549580
8773079527,11253,2,0,54209.6932333267,56452.1024162203,36801.6249103769,53196.3187711248,55539.2087943823,61719.7903955957,61732.5908126534,57697.1133228406,65795.8593220099,21473.1498191329
8773079527,11253,2,0,54226.9348597248,56480.4288144242,36832.9688973928,53238.1756481957,55564.2864175344,61742.0694484785,61766.1979912784,57743.0585460440,65825.5363345610,21478.7956304587
8773143185,11254,2,0,54237.7397745036,56546.6210851410,36875.9817056619,53296.0452142857,55618.4083330028,61733.5642283993,61797.3351274483,57809.7618600274,65831.2064812805,21494.1755992429
8773143185,11254,2,0,54227.6770892310,56570.4819386107,36880.4472503959,53302.2629073622,55634.2020034790,61706.7222892078,61787.6253053836,57818.0480615638,65814.3542211807,21504.5668123297
8773143185,11254,2,0,54206.5417998496,56515.0945826727,36833.8571392609,53241.0593923428,55586.5167996299,61684.5770809901,61744.0041122733,57750.3104933505,65789.9944921412,21493.0196680447
8773143185,11254,2,0,54198.9369893352,56446.8094681024,36791.4283804393,53185.6233656175,55529.3772953494,61701.6848627232,61721.7493947842,57686.0407187317,65790.8583986156,21472.2859126585
8773143185,11254,2,0,54214.4142996940,56460.3886177568,36811.1522169892,53216.0426076748,55540.7662595756,61728.1982741003,61758.1916467689,57716.8249916938,65814.8652644473,21464.2795681490
8773143185,11254,2,0,54231.9844539063,56536.6314060493,36865.2011262768,53295.5341710191,55607.0315364734,61729.2446960271,61804.3193854247,57802.4855773273,65825.9378685562,21482.1052439946
8773143185,11254,2,0,54228.5653310991,56566.9533065321,36876.3102334761,53310.7559597446,55631.9144764763,61705.7123703715,61796.1913639469,57817.8533784146,65808.0513542264,21498.4099577373
8773143185,11254,2,0,54216.5801497285,56519.0612518370,36838.6998825964,53254.1518341243,55592.0531016843,61696.1363929719,61755.4539149837,57750.2374871696,65792.5010376867,21496.0615922505
8773151981,11255,2,0,54215.7892494350,56461.8609090723,36806.5649952870,53207.1601889941,55542.1168739230,61708.2919220980,61737.6769099254,57694.5946095982,65799.3271156044,21482.4337718088
8773151981,11255,2,0,54229.2832252117,56464.6229762512,36818.9638783496,53222.7713440179,55543.8933576591,61725.4727100120,61760.2723229256,57713.3328627056,65816.4105619438,21473.0768129519
8773151981,11255,2,0,54239.3702458779,56524.9747524929,36859.1172778653,53278.4872277701,55591.6637353860,61723.5867170044,61792.5288872032,57779.2574440923,65821.8495224237,21478.7712950651
8773151981,11255,2,0,54230.9136965859,56562.0497247125,36874.5337497400,53300.2430696896,55620.8297046706,61699.8597081997,61790.1075155355,57808.8127796752,65802.8192445926,21486.8506457555
8773151981,11255,2,0,54210.5814751948,56523.6241381456,36838.8945657456,53250.6110343488,55587.3807061043,61677.9456862216,61746.1091238237,57754.9098827496,65778.1309877388,21482.8596411976
8773151981,11255,2,0,54204.3759498151,56454.2560985580,36793.8497521070,53191.0501584005,55527.1749422244,61695.3454926784,61715.7628879473,57680.3949074059,65780.9538934017,21470.0713918367
8773151981,11255,2,0,54222.5058180813,56454.3412724358,36807.6844233947,53209.6910699332,55527.2601161022,61721.6155501191,61744.9045218382,57696.9794781755,65809.8400056594,21465.3989962567
8773151981,11255,2,0,54239.4554197556,56524.0743429280,36859.3119610144,53284.2668837610,55589.1206867500,61719.5348739624,61791.1296020686,57780.8757477697,65821.8130193332,21481.4481883661
8773183294,11256,2,0,54236.4378309435,56566.1867416322,36878.0623818186,53312.0944063951,55623.8716288763,61691.3909912109,61794.3053709394,57812.6334364776,65800.5438852867,21497.0715110868
8773183294,11256,2,0,54222.9560228637,56532.1536936185,36845.1244265189,53266.6237233678,55597.4068882864,61675.4634760697,61754.8698655362,57763.8288045208,65775.5636037092,21495.3436981379
8773183294,11256,2,0,54217.3710500220,56469.8794212787,36805.2752194238,53210.2264485934,55544.5625809844,61682.6302494984,61728.8553297288,57700.4229363764,65774.1764862714,21484.7943049924
8773183294,11256,2,0,54225.0732021109,56453.6112106264,36802.8903508465,53205.1038482310,55529.9978478873,61704.9458054717,61737.3362144144,57695.2394975299,65791.1260879457,21476.7636250893
8773183294,11256,2,0,54238.3359916479,56507.0152319823,36844.8445694920,53258.3740249218,55572.7673022200,61719.9850787449,61774.4476897243,57761.0910727356,65806.9805969060,21482.4581072024
8773183294,11256,2,0,54238.2508177702,56563.2299913043,36878.7681082343,53300.6202682911,55618.5300099711,61703.5100172466,61785.1674306254,57815.4806775342,65802.4542136879,21492.0949230862
8773183294,11256,2,0,54218.4904781297,56539.1257838980,36854.1163544711,53262.8639050495,55596.5064787215,61673.2367875511,61743.8459322146,57777.3836187815,65780.8687195240,21492.0097492084
8773183294,11256,2,0,54204.9113284753,56461.8487413755,36802.1359536434,53189.2736746643,55530.2412018238,61675.5486499475,61704.0088928163,57691.4431761211,65774.1886539682,21480.8641389186
8773208932,11257,2,0,54212.0294311167,56433.8752063796,36797.0620240683,53183.0681492846,55508.0959936060,61706.0287304889,61721.1166745494,57680.5044166773,65795.8349866162,21473.1254837392
8773208932,11257,2,0,54230.0497901115,56491.7204370758,36844.4673708905,53252.4361888722,55559.9303820718,61721.1288422462,61774.6423728735,57755.2992490479,65815.8630155868,21487.7997261077
8773208932,11257,2,0,54234.3571547868,56549.5656677721,36877.1863076474,53301.0339699831,55610.7913547917,61706.5519414523,61793.7091537951,57807.8880347167,65809.4749747547,21503.3743780411
8773208932,11257,2,0,54222.1894579639,56534.8792577068,36856.0753536595,53274.8369187233,55600.5826571572,61680.4887348576,61766.7698730291,57777.6269727180,65787.2202572656,21504.3477937869
8773208932,11257,2,0,54206.5904706369,56467.7379066378,36808.2928082359,53213.9132607308,55543.8325191750,61677.3373013804,61730.1451055920,57705.8618968563,65778.8853849419,21485.5121991050
8773208932,11257,2,0,54208.2939481921,56429.0689661345,36791.9150883122,53189.9428979896,55511.7828057434,61699.5433480823,61727.3343676259,57679.0442930585,65791.6614666059,21469.7915348098
8773208932,11257,2,0,54225.9249408885,56476.1214497488,36833.9423131386,53241.0958954332,55551.7901928972,61722.8809905887,61767.2322455083,57739.2987277257,65813.4416439190,21476.2282464291
8773208932,11257,2,0,54236.6811848800,56551.3299838114,36886.8717943184,53306.3390857979,55616.8508678095,61715.2883477712,61796.5563948516,57818.1940739257,65815.8508478899,21495.8425737077
8773259848,11258,2,0,54225.1462082919,56551.2813130241,36876.8699475300,53291.0807939819,55617.4957557411,61686.6090863595,61770.9555607362,57806.6104265503,65795.1657632909,21502.1819437524
8773259848,11258,2,0,54207.6003894732,56476.8271761646,36819.8156171272,53216.1521169462,55554.3089061396,61673.1394459765,61723.4893754299,57718.6379785204,65775.1133989267,21488.5419556139
8773259848,11258,2,0,54209.1213515760,56431.5146731959,36794.7744970656,53189.0059853342,55514.7638914650,61692.1088853235,61722.2604380507,57685.2133153478,65786.2955123070,21479.6230338427
8773259848,11258,2,0,54229.3683990894,56475.6469095727,36832.5916987913,53247.3744269939,55553.6883536016,61723.7083939727,61773.0119014992,57750.6633565584,65807.5889817472,21495.0395057174
8773259848,11258,2,0,54245.9286344654,56547.7526809455,36879.7415239802,53308.9308052211,55616.4493338143,61705.9557243080,61804.4167269992,57817.3788382386,65809.1464469405,21515.0431992943
8773259848,11258,2,0,54231.5099137303,56551.9992071367,36871.5769994120,53294.6945999383,55618.8098669980,61673.1029428861,61777.5017816269,57807.3648237533,65783.5456128250,21512.4636475678
8773259848,11258,2,0,54209.5107178744,56489.2138915303,36826.1184840815,53229.7556019943,55566.5617768403,61665.3156169194,61732.3109556265,57737.3518962341,65767.8614516203,21496.4144554584
8773259848,11258,2,0,54203.3903663724,56430.7602759929,36792.4869700629,53184.7107883557,55519.7648148592,61690.4784139492,61716.5902913313,57688.5837673677,65777.5834413818,21477.7492085320
8773300887,11259,2,0,54219.5247323597,56458.2836062064,36825.0842298515,53226.5920008203,55546.3755678110,61723.9274125155,61754.8576978394,57734.6871706298,65810.6552413466,21481.8132192708
8773300887,11259,2,0,54233.6514283711,56535.0252700687,36880.6541012419,53297.9433749900,55612.4704969532,61721.2018484271,61796.6172333357,57817.9872230797,65820.0000325066,21502.4496330825
8773300887,11259,2,0,54222.8100105019,56552.0113748335,36880.1917287626,53295.4368294445,55622.3019959862,61687.8258560418,61778.0614956808,57817.4883475100,65797.8913273793,21510.6871638317
8773300887,11259,2,0,54201.9302427537,56488.8975314129,36825.3032483943,53222.3089715386,55562.9114677934,61670.3165403136,61725.1076791073,57733.6894194904,65774.8943803839,21490.1724269882
8773300887,11259,2,0,54199.9590758684,56431.6606855578,36790.0899337887,53179.4786787219,55515.4087793966,61687.6555082863,61709.4113502057,57683.8383656068,65781.9881476317,21465.4111639535
8773300887,11259,2,0,54214.9375106574,56453.8910676533,36815.2405631218,53216.0669430685,55535.0596097657,61710.0075673500,61741.5219021215,57722.1544429022,65802.3325367197,21470.4972612255
8773300887,11259,2,0,54224.6108296316,56517.7471405801,36858.2168683004,53272.6345655983,55590.8363320020,61709.6668718390,61771.2962562472,57789.0767754284,65805.5448086809,21491.5595444260
8773300887,11259,2,0,54218.4539750392,56546.3290604172,36870.6765898471,53284.7657593308,55616.4249984207,61690.5027493429,61764.9082154152,57807.6568484770,65792.5132053835,21511.8795981203
8773312073,11260,2,0,54204.3637821183,56502.3550040991,36837.7021314569,53235.8151150121,55580.1652618883,61674.8672589254,61729.2325283303,57752.7318650183,65777.5104352008,21511.0156916459
8773312073,11260,2,0,54198.8883185479,56433.9238771669,36797.4148872761,53178.2984121300,55522.3687019794,61684.0173669362,61705.7853765525,57684.1303903305,65779.4816020862,21490.4036132278
8773312073,11260,2,0,54213.1366915276,56440.3849241799,36811.7240987399,53203.4733768567,55525.9581725421,61711.3581816974,61740.2321262582,57707.9060699225,65800.8967484945,21481.8740577549
8773312073,11260,2,0,54231.5342491239,56517.0049110739,36865.8216788147,53283.3664741961,55588.3541218502,61714.4609443872,61790.3630371688,57795.3918100795,65814.0865318506,21499.3590380895
8773312073,11260,2,0,54229.2953929085,56551.9748717431,36877.8798663663,53305.3291669616,55616.7535262349,61688.1178807656,61786.5302126695,57815.7483668643,65795.0927571100,21512.0499458758
8773312073,11260,2,0,54211.4332139724,56502.1481532531,36835.6701260875,53246.2671665830,55577.4396978000,61667.7491562840,61742.0816161753,57752.0139709057,65775.2350758950,21502.5834777476
8773312073,11260,2,0,54201.0420008856,56430.4439158755,36793.3387088405,53189.0668238183,55521.8454910160,61674.5752342016,61715.8723972187,57689.8127047468,65774.8578772935,21480.2679217743
8773312073,11260,2,0,54211.3845431851,56428.5579228679,36801.9777735847,53204.1304324851,55524.6197258916,61696.7447778130,61736.9346804192,57708.1250884654,65791.7953112710,21468.7937836703
8773383253,11261,2,0,54232.4103232952,56497.9016270619,36849.2006049546,53274.2528692758,55582.7083105243,61715.1180000157,61779.8258117201,57786.3268759464,65807.2847893266,21478.5401088254
8773383253,11261,2,0,54242.9353810470,56557.6450184625,36882.0412186797,53318.4824472272,55633.5206124569,61702.8894647086,61796.7267426071,57836.0927559522,65803.7439895511,21501.5857266081
8773383253,11261,2,0,54228.0056170452,56529.4889680143,36856.3065398992,53277.4286381465,55605.2793881309,61678.4080587009,61761.2457386715,57790.5125636535,65780.6375332843,21508.1197798020
8773383253,11261,2,0,54212.2119465691,56449.9487338827,36804.7276730667,53202.1957686903,55533.9401816580,61681.4621506034,61721.7007239969,57704.0854131201,65773.2030705255,21493.0318357416
8773383253,11261,2,0,54217.3588823252,56428.5457551711,36801.8439289197,53198.8009812767,55513.9243203842,61709.6790395358,61732.0797693869,57698.3422602197,65793.4987888262,21484.1007462735
8773383253,11261,2,0,54231.5829199112,56490.4184935158,36849.1519341673,53268.2785301357,55567.5838633734,61720.1432588036,61776.5283658811,57775.1082594757,65811.5313155178,21495.3436981379
8773383253,11261,2,0,54233.5540867965,56539.6003240741,36876.8699475300,53301.5571809464,55611.2902303614,61703.9480543322,61781.2859353388,57817.3179997544,65801.6754810912,21507.2072025403
8773383253,11261,2,0,54215.3998831367,56511.9796522860,36847.3389473407,53252.6795428087,55585.7380670332,61681.6203306621,61740.0861138964,57768.6472124627,65779.3234220275,21498.4221254341
8773391917,11262,2,0,54200.3606098635,56445.2276675154,36801.7830904356,53187.8135510456,55526.2380295690,61684.4189009314,61705.4811841319,57698.6707880339,65776.3666716995,21482.9326473785
8773391917,11262,2,0,54206.4079551845,56427.4871655475,36797.9259305427,53183.2141616465,55508.6070368726,61712.9643176780,61715.9454033996,57691.5648530893,65795.2996079560,21481.8740577549
8773391917,11262,2,0,54224.1606248492,56483.5802479013,36841.7783098926,53242.5195159615,55555.3553280663,61734.1847809372,61759.3840810575,57754.7638703877,65814.2325442125,21492.7641464115
8773391917,11262,2,0,54236.0971354325,56555.6008453963,36888.3927564213,53301.3868331909,55615.0378809829,61725.9837532786,61785.7149769824,57821.1143211632,65816.6295804866,21508.1076121052
8773391917,11262,2,0,54220.6684958610,56542.7274221576,36870.1777142773,53272.5980625078,55602.2374639251,61690.9164510348,61752.5093323526,57789.7216633600,65791.3816095790,21509.3608848780
8773391917,11262,2,0,54201.9667458441,56463.0898464515,36812.6245083048,53193.9095671539,55535.6801623036,61685.2706397090,61704.0210605132,57700.2160855304,65778.8367141546,21493.6158851891
8773391917,11262,2,0,54204.4611236929,56425.2118062416,36795.6262358432,53176.8382885113,55505.8571373906,61712.8183053161,61709.9710642596,57678.3750697333,65793.9003228214,21479.7812139014
8773391917,11262,2,0,54226.6184996074,56481.1223731431,36839.6854660390,53245.9629741624,55554.1263906872,61725.8377409167,61763.8617934884,57752.4520079913,65817.7125055038,21491.5473767292
8773403303,11263,2,0,54232.3981555983,56542.2163788911,36872.4652412800,53297.6148471758,55603.5515751820,61706.3572583032,61784.2183502732,57806.9754574549,65807.3091247202,21506.7813331515
8773403303,11263,2,0,54216.3124603984,56528.3573722097,36852.0113429207,53270.5295540479,55587.5023830726,61676.1692024854,61754.6630146902,57776.9212463023,65779.9318068686,21505.7592466184
8773403303,11263,2,0,54197.5255365038,56457.7847306367,36799.6050727043,53202.0619240252,55528.0510163957,61665.8266601859,61710.4091013452,57701.1164950953,65761.4612430914,21485.5852052859
8773403303,11263,2,0,54196.5764561516,56412.0341905824,36774.9046481537,53171.1438063981,55490.9882118730,61687.0714588388,61703.0841478578,57667.1321178689,65769.5040906914,21469.8523732939
8773403303,11263,2,0,54216.3489634889,56457.0059980400,36811.7484341336,53223.7934305510,55529.8396678286,61719.1698430577,61748.3601477360,57724.2716221494,65792.7808947137,21480.4991080139
8773403303,11263,2,0,54235.0628812026,56540.3303858835,36866.7464237733,53299.4521693961,55600.4123094017,61716.4564466662,61788.3918702834,57807.9245378071,65797.9399981666,21505.6740727406
8773403303,11263,2,0,54227.5919153533,56550.6607604862,36863.1569532105,53295.7531895619,55611.6552612661,61686.7429310246,61767.8284626527,57802.8992790192,65778.8488818514,21511.7579211521
8773403303,11263,2,0,54210.4232951361,56481.0737023558,36809.9841180942,53221.4450650642,55552.0457145305,61673.0421044019,61720.4839543146,57720.4996361343,65762.3738203531,21497.3635358105
8773430898,11264,2,0,54208.8536622459,56430.5290897533,36785.3201966341,53183.7738757004,55511.1379178118,61695.9052067323,61713.3536839764,57682.6824344086,65778.6176956117,21484.3197648163
8773430898,11264,2,0,54222.7126689273,56470.7798308436,36825.4857638467,53235.4014133201,55545.8523568476,61730.7656581300,61757.0722186612,57744.7255205088,65809.2194531214,21495.7087290426
8773430898,11264,2,0,54231.3030628843,56539.1501192917,36871.1024592359,53294.3174013368,55603.1622088837,61720.1310911067,61785.0579213539,57812.3900825411,65815.3884754107,21510.4073068047
8773430898,11264,2,0,54217.7239132299,56549.3588169261,36865.8095111179,53288.5742484364,55611.3510688455,61694.6519339595,61766.5265190926,57805.3571537775,65796.7718992716,21506.3189606722
8773430898,11264,2,0,54196.2844314278,56488.2891465718,36818.4284996894,53225.2657218666,55559.3219972306,61678.3107171263,61721.4573700604,57735.4902386202,65777.5104352008,21490.3184393501
8773430898,11264,2,0,54193.0478240729,56430.0058787899,36782.6554710299,53180.1235666535,55511.2717624768,61696.9881317495,61705.6636995842,57683.1083037974,65785.9913198864,21477.5545253828
8773430898,11264,2,0,54216.7383297872,56457.2858550669,36810.3613166958,53219.4130596948,55535.5828207291,61729.6462300223,61747.4840735647,57726.6564907267,65815.1572891710,21486.0719131588
8773430898,11264,2,0,54234.4301609678,56535.6093195162,36862.6945807312,53293.9523704321,55602.1644577442,61718.1477565246,61788.1850194374,57810.9421266192,65822.0563732696,21503.5082227061
8773449387,11265,2,0,54223.5279046144,56556.3795779930,36863.3638040565,53297.7851949313,55617.3010725919,61681.1457904860,61770.7122067997,57816.9408011529,65793.0850871342,21510.0909466873
8773449387,11265,2,0,54200.7499761619,56489.3477361954,36812.3811543684,53224.8885232651,55557.5820165849,61664.2205242053,61717.6245455612,57731.5844079400,65765.1602229256,21492.9831649543
8773449387,11265,2,0,54193.7413827918,56426.8666130096,36776.7541380708,53177.4710087461,55502.9003870626,61681.7298399335,61702.8772970118,57671.4881533315,65766.9002035712,21475.6807000721
8773449387,11265,2,0,54209.1213515760,56447.4908591245,36801.9291027975,53216.7726694842,55520.8842429669,61709.5816979612,61741.9477715103,57709.4148643286,65790.5785415887,21479.9150585664
8773449387,11265,2,0,54223.0168613478,56517.2360973136,36848.5922201134,53281.3588042204,55579.4595354726,61709.5086917803,61780.4220288644,57783.2727840438,65798.8769108219,21494.0904253652
8773449387,11265,2,0,54216.0691064619,56548.1420472438,36860.0055197334,53292.8694454149,55603.1378734900,61684.4797394155,61775.9929872209,57801.7433478211,65783.5942836123,21500.1134352925
8773449387,11265,2,0,54197.6472134720,56503.9124692924,36824.1229818025,53240.1833181715,55565.3206717643,61669.9758448026,61736.1924509130,57747.1468921765,65764.8316951114,21488.9556573059
8773449387,11265,2,0,54194.8243078091,56439.7278685514,36784.9308303358,53185.2096639255,55516.4795367170,61686.6334217532,61714.9111491697,57686.0772218222,65771.4265867894,21479.6230338427
8773503242,11266,2,0,54212.0172634199,56444.7774627329,36796.7699993445,53207.1236859036,55522.7580682777,61710.8228030372,61746.0726207332,57706.9691572672,65795.2387694719,21483.2368397991
8773503242,11266,2,0,54226.5089903360,56518.3190223308,36845.8423206315,53281.3101334331,55584.0832602653,61706.8317984793,61790.3387017751,57792.5324013261,65803.7074864607,21499.0670133658
8773503242,11266,2,0,54219.1597014550,56558.7401111766,36858.2533713909,53302.5305966923,55617.9702959172,61678.5662387596,61785.4107845618,57820.4694332316,65781.5501105461,21508.4483076162
8773503242,11266,2,0,54200.3727775603,56514.9242349172,36818.7326921099,53244.6488629055,55579.0336660838,61664.1596857212,61739.3560520870,57755.1897397765,65758.5896666412,21496.2806107933
8773503242,11266,2,0,54191.3321788209,56447.0528220388,36778.4819510196,53183.4818509766,55521.9428325905,61682.6910879825,61711.9178957512,57688.0727241011,65759.8916102012,21475.3521722578
8773503242,11266,2,0,54206.4566259718,56444.9843135789,36793.1683610849,53197.7545593499,55526.2380295690,61712.8548084066,61733.2600359787,57704.4626117217,65788.3883561606,21469.3291623305
8773503242,11266,2,0,54226.6915057884,56508.6457033566,36844.4065324063,53262.9369112304,55581.9782487149,61728.9648390002,61776.2120057637,57778.8315747035,65809.7791671753,21483.4071875546
8773503242,11266,2,0,54233.0308758331,56561.1249797539,36875.0204576129,53304.5991051522,55628.6778691214,61711.0783246705,61791.3486206114,57825.0566549338,65809.9738503245,21505.3577126232
8773523655,11267,2,0,54218.4174719488,56533.0541031834,36847.3632827343,53267.7431514755,55603.6854198471,61680.7442564909,61759.0190501529,57785.4629694720,65787.2324249624,21507.0855255721
8773523655,11267,2,0,54205.2641916832,56453.6355460200,36794.2026153149,53195.9050694328,55538.9654404458,61684.6865902615,61719.3645262069,57701.7492153301,65779.8101299004,21490.0020792327
8773523655,11267,2,0,54211.2993693073,56436.0532241109,36791.2336972901,53191.5003631829,55521.0424230256,61716.2860989107,61732.9558435581,57695.7383730996,65802.1256858737,21478.9659782143
8773523655,11267,2,0,54227.3485614168,56503.3162521481,36843.1532596336,53262.1216755433,55578.5226228172,61728.3199510686,61781.8456493927,57776.3980353389,65825.1591359595,21493.4212020399
8773523655,11267,2,0,54226.4846549424,56558.0708878513,36871.7108440770,53299.9388772690,55623.3727533066,61704.1305697846,61789.4017891197,57822.7326248406,65811.8355079384,21509.4095556653
8773523655,11267,2,0,54208.6346437031,56530.5353899410,36842.7273902448,53257.7169692934,55598.1734531863,61681.1579581828,61748.6156693692,57778.2475252560,65786.2711769134,21506.5379792150
8773523655,11267,2,0,54195.1406679265,56459.8045683093,36796.0642729288,53194.5422873887,55539.6468314679,61679.6856668673,61713.1833362208,57706.5554555752,65779.8222975972,21496.3414492774
8773523655,11267,2,0,54199.0343309098,56428.7647737139,36784.1277623455,53184.8324653240,55517.4286170692,61699.7258635347,61722.2482703539,57694.9839758966,65793.8394843372,21488.1039185283
8773549583,11268,2,0,54219.9871048389,56478.3603059643,36824.5245157977,53243.8579626120,55560.6482761843,61716.7241359963,61767.9379719241,57758.6088625837,65812.3708865986,21496.2806107933
8773549583,11268,2,0,54233.7852730361,56544.6864213461,36863.2056239978,53304.4530927903,55615.5367565526,61705.0553147431,61798.3328785878,57823.3166742882,65809.7426640848,21513.3032186486
8773549583,11268,2,0,54226.7158411820,56540.0748642502,36851.2204426272,53290.4480737471,55611.8621121121,61686.6334217532,61776.5405335779,57803.0817944716,65791.2112618235,21520.8715260725
8773549583,11268,2,0,54213.2340331022,56468.2489499044,36801.1016994135,53217.7339175332,55551.3034850243,61679.3814744467,61731.5078876362,57720.1711083201,65776.7560379978,21504.3599614837
8773549583,11268,2,0,54213.3313746768,56426.2825635621,36783.4828744139,53189.6630409627,55516.6742198662,61701.2954964248,61729.2446960271,57688.7297797296,65789.3131011191,21485.5365344986
8773549583,11268,2,0,54227.8717723802,56477.0218593137,36827.5786077002,53246.8268806369,55560.0398913432,61717.2108438692,61770.7122067997,57756.8202111508,65808.0148511360,21492.9223264702
8773549583,11268,2,0,54228.2733063753,56539.3569701377,36865.9433557830,53292.9059485053,55610.6696778234,61699.8475405029,61786.9074112710,57815.8457084389,65799.2662771203,21506.1607806135
8773549583,11268,2,0,54213.3313746768,56533.8206680832,36850.3443684559,53268.9599211578,55602.6998364044,61674.4900603239,61757.2790695072,57791.9483518786,65774.0183062127,21506.4771407309
8773605065,11269,2,0,54198.7788092765,56471.1205263546,36804.1679590129,53207.4278783242,55548.6265917233,61671.8496701133,61721.6033824223,57723.8457527606,65765.6469307985,21493.3238604653
8773605065,11269,2,0,54200.7013053746,56427.7548548776,36781.3778628635,53180.1113989567,55512.3303521004,61693.4716673677,61717.0161607201,57689.2773260866,65777.5712736850,21482.0079024200
8773605065,11269,2,0,54222.6274950495,56465.3530380605,36815.6299294201,53228.0277890454,55544.1610469892,61729.0135097875,61758.4350007054,57740.9413667968,65803.9751757908,21488.5541233107
8773605065,11269,2,0,54239.7839475699,56545.6598370919,36869.9343603409,53300.3039081737,55609.9517837109,61728.9891743938,61798.3572139814,57821.8930537599,65814.2447119093,21510.3951391079
8773605065,11269,2,0,54227.4702383850,56554.7856097091,36867.2574670398,53292.8572777180,55615.2325641320,61693.4838350645,61776.3093473383,57811.1733128589,65790.6028769823,21519.9711165076
8773605065,11269,2,0,54205.3371978641,56483.7627633536,36811.7849372240,53211.8447522709,55551.9848760464,61677.1791213217,61720.0094141385,57719.1003509997,65768.3359917964,21502.7173224126
8773605065,11269,2,0,54204.7774838102,56430.4439158755,36785.8069045071,53171.5940111806,55507.9621489410,61705.1404886209,61708.5596114281,57673.7391772437,65783.0832403458,21488.5297879171
8773605065,11269,2,0,54221.9826071179,56467.4458819141,36823.0035536948,53219.2305442424,55540.9487750280,61730.3154533475,61749.8689421420,57726.7903353917,65811.0446076449,21492.8493202892
8773629684,11270,2,0,54234.0651300631,56541.2794662357,36872.1732165563,53281.6264935505,55600.1811231621,61722.7714813173,61781.7239724245,57800.0398702659,65815.4493138948,21505.8809235866
8773629684,11270,2,0,54224.1606248492,56556.3552425993,36871.9541980135,53279.2051218827,55610.6940132171,61697.5965165906,61763.8982965789,57799.9911994786,65793.1945964056,21506.5014761246
8773629684,11270,2,0,54205.8969119180,56499.8727939472,36827.9071355144,53218.1476192252,55562.6316107665,61682.9709450095,61722.0535872048,57732.7525068350,65774.7848711125,21497.1810203582
8773629684,11270,2,0,54202.4291183234,56441.3705076225,36796.6239869827,53172.3605760804,55515.6277979394,61701.0643101852,61707.3185063522,57681.2588138803,65782.8398864093,21488.9191542154
8773629684,11270,2,0,54214.4751381781,56454.5237878881,36815.3865754836,53198.1560933451,55529.2191152907,61718.3059365833,61739.3317166933,57709.5852120841,65803.5371387051,21486.2909317017
8773629684,11270,2,0,54223.6374138858,56525.0112555834,36864.3493874991,53268.1203500770,55588.4149603343,61708.3040897948,61780.3611903803,57787.2516209049,65805.5204732873,21494.3702823921
8773629684,11270,2,0,54218.7094966725,56555.1871437043,36874.3390665908,53284.8265978149,55613.5412542737,61682.6180818016,61772.9510630151,57803.3738191953,65783.2900911918,21504.4938061488
