steady_timestamp,sequence,battery,flags,EEG-ch1,EEG-ch2,EEG-ch3,EEG-ch4,EEG-ch5,EEG-ch6,EEG-ch7,EEG-ch8,EEG-ch9,EEG-ch10
9827053357,23932,-2,0,10965.7352276813,42013.2076397016,40390.4870883036,57284.5918974524,64845.7812186809,54451.8790708906,55334.3291152776,55137.1150851714,57804.1282163984,12224.6903148607
9827053357,23932,-2,0,10873.3702410984,42007.4158160139,40374.0120268054,57289.7266655117,64842.7392944752,54466.8331702860,55337.6265611166,55141.2521020912,57823.9615622198,12216.8786535003
9827053357,23932,-2,0,10967.9740838967,42029.4028441730,40400.3915935175,57286.0276856775,64869.1553642778,54444.8096390364,55335.6553942313,55175.3703239827,57846.0580996502,12211.3058483554
9827053357,23932,-2,0,11160.1871906088,42061.2943775459,40464.0408155983,57310.7037748344,64903.8941387073,54457.8290746370,55340.8631684715,55209.2451919378,57859.8441001506,12212.3035994949
9827053357,23932,-2,0,11152.8500694245,42052.5579712270,40450.4129951566,57295.1291229011,64888.0274620502,54447.4013584597,55325.6535474428,55184.1554010889,57838.0882582312,12218.0102493049
9827053357,23932,-2,0,10953.0321521982,42018.2328984895,40371.1647857488,57260.2808392002,64849.2368445786,54443.4590246891,55309.2028213382,55144.0993431477,57822.5257739947,12227.4523820395
9827053357,23932,-2,0,10870.7298508878,42015.5316697948,40343.2764246306,57269.1267547904,64850.6482974101,54430.0380550934,55322.3804369975,55156.3035430611,57837.6137180551,12227.3672081617
9827053357,23932,-2,0,10982.6969970525,42035.2798417385,40392.4704228858,57289.8118393894,64874.5334862735,54440.6726221166,55338.9893431608,55183.3766684922,57851.6187370983,12212.0237424680
9827055629,23933,-2,0,11116.3469789557,42051.4993816034,40431.2367049637,57296.2485510088,64888.7818592532,54416.2642222898,55342.5544783299,55185.2139907124,57840.0594251165,12209.0061536559
9827055629,23933,-2,0,11142.1059931299,42048.7616498183,40419.8355730406,57296.5892465198,64883.8417743431,54430.9749677487,55344.0389373423,55175.8326964620,57832.6736331450,12219.0566712316
9827055629,23933,-2,0,11001.5812625217,42025.1928210722,40394.5267636488,57280.2601973834,64855.6978915916,54443.4346892954,55327.9167390519,55151.1931103955,57827.8673928999,12221.1008442979
9827055629,23933,-2,0,10862.8208479529,42016.0305453646,40380.8502724199,57280.2723650802,64844.3941012431,54464.6429848578,55324.7531378779,55144.9267465317,57823.9372268261,12225.6150598192
9827055629,23933,-2,0,10932.5782538388,42039.2830139932,40408.2640933619,57307.6375152350,64873.0855303516,54442.5586151242,55346.7158306434,55180.3469119833,57838.6236368914,12227.6348974918
9827055629,23933,-2,0,11124.5115035239,42066.2831332433,40452.2624850737,57320.9854786498,64902.0081456997,54427.4463356701,55354.3693119450,55210.5106324073,57858.9071874952,12218.0589200922
9827055629,23933,-2,0,11141.9478130712,42050.1365995593,40445.3755686719,57279.2624462439,64879.2180495503,54451.8547354969,55321.1271642247,55175.4433301636,57852.3853019982,12203.0561499095
9827055629,23933,-2,0,10981.4802273702,42020.7881148223,40399.1261530479,57264.0163221248,64845.9393987396,54438.1052380870,55309.3244983065,55135.7523031272,57829.0233240981,12209.3833522574
9827069751,23934,-2,0,10882.5568521997,42013.4874967286,40371.3351335043,57275.1375970210,64842.4107666609,54423.1633063884,55322.1857538483,55141.3007728785,57826.2004184352,12217.6087153097
9827069751,23934,-2,0,10942.9329638351,42031.0576509409,40403.3361761487,57297.2341344514,64866.1499431625,54425.0614670928,55341.0335162270,55168.9214446665,57829.9480690566,12221.6848937454
9827069751,23934,-2,0,11093.1553488112,42059.0433536337,40436.6391623530,57328.2130905626,64893.9896334934,54436.4747667127,55354.5396597005,55188.2559149182,57841.7750703686,12220.3829501853
9827069751,23934,-2,0,11188.8299489300,42078.7793578805,40481.0755911504,57349.4943923060,64907.4592738764,54490.4141667288,55363.5924261368,55197.8683954083,57861.8396024296,12217.7912307621
9827069751,23934,-2,0,11077.8727216016,42058.5079749735,40456.5455143554,57310.7281102281,64881.3838995848,54511.9266547118,55339.6585664860,55170.5397483440,57867.0717120635,12213.0823320916
9827069751,23934,-2,0,10888.0566511637,42034.2334198117,40394.1008942600,57271.8888219692,64855.0530036600,54489.9882973400,55321.1514996184,55147.7983229819,57854.9040152405,12215.8322315736
9827069751,23934,-2,0,10901.6601362117,42047.1676815345,40408.4831119048,57274.5170444830,64871.4307235837,54504.9180613418,55333.9884197666,55173.9223680608,57862.6305027231,12217.7668953684
9827069751,23934,-2,0,11096.0634283519,42074.8370241098,40442.9541970041,57310.1075576901,64904.9162252404,54446.4157750171,55359.0538752218,55207.4200374143,57862.0707886692,12221.9039122882
9827102154,23935,-2,0,11169.3738017101,42064.3241340548,40441.5184087790,57307.7956952937,64891.7629449748,54379.5421132782,55344.7689991517,55182.2207372940,57826.5897847335,12218.5942987524
9827102154,23935,-2,0,11037.4516327557,42030.3032537379,40394.5997698298,57273.3976163753,64854.8096497235,54352.5298263312,55315.1406573878,55141.5562945117,57807.2431467850,12217.0368335590
9827102154,23935,-2,0,10891.6582894232,42003.6803330893,40363.6694845059,57251.8486253019,64829.4521695445,54366.1819821666,55299.2618130339,55128.1474926129,57801.3296461291,12208.5437811766
9827102154,23935,-2,0,10887.9836449827,42009.8006845912,40368.8164202620,57256.8130456056,64836.0957320098,54428.1155589953,55307.2803252402,55145.1457650745,57816.1985716467,12203.6888701443
9827102154,23935,-2,0,11027.7783137815,42043.6147140622,40415.1266743701,57287.3417969344,64874.4604800926,54482.5294991875,55342.5301429363,55182.8899606193,57848.0414342324,12207.2418376166
9827102154,23935,-2,0,11170.1160312163,42069.0086973317,40460.3783388546,57317.2986665125,64900.4871835968,54461.7227376203,55362.9962089925,55205.8625722210,57860.5498265663,12222.5609679166
9827102154,23935,-2,0,11102.5123076680,42055.1618583471,40468.6037019069,57300.7871019237,64880.3983161422,54462.1851100996,55341.6662364618,55178.5217574598,57853.9305994947,12226.0287615112
9827102154,23935,-2,0,10908.9972573959,42029.1716579333,40421.4173736275,57289.8483424799,64849.7235524515,54451.2463506558,55324.7044670907,55147.2507766249,57848.5889805894,12218.1562616667
9827134624,23936,-2,0,10888.6163652175,42035.0243201052,40415.4308667907,57305.0457958118,64858.1070955625,54437.5090209427,55332.9663332334,55166.6825884511,57867.4367429681,12205.5505277582
9827134624,23936,-2,0,11060.7892752621,42058.3619626116,40426.4913032027,57323.4676888017,64886.3604875854,54404.3520471001,55353.4080638960,55196.8706442688,57859.0045290698,12205.1854968535
9827134624,23936,-2,0,11153.3002742070,42053.7625732125,40402.0220648918,57300.7019280460,64882.5763338735,54406.2137047141,55342.2502859093,55178.6556021249,57821.3820104933,12210.8434758762
9827134624,23936,-2,0,11062.7239390570,42026.2392429990,40363.8885030487,57266.6323769417,64851.0376637084,54410.8495972036,55319.2168358235,55139.6459661105,57793.8951833703,12214.3234371675
9827134624,23936,-2,0,10911.2117782177,42004.7145873192,40366.2490362323,57254.7688725394,64831.0339701315,54483.8436104444,55302.7174389316,55129.7657962903,57813.3878336806,12212.5956242187
9827134624,23936,-2,0,10869.6347581737,42017.2229796532,40415.1145066733,57267.3381033575,64843.3841824068,54489.3312417116,55311.3321682822,55149.2949496911,57852.2757927268,12212.8998166392
9827134624,23936,-2,0,11007.9084648696,42052.6674804984,40470.2463409780,57306.3234039782,64881.9436136387,54447.2066753105,55335.7162327154,55184.2892457539,57863.7742662244,12213.0336613043
9827134624,23936,-2,0,11164.2998721349,42067.1592074146,40466.7298765962,57308.3675770444,64895.7661172295,54399.6674838233,55336.0325928328,55192.7092919554,57844.1964420363,12209.5171969225
9827180765,23937,-2,0,11107.6105726368,42037.0928285651,40414.5182895289,57266.4011907021,64863.6068945265,54445.4788623617,55307.1951513624,55155.4518042835,57821.4428489774,12204.1390749267
9827180765,23937,-2,0,10905.8579916156,42009.3626475056,40381.1666325372,57244.9617089001,64833.4553417993,54461.0900173855,55293.7255109794,55126.0546487593,57821.7592090948,12208.3247626338
9827180765,23937,-2,0,10838.7044728498,42014.7529371982,40378.3315591775,57270.4286983505,64844.1872503971,54463.4505505692,55309.3366660033,55148.1390184929,57837.9422458693,12218.9593296571
9827180765,23937,-2,0,10986.2012937375,42041.5583732991,40397.7998740942,57295.7861785295,64874.5456539703,54413.0032795413,55324.9478210271,55182.6466066828,57843.5028833174,12223.9724207481
9827180765,23937,-2,0,11126.2149810791,42051.1343506987,40406.3415972639,57289.9091809640,64879.0355340980,54393.3524491722,55319.6062021218,55174.2995666623,57817.2693289671,12223.1328496673
9827180765,23937,-2,0,11114.7286752782,42039.0031569663,40392.2635720398,57272.9717469865,64859.2265236702,54406.2988785918,55307.8643746877,55152.4220477746,57814.0205539154,12215.9295731481
9827180765,23937,-2,0,10977.8299183233,42017.1499734723,40363.7668260804,57265.8658120419,64834.2462420927,54414.6215832187,55306.6354373086,55138.9159043012,57811.7695300032,12215.3211883070
9827180765,23937,-2,0,10862.2124631117,42012.1612177749,40362.4405471267,57266.2186752498,64835.5481856528,54442.4491058528,55314.9459742387,55144.5373802333,57816.6122733387,12215.0169958864
9827206291,23938,-2,0,10938.6986053407,42037.7742195872,40395.3663347296,57291.5031492478,64866.7704957005,54450.8204812670,55336.6166422803,55179.4221670247,57844.7561560902,12210.7096312111
9827206291,23938,-2,0,11120.1676357581,42059.5665645970,40441.8591042901,57314.9868041161,64891.3614109796,54433.4936809911,55347.6284079051,55203.5750452183,57852.5556497537,12205.3680123058
9827206291,23938,-2,0,11131.2402398670,42040.2685974359,40416.5137918079,57298.0006993513,64866.4906386735,54433.6275256561,55330.3624461133,55169.0917924220,57817.0624781212,12209.5658677097
9827206291,23938,-2,0,10951.5233577921,42005.9070216079,40350.2728503038,57270.2340152013,64827.1768102386,54452.9741636046,55313.7413722532,55129.6684547157,57799.2733053660,12219.8962423124
9827206291,23938,-2,0,10844.6058058089,41994.7735790149,40331.1817339886,57271.1465924630,64821.4823281255,54422.3359030045,55313.1938258962,55135.1195828924,57820.1895762047,12218.3022740286
9827206291,23938,-2,0,10948.4327627991,42019.0846372671,40384.4154075890,57286.5387289441,64851.0985021925,54439.0786538328,55323.1956726846,55172.3405674738,57855.3177169325,12214.6397972849
9827206291,23938,-2,0,11108.4379760208,42059.2745398733,40472.8623957949,57312.7479479007,64890.4244983243,54489.6232664353,55347.9569357193,55200.0099100491,57875.5769321427,12225.9922584207
9827206291,23938,-2,0,11150.0514991552,42072.3548139580,40496.6015722965,57321.8250497306,64897.0437253959,54478.0882898472,55359.2120552805,55202.2731016582,57871.9144553990,12232.4168023432
9827227577,23939,-2,0,11015.6836231395,42041.6557148737,40418.3146109377,57291.4909815510,64858.3261141053,54446.0872472028,55335.2781956298,55167.6925072874,57835.0341663286,12237.7340858549
9827227577,23939,-2,0,10849.2538659953,42011.4919944496,40340.3440096963,57253.7467860062,64826.7266054562,54427.9452112398,55307.4506729957,55140.4490341008,57812.8767904141,12230.5186416388
9827227577,23939,-2,0,10876.8988731770,42011.9056961416,40336.9005514954,57243.9517900638,64831.3259948552,54387.2564330639,55299.6876824227,55152.3125385032,57814.0935600964,12217.4505352510
9827227577,23939,-2,0,11070.9249667157,42038.1270827950,40393.6750248712,57264.6368746628,64862.6091433870,54399.1077697695,55309.3975044874,55183.7782024873,57833.5618750131,12216.8664858035
9827227577,23939,-2,0,11149.5769589792,42047.4353708646,40423.9725899604,57282.9735937749,64870.5789848061,54438.4337659012,55314.4227632753,55179.1058069073,57839.0130031897,12227.3428727681
9827227577,23939,-2,0,11019.4312737610,42038.6502937584,40413.3988614212,57288.2178711056,64855.3328606869,54494.1253142598,55323.3538527433,55156.8389217213,57833.0021609592,12235.4100557617
9827227577,23939,-2,0,10887.0710677210,42037.7133811030,40424.8729995253,57292.2697141477,64856.4157857041,54526.3332077501,55333.5868857714,55165.3198064069,57864.6990111830,12227.9755930029
9827227577,23939,-2,0,10913.4019636458,42040.8891499738,40423.8265775985,57293.3404714681,64862.6821495680,54455.5172122406,55329.9365767245,55177.8647018314,57861.5962484931,12218.1319262731
9827254930,23940,-2,0,11050.4589006595,42057.4372176530,40429.4480535307,57297.2341344514,64879.6074158487,54448.5816250515,55327.8315651742,55188.2559149182,57842.1401012732,12225.5420536383
9827254930,23940,-2,0,11149.5769589792,42071.0163673074,40447.5779217969,57301.4806606426,64894.3789997917,54480.6070030895,55341.0943547112,55200.2045931983,57840.4487914148,12241.6277488382
9827254930,23940,-2,0,11062.3467404555,42052.1442695350,40429.0830226260,57279.9925080533,64873.4748966499,54432.9948054214,55333.2705256540,55177.4266647458,57836.9201593362,12246.4826598705
9827254930,23940,-2,0,10869.3305657532,42011.2973113004,40373.7930082625,57242.9418712275,64831.3503302489,54404.2790409192,55297.5096646914,55136.9204020222,57817.2206581799,12234.4244723190
9827254930,23940,-2,0,10858.1119492824,42011.2851436036,40363.5599752344,57259.4656035130,64837.2394955112,54393.8878278324,55298.6412604959,55151.3999612415,57820.6884517744,12231.9422621671
9827254930,23940,-2,0,11064.6342674582,42049.5647178086,40447.2250585890,57314.6461086051,64881.7245950959,54444.3594342540,55329.6202166071,55196.3230979118,57837.7718981138,12234.1932860794
9827254930,23940,-2,0,11196.8241257426,42067.4512321383,40468.7983850561,57339.5412163048,64894.6466891218,54445.4423592712,55353.3228900182,55202.0540831154,57835.0706694191,12239.3158864418
9827254930,23940,-2,0,11078.1039078412,42042.7994783750,40407.0229882860,57312.4924262674,64863.8867515534,54437.0223130697,55349.2102084921,55169.2378047839,57824.0710714912,12242.3091398603
9827292735,23941,-2,0,10897.8516471061,42009.1557966596,40378.0395344538,57269.1754255777,64834.1975713055,54450.4432826655,55322.7576355990,55152.7992463761,57828.1837530173,12236.7971731995
9827292735,23941,-2,0,10856.3841363335,42003.6194946052,40386.0823820537,57249.8044522356,64833.8812111881,54451.7573939223,55306.5380957340,55162.4847330472,57846.5448075231,12231.4433865974
9827292735,23941,-2,0,10979.5455635754,42021.2991580889,40382.9066131829,57273.5314610403,64855.8925747408,54471.6759136215,55321.4921951294,55182.6709420765,57862.8130181754,12235.2518757030
9827292735,23941,-2,0,11123.2338953575,42041.5827086927,40406.1225787211,57296.8082650626,64877.4293981174,54438.4946043853,55339.7194049702,55197.2843459608,57870.2474809342,12236.5903223535
9827292735,23941,-2,0,11077.9578954793,42023.9152129058,40407.4245222812,57270.6720522869,64852.2787687843,54448.4477803865,55315.5786944735,55164.0056951501,57834.8394831795,12232.8426717320
9827292735,23941,-2,0,10891.6461217264,41995.6496531861,40374.7664240084,57244.4871687240,64821.2024710985,54433.7492026244,55297.5583354787,55129.8022993808,57821.4793520679,12232.5628147051
9827292735,23941,-2,0,10834.1902573285,41994.3477096261,40361.8199945888,57256.2046607645,64821.7500174556,54398.4263787474,55308.4849272257,55139.1349228440,57818.6564464050,12235.2032049157
9827292735,23941,-2,0,11001.8367841550,42024.2194053264,40403.3361761487,57288.5098958294,64858.1922694403,54396.6498950112,55329.4011980643,55175.5406717382,57825.0444872370,12236.7363347154
9827315060,23942,-2,0,11145.0870788515,42045.5737132507,40429.4358858339,57311.1174765264,64878.7191739806,54456.3446156246,55338.7338215275,55183.3888361890,57839.2076863389,12234.8746771015
9827315060,23942,-2,0,11096.0390929582,42040.1834235581,40415.8810715731,57303.3301505597,64868.3522962874,54484.1721382586,55333.0636748080,55165.4414833752,57848.9783468877,12228.2189469393
9827315060,23942,-2,0,10927.2001318431,42010.3603986451,40377.6501681554,57262.9090617139,64836.7406199414,54436.3287543508,55311.2591621013,55140.6802203405,57832.6979685386,12228.4014623917
9827315060,23942,-2,0,10864.0619530288,42011.2243051195,40399.3208361971,57267.0217432401,64838.1885758634,54452.4996234285,55315.8098807131,55148.1633538866,57827.6970451444,12234.6434908618
9827315060,23942,-2,0,10978.5234770422,42051.2316922733,40479.5181259571,57300.2638909603,64881.2987257071,54506.4268557478,55336.9695054882,55189.4118461164,57871.2330643769,12237.8557628231
9827315060,23942,-2,0,11134.6715303710,42071.3205597280,40487.9868429459,57304.5834233325,64900.7792083206,54435.0876492749,55338.9771754640,55206.3979508812,57872.1213062450,12243.0270339728
9827315060,23942,-2,0,11111.1878755028,42044.1865958128,40412.6079611277,57271.2195986440,64869.4230536079,54404.1695316478,55312.3542548154,55171.7200149358,57832.9048193846,12244.1829651710
9827315060,23942,-2,0,10919.1937873336,41999.9570178615,40320.6688439336,57251.0942280988,64823.2588118616,54408.0266915407,55292.6547536590,55123.8157925439,57801.3661492196,12242.3943137380
9827374799,23943,-2,0,10856.1407823971,42001.0886136660,40319.1357141339,57297.1976313610,64831.1313117061,54431.3765017439,55319.9468976329,55142.4080332893,57820.0313961460,12239.9729420703
9827374799,23943,-2,0,10987.7830943245,42034.1969167212,40395.8773779962,57321.1071556180,64870.1896185077,54447.9610725136,55345.4747255674,55183.9972210301,57842.5172998748,12235.7020804854
9827374799,23943,-2,0,11124.4750004334,42057.9969317069,40444.9131961926,57308.2459000762,64890.3758275370,54494.1131465630,55341.4228825254,55192.6119503808,57854.2104565216,12236.5903223535
9827374799,23943,-2,0,11117.8436056649,42058.7513289099,40447.5779217969,57298.4874072242,64885.3140656586,54467.7822506381,55332.2119360304,55177.8768695282,57850.2924581446,12244.0369528091
9827374799,23943,-2,0,10989.1337086718,42039.4898648392,40411.1721729026,57290.7487520448,64863.5095529519,54422.0073751902,55327.5152050568,55158.3963869147,57837.6988919329,12252.1893096805
9827374799,23943,-2,0,10861.4824013024,42006.9777789283,40359.6663122511,57256.0708160994,64832.4575906598,54396.9905905223,55303.9220409171,55131.3475968773,57813.8258707663,12237.5028996152
9827374799,23943,-2,0,10915.9693476755,42011.6866775988,40369.5221466777,57259.1857464861,64839.6608671790,54429.6000180077,55300.3325703543,55143.1502627955,57818.8146264637,12220.9548319360
9827374799,23943,-2,0,11102.2446183379,42044.9653284095,40439.9122727984,57293.9245209156,64875.0323618432,54444.0552418334,55320.3240962344,55178.3149066138,57835.5452095952,12216.4041133242
9827414426,23944,-2,0,11157.0844279189,42060.0776078636,40500.3492229180,57310.7159425312,64887.3582387249,54552.3355758608,55335.9595866519,55185.5790216171,57851.0955261349,12220.2126024298
9827414426,23944,-2,0,10993.6965949804,42042.7264721941,40451.4715847802,57285.6261516823,64865.3103720817,54495.6462763627,55326.8946525188,55160.4162245873,57861.1703791043,12229.9224244945
9827414426,23944,-2,0,10882.3621690505,42018.9629602989,40377.2486341603,57281.0267622833,64848.3607704074,54405.2524566650,55330.7518124117,55155.3179596185,57844.8778330584,12239.7660912243
9827414426,23944,-2,0,10954.5287789074,42022.0413875951,40375.2774672749,57286.7699151837,64858.7398157973,54366.1454790761,55333.6842273460,55175.2364793176,57828.2932622887,12239.7539235275
9827414426,23944,-2,0,11083.1656697195,42037.2753440174,40394.8431237662,57287.9136786851,64874.3509708212,54387.9256563892,55329.8270674531,55182.4275881400,57816.4662609768,12231.6380697466
9827414426,23944,-2,0,11122.5160012449,42040.2929328295,40392.9936338492,57289.4224730911,64873.5965736181,54431.2548247757,55326.2010937999,55175.6136779191,57818.7172848891,12227.3307050712
9827414426,23944,-2,0,11017.4601068756,42022.1508968665,40358.1088470578,57287.2809584503,64853.4468676793,54441.5365285911,55327.2475157267,55162.4847330472,57836.6524700061,12228.1094376679
9827414426,23944,-2,0,10882.6055229870,42008.5109087280,40330.6098522379,57288.9844360055,64841.8875556976,54447.3526876724,55331.0195017418,55152.8722525571,57839.4510402754,12234.1689506857
9827418188,23945,-2,0,10917.3929682038,42030.1572413760,40367.5144767019,57302.4540763885,64864.7993288152,54448.7398051102,55341.4228825254,55176.6722675427,57843.5272187111,12240.1554575226
9827418188,23945,-2,0,11100.6628177509,42061.7810854188,40436.7730070181,57313.5996866783,64902.2393319393,54451.5870461668,55351.1692076806,55209.4398750869,57853.9671025851,12238.8413462657
9827418188,23945,-2,0,11172.3670551285,42062.3651348663,40450.3521566725,57307.0291303939,64899.7449540906,54452.0980894334,55353.7487594070,55200.6669656776,57839.4267048817,12234.1811183826
9827418188,23945,-2,0,11040.1893645409,42043.3591924289,40420.3709517008,57299.4729906669,64873.7547536768,54482.9675362732,55356.2431372557,55173.6911818211,57836.7133084902,12236.0549436933
9827418188,23945,-2,0,10898.0828333458,42028.8431301191,40396.8507937420,57285.1029407190,64860.5649703208,54489.0757200783,55345.4017193865,55172.8759461340,57864.4313218529,12227.9755930029
9827418188,23945,-2,0,10918.5732347956,42029.9382228332,40401.2189969015,57278.9582538234,64866.1499431625,54454.1665978933,55328.7076393454,55185.5060154362,57865.6724269288,12219.1053420189
9827418188,23945,-2,0,11059.1101331006,42051.9617540827,40420.6994795150,57288.3273803770,64887.8084435073,54451.7695616191,55329.9122413309,55197.3695198386,57864.3461479751,12224.6173086797
9827418188,23945,-2,0,11144.8558926118,42054.4682996282,40425.4570489728,57280.9537561023,64889.1590578547,54417.9068613609,55319.2655066108,55189.1076536958,57841.9089150336,12228.9611764455
9827445154,23946,-2,0,11064.5612612773,42031.2158309996,40402.8616359726,57261.9478136649,64861.1246843746,54423.1146356011,55299.0671298847,55159.3454672669,57811.5383437635,12229.8250829199
9827445154,23946,-2,0,10892.4248543231,42012.6965964351,40368.4270539636,57253.6859475221,64840.2935874137,54476.4578184729,55295.7818517425,55140.3516925263,57810.8082819542,12230.2266169151
9827445154,23946,-2,0,10876.8136992993,42024.9981379231,40378.7452608695,57278.1430181362,64858.4721264672,54456.2959448373,55313.3763413485,55162.2048760203,57837.3095256345,12228.2676177266
9827445154,23946,-2,0,11057.0051215502,42058.3984657020,40439.7297573461,57318.8926347963,64897.9563026577,54467.8065860318,55341.5080564031,55205.2541873798,57860.2943049331,12223.2423589387
9827445154,23946,-2,0,11160.5522215134,42061.9392654775,40459.5996062579,57299.7650153906,64896.6908621881,54420.7662701143,55330.2286014483,55193.9503970313,57841.3126978893,12221.6605583517
9827445154,23946,-2,0,11053.3791478970,42032.9071408580,40402.3140896155,57268.6522146143,64861.7330692158,54422.6279277282,55306.0513878611,55155.8776736723,57820.1774085078,12229.8859214041
9827445154,23946,-2,0,10905.3712837427,42017.2473150469,40388.5280891151,57266.7175508195,64847.0466591505,54460.6276449062,55315.5178559893,55153.1642772808,57833.9512413114,12238.2207937278
9827445154,23946,-2,0,10902.3050241433,42036.9224808096,40414.4939541353,57306.4572486432,64871.1386988599,54484.2451444396,55346.9835199735,55185.1896553188,57863.5430799848,12246.3609829023
9827491030,23947,-2,0,11023.7021353458,42055.5633923423,40417.2438536173,57320.5352738674,64886.7985246710,54424.4652499485,55346.2291227704,55196.5664518483,57858.0554487176,12238.5858246325
9827491030,23947,-2,0,11144.5151971008,42055.1740260440,40411.2330113867,57295.5184891994,64884.4744945779,54399.3146206154,55322.5994555403,55187.9517224976,57834.7421416049,12225.7245690906
9827491030,23947,-2,0,11104.5808161279,42034.0509043593,40392.3244105239,57262.8725586234,64860.7596534699,54455.5050445438,55299.0062914006,55161.9858574774,57827.1008280001,12221.1860181757
9827491030,23947,-2,0,10923.6106612803,42013.8646953301,40369.3639666190,57249.7192783578,64837.7262033841,54469.2910450442,55295.6480070775,55137.4071098951,57830.7146339565,12224.0210915354
9827491030,23947,-2,0,10858.1119492824,42023.1973187933,40396.8021229547,57274.1885166688,64850.1372541435,54500.4890196982,55322.8914802640,55159.2237902986,57857.3010515146,12225.6028921224
9827491030,23947,-2,0,11028.1433446862,42069.1790450872,40473.0935820346,57333.2626847442,64904.1739957342,54521.1984396909,55365.7096053840,55214.9883448382,57896.7000538273,12233.7065782065
9827491030,23947,-2,0,11174.2043773488,42083.7559458811,40482.8764102802,57344.7854936355,64915.1005874812,54458.1089316639,55365.9894624109,55217.0325179044,57886.9537286721,12243.8422696600
9827491030,23947,-2,0,11133.1384005714,42064.6891649595,40437.0406963482,57319.2576657010,64888.1978098057,54402.3687125180,55343.0046831124,55180.8092844625,57850.8035014112,12249.2933978366
9827531971,23948,-2,0,10988.4766530434,42028.2104098843,40362.1850254935,57304.3887401833,64854.0552525205,54380.9292307160,55329.2065149151,55153.0669357062,57823.3045065913,12242.7228415523
9827531971,23948,-2,0,10887.5942786844,42011.8691930511,40346.1723364745,57277.2669439650,64840.9871461327,54420.7541024175,55322.3195985134,55150.4387131925,57816.3202486150,12232.5384793115
9827531971,23948,-2,0,10944.8797953268,42029.0134778746,40378.6965900822,57266.7905570004,64861.0516781937,54455.7970692675,55319.8252206647,55171.0994623978,57826.6019524303,12232.5628147051
9827531971,23948,-2,0,11101.5388919222,42065.7720899767,40457.2512407711,57282.9735937749,64899.9639726335,54481.1302140529,55331.2871910719,55206.2884416098,57855.5124000817,12237.5028996152
9827531971,23948,-2,0,11118.4519905061,42060.0411047731,40444.4386560166,57275.2349385955,64890.2054797815,54462.9030042121,55323.1348342005,55190.0810694416,57850.4019674160,12239.4497311069
9827531971,23948,-2,0,10942.8112868669,42027.0423109893,40376.4699015636,57256.7157040310,64853.4103645889,54522.3422031922,55303.8855378266,55150.1953592560,57849.5988994257,12235.7385835759
9827531971,23948,-2,0,10847.1731898386,42023.4406727297,40376.0318644780,57271.4507848836,64854.1039233078,54463.1341904518,55311.2348267077,55155.0259348947,57865.7332654129,12233.5362304509
9827531971,23948,-2,0,10974.4838016970,42045.4642039793,40402.4844373710,57305.8366961052,64882.3451476338,54409.3408027976,55333.0393394144,55187.5258531088,57870.0162946946,12236.6998316249
9827538264,23949,-2,0,11130.8022027814,42061.6594084506,40426.6738186551,57310.7402779249,64897.1897377578,54396.5403857398,55339.1353555227,55192.9404781950,57849.4528870638,12242.7958477332
9827538264,23949,-2,0,11126.2879872600,42052.5944743175,40406.8648082273,57294.7275889059,64880.9336948024,54430.7316138123,55336.2881144661,55168.8971092729,57824.2049161562,12244.3533129265
9827538264,23949,-2,0,10997.5780902670,42030.9968124568,40372.1625368883,57288.0231879565,64856.2819410391,54449.0439975308,55331.8347374289,55150.1710238624,57817.2571612703,12245.6187533961
9827538264,23949,-2,0,10872.2508129907,42017.1256380786,40358.5103810529,57274.7603984195,64842.5811144165,54451.5992138636,55317.7932152952,55142.4202009862,57828.0985791396,12242.8566862173
9827538264,23949,-2,0,10916.5290617293,42033.2356686722,40396.8142906516,57282.0975196037,64861.0516781937,54457.6708945783,55315.1649927815,55162.0710313552,57846.1797766185,12237.2108748915
9827538264,23949,-2,0,11104.6538223088,42064.0321093311,40454.3553289272,57307.0169626971,64894.7683660901,54451.4532015018,55327.6977205091,55194.7169619312,57857.5930762384,12238.2816322119
9827538264,23949,-2,0,11194.2080709257,42072.4034847452,40472.5460356775,57327.8602273548,64897.2870793324,54457.0381743435,55337.7847411753,55190.4339326495,57852.5191466632,12234.8746771015
9827538264,23949,-2,0,11026.9995811848,42042.6169629227,40411.8657316215,57297.1611282705,64861.8425784872,54514.7130572842,55324.9113179366,55149.7694898672,57850.3046258414,12229.1923626851
9827579403,23950,-2,0,10859.1462035123,42020.8489533064,40357.8533254245,57255.9734745248,64840.3665935947,54490.8765392081,55313.1816581993,55140.7288911278,57861.6692546741,12227.0995188316
9827579403,23950,-2,0,10930.2177206552,42034.2577552053,40370.2035376998,57267.5327865066,64857.4987107214,54417.7973520895,55323.5972066798,55168.3008921286,57861.1582114075,12231.3947158101
9827579403,23950,-2,0,11082.0584093086,42052.2537788065,40409.1523352300,57281.0632653737,64874.6794986354,54389.7143078221,55329.8514028468,55177.1468077188,57843.4055417428,12233.5727335414
9827579403,23950,-2,0,11143.2375889344,42057.7292423768,40437.4909011307,57296.4067310675,64877.5754104792,54418.1745506910,55338.7946600116,55171.7686857231,57822.2945877550,12234.8868447983
9827579403,23950,-2,0,11042.8662578419,42042.6778014068,40439.1578755954,57289.2764607292,64859.9322500860,54463.8642522612,55333.5868857714,55155.5613135549,57817.2084904830,12227.4037112522
9827579403,23950,-2,0,10869.0872118167,42005.9435246983,40377.0904541016,57272.9230761992,64826.5440900038,54412.6504163334,55318.2799231681,55124.3025004168,57809.6523507560,12212.4861149472
9827579403,23950,-2,0,10857.7104152872,41999.6284900472,40332.2768267027,57265.0870794452,64829.2574863953,54402.5633956672,55312.5489379645,55130.9095597917,57808.5450903451,12210.0404078858
9827579403,23950,-2,0,11064.2814042503,42043.8945710891,40390.7061068464,57300.7992696205,64880.8971917119,54427.0934724622,55336.5071330089,55182.2572403845,57839.2198540357,12218.2657709381
9827597778,23951,-2,0,11188.4040795412,42066.0154439132,40440.8248500601,57319.1359887327,64897.0802284864,54433.8100411085,55349.7090840618,55187.3798407469,57832.5762915704,12224.4347932274
9827597778,23951,-2,0,11051.9798627623,42039.3438524773,40412.6931350055,57283.1317738336,64860.6501441985,54458.1576024512,55331.3845326465,55143.9533307859,57816.1377331626,12220.4924594567
9827597778,23951,-2,0,10864.1106238161,42005.7488415492,40350.9664090227,57244.2316470907,64827.5661765370,54416.4467377421,55308.1807348051,55123.3655877614,57818.7416202827,12217.7425599748
9827597778,23951,-2,0,10871.8249436019,42007.7808469186,40339.3949293441,57250.3398308958,64834.7694530561,54415.3759804217,55308.2050701987,55141.3494436657,57818.2184093193,12225.1040165526
9827597778,23951,-2,0,11027.9243261434,42040.4997836755,40410.8436450884,57289.9578517513,64873.6330767086,54508.1546686967,55339.4273802464,55175.6988517969,57842.9918400508,12225.6272275160
9827597778,23951,-2,0,11141.9599807680,42062.1217809299,40456.2169865412,57309.1584773379,64892.1401435763,54454.2152686806,55353.3715608055,55187.0148098422,57851.9716003062,12219.0810066253
9827597778,23951,-2,0,11086.5117863458,42038.6867968489,40405.6358708482,57282.7667429290,64862.0129262427,54386.1126695626,55332.5769669351,55158.5545669734,57822.5379416915,12215.6253807276
9827597778,23951,-2,0,10891.0134014916,41998.1318633380,40327.1663940370,57245.6917707094,64819.3773165751,54363.0792194767,55309.1784859446,55119.9708003478,57789.7825018441,12218.8863234761
9827650801,23952,-2,0,10835.6990517345,41998.3022110935,40308.4403086265,57254.7323694489,64820.9956202526,54390.0063325459,55320.7377979264,55133.6351238800,57797.3264738743,12223.6073898434
9827650801,23952,-2,0,11018.6038703770,42041.5218702086,40383.7096811732,57291.3449691891,64870.9318480139,54455.4807091501,55339.3057032782,55186.6984497248,57838.8426554342,12224.2766131687
9827650801,23952,-2,0,11169.6658264338,42068.9600265444,40446.9330338653,57297.9155254735,64896.2528251025,54462.0512654345,55333.3191964413,55198.2334263130,57862.2046333343,12221.4172044153
9827650801,23952,-2,0,11094.6884786109,42053.0568467968,40417.0491704681,57288.0110202596,64870.9440157107,54446.9998244646,55324.5584547288,55163.1052855852,57834.3406076097,12226.6493140492
9827650801,23952,-2,0,10924.5597416325,42027.1639879576,40378.1490437252,57282.7302398385,64843.6032009496,54468.8408402617,55323.0861634132,55145.0484234999,57825.6650397750,12221.9404153787
9827650801,23952,-2,0,10869.2453918754,42018.0503830372,40362.7082364568,57269.3944441205,64841.2791708564,54448.3747742055,55321.8085552468,55152.1908615350,57823.3288419850,12217.4748706447
9827650801,23952,-2,0,10985.0940333266,42039.7697218661,40384.7074323127,57276.2813605223,64865.6632352896,54453.2175175411,55325.4710319905,55174.5185852051,57835.5087065047,12222.4149555548
9827650801,23952,-2,0,11134.5863564933,42066.5629902702,40425.0676826744,57286.2102011298,64890.7895292290,54402.4052156085,55331.5305450083,55194.0720739996,57848.6863221640,12228.3284562107
9827675910,23953,-2,0,11122.7228520909,42054.1762749045,40410.2352602473,57276.2083543414,64873.3167165912,54374.6872022458,55318.9978172807,55171.0264562169,57819.1918250652,12232.9400133066
9827675910,23953,-2,0,10940.9009584657,42021.0923072429,40361.4062928968,57263.3714341932,64837.1421539366,54405.1307796968,55307.6210207512,55132.9050620706,57789.9650172965,12235.6169066077
9827675910,23953,-2,0,10848.4873010955,42018.8777864211,40382.1522159799,57283.6184817066,64839.8312149345,54498.7368713557,55322.6481263276,55145.3039451332,57824.6186178482,12224.0819300195
9827675910,23953,-2,0,10993.6114211027,42052.4484619556,40446.2516428432,57314.2932453972,64878.2202984109,54458.6808134146,55339.3908771559,55187.6110269866,57855.4393939007,12218.2536032413
9827675910,23953,-2,0,11137.1172374325,42052.0712633541,40415.3821960034,57289.6293239371,64872.1972884835,54377.0599031263,55316.0654023464,55172.0120396596,57804.5905888776,12218.1805970604
9827675910,23953,-2,0,11093.7272305618,42022.3942508030,40348.4963665676,57261.0595717968,64835.5846887433,54363.4199149878,55294.3460635174,55125.9816425784,57755.5060998939,12218.7038080238
9827675910,23953,-2,0,10961.5373722774,42004.5685749573,40321.7274335572,57278.2525274076,64821.5796697001,54409.7788398832,55311.5998576123,55115.6512679757,57767.1384180566,12220.0057515838
9827675910,23953,-2,0,10874.3801599347,42003.3518052751,40326.2294813817,57271.8158157883,64824.0740475488,54458.1454347544,55317.6837060238,55128.0258156446,57800.8551059530,12222.5974710071
9827706410,23954,-2,0,10947.9095518357,42028.4415961240,40377.8326836078,57265.3547687753,64851.9380732733,54458.8754965637,55318.0244015349,55156.2427045770,57839.6943942118,12225.7245690906
9827706410,23954,-2,0,11108.8151746223,42060.6373219175,40437.0041932577,57279.6883156327,64882.4181538148,54435.2701647272,55326.1402553158,55186.2969157297,57853.9062641010,12234.8503417078
9827706410,23954,-2,0,11145.1722527292,42062.6206564996,40451.1917277533,57287.2322876630,64881.3230611007,54499.3817592873,55332.9419978398,55179.9575456849,57846.9585092151,12236.5781546567
9827706410,23954,-2,0,11002.3599951184,42042.4344474703,40412.4011102817,57299.9840339334,64860.0052562669,54502.9590621533,55340.3156221145,55151.0714334273,57842.6389768430,12232.6723239765
9827706410,23954,-2,0,10875.0980540472,42027.2126587448,40376.9809448302,57301.3468159776,64843.8100517956,54429.0038008634,55339.7315726670,55145.6568083411,57838.0517551407,12219.7258945569
9827706410,23954,-2,0,10944.5999382999,42035.4015187067,40405.6358708482,57301.3468159776,64859.6523930590,54380.9170630192,55343.0776892933,55172.2553935960,57842.9310015667,12206.2684218707
9827706410,23954,-2,0,11072.1660717916,42034.9269785306,40407.0594913765,57268.5062022525,64858.1435986530,54343.0755258998,55314.8121295736,55164.3342229643,57805.2111414156,12196.4734259283
9827706410,23954,-2,0,11080.3427640566,42018.4275816387,40368.4270539636,57239.1333821219,64837.6045264159,54366.7781993109,55290.5010713214,55135.0709121051,57773.8063159156,12195.2323208523
9827762438,23955,-2,0,10979.1318618834,42001.9646878372,40336.7180360430,57240.7760211930,64817.5764974453,54409.9613553355,55286.8872653650,55120.1046450129,57778.4422084051,12197.2886616154
9827762438,23955,-2,0,10858.9758557568,41995.6253177925,40331.5832679838,57249.3299120595,64815.3984797140,54439.9425603073,55301.5736754302,55123.5481032138,57802.5342481146,12204.0295656553
9827762438,23955,-2,0,10884.2238266644,42012.7330995255,40362.1606900998,57266.0969982815,64837.3368370858,54430.1110612743,55323.8527283130,55147.8104906787,57821.0656503759,12206.8768067119
9827762438,23955,-2,0,11054.7297622443,42039.3438524773,40427.8054144596,57277.6441425665,64869.1066934905,54452.4509526412,55327.6612174186,55180.1522288341,57848.0779373228,12198.4445928136
9827762438,23955,-2,0,11143.2132535408,42046.1820980918,40455.7789494555,57282.9614260781,64876.4559823715,54485.8512804202,55319.1316619458,55182.2937434749,57862.3749810898,12193.1881477861
9827762438,23955,-2,0,11013.2500837749,42019.4009973845,40384.9142831587,57277.5102979014,64844.6496228764,54421.5084996205,55312.9626396565,55144.1845170255,57832.3207699371,12211.0868298126
9827762438,23955,-2,0,10855.9947700352,42000.8574274264,40316.9698640994,57283.7036555843,64827.4444995687,54409.9491876387,55323.7675544353,55136.2633463938,57813.1931505315,12234.2906276540
9827762438,23955,-2,0,10903.4122845542,42018.4640847292,40347.0605783425,57292.0020248176,64848.0809133804,54425.4143303007,55332.4066191796,55167.9115258302,57820.5667748062,12239.6079111656
9827773299,23956,-2,0,11051.4079810117,42039.6967156852,40405.4533553958,57288.4490573453,64867.3180420575,54411.9933607050,55331.3723649496,55179.2883223597,57818.4252601653,12225.1648550368
9827773299,23956,-2,0,11125.5822608443,42050.6963136131,40425.3353720045,57281.9393395450,64872.3798039358,54448.3504388119,55329.9852475118,55172.6447598943,57816.8556272752,12220.8939934519
9827773299,23956,-2,0,11047.8671812362,42037.1780024428,40411.4520299296,57270.5017045314,64855.9899163153,54429.2714901935,55317.8175506889,55153.1886126745,57810.4189156558,12222.8529926404
9827773299,23956,-2,0,10886.1219873688,42009.6060014420,40384.5370845572,57245.5579260444,64824.1227183361,54397.7693231189,55291.9855303338,55125.1907422849,57794.3697235464,12219.0566712316
9827773299,23956,-2,0,10857.7347506809,42008.3283932756,40377.7840128205,57254.4038416347,64828.1380582876,54429.7703657633,55296.1347149504,55140.4733694945,57806.3914080074,12215.2725175197
9827773299,23956,-2,0,11034.6773978801,42038.2730951569,40409.6268754061,57295.8226816200,64865.7727445610,54414.3660615854,55322.4534431784,55183.1819853430,57826.0057352860,12215.8443992704
9827773299,23956,-2,0,11167.7433303358,42050.0270902879,40409.4443599538,57306.0678823449,64876.7480070953,54413.5994966856,55332.1876006368,55185.9197171282,57814.3977525169,12221.3685336280
9827773299,23956,-2,0,11065.5468447199,42025.3266657373,40375.2652995781,57272.8135669278,64843.3720147100,54414.4147323727,55317.9027245666,55142.9069088591,57791.8510103040,12223.3031974228
9827792188,23957,-2,0,10894.0066549101,42004.2157117495,40352.7915635461,57257.7377905642,64820.5819185606,54400.6652349628,55315.0676512069,55126.7360397814,57801.2566399482,12216.8421504099
9827792188,23957,-2,0,10877.9574628006,42004.5807426542,40352.8280666366,57264.8437255088,64828.3205737400,54383.3627700806,55317.2213335445,55144.4765417492,57815.5293483215,12211.3666868395
9827792188,23957,-2,0,11000.5835113822,42018.3910785482,40360.2625293954,57274.6508891480,64846.0002372237,54410.8252618100,55319.3993512759,55159.4793119319,57813.3634982870,12210.8921466634
9827792188,23957,-2,0,11108.9003485001,42028.6971177572,40374.8515978861,57274.3710321211,64854.5297926966,54398.6210618965,55312.1352362726,55158.0921944941,57805.4301599584,12211.3910222332
9827792188,23957,-2,0,11074.8307973958,42019.0359664798,40371.1891211424,57270.8180646488,64839.9650595995,54415.0839556980,55306.2095679198,55144.1723493287,57797.5333247203,12216.8786535003
9827792188,23957,-2,0,10939.3556609692,42013.7308506650,40357.0624251310,57298.1467117131,64832.0560566646,54452.5969650031,55328.2087637757,55137.1394205650,57801.7676832147,12228.9003379614
9827792188,23957,-2,0,10859.8154268376,42016.3104023915,40352.9862466953,57298.2683886814,64835.9253842543,54439.6262001899,55335.4728787790,55147.7131491041,57814.4950940915,12230.9810141181
9827792188,23957,-2,0,10998.4419967414,42042.6534660132,40404.2852565008,57305.9218699830,64868.4374701652,54439.5653617057,55342.9073415378,55185.0071398665,57834.8151477858,12227.0751834380
9827823579,23958,-2,0,11144.1258308025,42056.0379325184,40435.6170758199,57288.5463989198,64879.9724467534,54445.0164898824,55327.4178634822,55189.2901691481,57833.0143286560,12220.2612732171
9827823579,23958,-2,0,11082.5937879689,42039.1735047218,40409.5660369220,57266.5472030640,64858.4234556799,54465.3122081831,55308.5822688003,55161.3653049395,57831.7488881864,12217.5357091288
9827823579,23958,-2,0,10924.3285553928,42017.9043706753,40375.3626411527,57264.3205145454,64838.6266129490,54430.0380550934,55309.2879952160,55147.3237828058,57830.1184168122,12222.7799864595
9827823579,23958,-2,0,10879.0647232115,42016.6267625089,40381.3613156864,57279.5909740582,64843.8343871892,54431.4251725312,55321.6382074913,55159.1386164209,57821.7713767916,12222.5122971294
9827823579,23958,-2,0,10976.9295087584,42032.3839298946,40401.3650092633,57284.8839221761,64862.2684478760,54427.0204662813,55324.3272684891,55175.3094854986,57827.8795605968,12209.0913275336
9827823579,23958,-2,0,11113.9012718943,42047.4718739550,40425.2988689141,57283.8740033398,64876.7115040048,54427.9817143303,55323.1226665037,55184.6421089618,57826.8331386700,12205.8547201787
9827823579,23958,-2,0,11119.8269402471,42041.8747334165,40409.5782046188,57271.0857539789,64866.2107816466,54456.1742678691,55313.7413722532,55170.0287050774,57821.9417245472,12208.8601412940
9827823579,23958,-2,0,10946.9726391803,42010.5185787038,40344.4201881320,57250.4371724704,64826.7022700625,54396.6863981017,55293.5673309207,55132.1628325644,57794.6252451797,12217.4018644637
9827880376,23959,-2,0,10831.6107056020,42001.4293091770,40319.5250804322,57254.5133509061,64815.2402996553,54383.3019315965,55294.8206036935,55128.9262252095,57795.9880272238,12223.1328496673
9827880376,23959,-2,0,10956.0132379198,42032.5542776501,40391.3996655653,57282.9735937749,64854.5906311807,54405.3254628460,55316.1262408305,55175.1634731367,57819.5081851826,12220.4681240631
9827880376,23959,-2,0,11132.3231648842,42057.7779131641,40462.4468473145,57295.2142967788,64880.3983161422,54442.6681243956,55326.3106030713,55193.9625647281,57823.9493945229,12217.1828459209
9827880376,23959,-2,0,11117.3447300952,42048.6156374564,40447.4927479191,57284.0078480049,64867.8047499304,54457.1355159181,55319.3628481854,55170.2112205298,57819.9462222682,12215.6862192117
9827880376,23959,-2,0,10967.2805251778,42025.3875042214,40372.6492447612,57277.3277824491,64843.1286607735,54448.1070848754,55322.3561016038,55152.4828862587,57818.1940739257,12223.4248743911
9827880376,23959,-2,0,10877.6411026832,42020.0093822257,40349.6522977658,57296.4919049452,64841.4981893992,54462.1729424028,55339.4517156401,55161.9006835997,57826.7966355795,12229.4478843184
9827880376,23959,-2,0,10941.7526972433,42040.7553053088,40386.3379036870,57309.9128745409,64862.2197770887,54446.0872472028,55345.1461977532,55180.1278934405,57838.2342705931,12229.8859214041
9827880376,23959,-2,0,11088.2761023852,42058.3497949147,40413.4475322085,57313.1129788054,64877.1860441809,54395.2506098766,55342.6031491172,55192.3442610507,57834.4501168811,12228.9003379614
9827887645,23960,-2,0,11142.9698996043,42053.1298529777,40414.0194139592,57290.5419011988,64865.2130305071,54386.8427313719,55324.7774732716,55176.5870936650,57815.2129882041,12228.8638348709
9827887645,23960,-2,0,10989.1215409750,42015.9332037900,40346.6590443474,57249.5124275119,64825.3273203215,54397.1609382778,55298.8237759483,55130.1551625886,57791.4373086120,12222.7678187626
9827887645,23960,-2,0,10828.8973092105,41995.8321686385,40309.4015566755,57234.0229494562,64811.4318105497,54429.6121857046,55289.8075126025,55122.9275506758,57810.7352757732,12214.3842756516
9827887645,23960,-2,0,10904.7020604174,42014.9232849537,40343.9213125622,57262.7143785647,64842.8609714434,54437.8253810601,55305.6011830786,55163.4094780057,57836.9079916394,12211.8533947125
9827887645,23960,-2,0,11075.7068715671,42043.5417078812,40410.7463035138,57288.6072374040,64876.4681500684,54469.8020883108,55324.6557963034,55192.3077579602,57847.7615772054,12216.9273242876
9827887645,23960,-2,0,11130.7413642972,42058.9338443623,40438.8171800843,57311.7988675485,64888.9157039182,54484.3668214078,55349.2832146730,55192.4294349285,57847.8710864768,12231.5407281720
9827887645,23960,-2,0,11019.7719692720,42035.8273880955,40399.4668485590,57306.1895593131,64861.9642554554,54426.2295659878,55343.5522294694,55169.3229786617,57840.6069714735,12230.1657784310
9827887645,23960,-2,0,10877.6289349864,42002.9502712799,40347.9366525138,57282.7059044448,64827.8582012607,54389.2275999492,55317.1239919700,55142.7000580131,57815.0304727517,12222.5488002198
9827918336,23961,-2,0,10870.3769876799,41999.2634591425,40347.8636463329,57264.5760361787,64823.2831472553,54406.0068538681,55296.7796028820,55141.7509776609,57804.0187071270,12215.6983869085
9827918336,23961,-2,0,11039.5809796998,42030.4492660997,40398.7246190528,57284.4702204842,64857.1093444231,54436.1462388985,55305.4551707168,55177.2928200807,57832.2964345435,12212.6077919155
9827918336,23961,-2,0,11134.8297104297,42034.0630720562,40414.1167555338,57276.6828945175,64860.4797964430,54414.3295584950,55306.7692819736,55176.2707335476,57829.9845721471,12209.9674017049
9827918336,23961,-2,0,11005.6452732606,42008.4987410312,40362.4405471267,57267.9343205018,64831.0948086156,54424.2097283152,55314.1064031579,55139.4634506582,57808.7641088879,12215.1751759451
9827918336,23961,-2,0,10843.7662347281,41995.6496531861,40333.7126149278,57261.7774659094,64820.4480738955,54445.0651606697,55318.3407616523,55134.3165149021,57821.9903953344,12224.9945072812
9827918336,23961,-2,0,10890.1859981077,42014.7042664109,40362.6839010632,57274.1155104878,64845.9759018301,54468.9868526236,55319.3871835790,55166.4757376051,57856.3884742529,12228.1094376679
9827918336,23961,-2,0,11057.7351833596,42036.6061206922,40406.0617402370,57282.7180721417,64869.6299044539,54467.6240705794,55310.4439264142,55180.3104088928,57851.4970601301,12222.6461417944
9827918336,23961,-2,0,11123.7814417145,42030.1085705887,40411.1600052058,57263.1889187408,64858.4477910736,54420.6324254492,55290.0873696294,55158.7370824257,57823.4870220437,12212.2792641013
9827948335,23962,-2,0,11034.2636961881,42003.7533392702,40387.7980273058,57246.9572111790,64828.3327414368,54385.3947754500,55284.3685521226,55134.0488255720,57799.7843486326,12211.2450098713
9827948335,23962,-2,0,10874.5018369029,41980.0871689496,40357.2814436738,57240.4474933788,64807.3312967204,54410.6062432671,55291.4988224608,55119.1677323575,57800.2710565055,12214.4816172262
9827948335,23962,-2,0,10834.4822820522,41980.9024046367,40329.9527966095,57243.1000512862,64810.9816057673,54405.9946861712,55297.4974969946,55126.4075119672,57811.0638035874,12218.8011495984
9827948335,23962,-2,0,11001.6786040963,42013.7065152714,40354.9452458838,57267.3259356606,64850.3806080800,54418.2840599624,55312.9748073533,55165.8795204608,57836.8349854584,12221.3928690216
9827948335,23962,-2,0,11150.4530331504,42026.2392429990,40375.7276720574,57279.3111170312,64858.8979958560,54391.0527544727,55311.9648885170,55166.1715451845,57816.8069564879,12221.1860181757
9827948335,23962,-2,0,11054.8636069094,41997.5234784969,40332.0091373726,57255.1460711409,64818.6959255530,54399.0712666790,55287.7998426267,55118.6323536973,57779.5494688160,12212.9728228202
9827948335,23962,-2,0,10880.2084867129,41976.2665121472,40304.6683226114,57247.7359437757,64796.5142142448,54418.7707678353,55281.4604725819,55102.7291739497,57782.6157284154,12206.3657634453
9827948335,23962,-2,0,10871.3504034258,41993.8731694500,40347.3769384599,57271.4021140963,64819.1704657291,54423.1389709948,55305.1874813867,55138.9037366043,57813.1201443505,12208.4586072989
9827983271,23963,2,0,11004.0391372799,42021.3478288762,40392.7624476095,57277.7293164443,64849.9912417816,54419.3304818892,55317.0144826986,55167.2909732923,57828.0499083523,12209.0304890495
9827983271,23963,2,0,11118.0504565109,42033.7832150292,40406.5241127163,57266.1821721593,64860.1269332351,54452.3292756730,55310.5412679888,55171.7686857231,57830.4591123232,12205.4775215772
9827983271,23963,2,0,11082.5086140911,42013.3171489730,40377.2364664634,57244.1586409098,64837.0813154525,54421.3989903491,55289.8318479961,55145.1579327713,57820.0070607523,12196.0353888426
9827983271,23963,2,0,10902.9499120749,41971.9956505623,40303.9625961957,57221.8795880269,64792.2676880536,54396.9054166445,55268.0760060767,55104.0067821161,57791.8996810913,12192.1660612529
9827983271,23963,2,0,10824.5534414447,41974.0276559318,40291.0770052602,57249.3542474531,64797.4146238097,54401.4074644690,55291.4501516736,55111.6967665082,57805.0651290537,12196.3030781727
9827983271,23963,2,0,10986.2621322216,42014.8381110759,40361.0777650826,57296.1877125247,64845.7933863777,54414.2930554045,55325.0573302985,55162.7889254678,57834.3162722161,12199.0651453515
9827983271,23963,2,0,11171.4666455636,42043.1401738861,40423.0843480923,57306.2990685845,64872.0877792121,54398.3533725664,55333.3678672286,55181.3568308196,57833.0143286560,12197.0574753758
9827983271,23963,2,0,11109.2775471016,42015.5438374916,40367.1251104036,57261.3637642174,64834.1975713055,54380.4668582367,55299.6268439386,55130.0578210141,57781.8856666060,12189.9758758248
9828043264,23964,2,0,10907.0625936011,41980.1601751305,40315.4610696934,57214.9074977474,64794.4457057849,54369.7471173357,55267.1999319054,55097.6187412841,57762.6242025353,12192.3607444021
9828043264,23964,2,0,10825.0766524081,41972.4336876480,40301.7602430707,57218.9471730926,64793.2654391931,54380.5033613272,55269.6943097541,55110.8693631243,57788.3953844063,12195.9502149649
9828043264,23964,2,0,10935.1943086557,42005.9921954856,40352.4630357319,57260.5241931366,64831.5936841853,54427.4098325796,55304.0802209758,55151.7649921462,57826.1639153447,12199.0529776547
9828043264,23964,2,0,11098.4969677164,42036.2410897875,40406.8283051368,57283.6914878875,64862.0494293332,54457.5978883973,55318.1704138967,55172.9976231022,57836.6281346124,12192.6527691259
9828043264,23964,2,0,11125.5822608443,42031.6538680852,40409.6998815870,57276.4273728842,64853.2156814397,54437.9713934219,55306.8179527609,55159.4914796287,57827.5388650857,12182.9186116675
9828043264,23964,2,0,10964.9808304783,41996.8420874748,40329.2227348001,57264.2231729708,64814.1573746381,54393.4984615341,55293.8836910381,55121.5039301475,57789.4053032426,12189.0754662599
9828043264,23964,2,0,10854.1331124213,41986.4022036007,40295.4573761165,57278.9582538234,64807.0879427839,54387.0982530052,55310.2005724777,55120.5670174922,57785.8766711640,12200.9754737527
9828043264,23964,2,0,10944.9162984173,42003.4369791528,40328.8820392891,57280.5887251976,64831.8005350313,54355.6082536274,55317.0388180922,55153.7239913347,57793.3354693164,12200.7077844226
9828048241,23965,2,0,11109.0585285588,42021.8588721428,40367.8308368193,57275.5756341066,64854.4567865156,54396.9419197350,55319.2411712172,55172.1093812341,57792.6540782943,12197.7875371851
9828048241,23965,2,0,11098.2536137800,42010.6524233688,40370.9579349028,57238.9021958822,64838.7117868268,54411.0442803528,55292.6669213558,55145.5351313728,57787.3854655700,12190.4869190914
9828048241,23965,2,0,10958.8361435827,41992.2305303789,40357.7438161531,57237.5880846254,64819.1461303355,54449.1778421959,55285.4271417462,55129.9118086522,57810.0782201448,12190.1462235803
9828048241,23965,2,0,10863.2467173417,41985.6478063977,40342.9600645132,57256.6426978501,64813.8653499143,54427.5680126383,55294.9057775713,55131.8586401438,57820.2260792951,12193.4071663289
9828048241,23965,2,0,10915.1297765947,42003.0111097640,40347.0240752521,57268.6522146143,64833.1633170755,54425.6820196308,55302.2550664523,55150.7185702194,57821.6862029139,12202.5207712493
9828048241,23965,2,0,11084.0904146781,42033.7345442419,40376.1292060526,57287.4513062058,64860.9421689223,54408.4282255358,55313.8022107373,55174.2873989654,57820.7857933490,12208.9696505654
9828048241,23965,2,0,11166.7090761059,42036.1194128192,40380.5582476961,57289.5928208466,64857.7298969610,54391.8436547662,55313.9725584928,55167.5708303192,57803.7510177969,12208.0084025164
9828048241,23965,2,0,11009.8431286645,41997.8155032206,40337.7401225762,57245.9351246459,64813.3299712541,54380.6250382954,55287.3374701474,55119.6544402304,57776.2520229770,12200.9754737527
9828068360,23966,2,0,10841.5882169968,41978.7122192086,40308.8905134090,57231.8084286345,64795.9179971005,54398.2073602046,55284.2833782448,55109.7986058039,57789.6973279664,12202.3990942810
9828068360,23966,2,0,10917.2347881451,42011.7718514765,40359.3986229210,57280.2358619898,64840.1110719614,54448.1070848754,55318.7422956474,55162.0710313552,57838.6723076787,12209.4806938320
9828068360,23966,2,0,11094.6398078236,42042.7386398909,40424.4106270460,57293.9975270965,64870.3843016569,54430.4760921790,55325.4345289000,55184.8854628982,57840.7894869259,12207.3513468880
9828068360,23966,2,0,11130.3641656957,42042.5196213481,40414.3236063798,57272.4850391136,64858.8006542814,54417.7000105149,55307.6210207512,55158.6640762448,57816.8312918815,12204.9543106138
9828068360,23966,2,0,11009.7579547867,42014.9232849537,40362.0633485252,57244.0612993352,64824.7189354804,54398.1830248109,55287.1792900887,55124.0348110867,57797.3143061775,12196.5464321092
9828068360,23966,2,0,10874.1976444823,41993.5081385453,40313.3438904462,57234.5704958133,64804.9464281431,54425.5603426625,55285.2811293843,55112.7066853445,57802.6194219923,12196.6802767742
9828068360,23966,2,0,10890.5145259219,42013.5483352127,40333.9072980769,57268.0316620764,64831.5936841853,54466.9305118605,55315.3353405370,55143.4909583066,57840.0837605102,12198.1647357866
9828068360,23966,2,0,11053.1236262637,42043.8824033923,40390.7304422401,57288.3517157707,64864.2152793677,54411.0199449591,55327.8437328710,55175.3581562859,57860.7931805028,12197.7632017915
9828114413,23967,2,0,11155.9771675080,42038.1757535823,40396.2667442945,57271.9253250597,64856.2332702518,54370.8422100498,55308.3024117733,55163.4459810962,57830.4104415359,12195.6581902411
9828114413,23967,2,0,11031.6233059776,41996.8542551716,40333.0433916025,57234.4731542387,64811.5656552148,54392.8657412993,55274.8899162975,55112.4998344985,57782.8104115646,12193.9668803827
9828114413,23967,2,0,10863.4900712781,41975.1349163426,40288.1080872354,57241.0193751294,64791.8661540584,54429.0159685602,55280.4383860488,55098.3244676998,57783.7473242199,12193.5045079035
9828114413,23967,2,0,10885.3432547721,41999.8110054996,40331.5224294996,57284.0686864890,64828.7221077351,54452.5726296095,55320.6161209581,55145.6689760379,57829.9115659662,12195.2444885491
9828114413,23967,2,0,11047.6238272997,42032.9193085548,40390.2802374576,57315.5465181700,64863.0958512599,54413.6846705633,55342.3354597871,55175.6258456160,57838.7088107692,12198.7244498405
9828114413,23967,2,0,11131.9581339795,42039.2708462964,40396.7534521674,57289.2156222451,64859.1778528830,54413.0641180254,55324.9721564208,55160.8299262793,57811.7938653968,12204.5892797092
9828114413,23967,2,0,11073.9668909214,42029.8043781681,40390.1707281862,57269.1510901841,64841.4981893992,54446.5739550757,55313.3033351676,55142.8947411623,57802.4734096304,12208.1422471815
9828114413,23967,2,0,10914.0225161838,42006.6735865077,40358.8389088672,57245.4849198635,64815.1794611712,54428.2372359636,55300.3082349607,55118.8757076338,57792.7027490816,12208.3612657243
9828135694,23968,2,0,10847.1366867481,42000.5288996121,40326.4728353181,57250.2911601085,64813.2934681636,54457.2815282799,55305.0536367216,55121.5647686316,57801.1714660704,12199.8803810387
9828135694,23968,2,0,11003.8687895244,42027.9670559479,40364.2291985597,57280.3332035644,64849.7965586325,54404.5588979461,55325.3371873254,55156.8145863277,57822.6352832661,12192.1782289498
9828135694,23968,2,0,11159.3597872248,42039.7453864725,40397.4956816736,57281.1119361610,64861.4653798857,54354.9511979990,55316.4060978574,55162.2292114139,57811.2706544334,12194.5630975271
9828135694,23968,2,0,11074.3927603102,42014.9111172569,40361.2967836254,57250.9847188274,64833.3580002247,54365.2329018144,55289.2234631550,55124.9595560452,57789.8311726314,12199.7708717673
9828135694,23968,2,0,10899.2387645439,41995.6983239734,40319.7440989750,57262.3493476601,64814.8144302665,54407.7711699074,55298.0937141389,55111.5020833591,57791.7658364263,12206.9984836801
9828135694,23968,2,0,10865.3273934984,41997.4626400128,40324.6720161883,57275.4417894415,64822.5409177491,54428.3589129318,55315.4570175052,55134.0974963593,57811.2219836461,12202.2652496160
9828135694,23968,2,0,10988.6713361926,42012.3559009240,40357.8533254245,57267.3746064479,64839.1863270029,54419.4764942511,55308.3997533479,55150.4508808893,57812.4752564189,12193.1029739083
9828135694,23968,2,0,11112.7818437866,42027.2978326226,40379.7430120090,57257.0685672389,64848.9691552485,54416.9334456151,55298.9941237038,55153.1156064935,57807.0119605454,12197.7023633074
9828163144,23969,2,0,11106.8440077370,42025.9107151848,40381.7993527720,57261.5949504570,64843.8830579765,54400.2880363613,55301.1843091319,55145.8636591871,57799.6261685739,12204.3337580759
9828163144,23969,2,0,10943.2249885589,41993.3012876993,40328.2371513575,57249.6827752674,64809.6674945104,54374.1639912824,55291.8151825782,55110.8206923370,57775.7896504977,12199.7830394641
9828163144,23969,2,0,10831.8540595385,41977.7023003723,40289.9940802429,57250.1573154435,64793.0950914376,54391.6854747075,55285.9503527096,55102.4979877101,57780.8270769824,12191.1561424166
9828163144,23969,2,0,10959.5783730889,42008.8394365422,40340.8307175692,57280.5522221072,64830.0970574761,54419.6711774002,55303.1068052299,55147.6523106200,57820.8953026204,12184.6464246164
9828163144,23969,2,0,11149.1632572872,42036.4236052398,40398.8341283242,57301.0791266475,64860.2121071129,54404.2668732224,55318.5962832855,55170.9047792487,57828.5244485284,12181.4828234424
9828163144,23969,2,0,11119.3402323741,42025.0103056199,40367.4049674305,57286.9645983329,64844.6374551795,54415.5098250868,55315.2014958719,55138.2831840664,57795.7568409842,12197.5685186423
9828163144,23969,2,0,10940.6941076197,42008.5109087280,40350.0051609737,57256.6061947596,64823.0762964093,54437.1683254316,55302.1698925746,55118.3403289736,57791.8266749104,12208.2639241497
9828163144,23969,2,0,10862.0421153562,42006.7465926887,40348.7032174136,57251.0333896147,64823.9280351869,54424.7572746722,55299.4199930926,55129.4859392634,57804.1768871857,12211.7438854411
9828205034,23970,2,0,10958.0574109860,42021.7615305682,40338.9568922585,57262.9212294107,64842.4594374482,54394.0216724975,55309.7747030889,55146.8614103265,57809.4941706973,12216.5136225956
9828205034,23970,2,0,11102.1959475506,42035.5596987654,40368.4392216605,57272.7770638373,64857.6933938706,54429.1741486189,55312.8409626883,55155.6951582200,57810.9056235287,12205.8668878756
9828205034,23970,2,0,11141.8869745871,42038.6746291521,40394.4415897711,57277.0844285126,64858.1922694403,54458.2914471162,55315.7733776226,55154.6365685964,57824.1684130658,12200.6226105449
9828205034,23970,2,0,10992.6380053568,42018.4640847292,40356.1255124756,57261.7044597284,64835.1588193545,54451.7573939223,55313.8630492214,55130.4715227060,57834.4987876684,12202.8006282762
9828205034,23970,2,0,10848.1466055844,42000.6019057931,40306.6516571935,57253.2965812238,64816.4814047312,54383.0220745695,55314.8486326641,55115.3470755551,57807.8636993230,12204.8813044329
9828205034,23970,2,0,10944.5634352094,42024.3532499915,40325.6454319342,57294.1557071552,64846.2800942506,54370.0756451499,55338.8920015862,55154.0768545425,57806.9267866676,12207.7528808831
9828205034,23970,2,0,11124.8156959445,42049.2848607817,40376.3117215049,57295.5306568962,64868.7416625858,54379.1892500703,55333.0271717175,55174.2995666623,57800.6239197134,12204.3945965600
9828205034,23970,2,0,11136.0221447184,42042.9454907369,40377.1634602825,57268.7130530985,64857.2553567849,54418.4300723243,55310.3222494459,55151.9110045081,57789.8190049346,12202.5572743397
9828234729,23971,2,0,10996.8115253671,42021.7736982650,40345.6126224206,57252.4813455366,64833.0781431977,54470.6659947852,55298.4222419531,55131.1407460313,57805.8316939536,12204.6622858901
9828234729,23971,2,0,10878.6145184291,42008.4135671534,40333.1407331771,57258.5165231608,64825.6071773485,54454.2882748615,55303.2163145013,55134.5842042322,57821.4306812806,12201.9245541049
9828234729,23971,2,0,10914.9959319297,42021.1044749397,40379.4509872852,57271.8279834851,64840.7072891057,54424.4409145548,55316.4060978574,55150.8280794908,57826.5046108558,12200.6591136353
9828234729,23971,2,0,11082.1679185801,42048.4087866104,40407.9599009414,57303.8290261295,64869.1553642778,54388.8138982572,55341.8852550047,55174.4820821146,57826.6627909145,12204.3459257727
9828234729,23971,2,0,11179.1687976525,42050.3069473148,40394.0278880791,57301.2008036157,64869.6542398475,54380.5763675081,55336.6166422803,55169.5419972045,57811.7938653968,12205.1854968535
9828234729,23971,2,0,11050.0330312707,42019.0846372671,40337.3629239747,57263.0429063790,64833.5283479802,54398.7184034711,55310.1762370841,55128.4151819430,57792.5445690229,12201.7663740462
9828234729,23971,2,0,10878.1886490403,42001.8673462627,40290.6998066587,57269.6621334506,64816.8707710296,54412.6504163334,55320.5796178677,55119.8612910764,57802.7776020510,12201.6203616844
9828234729,23971,2,0,10905.7728177379,42012.0273731098,40310.4844816928,57281.6473148212,64831.7640319409,54399.3754590996,55329.8270674531,55146.7397333583,57816.9529688497,12191.7036887737
9828257824,23972,2,0,11066.1795649547,42031.3496756646,40370.1305315188,57260.5850316207,64853.6172154349,54408.7567533500,55313.6561983754,55168.9457800602,57815.7118637738,12183.1741333008
9828257824,23972,2,0,11138.1149885719,42044.0040803605,40390.3045728513,57248.2713224359,64862.6821495680,54486.0216281757,55305.9783816802,55169.1769662998,57825.1661642052,12187.3111502206
9828257824,23972,2,0,11057.3336493644,42044.6246328985,40383.7948550510,57259.5142743003,64857.8150708388,54495.8896302991,55314.8121295736,55164.4315645389,57849.6475702130,12198.2864127549
9828257824,23972,2,0,10922.5642393535,42030.6317815521,40363.1341058457,57268.0316620764,64844.2237534876,54439.0543184392,55324.5462870320,55155.0502702884,57844.4762990632,12206.2075833866
9828257824,23972,2,0,10911.0901012495,42034.2699229022,40356.9650835564,57285.9546794966,64849.0178260358,54400.5800610850,55341.2525347699,55160.7204170079,57826.4437723716,12209.2495075923
9828257824,23972,2,0,11061.5193370715,42052.2537788065,40378.0395344538,57302.3810702075,64868.1819485319,54379.0189023148,55348.1516188685,55176.6479321491,57807.4256622374,12204.7109566774
9828257824,23972,2,0,11171.8925149524,42052.0469279605,40398.4082589354,57287.3296292376,64866.7704957005,54376.3176736201,55327.3570249981,55168.9822831506,57791.6198240644,12194.0398865637
9828257824,23972,2,0,11080.5252795090,42027.4438449845,40367.8065014257,57259.9036405986,64836.9718061811,54425.3656595134,55307.3289960275,55133.9028132101,57798.7135913122,12185.6441757558
9828289487,23973,2,0,10900.2851864707,42004.8362642875,40328.7603623208,57258.3340077085,64812.7945925939,54431.2426570788,55308.2294055924,55112.6458468604,57808.5937611324,12188.6982676584
9828289487,23973,2,0,10878.3954998862,42011.5406652369,40339.3584262536,57265.9144828292,64823.8793643996,54409.3042997071,55319.7522144837,55137.3949421983,57814.7384480280,12195.6825256348
9828289487,23973,2,0,11028.3501955322,42038.7354676362,40389.5623433451,57273.1055916515,64854.2377679728,54463.4140474787,55328.6102977708,55169.1282955125,57828.3419330760,12195.2323208523
9828289487,23973,2,0,11132.5178480334,42046.8391537202,40400.5862766667,57264.1501667898,64859.8835792987,54416.2885576835,55322.4777785721,55165.4293156783,57828.9016471299,12192.9204584560
9828289487,23973,2,0,11081.7785522817,42024.9738025294,40380.4730738183,57248.9527134580,64838.4319297998,54381.3551001048,55303.3623268632,55140.4490341008,57798.5310758598,12195.1836500650
9828289487,23973,2,0,10938.0780528028,42005.2012951921,40357.1962697961,57251.0577250084,64819.0852918514,54406.5909033156,55300.1743902956,55124.2538296295,57787.3367947827,12199.2963315912
9828289487,23973,2,0,10873.0782163746,42006.4180648744,40358.6928965053,57262.2155029950,64825.6071773485,54428.0425528144,55311.2348267077,55133.1119129166,57804.0917133079,12200.0507287942
9828289487,23973,2,0,11006.5943536128,42036.0099035478,40381.1909679309,57285.6748224696,64860.8326596509,54409.5233182499,55326.9311556093,55171.0386239137,57830.7876401374,12200.7442875131
9828323285,23974,2,0,11166.1980328393,42052.2051080192,40393.1883169983,57285.9425117997,64874.7403371195,54402.6607372418,55321.8815614277,55183.6686932159,57827.7457159317,12201.1093184178
9828323285,23974,2,0,11122.6985166973,42046.1577626982,40402.1437418600,57277.1939377840,64861.7817400031,54480.9842016910,55315.3353405370,55161.3774726363,57815.0548081454,12208.0327379101
9828323285,23974,2,0,10941.3998340354,42025.6065227642,40353.4607868714,57263.0672417726,64838.6266129490,54447.1336691296,55310.6142741697,55139.7311399883,57815.1034789327,12216.0390824195
9828323285,23974,2,0,10878.1886490403,42016.0183776677,40335.3309186052,57267.4597803257,64837.8478803523,54431.6685264676,55312.3664225122,55150.9375887622,57832.0774160007,12210.1134140668
9828323285,23974,2,0,10996.7020160957,42032.6394515279,40370.8119225409,57281.4282962784,64860.8326596509,54393.8999955292,55320.9568164692,55175.6380133128,57843.6853987698,12208.2152533624
9828323285,23974,2,0,11130.1208117593,42045.7197256125,40386.0945497505,57288.4612250421,64873.2558781071,54383.1437515378,55327.2596834235,55179.6290178707,57828.2932622887,12211.0503267221
9828323285,23974,2,0,11151.4994550772,42054.3952934473,40417.7792322775,57310.2535700520,64878.3054722886,54469.2788773474,55345.3287132055,55184.5447673872,57840.8259900164,12216.3189394465
9828323285,23974,2,0,11004.9760499353,42035.5840341590,40388.3942444501,57302.2958963298,64854.0795879141,54493.6021032964,55340.1452743590,55161.7546712378,57842.0184243050,12214.1652571088
9828351232,23975,2,0,10871.1192171861,42012.3559009240,40322.8955324522,57290.0673610227,64831.0339701315,54473.3672234799,55331.7982343384,55145.4012867078,57835.4478680206,12203.8348825061
9828351232,23975,2,0,10961.9389062726,42029.1716579333,40334.6130244927,57315.6560274414,64850.1737572340,54381.5011124667,55348.6261590446,55175.0539638653,57829.3761873060,12202.8249636698
9828351232,23975,2,0,11126.2028133823,42033.4060164277,40365.6163159975,57273.6044672213,64853.2278491365,54325.1281730860,55317.3186751191,55176.1612242762,57799.3219761533,12198.7974560214
9828351232,23975,2,0,11112.4898190628,42014.7772725918,40354.8722397029,57220.1882781686,64825.9722082531,54350.7411748983,55283.2369563181,55137.8208115871,57770.0464975973,12202.3260881001
9828351232,23975,2,0,10939.8545365389,41987.8258241290,40319.2573911021,57195.0619842292,64794.8959105673,54386.4655327704,55266.8470686976,55106.5741661458,57761.5534452149,12200.5131012735
9828351232,23975,2,0,10844.9343336232,41981.8149818984,40320.8513593859,57214.2991129063,64795.0784260197,54411.2511311988,55277.2382817844,55116.5273421469,57778.8315747035,12198.0308911216
9828351232,23975,2,0,10930.9477824645,42005.1404567080,40349.7496393404,57256.2654992486,64824.1713891234,54425.4873364816,55304.6886058169,55148.4310432167,57798.6527528280,12204.9664783107
9828351232,23975,2,0,11093.2161872953,42033.5641964864,40382.7606008211,57285.6748224696,64853.9822463396,54434.6252767956,55323.1348342005,55171.0264562169,57815.2981620818,12205.2585030344
9828377556,23976,2,0,11159.6031411613,42036.0464066383,40389.1973124404,57284.8839221761,64855.9534132249,54429.3809994649,55319.9468976329,55168.6537553364,57826.7357970954,12202.3139204033
9828377556,23976,2,0,11041.1262771963,42014.5339186553,40363.1462735425,57284.0808541858,64833.5526833738,54433.4936809911,55323.7553867385,55144.8415726539,57826.6141201272,12204.8204659488
9828377556,23976,2,0,10875.5117557392,41994.7614113181,40341.5851147722,57262.9820678948,64812.6120771416,54404.6319041271,55318.1825815936,55125.7382886419,57816.1985716467,12199.9290518260
9828377556,23976,2,0,10924.1582076373,42002.7312527371,40344.5296974034,57258.8207155814,64822.3097315094,54356.8858617938,55310.4804295046,55142.2620209275,57804.5297503935,12195.9867180553
9828377556,23976,2,0,11089.5415428548,42014.4000739903,40361.6496468332,57257.7742936546,64834.5504345133,54344.1584509170,55302.2672341491,55154.7095747773,57782.2750329044,12194.2954081970
9828377556,23976,2,0,11115.1058738798,42006.5519095395,40350.3945272720,57245.8499507681,64822.4314084777,54391.6611393138,55290.2455496881,55129.9604794395,57760.9693957674,12195.9745503585
9828377556,23976,2,0,10984.9966917520,41996.0633548781,40336.4381790161,57244.8035288414,64812.4052262956,54448.8736497753,55295.7696840457,55121.6499425094,57784.4652183325,12202.6059451270
9828377556,23976,2,0,10875.0493832599,41998.9105959347,40339.2732523759,57257.8107967451,64818.2700561642,54443.5928693541,55307.7913685068,55136.7500542667,57817.1841550894,12212.4617795536
9828416114,23977,2,0,10904.9089112634,42011.7840191734,40351.8546508908,57265.1479179293,64831.4598395203,54422.8469462710,55312.7314534169,55154.7217424742,57815.2373235977,12213.3378537249
9828416114,23977,2,0,11065.0723045438,42040.5606221596,40410.2717633377,57288.4125542548,64862.7551557489,54426.3999137433,55329.0361671596,55180.8092844625,57821.0778180727,12212.2062579203
9828416114,23977,2,0,11175.1169546105,42054.0911010267,40427.2943711930,57294.6424150281,64874.9228525718,54436.3652574413,55335.3998725980,55187.1121514168,57826.0787414670,12212.4009410695
9828416114,23977,2,0,11061.5923432525,42028.3199191557,40368.6947432937,57265.7684704673,64845.5256970476,54472.7588386387,55317.0631534858,55152.0083460826,57816.6852795196,12207.8258870641
9828416114,23977,2,0,10879.1985678766,42003.7655069670,40327.6044311227,57256.9833933611,64820.6549247415,54411.8473483431,55311.0158081648,55128.3056726715,57817.2206581799,12203.9322240807
9828416114,23977,2,0,10889.2734208460,42004.6294134415,40347.3526030663,57263.4201049805,64828.3570768304,54383.6304594107,55310.4682618078,55144.9632496222,57820.0678992364,12195.3174947301
9828416114,23977,2,0,11068.6617751066,42029.8652166522,40393.8575403236,57281.6108117308,64860.5041318367,54412.2002115509,55319.6183698187,55175.5406717382,57819.6176944540,12196.9601338012
9828416114,23977,2,0,11172.5252351872,42047.9950849184,40434.4368092281,57297.6965069307,64874.1684553688,54460.3112847889,55329.8635705436,55172.1945551119,57814.2760755487,12198.8461268087
9828483351,23978,2,0,11071.4238422854,42030.7047877330,40396.1328996295,57266.5715384576,64851.2080114639,54444.3594342540,55317.3065074223,55146.1556839108,57811.6356853381,12202.8127959730
9828483351,23978,2,0,10908.4740464326,41998.4482234554,40312.8085117860,57237.6245877158,64819.1704657291,54355.6690921116,55303.8612024330,55125.5801085832,57788.5778998586,12207.5581977340
9828483351,23978,2,0,10859.5842405980,41983.8713226615,40285.8205602327,57229.5574047222,64808.5724017963,54349.9746099984,55297.8868632929,55119.4475893844,57768.6472124627,12205.9642294502
9828483351,23978,2,0,10996.8601961544,42004.0940347813,40325.5237549659,57249.0865581230,64834.5626022101,54362.5560085133,55305.5160092009,55142.6392195290,57777.3714510847,12200.6591136353
9828483351,23978,2,0,11147.5571213065,42018.9507926021,40367.3806320369,57259.6481189654,64852.4004457526,54368.1166459614,55305.3091583549,55156.6564062690,57785.6454849243,12190.3895775168
9828483351,23978,2,0,11083.5550360179,42001.5388184484,40350.4918688466,57246.8598696045,64831.5450133980,54394.8734112751,55291.1824623435,55126.1763257275,57773.8184836124,12187.2138086460
9828483351,23978,2,0,10896.8052251794,41987.3269485592,40315.4854050870,57247.3709128710,64815.9825291615,54433.1164823896,55303.4231653473,55111.5994249337,57785.5968141370,12199.3084992880
9828483351,23978,2,0,10876.0471343994,42002.7312527371,40336.0609804146,57259.8306344177,64833.5405156770,54429.6973595823,55315.7368745321,55142.4323686830,57822.1364076963,12203.6523670538
9828490654,23979,2,0,11035.0180933912,42026.9328017179,40390.8642869051,57271.6576357296,64859.2873621544,54465.5798975132,55313.7657076468,55168.2765567349,57838.1612644121,12193.8817065050
9828490654,23979,2,0,11146.0604945973,42033.4790226087,40403.8593871120,57266.1091659783,64861.8182430935,54431.3156632598,55300.7706074399,55161.0611125189,57826.9061448509,12181.7018419852
9828490654,23979,2,0,11091.6100513147,42018.3180723673,40375.8006782383,57253.9414691554,64839.8312149345,54394.8612435782,55294.1148772778,55136.4215264524,57795.8420148619,12187.0556285873
9828490654,23979,2,0,10937.8833696536,41990.1863573126,40327.7747788782,57242.7106849878,64810.1420346865,54381.9878203396,55291.9125241528,55114.5683429584,57771.9203229080,12198.5662697818
9828490654,23979,2,0,10865.4003996793,41984.8690738010,40305.0698566066,57253.1140657714,64806.9662658157,54393.5227969277,55299.3226515180,55115.1523924059,57772.6260493238,12211.4031899300
9828490654,23979,2,0,10975.8830868317,42011.1026281513,40331.5102618028,57269.1024193968,64839.8798857218,54420.4620776937,55310.2857463555,55151.2296134860,57800.5265781388,12210.2472587318
9828490654,23979,2,0,11144.5517001913,42035.3771833130,40389.0269646849,57276.5368821556,64867.6952406590,54400.4827195105,55314.5322725467,55177.5240063203,57812.4265856316,12204.6866212837
9828490654,23979,2,0,11118.8291891076,42020.4717547049,40379.9498628550,57259.8914729018,64846.3774358252,54405.4106367237,55301.3546568874,55149.4166266594,57796.9249398792,12200.7442875131
9828504541,23980,2,0,10949.5400232100,41994.0921879928,40331.4129202282,57262.7752170489,64816.7855971518,54420.6689285397,55304.6399350296,55121.4795947539,57794.5765743924,12201.5108524130
9828504541,23980,2,0,10884.7470376278,42001.5631538421,40330.9262123553,57287.4999769931,64831.8978766059,54439.0786538328,55325.3128519318,55147.0074226884,57830.4104415359,12203.1899945745
9828504541,23980,2,0,11000.2063127807,42028.4537638208,40365.8109991467,57297.5504945688,64860.9056658318,54407.8441760883,55338.1254366864,55176.9156214792,57848.9175084036,12197.2156554345
9828504541,23980,2,0,11114.8381845497,42033.0774886135,40375.8371813288,57271.5237910646,64862.3657894506,54409.6936660054,55324.9599887239,55168.3252275222,57819.1674896715,12193.4558371162
9828504541,23980,2,0,11108.0972805097,42017.6853521325,40364.5455586771,57237.4420722635,64839.6973702694,54412.5044039715,55299.3956576989,55144.2940262969,57787.6044841128,12189.5135033455
9828504541,23980,2,0,10958.9943236414,41985.3436139771,40323.4187434156,57214.4937960554,64804.4353848765,54434.1872397100,55273.1864387423,55110.6260091878,57766.2623438854,12188.7712738393
9828504541,23980,2,0,10838.6558020625,41979.6369641671,40305.3497136335,57224.1306119392,64799.2519460300,54404.7535810953,55278.0291820779,55110.0541274371,57779.2696117891,12198.2377419676
9828504541,23980,2,0,10941.4971756100,42013.1224658239,40349.5914592817,57271.9131573629,64841.3643447342,54390.2861895728,55313.0599812311,55155.3909657994,57812.8402873236,12204.7352920710
9828543249,23981,2,0,11147.5571213065,42045.0018315000,40405.5872000609,57297.3193083292,64875.3608896575,54397.4164599111,55329.8514028468,55186.1874064583,57824.7037917260,12207.2540053134
9828543249,23981,2,0,11176.6257490166,42039.6967156852,40397.6538617323,57282.3408735401,64864.4708010009,54415.9600298692,55319.3506804886,55162.6064100154,57809.7010215433,12205.0759875821
9828543249,23981,2,0,10989.7420935130,42008.0972070360,40345.5639516333,57254.6106924807,64827.4079964783,54425.5238395721,55304.4087487900,55125.3975931309,57789.2714585776,12204.5527766187
9828543249,23981,2,0,10864.7920148382,41997.7059939492,40348.0096586947,57251.4714267003,64820.9834525557,54449.8592332179,55310.2370755682,55133.5012792149,57804.9069489950,12200.0507287942
9828543249,23981,2,0,10934.7197684796,42020.1188914971,40393.1153108174,57277.8874965029,64847.5577024170,54446.0994148997,55332.3457806955,55167.5464949255,57828.1715853205,12202.8979698508
9828543249,23981,2,0,11092.0480884003,42044.2717696906,40419.0690081407,57289.4589761816,64872.5623193882,54440.5266097548,55341.7270749459,55183.6078547318,57841.0206731655,12197.9822203343
9828543249,23981,2,0,11160.6130599976,42039.8427280471,40387.1896424646,57281.2092777356,64866.8435018814,54423.1389709948,55331.8955759130,55175.6136779191,57837.6988919329,12191.3264901722
9828543249,23981,2,0,11028.2041831703,42003.4369791528,40327.6409342131,57238.4763264934,64827.3714933878,54449.0683329245,55295.0882930236,55134.6450427163,57812.3535794507,12187.8100257903
9828603415,23982,2,0,10848.9496735747,41975.3904379759,40287.9864102672,57215.2603609553,64798.0108409540,54399.3754590996,55276.6298969432,55105.8562720332,57795.8298471651,12193.6991910526
9828603415,23982,2,0,10889.8696379903,41992.0845180170,40312.8085117860,57244.2681501812,64815.9460260710,54368.5181799566,55295.1247961141,55129.7171255030,57787.6531549001,12201.9610571954
9828603415,23982,2,0,11090.3202754514,42021.8710398396,40367.3562966432,57287.9136786851,64851.1958437671,54356.1436322876,55322.9158156577,55161.6208265728,57787.4949748414,12203.0318145158
9828603415,23982,2,0,11160.9294201150,42027.9062174638,40375.3261380622,57290.0186902354,64852.1449241193,54381.7566340999,55323.5120328020,55149.8181606545,57777.4931280529,12203.3968454205
9828603415,23982,2,0,11037.8896698414,42013.1711366112,40363.4991367503,57267.3137679638,64833.1268139850,54419.1357987400,55317.1726627572,55126.5048535418,57780.8514123761,12204.3094226822
9828603415,23982,2,0,10902.6213842607,41999.6406577441,40335.2579124243,57249.8166199324,64820.3507323209,54435.5865248446,55305.2848229612,55125.4584316150,57798.9812806423,12201.7785417431
9828603415,23982,2,0,10915.6894906486,42005.0309474366,40331.4615910155,57262.2520060855,64828.6004307669,54433.2381593578,55305.5403445945,55141.8848223259,57822.9881464739,12190.4990867882
9828603415,23982,2,0,11054.6202529729,42023.4893435170,40358.1331824514,57276.0623419795,64847.5698701139,54411.9446899177,55314.4592663657,55159.8443428366,57828.8043055553,12183.8311889292
9828609333,23983,2,0,11163.0952701494,42032.3839298946,40381.6898435006,57267.6544634749,64854.2012648824,54383.6912978948,55316.5034394320,55163.9570243628,57817.1354843021,12186.4350760493
9828609333,23983,2,0,11072.7379535423,42007.8051823123,40356.5757172581,57236.2983087621,64823.8428613091,54378.7147098942,55297.6313416596,55129.2425853269,57783.2119455597,12192.7987814877
9828609333,23983,2,0,10871.3504034258,41982.8005653411,40314.6458340062,57219.7989118702,64796.4533757607,54402.7702465132,55290.2820527786,55103.1672110353,57771.3241057637,12196.9479661044
9828609333,23983,2,0,10865.0840395619,42000.2368748884,40330.1353120618,57252.6273578985,64819.6693412989,54451.8425678001,55313.1694905025,55137.9546562521,57804.8461105109,12197.6658602169
9828609333,23983,2,0,11046.2002067714,42033.3695133373,40386.0458789632,57278.8852476424,64857.2918598754,54435.7568726002,55325.5805412619,55176.3559074253,57821.7105383075,12198.1160649994
9828609333,23983,2,0,11146.3281839274,42036.6061206922,40387.4573317947,57269.6986365411,64853.6415508285,54376.7678784025,55311.8553792456,55159.2237902986,57795.5621578350,12194.1980666224
9828609333,23983,2,0,11065.0479691502,42010.5064110069,40343.5684493544,57241.3357352468,64821.1903034017,54370.4528437514,55284.4902290908,55123.3290846710,57785.4508017752,12183.1741333008
9828609333,23983,2,0,10923.8661829136,41986.0615080897,40313.4412320208,57234.6678373879,64796.7697358781,54370.5745207197,55274.6952331484,55104.9071916810,57780.5350522587,12175.9708567816
9828650670,23984,2,0,10872.6645146826,41979.0042439323,40341.3904316231,57236.6511719700,64795.0784260197,54406.5422325283,55275.0237609626,55105.6129180968,57775.5341288645,12165.4214636361
9828650670,23984,2,0,10991.4699064618,41996.6960751129,40371.0674441742,57251.3862528226,64815.4958212886,54388.2541842034,55285.3298001716,55129.6927901094,57781.3624556426,12156.3078587157
9828650670,23984,2,0,11139.2952551638,42005.9678600920,40365.4216328484,57256.9103871802,64827.9312074416,54354.7200117594,55293.7498463731,55142.1403439592,57772.8085647761,12155.1397598207
9828650670,23984,2,0,11102.1229413697,41994.3477096261,40344.6757097652,57245.9959631300,64813.4881513128,54408.1848715994,55286.8872653650,55118.5471798196,57762.4903578703,12160.2988632737
9828650670,23984,2,0,10901.5384592435,41975.8163073647,40319.9874529115,57223.1815315870,64792.4623712028,54411.2998019860,55279.4162995157,55096.4506423891,57770.9590748590,12169.5219774654
9828650670,23984,2,0,10847.4652145623,41981.8879880794,40302.5268079706,57244.7426903573,64802.6832365340,54390.8824067171,55298.4830804372,55116.1136404550,57787.5071425382,12180.5459107870
9828650670,23984,2,0,11006.1928196176,42012.9764534620,40335.2944155148,57282.3530412370,64840.0258980836,54385.4312785405,55322.2465923324,55152.8600848602,57797.0344491506,12188.2358951791
9828650670,23984,2,0,11134.8053750361,42028.8066270287,40356.7704004073,57275.5999695002,64853.2278491365,54412.1150376732,55318.2434200777,55154.3323761758,57788.4075521031,12189.5743418296
9828656381,23985,2,0,11101.5632273158,42015.7628560345,40354.6410534632,57254.4768478156,64833.1754847723,54388.0108302669,55297.7165155374,55130.3255103442,57771.4214473383,12184.5855861322
9828656381,23985,2,0,10956.1592502817,41991.4639654790,40346.5495350760,57237.6854261999,64809.2416251216,54426.0957213227,55279.9881812663,55112.4998344985,57780.0240089921,12181.4098172615
9828656381,23985,2,0,10863.9646114542,41992.8875860073,40336.4503467129,57242.5281695355,64813.2082942859,54455.9795847199,55286.6682468221,55123.4750970328,57807.6325130834,12188.5887583870
9828656381,23985,2,0,10965.7960661654,42024.3410822946,40370.2278730934,57275.7459818621,64851.0985021925,54454.3856164361,55313.7292045564,55163.6893350327,57838.7818169501,12196.8871276202
9828656381,23985,2,0,11149.9176544902,42042.9698261306,40398.1040665148,57297.9885316545,64870.2991277791,54380.7588829605,55330.2894399324,55181.5515139687,57825.7137105623,12196.3395812632
9828656381,23985,2,0,11145.6589606022,42019.5713451400,40380.0350367327,57275.5147956225,64842.9461453211,54365.3180756921,55312.2690809376,55141.9943315974,57789.9041788124,12193.1151416051
9828656381,23985,2,0,10953.8595555821,41982.9100746125,40320.7418501145,57242.4186602641,64799.7508215997,54381.0630753810,55285.4636448367,55097.5700704968,57759.5336075423,12189.7568572820
9828656381,23985,2,0,10865.7410951904,41980.2818520988,40316.7751809502,57254.0874815173,64802.6467334436,54387.2929361544,55292.7155921431,55109.1415501754,57768.2456784675,12194.4414205588
9828710876,23986,2,0,10957.5098646290,41992.5468904963,40339.4192647377,57258.7355417036,64819.3286457878,54391.4664561646,55295.7940194393,55130.5323611901,57776.6292215785,12190.5477575755
9828710876,23986,2,0,11103.3032079615,42012.9034472811,40371.3473012011,57264.2353406676,64840.2449166265,54442.2544227036,55307.5723499639,55145.9244976712,57803.4589930731,12186.7636038636
9828710876,23986,2,0,11125.5335900570,42009.4478213833,40357.3301144611,57256.1559899772,64834.2827451832,54442.1084103417,55300.8557813177,55137.6626315284,57809.0804690053,12185.2426417607
9828710876,23986,2,0,10983.0620279572,41975.4147733696,40304.4249686750,57240.5326672565,64800.9919266756,54383.3019315965,55282.3122113595,55103.1428756417,57779.3061148796,12185.0357909147
9828710876,23986,2,0,10848.6941519414,41956.8347003209,40276.6461168282,57241.1532197945,64782.3631828397,54366.4496714967,55281.5578141565,55085.0130073755,57755.4452614098,12184.9262816433
9828710876,23986,2,0,10910.4452133179,41979.7464734386,40305.6417383572,57259.4291004225,64807.6233214441,54352.9921988105,55300.0648810242,55115.3105724646,57767.0045733916,12184.9019462496
9828710876,23986,2,0,11099.5433896432,42010.7497649434,40372.1503691914,57276.3300313096,64843.0313191989,54393.0969275389,55308.2780763797,55149.3922912657,57780.4863814714,12181.6410035011
9828710876,23986,2,0,11141.4489375014,42009.0584550850,40379.4874903757,57255.2434127155,64837.1543216334,54387.1347560957,55291.2433008276,55132.9050620706,57766.9193995138,12186.7271007731
9828749586,23987,2,0,10986.6636662168,41982.8735715220,40333.5179317786,57234.7286758720,64805.8955084953,54416.1547130184,55275.4496303514,55099.0545295092,57755.9806400700,12188.5157522061
9828749586,23987,2,0,10858.9271849695,41973.2732587287,40316.9090256153,57227.4037223846,64800.7850758297,54421.5815058014,55277.0070955447,55108.6426746057,57779.2087733050,12182.4319037946
9828749586,23987,2,0,10904.8967435666,41991.9628410488,40350.8082289640,57234.0229494562,64822.5165823554,54445.6005393299,55288.7489229789,55136.5675388143,57799.1759637914,12182.5292453692
9828749586,23987,2,0,11050.6170807182,42016.9796257167,40371.1526180520,57246.3488263379,64845.2336723239,54400.2515332708,55292.3992320257,55149.6964836863,57799.9546963881,12185.5346664844
9828749586,23987,2,0,11124.9373729127,42010.3725663419,40358.2305240260,57243.8909515796,64835.4143409878,54358.1513022634,55281.5821495502,55136.3728556652,57774.6945577837,12181.9573636185
9828749586,23987,2,0,11018.5186964992,41978.6027099372,40324.7815254597,57224.4348043598,64802.8170811991,54359.7209351536,55265.7519759835,55104.2379683558,57761.0545696452,12181.4706557456
9828749586,23987,2,0,10853.0380197072,41961.1420649963,40309.4745628565,57221.6849048778,64783.6529587030,54396.0050070796,55271.5437996712,55090.3546262808,57770.0343299005,12182.4562391882
9828749586,23987,2,0,10879.9529650796,41988.6775629066,40348.7883912914,57252.3961716589,64814.3155546968,54428.2615713572,55301.3789922811,55127.1619091702,57794.9416052970,12183.7338473546
9828757058,23988,2,0,11096.7569870708,42033.2235009754,40413.1433397879,57297.9885316545,64863.9110869471,54468.9016787459,55332.0172528812,55175.5163363446,57827.0034864255,12182.4684068851
9828757058,23988,2,0,11175.3359731533,42033.2478363690,40389.2094801372,57282.0610165132,64857.3526983595,54404.5710656430,55323.0618280196,55158.4572253988,57805.7221846822,12188.8321123234
9828757058,23988,2,0,11031.0879273173,41996.3188765114,40314.0982876492,57234.7773466593,64816.1407092202,54373.2270786271,55290.0508665389,55113.4854179412,57766.4083562473,12193.1516446956
9828757058,23988,2,0,10879.3689156321,41974.8428916189,40276.8651353710,57239.5835869043,64797.0860959955,54362.3613253642,55294.8084359967,55105.7345950650,57757.2582482364,12194.5265944366
9828757058,23988,2,0,10876.7406931183,41985.4531232485,40296.4551272559,57261.5097765793,64815.3741443204,54405.8121707189,55319.8617237551,55131.0677398504,57776.7508985468,12190.5964283628
9828757058,23988,2,0,11031.2582750729,42024.8156224707,40388.3455736628,57284.3485435159,64855.1138421441,54501.6571185932,55325.9942429539,55164.5532415071,57822.5622770851,12180.6189169680
9828757058,23988,2,0,11158.6662285059,42036.3749344525,40426.4548001122,57281.3674577943,64863.1688574409,54410.9347710814,55306.5624311276,55169.8948604124,57838.9521647056,12175.2772980627
9828757058,23988,2,0,11070.7181158697,41991.5126362663,40342.3760150657,57224.3009596947,64811.2857981879,54315.0533201166,55253.3652606177,55112.7188530414,57767.8928152596,12173.9996898963
9828811650,23989,2,0,10853.2327028564,41940.4934834877,40240.1065232689,57177.6135069851,64755.6064175261,54321.2588454963,55219.6364050245,55059.5338502283,57718.5771400363,12170.3250454558
9828811650,23989,2,0,10823.4218456402,41949.8261069509,40235.6044754444,57207.0349979030,64773.0305593765,54372.0103089448,55250.1043178692,55087.8480807353,57735.5997478916,12175.8005090261
9828811650,23989,2,0,11007.9693033538,41995.5401439147,40319.0627079530,57250.7778679814,64823.4291596171,54382.5353666966,55289.8926864802,55140.1691770739,57766.6395424869,12188.6739322648
9828811650,23989,2,0,11139.8062984303,42016.2008931201,40371.4811458662,57258.8328832782,64841.8875556976,54405.1429473936,55296.1955534345,55149.4652974466,57774.3903653631,12194.2102343192
9828811650,23989,2,0,11084.1390854654,42013.6821798777,40363.8033291709,57258.2975046180,64835.4873471687,54444.1647511048,55302.2428987555,55139.7919784724,57790.5125636535,12203.0926529999
9828811650,23989,2,0,10939.8788719326,41993.9826787214,40316.3979823487,57255.3650896837,64816.1893800075,54406.1041954426,55301.6710170048,55128.5490266080,57794.0655311258,12206.0129002374
9828811650,23989,2,0,10873.8326135776,41985.3436139771,40299.0225112856,57249.8531230229,64809.9838546278,54394.9829205465,55297.4366585104,55128.4030142461,57787.9330119270,12201.7907094399
9828811650,23989,2,0,10974.9461741763,41997.9006770984,40327.5557603354,57256.5453562755,64825.9113697690,54383.7886394694,55298.3979065595,55141.8118161450,57789.2592908807,12186.5080822303
9828843251,23990,2,0,11122.9905414210,42008.6812564835,40365.3972974547,57254.8418787203,64839.8190472377,54403.7923330463,55292.5452443876,55152.3125385032,57796.8032629110,12177.4066450067
9828843251,23990,2,0,11105.7732504166,42000.0543594360,40361.0899327794,57246.4340002156,64832.3237459947,54425.1831440610,55286.1937066460,55135.9713216700,57793.0434445927,12190.1948943676
9828843251,23990,2,0,10920.1915384730,41979.7951442258,40320.4741607844,57232.7210058962,64803.8026646417,54393.5958031087,55281.6551557311,55104.7490116223,57776.6170538817,12200.3670889116
9828843251,23990,2,0,10839.7143916861,41976.0596613012,40298.1099340239,57247.9306269249,64804.8612542653,54382.5110313030,55300.2473964765,55115.7607772471,57776.6413892753,12198.1769034835
9828843251,23990,2,0,10978.5478124359,42001.2589614215,40326.9352077974,57261.5341119729,64834.0758943372,54414.1713784363,55312.5976087518,55152.8844202539,57803.7145147064,12190.1827266708
9828843251,23990,2,0,11131.8121216177,42022.2117353506,40353.2661037222,57266.4620291862,64852.8384828382,54410.9226033845,55315.1771604783,55162.1197021425,57801.8285216988,12187.2016409492
9828843251,23990,2,0,11119.4254062519,42015.8601976090,40340.9645622343,57251.0212219179,64840.8289660740,54387.0739176116,55305.4430030199,55144.9389142285,57781.3989587331,12192.2634028275
9828843251,23990,2,0,10972.8046595354,41990.4175435523,40316.1181253218,57227.8782625607,64812.6120771416,54386.1126695626,55285.2202909002,55121.2362408174,57773.0397510157,12191.0831362357
9828851982,23991,2,0,10846.0537617309,41970.9005578483,40292.3911165171,57219.6285641147,64793.4966254327,54386.3925265895,55273.9651713390,55106.8661908695,57768.0144922279,12182.6630900342
9828851982,23991,2,0,10915.3487951375,41988.3246996987,40312.9180210574,57242.2118094181,64818.4525716166,54388.7652274700,55292.3870643289,55134.3773533862,57787.9330119270,12180.6554200584
9828851982,23991,2,0,11106.8440077370,42017.2108119564,40367.3927997337,57272.5458775977,64853.0331659874,54394.4475418863,55311.3808390695,55167.3396440795,57798.9204421582,12182.5049099755
9828851982,23991,2,0,11135.5232691487,42010.8471065180,40358.9849212290,57261.1447456746,64841.4008478246,54393.5349646246,55300.8192782272,55148.4310432167,57776.2520229770,12185.2304740639
9828851982,23991,2,0,10969.3246982441,41982.6545529792,40313.9522752873,57240.3379841073,64807.9640169552,54429.5756826141,55289.9413572675,55113.6192626063,57771.9933290890,12190.0245466121
9828851982,23991,2,0,10859.1097004219,41978.2376790325,40316.2276345932,57247.9427946217,64806.4673902460,54419.8293574589,55299.9918748433,55125.1785745880,57793.5423201624,12190.0732173994
9828851982,23991,2,0,10941.8743742115,42000.6749119740,40353.6433023238,57277.0844285126,64833.2484909533,54407.2357912472,55327.4787019663,55160.9759386411,57815.1521497200,12188.7469384457
9828851982,23991,2,0,11080.2697578757,42022.6376047394,40392.3852490080,57279.1772723662,64853.2765199238,54459.3013659526,55328.4642854089,55173.7885233957,57827.0764926064,12182.9551147580
9828875609,23992,2,0,11112.1977943391,42022.4672569839,40394.1130619569,57261.0595717968,64845.0024860842,54435.6960341160,55307.6575238417,55158.2017037655,57819.6663652413,12179.6820043126
9828875609,23992,2,0,10993.2342225012,41993.3986292739,40328.0424682083,57239.8634439313,64809.2902959089,54408.7445856532,55277.7736604446,55124.7770405929,57797.8253494441,12171.7364982872
9828875609,23992,2,0,10846.9906743862,41962.1276484389,40253.7465114074,57222.6461529268,64775.9386389172,54364.9773801811,55261.5784559732,55093.3600473961,57761.0667373420,12173.6346589916
9828875609,23992,2,0,10891.8894756629,41974.3561837460,40262.2273960930,57248.2834901327,64794.2631903326,54362.6898531784,55285.6583279858,55120.1046450129,57772.8207324729,12178.5260731144
9828875609,23992,2,0,11085.8182276269,42011.6623422051,40332.6418576074,57276.6828945175,64835.0736454767,54345.9957731373,55313.4493475294,55165.0277816832,57795.4891516541,12186.2768959906
9828875609,23992,2,0,11122.1144672498,41999.6649931377,40338.8960537743,57228.7178336414,64816.4449016408,54346.7380026435,55281.6308203374,55139.1349228440,57768.0023245311,12184.8167723719
9828875609,23992,2,0,10949.8928864178,41960.7040279106,40286.9521560372,57176.6765943297,64770.7917031611,54382.5475343934,55243.6311031594,55089.0526827207,57745.7354393451,12183.6121703864
9828875609,23992,2,0,10820.6841138550,41949.6314238018,40267.8610397220,57178.0758794644,64763.8682836688,54416.6657562850,55241.3800792471,55090.5493094300,57765.9824868584,12184.1840521371
9828934115,23993,2,0,10878.9673816369,41967.5057704347,40290.3712788445,57210.1985990769,64787.5344539895,54411.3119696829,55260.0453261735,55123.4264262455,57798.3363927106,12186.0213743573
9828934115,23993,2,0,11036.8919187019,42004.7632581065,40333.5179317786,57250.9238803433,64827.9190397448,54437.8497164537,55290.7930960451,55157.0336048705,57820.7614579553,12192.3120736148
9828934115,23993,2,0,11127.8089493629,42022.5037600744,40385.7173511490,57261.9234782713,64843.7613810083,54489.0270492910,55297.0229568185,55164.6019122944,57833.3185210766,12185.1087970956
9828934115,23993,2,0,11035.7116521101,41998.4725588491,40371.5784874408,57236.5051596081,64814.0843684571,54386.5020358609,55274.9142516912,55132.9659005547,57799.9425286913,12186.2890636875
9828934115,23993,2,0,10852.7946657708,41965.5711066398,40298.4993003222,57208.6898046709,64781.3532640034,54350.5221563555,55260.4833632592,55100.6119947025,57764.8143879634,12198.1647357866
9828934115,23993,2,0,10846.9663389926,41973.0664078828,40285.9057341104,57227.2333746290,64796.3803695797,54347.6870829957,55280.9615970122,55123.1709046123,57767.3696042963,12206.1345772057
9828934115,23993,2,0,11049.0231124344,42013.2684781858,40357.1719344024,57277.7536518379,64845.4648585635,54368.5911861375,55319.7765498774,55173.0341261927,57792.3012150865,12212.4252764631
9828934115,23993,2,0,11153.9816652291,42019.1333080544,40373.4888158420,57275.6608079843,64850.9646575275,54394.8977466687,55324.7166347875,55165.9525266417,57792.6662459912,12204.1147395331
9828946819,23994,2,0,11044.5454000035,41999.0079375093,40341.2565869580,57257.6404489896,64824.3174014852,54430.5004275726,55305.6741892596,55133.1484160071,57795.2823008081,12193.8452034145
9828946819,23994,2,0,10879.7461142336,41974.4291899269,40302.4416340928,57234.7286758720,64797.6701454430,54408.4160578390,55277.5911449922,55116.4786713596,57793.9560218544,12188.2358951791
9828946819,23994,2,0,10854.8023357466,41975.3782702791,40312.7355056050,57227.8417594702,64801.8193300596,54415.3638127249,55266.5428762770,55126.3831765735,57800.7212612879,12184.9384493401
9828946819,23994,2,0,10982.0886122114,41998.4238880618,40338.4823520824,57234.4244834514,64826.0208790404,54402.8919234814,55275.1211025372,55144.7198956857,57804.4932473031,12190.1583912772
9828946819,23994,2,0,11122.1874734307,42018.9507926021,40364.6429002517,57244.8765350223,64844.1629150034,54400.9085888992,55284.8917630860,55159.6496596874,57806.2088925551,12201.8272125304
9828946819,23994,2,0,11087.0228296124,42005.3594752508,40344.7487159462,57239.4984130266,64824.1713891234,54390.2496864824,55277.6641511732,55138.1615070981,57791.8388426072,12211.3423514459
9828946819,23994,2,0,10902.3901980211,41974.5752022888,40306.2257878048,57218.7159868530,64789.1527576669,54401.8820046451,55264.0971692156,55104.4813222922,57780.4133752905,12209.0548244432
9828946819,23994,2,0,10838.2664357642,41972.7135446749,40312.0054437956,57220.0179304130,64795.6503077704,54421.0217917476,55270.5338808349,55118.1578135212,57802.4490742368,12196.9357984075
9828978375,23995,2,0,11005.3410808400,42002.5609049816,40379.6943412217,57253.2844135270,64832.6279384153,54418.5639169893,55295.4898270188,55158.9926040590,57822.6717863565,12190.4139129104
9828978375,23995,2,0,11148.4575308714,42017.1743088659,40383.8070227478,57277.7536518379,64847.4968639329,54410.8861002941,55320.1902515693,55161.8033420251,57802.8871113224,12195.5121778792
9828978375,23995,2,0,11098.8619986211,42004.2765502336,40327.9329589369,57276.4760436715,64828.8072816129,54393.9851694070,55315.3961790211,55135.3142660416,57780.8149092856,12200.6834490290
9828978375,23995,2,0,10928.7819324300,41969.3552603518,40263.8578674673,57235.2275514417,64793.1315945280,54351.6050813727,55280.0368520536,55110.3461521609,57775.4732903803,12199.1989900166
9828978375,23995,2,0,10838.6071312752,41953.7684407216,40247.1029489421,57199.8925598679,64776.7538746043,54348.2589647464,55256.6505387599,55104.3596453240,57773.0275833189,12196.6072705933
9828978375,23995,2,0,10930.8261054963,41973.4801095747,40292.1477625806,57205.1490048954,64799.4952999664,54406.8464249488,55259.5221152102,55123.1709046123,57783.0415978042,12189.3918263773
9828978375,23995,2,0,11110.6159937521,42010.7375972466,40363.3896274789,57240.4109902883,64836.3390859463,54442.8384721511,55285.1959555066,55155.2571211344,57808.8492827657,12183.4174872372
9828978375,23995,2,0,11126.2636518664,42008.7177595740,40369.0111034111,57249.3542474531,64829.9632128111,54395.8224916273,55291.0242822848,55140.0109970152,57791.0479423137,12193.8208680209
9829035567,23996,2,0,10947.0699807549,41978.6513807245,40306.2501231984,57237.9166124396,64795.5407984990,54380.7467152636,55281.3022925232,55100.1982930106,57773.9766636711,12195.6581902411
9829035567,23996,2,0,10844.9099982295,41974.9889039808,40302.0766031881,57231.0418637346,64795.2487737752,54464.3631278309,55278.8444177650,55113.0960516429,57808.2408979245,12184.6707600100
9829035567,23996,2,0,10983.4878973460,42013.6943475746,40375.9345229034,57262.7508816552,64839.7217056631,54449.4333638291,55303.3501591664,55165.6118311307,57831.4933665532,12192.6406014290
9829035567,23996,2,0,11147.0339103432,42045.5858809475,40422.6949817940,57293.7176700696,64869.1796996714,54398.5358880188,55325.9820752571,55186.8687974804,57824.8498040878,12214.7371388595
9829035567,23996,2,0,11134.6471949774,42027.7845404955,40373.8051759594,57273.6653057054,64848.6406274343,54352.9800311137,55310.1397339936,55156.1088599120,57790.3300482012,12216.7448088353
9829035567,23996,2,0,10984.5221515759,41989.0182584176,40310.9468541720,57233.4145646151,64808.7062464614,54342.2359548190,55278.4185483762,55118.3768320640,57761.7846314545,12207.4365207657
9829035567,23996,2,0,10858.0389431015,41963.2105734562,40267.7880335411,57208.1179229202,64785.9769887961,54362.3248222737,55261.6636298510,55098.5556539395,57754.4353425735,12197.9578849407
9829035567,23996,2,0,10915.7259937390,41982.3016897714,40295.0071713340,57224.2644566042,64808.7549172487,54425.0492993960,55277.3356233589,55125.0812330135,57787.7748318683,12194.1007250478
9829037840,23997,2,0,11117.9409472395,42032.2865883200,40372.7830894262,57272.6188837786,64856.9876674548,54452.4022818539,55312.6827826296,55172.6812629848,57826.3585984939,12200.3670889116
9829037840,23997,2,0,11170.6635775733,42037.8837288586,40399.2721654098,57273.4706225562,64853.1791783492,54423.7960266232,55311.4051744632,55161.4018080300,57812.0007162428,12199.1381515325
9829037840,23997,2,0,10999.2085616412,42007.3914806203,40361.5888083491,57245.9837954332,64816.4935724281,54408.2578777803,55289.1869600645,55118.9365461179,57787.1542793304,12198.0552265152
9829037840,23997,2,0,10865.0962072588,41990.7339036697,40310.1924569690,57236.1279610066,64804.3623786956,54391.5881331329,55282.2513728754,55121.3700854825,57798.9812806423,12193.6748556590
9829037840,23997,2,0,10935.2673148367,42004.8484319843,40324.1609729218,57246.8477019076,64826.2398975832,54383.5817886234,55293.4578216493,55156.5955677849,57812.5847656903,12190.5842606660
9829037840,23997,2,0,11084.3824394018,42025.8742120943,40343.9699833495,57252.9193826223,64846.6207897617,54390.7728974457,55298.0085402611,55172.2188905055,57810.6135988050,12194.2224020160
9829037840,23997,2,0,11134.3308348600,42029.9503905300,40344.2863434669,57258.2853369212,64847.2170069060,54395.2262744829,55303.2284821982,55164.1273721183,57799.3828146374,12200.4887658798
9829037840,23997,2,0,11036.8554156114,42011.1026281513,40323.2848987505,57252.7368671699,64826.0087113436,54433.9560534704,55300.2838995670,55142.4810394703,57794.0411957321,12199.8317102514
9829076044,23998,2,0,10890.9282276139,41999.7866701059,40338.1416565713,57249.7679491451,64813.1474558018,54465.8110837528,55303.0459667458,55128.7193743635,57797.2534676934,12196.3882520505
9829076044,23998,2,0,10904.4343710873,42012.9277826747,40358.4008717815,57257.4335981436,64830.8636223760,54414.3903969791,55307.2438221497,55148.7960741214,57807.4378299342,12196.6802767742
9829076044,23998,2,0,11083.0318250545,42033.6372026674,40370.2400407902,57264.2231729708,64855.7587300757,54350.6560010205,55303.8733701298,55175.3459885890,57801.8041863052,12199.8803810387
9829076044,23998,2,0,11160.9172524181,42028.9648070873,40346.9267336775,57242.6376788069,64847.0466591505,54368.1166459614,55284.7457507241,55158.0678591005,57781.7274865473,12200.7321198163
9829076044,23998,2,0,11035.5534720514,42008.3527286693,40297.0513444002,57230.4334788935,64821.2389741890,54423.4188280217,55282.8962608070,55129.7657962903,57777.5174634466,12204.4189319536
9829076044,23998,2,0,10901.6236331212,42000.3585518566,40288.2419319004,57247.2492359028,64815.4958212886,54440.1980819405,55298.7386020705,55134.0488255720,57797.9470264123,12201.2309953860
9829076044,23998,2,0,10913.3411251617,42006.9169404442,40332.3863359741,57260.1104914446,64828.5882630701,54416.2885576835,55310.3709202332,55155.4396365867,57813.3756659838,12190.3530744263
9829076044,23998,2,0,11042.9149286292,42024.4749269597,40374.1458714704,57268.9807424286,64849.4558631214,54394.3988710990,55312.8652980819,55167.4734887446,57813.3878336806,12189.4404971646
9829099861,23999,2,0,11147.3015996733,42037.0684931714,40382.4807437941,57275.2714416860,64858.5207972545,54409.4989828562,55315.2866697497,55168.0818735857,57811.7451946095,12194.5022590429
9829099861,23999,2,0,11079.5518637631,42025.7890382166,40377.2851372507,57255.7422882852,64844.2845919717,54460.9561727205,55308.1807348051,55151.7284890557,57823.3531773786,12198.9313006865
9829099861,23999,2,0,10889.4316009047,41995.4549700370,40333.0798946930,57224.5443136312,64811.3953074593,54441.8163856180,55289.8926864802,55121.1875700301,57810.4189156558,12195.0011346127
9829099861,23999,2,0,10853.5977337611,41995.5644793084,40313.3073873557,57235.9332778574,64818.4525716166,54393.3524491722,55299.8945332687,55137.2367621396,57803.9457009460,12193.8573711113
9829099861,23999,2,0,11040.2988738123,42027.0666463830,40348.3990249931,57267.3746064479,64855.7830654694,54407.7590022106,55319.0099849775,55178.9232914550,57811.6478530349,12196.1327304172
9829099861,23999,2,0,11191.9083762262,42050.6963136131,40385.6200095744,57294.9344397519,64881.4325703721,54470.5443178170,55331.3967003433,55192.3077579602,57820.5789425030,12201.6203616844
9829099861,23999,2,0,11135.0973997599,42043.6390494558,40371.2742950202,57317.2013249379,64866.7339926100,54417.2254703388,55338.7824923148,55169.1891339966,57812.9984673823,12211.0624944190
9829099861,23999,2,0,10943.9428826714,42006.6370834172,40318.5273292927,57264.9167316897,64829.8293681460,54372.2779982749,55310.1519016904,55142.1403439592,57804.9677874792,12214.1652571088
9829139683,24000,2,0,10882.1553182045,41992.1940272884,40308.5619855948,57230.2509634411,64820.2777261400,54374.8575500013,55295.4776593220,55142.4567040766,57802.9479498065,12209.8822278271
9829139683,24000,2,0,10991.3725648873,42008.7055918772,40346.0993302935,57229.2897153921,64839.8312149345,54408.9757718929,55300.2838995670,55161.9128512965,57811.2341513430,12197.6050217328
9829139683,24000,2,0,11133.0897297841,42025.6795289452,40379.5118257693,57242.4186602641,64857.5352138119,54454.3247779520,55310.2735786586,55178.0837203742,57825.9083937114,12187.6883488221
9829139683,24000,2,0,11103.4613880202,42008.8759396327,40368.2445385113,57232.0882856614,64837.5315202349,54415.0961233948,55296.7674351852,55156.5468969976,57814.4950940915,12189.8420311598
9829139683,24000,2,0,10922.6129101408,41981.0849200891,40322.6886816062,57229.1802061207,64808.0735262266,54432.5324329421,55294.2730573365,55126.3345057862,57792.4958982356,12201.1093184178
9829139683,24000,2,0,10860.3629731946,41988.3855381828,40321.0825456256,57264.3326822422,64821.1051295240,54420.8271085984,55319.5453636377,55142.8339026781,57802.4734096304,12207.1079929515
9829139683,24000,2,0,11012.6782020242,42013.6943475746,40364.1196892883,57287.3904677217,64851.3540238258,54397.3191183365,55329.4742042452,55177.9255403155,57825.5068597163,12197.1913200408
9829139683,24000,2,0,11150.9397410233,42022.4307538934,40387.8466980930,57264.0649929121,64858.7154804037,54402.8432526941,55305.8202016214,55173.7276849116,57812.1102255142,12193.0299677274
9829171508,24001,2,0,11099.7745758828,42008.0728716424,40376.1900445367,57233.1225398913,64835.3535025036,54413.6603351697,55281.3874664010,55140.0109970152,57785.8158326798,12191.9227073165
9829171508,24001,2,0,10956.0984117975,41990.4418789459,40348.6788820200,57234.8260174466,64814.6805856015,54394.8490758814,55288.2013766218,55126.1763257275,57778.9045808844,12197.3860031900
9829171508,24001,2,0,10891.2202523376,41988.8600783589,40330.6950261157,57256.2533315518,64815.7513429219,54405.6661583570,55304.7616119979,55135.6792969462,57787.7626641715,12197.3129970090
9829171508,24001,2,0,10982.1251153018,42008.1702132169,40352.1345079177,57268.3966929811,64839.2228300933,54412.1150376732,55312.9869750502,55158.4937284893,57803.4711607699,12193.7235264463
9829171508,24001,2,0,11144.3813524358,42025.6308581579,40378.6965900822,57269.3457733332,64859.3116975480,54387.6336316654,55309.7016969080,55172.6569275912,57798.1782126519,12189.8785342502
9829171508,24001,2,0,11142.0816577362,42009.8006845912,40367.1494457972,57239.7539346598,64838.2250789538,54380.1626658161,55285.0499431447,55147.9930061311,57771.5796273970,12185.7171819368
9829171508,24001,2,0,10953.5918662520,41977.3251017708,40316.4831562265,57216.0269258551,64803.5836460989,54413.1006211158,55269.1710987907,55111.5385864495,57762.4416870830,12187.6153426412
9829171508,24001,2,0,10855.6419068273,41983.4089501823,40320.5106638749,57249.9139615070,64814.8996041443,54456.4054541087,55300.9166198018,55136.5797065111,57802.6559250828,12193.6383525685
9829206211,24002,2,0,10986.8583493659,42019.9485437415,40368.6095694160,57297.4774883879,64859.0683436115,54452.9984989983,55336.5923068867,55187.4650146247,57840.3149467498,12202.9588083349
9829206211,24002,2,0,11150.0028283680,42041.2663485753,40395.0864777027,57309.2436512157,64880.1671299025,54425.2683179388,55341.7757457332,55197.1626689926,57832.7953101132,12206.0494033279
9829206211,24002,2,0,11158.5202161440,42037.9932381300,40390.5965975750,57290.5784042893,64867.8899238082,54399.0469312853,55330.8004831989,55174.4090759337,57809.3238229418,12201.5595232002
9829206211,24002,2,0,11013.9436424938,42005.0187797398,40335.9879742337,57250.1086446562,64829.6103496032,54365.5370942350,55300.5394212003,55138.7820596361,57781.6179772759,12192.9691292433
9829206211,24002,2,0,10873.2363964333,41978.9555731451,40282.8759776015,57222.7799975918,64801.7706592723,54385.3461046627,55277.9805112906,55118.7296952719,57768.5377031913,12189.3066524995
9829206211,24002,2,0,10918.3785516464,41999.2512914457,40301.1883613201,57243.6110945527,64826.7752762435,54421.6301765887,55295.2951438696,55145.7419822188,57792.3255504801,12193.8573711113
9829206211,24002,2,0,11118.8291891076,42042.4344474703,40372.1260337978,57293.5838254045,64875.0445295401,54428.0425528144,55331.6035511893,55192.1130748111,57821.0048118918,12194.5509298302
9829206211,24002,2,0,11183.9020317167,42041.2298454849,40380.3027260628,57286.3075427044,64869.8975937840,54434.1750720132,55323.3295173497,55181.5758493624,57822.4527678137,12187.7613550030
9829230455,24003,2,0,11011.5587739165,42001.5874892357,40325.1708917581,57240.2649779264,64827.7000212020,54434.6982829766,55294.1392126714,55135.7888062177,57812.4995918125,12192.7866137909
9829230455,24003,2,0,10872.6401792890,41986.3413651166,40298.0612632366,57244.4384979367,64813.4151451319,54421.3746549554,55296.1347149504,55131.7734662661,57814.8722926930,12199.5640209213
9829230455,24003,2,0,10932.1645521468,42009.0949581755,40370.2522084871,57263.9311482470,64843.3598470131,54463.0125134835,55311.1374851331,55168.4834075809,57831.4811988563,12200.7564552099
9829230455,24003,2,0,11076.7776288875,42036.3019282716,40413.6178799640,57266.8513954845,64867.3058743607,54420.8271085984,55312.0135593043,55184.9828044728,57844.5736406378,12201.5716908971
9829230455,24003,2,0,11131.8607924049,42036.3505990589,40375.1557903067,57261.5462796697,64861.1003489810,54388.9720783159,55303.5935131029,55169.9556988965,57827.0278218191,12204.3702611663
9829230455,24003,2,0,11032.7670694789,42009.4234859897,40317.8337705738,57247.9306269249,64828.6856046447,54385.7233032642,55293.7863494636,55141.2277666975,57793.6274940402,12207.7042100958
9829230455,24003,2,0,10887.0467323274,41987.6311409798,40285.0539953328,57251.7512837273,64806.7959180602,54431.7902034359,55302.4984203888,55124.4363450818,57777.6026373244,12214.9439897055
9829230455,24003,2,0,10900.5285404072,42004.0696993876,40306.5786510126,57277.9118318966,64827.4323318719,54458.3766209940,55321.4435243421,55147.9199999501,57795.0146114780,12219.1905158967
9829277202,24004,2,0,11069.2336568573,42023.2946603679,40360.4085417573,57282.5720597798,64851.0011606179,54431.1088124138,55310.4925972015,55173.4113247942,57809.2629844577,12205.9277263597
9829277202,24004,2,0,11166.5143929567,42017.7096875261,40373.5861574166,57262.3615153569,64844.3941012431,54380.9292307160,55284.2833782448,55158.7979209098,57785.8523357703,12194.0642219573
9829277202,24004,2,0,11042.6107362087,41996.5622304479,40369.8020037046,57242.5281695355,64820.1073783845,54417.5905012435,55277.6398157795,55126.8090459623,57773.8549867029,12192.5675952481
9829277202,24004,2,0,10878.5536799449,41985.0394215565,40338.5431905665,57227.5253993528,64812.3808909019,54399.7404900042,55285.6583279858,55125.4827670086,57792.6540782943,12200.4522627894
9829277202,24004,2,0,10891.1715815503,41996.2702057241,40328.2858221447,57229.1558707271,64826.9456239990,54415.5341604804,55288.0796996536,55151.2539488796,57810.2120648098,12204.0052302617
9829277202,24004,2,0,11041.2601218613,42024.5235977470,40353.0349174826,57252.2258239034,64855.5640469265,54408.6715794723,55298.7264343737,55173.3991570974,57819.1188188842,12202.3017527064
9829277202,24004,2,0,11151.8644859819,42038.7841384235,40380.8624401167,57268.5305376461,64867.4640544194,54417.1524641579,55312.9139688692,55175.2486470145,57812.2805732697,12204.8448013424
9829277202,24004,2,0,11090.9286602926,42018.6344324847,40357.7073130626,57252.6151902017,64842.7636298688,54417.5539981530,55300.1500549020,55148.6013909722,57795.2823008081,12205.5991985455
9829323464,24005,2,0,10908.6443941881,41983.6766395124,40295.9440839894,57223.0598546188,64804.5327264511,54434.6374444924,55276.0823505862,55112.9500392810,57787.6653225969,12205.7573786042
9829323464,24005,2,0,10853.7924169103,41982.3138574682,40295.2383575736,57225.4568908929,64806.4065517619,54414.5242416441,55277.2747848748,55121.5647686316,57797.5089893267,12201.1336538114
9829323464,24005,2,0,11023.5926260744,42017.0891349882,40384.4032398922,57256.7522071215,64845.4161877762,54389.8603201840,55303.4596684378,55168.1548797667,57815.7483668643,12198.9799714738
9829323464,24005,2,0,11174.0461972901,42036.3627667557,40405.5020261831,57276.6220560334,64863.6677330106,54394.1433494657,55318.8031341315,55178.3149066138,57808.7884442816,12206.9741482865
9829323464,24005,2,0,11091.1598465322,42014.4487447776,40360.9560881143,57254.2213261823,64838.6874514331,54444.1647511048,55306.6597727022,55144.9145788349,57801.9867017575,12200.7442875131
9829323464,24005,2,0,10916.0301861596,41985.1002600406,40304.0477700734,57232.8548505612,64811.6994998798,54446.8781474963,55292.7034244463,55126.3345057862,57809.2386490640,12195.4148363047
9829323464,24005,2,0,10880.2206544097,41985.1610985248,40291.6002162236,57263.5296142519,64820.8739432843,54386.8914021592,55313.1086520184,55144.9267465317,57812.5117595094,12201.3770077479
9829323464,24005,2,0,10993.4045702567,42003.3761406687,40342.3638473689,57283.3507923764,64843.1529961671,54381.2820939238,55320.2754254471,55168.2522213413,57821.6618675202,12194.7821160699
9829326770,24006,2,0,11134.3308348600,42017.5515074674,40371.9800214359,57267.9099851081,64853.8362339777,54365.8169512619,55312.6097764486,55173.3261509164,57808.9466243403,12192.1295581625
9829326770,24006,2,0,11145.8779791450,42007.0386174124,40343.6657909289,57251.5322651845,64839.3688424552,54401.5291414372,55302.1942279682,55156.6564062690,57787.8843411397,12200.2575796402
9829326770,24006,2,0,10959.7000500571,41980.5738768225,40304.1086085576,57215.7714042218,64807.2339551458,54423.0903002075,55284.0765273989,55124.4485127787,57787.7139933842,12202.3504234937
9829326770,24006,2,0,10827.1329931712,41969.9271421024,40291.6853901013,57204.7596385971,64800.5903926805,54414.0740368617,55282.0931928167,55123.5237678201,57798.6162497376,12198.7731206278
9829326770,24006,2,0,10952.9226429268,41997.1341121985,40351.1002536878,57240.2284748359,64835.1101485672,54403.1231097210,55301.6466816112,55163.1174532820,57813.9353800377,12194.6482714048
9829326770,24006,2,0,11125.1563914555,42020.0215499225,40379.1224594710,57262.1059937236,64857.2553567849,54391.9166609471,55311.2591621013,55173.7520203052,57800.2953918991,12197.7145310042
9829326770,24006,2,0,11107.3672187004,42009.9345292563,40339.6869540678,57249.0013842453,64839.9650595995,54418.9654509845,55298.6655958896,55145.8271560966,57787.3611301764,12201.4013431415
9829326770,24006,2,0,10968.1079285618,41997.0611060176,40316.5926654979,57244.9008704160,64827.8216981702,54520.5413840624,55301.4763338557,55138.4535318219,57804.4080734253,12205.0394844916
9829349519,24007,2,0,10890.2590042886,42005.1769597985,40342.9843999069,57255.8517975566,64836.4972660050,54506.1591664177,55311.9892239107,55151.7893275398,57838.9399970088,12197.9822203343
9829349519,24007,2,0,10973.5833921321,42027.7723727987,40371.0917795679,57276.8045714857,64860.7718211668,54399.1199374663,55324.8504794525,55169.1526309062,57835.8007312285,12199.8560456450
9829349519,24007,2,0,11136.3141694421,42046.7296444488,40378.1490437252,57292.9997759570,64878.7800124647,54353.1138757787,55334.0370905539,55182.4032527463,57812.5360949030,12208.9696505654
9829349519,24007,2,0,11174.0827003806,42038.3339336410,40360.6518956938,57282.9492583813,64867.2572035734,54340.9461789558,55329.0483348564,55169.4933264172,57782.9077531392,12213.8488969914
9829349519,24007,2,0,11006.3631673731,42003.8750162384,40303.0986897213,57253.9049660649,64827.8825366543,54384.4578627946,55310.8941311966,55129.2060822364,57759.9838123247,12211.2206744777
9829349519,24007,2,0,10853.8167523039,41987.8258241290,40285.2973492693,57235.6534208305,64814.8752687506,54431.3034955630,55308.0225547464,55125.2029099817,57779.0870963368,12201.5838585939
9829349519,24007,2,0,10937.6765188076,42008.9976166009,40330.3056598173,57252.5421840208,64842.4594374482,54435.1363200622,55318.1095754126,55162.5090684408,57816.0160561944,12189.5865095265
9829349519,24007,2,0,11102.0012644014,42025.9350505784,40370.5564009076,57260.5971993175,64859.8470762082,54407.5278159709,55317.4890228747,55171.3428163343,57817.9263845956,12185.7171819368
9829410884,24008,2,0,11142.5196948218,42028.1495714002,40362.8299134251,57267.7639727463,64856.9024935771,54427.9573789367,55320.6161209581,55154.8677548360,57801.6946770338,12192.7379430036
9829410884,24008,2,0,11032.6697279043,42017.6001782547,40353.1687621477,57278.6783967964,64847.1440007251,54461.7957438013,55333.5747180746,55147.1899381408,57806.9024512740,12195.6581902411
9829410884,24008,2,0,10900.1148387152,42010.0318708308,40343.3129277211,57270.1245059299,64843.0191515021,54494.0279726852,55341.0335162270,55148.7474033341,57823.8520529484,12196.4004197473
9829410884,24008,2,0,10910.2018593814,42013.5118321222,40324.5625069169,57249.2812412722,64846.0367403142,54407.4304743964,55323.6580451639,55153.6144820633,57817.6951983559,12197.4346739773
9829410884,24008,2,0,11079.4058514012,42032.4569360755,40342.9843999069,57252.4570101430,64866.0160984974,54371.7669550083,55313.7657076468,55172.4379090484,57815.3711682628,12201.5351878066
9829410884,24008,2,0,11169.3129632260,42037.1049962619,40383.1499671194,57252.1771531161,64866.9286757592,54390.8215682330,55304.6764381201,55165.6483342212,57804.7366012395,12204.7961305552
9829410884,24008,2,0,11031.2947781633,42012.1247146844,40343.2642569338,57241.3113998532,64836.2782474622,54405.7148291443,55301.6223462175,55129.7779639871,57782.5548899313,12213.0458290011
9829410884,24008,2,0,10870.8880309465,41987.1322654101,40272.8862985099,57241.2383936722,64813.9018530048,54396.0780132605,55304.7372766042,55115.1158893155,57781.0339278284,12207.6798747022
9829419776,24009,2,0,10907.9995062565,41995.1994484037,40288.3271057782,57249.7314460547,64829.2331510017,54394.7273989132,55306.4285864626,55138.1980101886,57797.7888463536,12198.7122821437
9829419776,24009,2,0,11059.0736300101,42016.1765577264,40327.7382757877,57250.3519985926,64848.8839813707,54394.7152312164,55299.2739807307,55151.6068120875,57792.7879229594,12194.6604391016
9829419776,24009,2,0,11132.1041463414,42023.3554988520,40344.6270389780,57251.0577250084,64849.5775400897,54423.1146356011,55289.1139538835,55142.4323686830,57781.7274865473,12191.3629932626
9829419776,24009,2,0,11046.0420267127,42007.1116235933,40342.4246858530,57235.3492284099,64830.7054423173,54426.2052305941,55280.7304107725,55123.4507616392,57780.8149092856,12191.6306825927
9829419776,24009,2,0,10887.4239309289,41987.9961718845,40310.2897985436,57225.7124125262,64814.0356976698,54409.4989828562,55288.5177367392,55112.7918592223,57777.9920036227,12202.6546159143
9829419776,24009,2,0,10876.5946807564,42006.5154064490,40303.8530869243,57263.8581420661,64840.3665935947,54449.4455315260,55323.8892314035,55142.3593625020,57799.3341438501,12214.7614742531
9829419776,24009,2,0,11054.3647313396,42042.1059196561,40355.7726492678,57294.6545827250,64881.6272535213,54463.9615938357,55344.7689991517,55186.7471205121,57838.3559475613,12212.4252764631
