steady_timestamp,sequence,battery,flags,EEG-ch1,EEG-ch2,EEG-ch3,EEG-ch4,EEG-ch5,EEG-ch6,EEG-ch7,EEG-ch8,EEG-ch9,EEG-ch10
3029740075,7822,-2,0,53767.1419321795,49138.1241913436,69119.2466906536,71186.7452317175,65136.8811974730,75100.0103746407,74915.8887863159,78642.9151616672,78852.8079318629,64001.5377423179
3029740075,7822,-2,0,53771.1086013438,49172.0477300859,69116.2777726288,71188.5217154536,65136.3579865096,75096.0802085669,74910.9730367994,78636.9529902239,78842.1490294460,64008.5706710815
3029740075,7822,-2,0,53752.9422299871,49138.3797129768,69114.0510841103,71178.0574961859,65132.6346712818,75114.3074184076,74908.8193544618,78642.1607644641,78844.1323640282,64002.1582948559
3029740075,7822,-2,0,53745.3617548664,49084.8783500464,69121.3882052945,71181.5374574773,65138.8280289646,75111.9833883145,74917.3610776315,78652.5276421573,78853.4406520977,63999.3962276770
3029740075,7822,-2,0,53756.3491850975,49112.5963634090,69118.7599827807,71184.4333693211,65141.3345745102,75094.7660973100,74915.0613829320,78649.3640409833,78856.3974024257,64004.1659648316
3029740075,7822,-2,0,53770.9260858914,49172.5587733525,69116.6428035335,71188.5095477568,65146.1651501489,75109.2821596198,74922.0578086052,78647.9769235455,78859.6705128711,64008.0839632086
3029740075,7822,-2,0,53773.7368238575,49171.7435376653,69126.8636688648,71193.9850113271,65153.4657682426,75130.5147905758,74937.4256096925,78659.0495276544,78867.8715405297,64014.7275256740
3029740075,7822,-2,0,53771.0720982533,49148.4180628558,69133.1543681223,71198.9372639341,65157.5419466783,75127.2416801304,74936.4400262499,78666.6421704719,78873.3226687064,64024.7902109465
3029770116,7823,-2,0,53765.2316037783,49134.3035345411,69129.8690899801,71196.6132338409,65153.6117806045,75116.3880945644,74928.9933957942,78663.2838861488,78871.9355512686,64022.1741561296
3029770116,7823,-2,0,53756.1910050388,49110.2358302254,69121.0475097834,71183.5451274530,65143.6342692097,75110.3772523338,74914.3799919099,78652.9535115461,78859.7556867488,64009.6049253115
3029770116,7823,-2,0,53767.0445906049,49132.7217339542,69117.8960763063,71187.4387904364,65142.3079902560,75102.5169201862,74913.4917500418,78647.8552465773,78849.8998523222,64005.1637159711
3029770116,7823,-2,0,53776.7665803664,49178.2045846783,69111.4958677774,71191.7948258990,65140.8356989404,75104.4759193747,74915.7671093477,78643.9250805035,78845.8115061897,63996.1474526253
3029770116,7823,-2,0,53767.1297644827,49153.3338123722,69116.1317602670,71195.3234579777,65143.9506293271,75119.5030249510,74933.2034188950,78653.0386854239,78859.7678544456,63995.0158568208
3029770116,7823,-2,0,53759.5857924524,49101.5359269970,69129.1876989580,71206.3717266929,65151.6892845065,75118.8703047162,74950.4085422026,78664.3181403787,78864.4159146320,64009.6779314924
3029770116,7823,-2,0,53768.8819128252,49125.6401344032,69130.7451641513,71210.2167188889,65154.9258918614,75108.4182531453,74945.3954511116,78661.2153776889,78860.8264440692,64023.6221120515
3029770116,7823,-2,0,53776.0608539507,49176.2334177930,69125.7199053635,71213.0396245519,65156.7632140816,75106.8972910425,74958.3297128343,78660.3028004272,78859.9747052916,64024.1818261054
3029821311,7824,-2,0,53778.8837596136,49183.4610297058,69131.3170459020,71221.5205092375,65160.7907217300,75123.6400418708,74973.2959799266,78668.6011696604,78880.0270696558,64020.7383679045
3029821311,7824,-2,0,53772.1306878769,49169.3465013912,69124.7586573144,71202.3807221350,65151.5311044478,75101.8476968609,74944.1178429452,78657.7354163975,78868.0175528916,64015.9321276594
3029821311,7824,-2,0,53760.3280219586,49146.7754237847,69113.8077301738,71183.4234504848,65136.9542036539,75094.1820478625,74913.1997253180,78644.7768192811,78843.9011777885,64005.2488898489
3029821311,7824,-2,0,53753.0152361681,49121.2840989406,69111.0091599045,71174.1394978089,65133.9731179323,75098.3920709632,74903.4899032533,78643.7547327480,78839.8980055338,63993.6044039893
3029821311,7824,-2,0,53766.5943858225,49159.5150023583,69115.6693877877,71185.5893005193,65141.7117731117,75096.8346057699,74909.8536086917,78646.4194583522,78842.6844081062,64003.5940830810
3029821311,7824,-2,0,53774.0653516718,49220.9497036173,69115.5477108195,71190.8822486373,65144.5955172587,75102.2127277656,74915.0857183256,78647.9525881519,78847.0891143561,64014.7883641581
3029821311,7824,-2,0,53759.0625814891,49201.8342519085,69123.8825831432,71190.5293854294,65148.2458263056,75129.5535425268,74926.5598564296,78658.6114905688,78854.4140678436,64015.7496122071
3029821311,7824,-2,0,53745.0697301427,49145.9236850071,69135.0768642203,71196.5767307504,65157.1039095927,75135.5522170605,74939.9808260253,78669.7084300713,78868.7232793073,64022.3323361883
3029838813,7825,-2,0,53750.4478521384,49155.2806438639,69133.6897467825,71200.8840954257,65158.3815177591,75115.7432066327,74940.0294968126,78664.0139479582,78868.6989439137,64024.5833601005
3029838813,7825,-2,0,53756.7750544863,49188.8269840048,69129.5162267722,71196.6862400218,65157.7853006148,75129.9307411283,74940.2120122650,78660.9720237524,78868.7841177914,64023.0380626040
3029838813,7825,-2,0,53767.2636091477,49203.6959095224,69138.9583595068,71201.7845049906,65167.8966566746,75134.8586583416,74947.3666179969,78673.1275528785,78875.1113201394,64024.6563662815
3029838813,7825,-2,0,53765.0369206291,49200.5566437421,69132.7650018239,71199.2292886578,65163.8083105421,75107.2866573408,74936.0019891642,78668.1631325748,78868.6137700359,64022.5026839438
3029838813,7825,-2,0,53745.7024503775,49162.6177650481,69122.1060994070,71183.0097487928,65153.2954204871,75124.5404514357,74918.7238596757,78662.9675260314,78863.0531325878,64011.6369306809
3029838813,7825,-2,0,53736.9295409681,49118.9357334538,69128.4211340581,71183.9831645387,65155.9844814850,75150.9808566320,74922.7148642336,78669.1243806238,78878.1532443451,64009.3737390719
3029838813,7825,-2,0,53756.5560359435,49154.7574329005,69136.3423046899,71198.9129285404,65167.3247749240,75125.4043579102,74931.6824567921,78673.5534222673,78877.8855550150,64023.8167952007
3029838813,7825,-2,0,53772.7512404149,49226.2913225226,69136.4396462645,71203.0499454602,65169.1377617506,75114.6116108282,74935.7221321373,78672.8233604580,78871.0594770973,64029.5599481011
3029867457,7826,-2,0,53758.0526626528,49208.5508205547,69139.3963965924,71198.1585313374,65167.9818305524,75143.6802385382,74944.4585384562,78680.2091524295,78872.2640790828,64023.2327457532
3029867457,7826,-2,0,53758.2960165892,49160.3910765295,69155.1657316750,71220.9486274868,65182.2302035321,75150.9443535415,74966.8957713977,78693.6057866316,78888.3497742827,64035.3639394857
3029867457,7826,-2,0,53756.8967314546,49155.3293146512,69153.4987572102,71216.5074181464,65180.0278504071,75129.6630517982,74956.9182600029,78687.4732674328,78889.6030470555,64037.6027957011
3029867457,7826,-2,0,53747.2842509645,49167.3996698996,69139.6519182257,71192.9020863099,65168.1400106111,75120.0140682176,74931.2444197065,78674.0157947466,78884.8211422041,64020.5680201490
3029867457,7826,-2,0,53745.8971335266,49178.9468141845,69131.5482321416,71180.6735510028,65163.6866335739,75121.3038440808,74916.6188481253,78667.4452384622,78870.5362661339,64012.4886694585
3029867457,7826,-2,0,53747.6127787787,49201.1528608864,69128.8348357501,71181.5374574773,65159.3792688986,75109.2456565293,74910.7540182566,78659.6700801924,78856.7137625431,64020.0448091856
3029867457,7826,-2,0,53730.4198231679,49173.1184874063,69125.1236882191,71174.9912365865,65150.7645395479,75122.4476075822,74911.5570862470,78655.0098523092,78849.5956599017,64019.0713934397
3029867457,7826,-2,0,53718.8970142765,49119.3616028426,69131.2075366306,71180.2355139172,65154.2810039298,75142.2079472226,74922.1308147861,78665.4740715769,78859.4758297219,64017.8667914543
3029894179,7827,-2,0,53738.5965154329,49146.9944423275,69138.9218564163,71195.6154827014,65166.6190485082,75126.7549722575,74928.4701848308,78670.2924795188,78869.8305397182,64028.4770230839
3029894179,7827,-2,0,53755.7286325596,49208.1006157723,69136.7925094723,71196.7714138996,65168.6267184840,75119.2718387114,74925.7446207425,78666.5934996846,78867.6403542901,64031.2877610500
3029894179,7827,-2,0,53748.8660515514,49191.7593989391,69138.7028378735,71190.3468699771,65167.0814209875,75130.1740950648,74931.4025997652,78670.7548519981,78869.2829933612,64028.8663893822
3029894179,7827,-2,0,53727.8524391382,49133.2814480080,69135.3080504599,71186.9155794730,65159.0872441748,75112.4214254001,74938.3868577415,78670.4019887902,78866.8129509061,64021.1520695965
3029894179,7827,-2,0,53710.5986450433,49106.8532105086,69119.1615167759,71177.3030989829,65145.5689330045,75095.8611900241,74924.8077080871,78656.3604666565,78851.9318576917,64012.1601416443
3029894179,7827,-2,0,53712.3142902953,49095.4520785855,69112.3962773423,71171.6694553539,65143.3544121828,75108.3695823580,74916.1443079492,78652.2112820399,78849.9363554127,64006.7333488613
3029894179,7827,-2,0,53729.7627675394,49101.9861317794,69117.4458715238,71178.8848995699,65149.3287513228,75120.0262359144,74915.9739601937,78657.5407332483,78855.2171358339,64016.3458293514
3029894179,7827,-2,0,53743.3297494970,49125.7983144619,69121.9844224388,71187.7308151601,65154.9015564677,75126.8036430448,74921.6806100036,78662.2374642220,78864.7931132335,64028.6230354458
3029941077,7828,-2,0,53734.4229954226,49087.7864295870,69127.6789045519,71188.8502432679,65156.7997171721,75125.6112087561,74930.7212087431,78666.2528041736,78865.2676534096,64026.4450177144
3029941077,7828,-2,0,53722.1944601155,49015.8023351825,69134.5901563474,71192.8412478258,65162.7375532217,75117.9333920609,74942.1710114535,78674.0522978371,78869.7575335373,64022.0889822518
3029941077,7828,-2,0,53724.5793286928,49017.7369989774,69123.9312539305,71191.3567888134,65155.9844814850,75082.4402204284,74930.8550534081,78663.7097555376,78856.7502656336,64015.4575874833
3029941077,7828,-2,0,53730.1156307473,49058.5109510310,69103.9762311409,71178.5077009683,65140.5923450040,75078.6195636260,74911.2407261296,78646.5411353204,78841.1147752161,64000.4669849975
3029941077,7828,-2,0,53726.2463031576,49047.2558314698,69104.5359451947,71173.2877590313,65140.2516494929,75103.1618081178,74911.0095398899,78652.4059651891,78842.9764328300,63999.1285383469
3029941077,7828,-2,0,53718.3494679195,49010.0226791916,69113.8320655674,71178.1305023668,65146.9073796551,75107.0676387980,74917.6287669616,78657.7597517912,78851.6763360584,64017.6964436988
3029941077,7828,-2,0,53714.3462956647,48992.1118294683,69118.2854426046,71183.4234504848,65151.8839676556,75107.8707067883,74923.6396091921,78662.3834765839,78857.1883027192,64030.2048360327
3029941077,7828,-2,0,53717.2422075086,48976.0748050556,69125.7320730603,71189.7628205296,65159.0507410844,75130.5756290599,74936.5373678245,78671.1928890837,78868.3704160995,64037.0795847377
3029961101,7829,-2,0,53737.8421182298,48999.3029382906,69134.9065164648,71201.2247909368,65170.3301960392,75116.6679515913,74945.6144696544,78678.9315442631,78878.8468030640,64042.9079115159
3029961101,7829,-2,0,53743.1715694383,49042.5956035866,69127.4963890996,71192.3423722560,65164.1611737500,75094.3280602244,74930.5265255939,78666.3501457482,78865.6813551016,64032.9425678179
3029961101,7829,-2,0,53718.4711448877,49016.3863846300,69122.6293103704,71172.6428710997,65152.6627002523,75102.9062864845,74915.2438983843,78656.9323484072,78852.6375841074,64023.0502303008
3029961101,7829,-2,0,53692.0794104788,48951.4473866860,69124.1137693828,71164.9893897981,65148.3310001833,75105.4006643332,74913.0172098657,78659.9499372193,78851.6033298775,64022.6608640025
3029961101,7829,-2,0,53700.6576367389,48971.9012850453,69125.6347314857,71174.5166964104,65155.8871399104,75093.3303090849,74914.3678242131,78660.8260113905,78851.8588515107,64027.5522781253
3029961101,7829,-2,0,53719.9069331128,49025.4513187631,69120.7554850597,71180.4545324600,65157.7853006148,75087.7088331527,74918.1033071377,78658.2342919673,78849.1576228160,64021.7726221344
3029961101,7829,-2,0,53726.9033587860,49021.2169602687,69116.7401451081,71185.1390957369,65160.7420509427,75093.9873647133,74929.4922713640,78660.9963591461,78848.2572132511,64019.4364243444
3029961101,7829,-2,0,53721.2940505506,48997.3561067989,69118.8573243553,71192.8899186131,65164.6722170166,75094.3037248307,74938.1921745924,78666.5691642910,78855.5091605576,64029.2314202869
3029988912,7830,-2,0,53716.4634749119,48985.8819686949,69128.9200096279,71207.1017885023,65175.4041256144,75105.5223413015,74961.9678541844,78681.3407482340,78878.4696044625,64038.6005468406
3029988912,7830,-2,0,53707.6297270185,48955.6330743931,69125.9267562094,71201.2491263304,65174.3942067781,75097.6863445475,74960.3008797197,78681.3164128404,78876.7782946041,64026.1529929907
3029988912,7830,-2,0,53712.6671535032,48971.7917757739,69117.9690824872,71191.6974843244,65169.2472710220,75080.9314260223,74937.6689636290,78670.7305166044,78860.6439286169,64014.2408178010
3029988912,7830,-2,0,53724.9930303848,49030.1967205241,69113.2480161199,71185.2972757956,65163.7718074517,75079.2036130734,74919.6729400279,78660.3149681240,78848.8655980923,64016.0781400213
3029988912,7830,-2,0,53713.8960908823,49011.5071382040,69113.6373824183,71176.2080062688,65159.6712936223,75095.7273453590,74918.2614871964,78661.4465639285,78851.7006714520,64015.6157675420
3029988912,7830,-2,0,53699.5260409344,48946.7749911060,69121.3151991135,71179.2986012618,65161.4477773585,75096.6764257112,74928.0443154420,78670.7791873917,78861.3983258199,64024.9483910052
3029988912,7830,-2,0,53703.4075362209,48953.5523982363,69116.1074248733,71186.2950269350,65162.3360192266,75077.5001355182,74929.9668115401,78668.9053620810,78858.8674448807,64031.4581088055
3029988912,7830,-2,0,53716.0984440072,49007.8689968540,69109.7437194349,71188.4608769695,65163.0782487328,75086.3217157149,74937.1700880593,78667.7129277923,78854.8277695355,64023.0137272104
3030020412,7831,-2,0,53727.9862838033,49040.9772999092,69115.6937231813,71192.0016767450,65169.5514634426,75095.5569976035,74942.2196822408,78671.8499447121,78857.1883027192,64016.4310032292
3030020412,7831,-2,0,53726.5139924877,49055.5907037935,69117.8474055190,71192.9020863099,65171.3644502692,75104.9504595508,74941.8181482456,78674.4051610449,78863.3694927052,64023.7559567166
3030020412,7831,-2,0,53708.8221613071,49029.7343480448,69112.8951529121,71183.0097487928,65163.3824411533,75087.5993238813,74930.3318424447,78669.0392067460,78863.1991449497,64021.8456283154
3030020412,7831,-2,0,53697.1168369635,48968.4821622381,69114.8054813133,71177.5951237066,65162.0074914123,75096.0315377796,74930.5143578971,78672.7625219739,78863.7223559131,64020.3855046966
3030020412,7831,-2,0,53719.4323929367,48968.9810378078,69122.8848320037,71192.8655832194,65173.1774370958,75090.6655834807,74939.3116027001,78677.8729546395,78865.0851379573,64030.3751837883
3030020412,7831,-2,0,53742.1008121179,49007.3944566779,69119.2345229568,71200.1418659195,65175.9760073651,75083.6934932011,74940.9785771648,78674.5146703163,78855.4483220735,64031.7988043165
3030020412,7831,-2,0,53734.3864923321,48972.5583406738,69117.1903498906,71192.4032107401,65170.9750839708,75102.3952432180,74945.6023019576,78676.9603773778,78858.0278738000,64022.4540131565
3030020412,7831,-2,0,53712.6306504127,48894.1131992563,69118.3949518760,71188.4487092727,65169.3811156870,75091.7850115884,74950.1773559630,78680.1118108549,78860.5465870423,64015.4210843929
3030059909,7832,-2,0,53706.7779882409,48877.1149267946,69111.6905509266,71183.1679288515,65163.2242610946,75076.9039183739,74934.1524992472,78671.8621124090,78855.8011852814,64011.7342722555
3030059909,7832,-2,0,53719.6027406923,48904.4800769494,69111.3255200219,71186.2828592382,65167.3977811049,75092.2595517645,74931.5851152175,78671.4240753233,78854.8642726260,64011.3205705635
3030059909,7832,-2,0,53736.1629760683,48925.0434845802,69113.9294071420,71195.8831720315,65174.3698713844,75090.4465649379,74939.6157951207,78677.7269422776,78858.6970971252,64013.3525759330
3030059909,7832,-2,0,53736.9782117554,48940.0219193692,69113.2966869072,71201.1882878463,65176.2315289984,75078.8142467751,74943.6554704659,78676.9603773778,78860.0963822599,64019.1322319239
3030059909,7832,-2,0,53719.3958898463,48897.9946945428,69105.6310379088,71189.9088328915,65165.7916451243,75073.2292739334,74935.1380826898,78669.9396163109,78850.4230632856,64016.1754815959
3030059909,7832,-2,0,53705.2570261380,48815.4977100832,69102.8811384268,71182.9124072183,65158.7100455733,75077.5123032151,74933.5927851933,78670.7183489076,78845.9818539453,64005.1150451838
3030059909,7832,-2,0,53718.7144988242,48816.8483244306,69098.3547552087,71190.7727393659,65160.0971630111,75066.9264069791,74932.6680402348,78669.4529084380,78847.3446359894,64000.3209726356
3030059909,7832,-2,0,53738.3896645869,48887.9806800575,69093.3903349049,71192.6343969798,65158.9168964193,75063.9574889543,74926.6206949138,78661.6169116840,78842.2828741111,63998.5323212026
3030102794,7833,-2,0,53731.3080650359,48892.9694357549,69096.7121161376,71183.9831645387,65155.5342767025,75077.8164956356,74928.7013710705,78664.4763204374,78845.5803199501,64000.0654510023
3030102794,7833,-2,0,53713.4093830094,48842.7776863603,69098.0383950913,71183.2531027293,65151.4215951764,75069.9926665785,74932.6923756284,78664.6223327993,78850.2770509237,64003.7400954428
3030102794,7833,-2,0,53708.3111180406,48823.0295144167,69094.6922784650,71188.4852123632,65150.1074839195,75061.7673035262,74930.1736623860,78663.5272400852,78849.4739829334,64007.5850876389
3030102794,7833,-2,0,53716.3539656405,48818.1746033843,69095.3371663966,71193.6321481193,65152.2611662572,75078.9845945306,74939.9321552381,78668.6985112350,78852.5889133201,64001.8906055258
3030102794,7833,-2,0,53733.3522381022,48830.2936294199,69106.8599752879,71208.0873719449,65165.2440987672,75085.1292814262,74960.1913704483,78679.3939167424,78863.0044618005,64011.4057444413
3030102794,7833,-2,0,53736.3941623079,48855.1035632419,69102.6742875808,71206.3230559056,65162.0804975933,75057.9831498142,74952.9150877481,78671.2293921742,78860.5465870423,64009.5562545242
3030102794,7833,-2,0,53710.6351481338,48819.3548699761,69088.7544424153,71181.4036128122,65144.0723062953,75067.3279409743,74930.3318424447,78656.3848020502,78849.1576228160,63995.5634031778
3030102794,7833,-2,0,53688.5386107033,48746.7380553368,69091.2366525672,71176.9867388655,65142.7946981289,75087.8183424241,74927.0343966057,78660.5704897573,78854.7912664451,63993.9207641067
3030126852,7834,-2,0,53698.4431159172,48754.3550335480,69093.3173287240,71187.4752935269,65148.7690372690,75059.2972610711,74928.4945202245,78661.2275453857,78856.5799178780,63997.1087006743
3030126852,7834,-2,0,53719.8095915383,48819.3792053698,69088.9491255645,71192.9629247940,65148.3918386675,75055.5009396624,74931.8771399413,78656.6159882898,78853.8908568802,63993.0081868450
3030126852,7834,-2,0,53721.2088766729,48825.0736874829,69087.5620081267,71187.8768275220,65146.3963363885,75068.8975738644,74932.2908416333,78659.3902231654,78849.8146784445,63988.9806791966
3030126852,7834,-2,0,53716.9866858753,48794.0825636749,69093.8283719905,71190.5050500358,65150.0831485259,75071.1485977767,74932.7167110220,78664.9386929167,78852.4550686551,64000.9901959609
3030126852,7834,-2,0,53706.0357587347,48774.4560686995,69090.3240753055,71188.4487092727,65146.0313054838,75059.1755841029,74925.9393038917,78658.9643537766,78849.8025107477,63999.2380476184
3030126852,7834,-2,0,53703.2980269495,48762.4587196320,69090.2267337309,71187.1589334095,65145.7027776696,75076.9282537676,74929.7599606941,78657.7597517912,78852.8809380439,63993.1907022973
3030126852,7834,-2,0,53722.6690002916,48788.2542368967,69101.7252072286,71202.9282684920,65159.7929705906,75086.8327589814,74945.2494387497,78666.3136426577,78866.5330938792,63995.0645276081
3030126852,7834,-2,0,53748.1481574389,48855.8944635354,69109.0014899287,71220.5592611884,65174.3333682940,75082.0995249173,74960.6780783212,78677.9702962141,78871.7895389067,64008.5463356879
3030167437,7835,-2,0,53732.8411948356,48846.8660324928,69101.2993378398,71207.7466764339,65164.6235462293,75073.9958388332,74955.2147824477,78674.6971857687,78863.8683682750,63998.9946936819
3030167437,7835,-2,0,53703.3466977368,48777.8265207194,69098.1235689690,71193.2062787305,65154.4756870789,75081.6371524380,74945.1642648719,78671.9716216803,78862.1648907198,64000.2479664547
3030167437,7835,-2,0,53706.3156157616,48790.1645652979,69102.1389089206,71195.8831720315,65157.0674065022,75074.9449191854,74937.6081251449,78671.6674292598,78866.6669385443,64015.9442953562
3030167437,7835,-2,0,53719.6270760859,48854.5925199754,69101.6765364413,71192.3058691656,65161.8979821409,75076.8552475866,74927.0952350899,78668.7228466286,78865.4136657715,64017.5504313369
3030167437,7835,-2,0,53725.5770798323,48867.2469246712,69106.9938199529,71191.8678320799,65168.0426690365,75090.2397140919,74931.5607798239,78670.6696781203,78867.0928079330,64010.9920427493
3030167437,7835,-2,0,53718.3616356163,48836.7425087361,69106.0325719039,71195.6154827014,65168.9795816919,75070.3820328768,74936.9023987291,78669.5745854062,78866.2775722459,64004.8351881569
3030167437,7835,-2,0,53700.4872889834,48791.7463658849,69091.2244848704,71190.8944163341,65155.2544196756,75052.5198539407,74928.7257064641,78658.8548445052,78854.0490369389,63993.0933607228
3030167437,7835,-2,0,53685.2411648643,48734.1323214282,69081.1496319010,71181.5861282645,65144.1939832635,75060.4775276629,74925.3917575346,78651.6028971988,78845.6654938279,63985.5980594798
3030176154,7836,-2,0,53692.9433169532,48734.8502155408,69082.4394077643,71187.2684426809,65145.6297714887,75059.1025779219,74925.4647637156,78650.1549412768,78848.3910579162,64000.4061465133
3030176154,7836,-2,0,53712.0222655716,48800.1907474800,69083.1573018768,71193.8876697525,65147.3089136502,75061.3536018342,74923.0920628351,78647.5753895504,78851.5059883029,64015.9077922658
3030176154,7836,-2,0,53708.6274781580,48809.4016939750,69088.9856286550,71192.5492231020,65147.8321246136,75079.0332653179,74927.3994275104,78654.0729396538,78858.1252153745,64021.2859142615
3030176154,7836,-2,0,53686.2632513974,48743.3676033168,69092.3560806749,71188.7407339964,65147.1507335915,75074.8110745204,74932.7288787189,78659.8039248574,78860.8507794629,64012.0749677666
3030176154,7836,-2,0,53683.1118179203,48731.3824219462,69089.9712120976,71199.8376734990,65148.2458263056,75053.7974621071,74940.5527077760,78658.7818383243,78857.9305322254,64006.6481749835
3030176154,7836,-2,0,53688.5142753096,48756.5208835824,69079.1906327125,71192.2085275910,65142.8677043098,75052.2399969138,74930.2831716575,78650.2522828514,78849.2306289970,63993.1298638132
3030176154,7836,-2,0,53695.4376948019,48761.1202729815,69082.6827617007,71187.0494241381,65143.3179090923,75065.5879603286,74926.6328626106,78651.2622016877,78850.9827773395,63992.3267958229
3030176154,7836,-2,0,53696.9099861175,48756.8980821840,69082.4029046738,71185.5041266415,65139.3999107153,75045.0853911819,74919.4539214850,78646.9670047092,78846.4685618182,64002.6936735161
3030206772,7837,-2,0,53681.4935142428,48731.5892727922,69074.4817340420,71176.1471677847,65128.1447911541,75041.5080883160,74907.3713985399,78635.9065682972,78834.9214175332,64004.0929586507
3030206772,7837,-2,0,53663.7773476686,48676.1167429764,69072.0846977679,71166.4738488105,65120.2722913096,75051.9358044932,74903.8305987644,78633.1931719056,78831.9159964179,63995.6607447524
3030206772,7837,-2,0,53670.5060840117,48677.9905682872,69073.9706907755,71172.2413371045,65125.3340531880,75047.9204645417,74905.1690454149,78636.0282452654,78836.2720318805,64000.8076805085
3030206772,7837,-2,0,53692.7486338040,48741.7249642458,69072.7782564868,71184.6280524703,65130.1646288267,75041.5810944969,74909.5615839680,78635.4563635147,78835.7974917044,64012.1966447348
3030206772,7837,-2,0,53685.1438232897,48737.1985810276,69070.6854126333,71174.2368393835,65125.2732147039,75050.8163763855,74909.6467578458,78631.8060544678,78832.4027042908,64011.9776261920
3030206772,7837,-2,0,53660.1513740154,48671.3835089123,69072.3645547949,71166.5955257787,65118.6904907227,75049.4900974318,74909.6832609362,78633.5095320230,78838.4378819150,64012.4156632776
3030206772,7837,-2,0,53653.1549483422,48658.9967935466,69068.1910347846,71166.3886749327,65114.2127782918,75035.1930536649,74903.1370400455,78629.0561549858,78833.0354245256,64010.8460303874
3030206772,7837,-2,0,53671.5890090289,48696.9356722405,69069.2374567114,71176.4756955989,65119.7369126494,75053.8096298040,74914.1001348829,78633.8867306246,78833.3517846430,64010.1038008812
3030242764,7838,-2,0,53694.4156082688,48732.1246514524,69080.6872594217,71193.1332725495,65136.3458188127,75065.1620909398,74933.2520896823,78648.5123022057,78844.2662086932,64012.9875450283
3030242764,7838,-2,0,53706.4737958203,48763.6511539207,69082.7922709721,71202.6605791619,65142.3201579528,75052.3495061852,74936.2453431007,78653.8539211110,78847.2229590212,64019.6067721000
3030242764,7838,-2,0,53685.9468912800,48742.1995044218,69072.4618963694,71186.4653746906,65129.3615608364,75041.7271068588,74923.1650690160,78641.6375535008,78836.7222366630,64016.8325372243
3030242764,7838,-2,0,53658.3262194919,48669.9355529904,69066.2442032929,71169.7104561654,65116.5854791723,75046.7280302530,74911.8369432739,78635.6023758766,78830.8574067943,64008.0961309055
3030242764,7838,-2,0,53663.9720308178,48663.6205183393,69063.2144467840,71171.7911323221,65117.8144165514,75035.0227059093,74909.1843853665,78634.0449106833,78827.7181410140,64009.4467452528
3030242764,7838,-2,0,53684.4259291771,48729.7397828751,69060.2698641528,71176.3783540243,65121.9757688649,75036.8356927360,74906.7143429114,78632.9376502724,78826.7690606618,64010.1038008812
3030242764,7838,-2,0,53690.5584483759,48745.0102423879,69067.1202774642,71182.5230409199,65129.7630948315,75054.7952132466,74921.2060698275,78643.2071863909,78833.5099647017,64004.4093187681
3030242764,7838,-2,0,53671.5768413321,48697.2398646611,69067.6434884276,71182.0971715311,65129.2885546554,75039.9262877290,74929.5409421513,78646.5411353204,78832.2810273226,64004.6526727046
3030299040,7839,-2,0,53649.4316331144,48676.4817738811,69051.5942963181,71171.7424615348,65114.1641075045,75007.5358787863,74912.8225267165,78627.5473605798,78818.4585237318,63999.4083953739
3030299040,7839,-2,0,53642.1796858079,48688.0045827725,69040.1079905172,71161.4242546289,65106.5836323838,75021.9667672183,74906.8603552733,78621.2079905350,78811.5837750268,63992.2659573388
3030299040,7839,-2,0,53662.5240748958,48716.4648256413,69046.6907144984,71176.1715031783,65117.4372179499,75032.6500050289,74919.6121015437,78630.8448064188,78818.9330639079,63994.5656520383
3030299040,7839,-2,0,53682.0045575094,48751.0210846185,69049.4892847677,71183.0340841865,65124.6648298627,75023.4268908371,74917.0812206046,78632.4996131867,78818.9452316047,64001.5499100147
3030299040,7839,-2,0,53674.8134486870,48725.1525611729,69049.9151541565,71177.8384776431,65122.1582843172,75037.7847730882,74910.4498258361,78632.9863210597,78819.6509580204,64000.4061465133
3030299040,7839,-2,0,53660.5894111010,48640.7695837058,69061.2554475955,71184.3360277465,65127.3903939511,75054.3206730705,74928.7743772514,78647.7822403964,78828.4725382170,64007.3173983088
3030299040,7839,-2,0,53667.2086381727,48624.3431929948,69064.6867380996,71202.2955482572,65135.8591109398,75033.5382468969,74945.2981095370,78651.0310154481,78833.1936045843,64014.1678116201
3030299040,7839,-2,0,53681.0068063699,48686.1794282490,69054.4050342842,71200.1905367068,65133.9852856291,75021.6990778882,74933.9213130075,78641.7957335595,78825.6009617668,64006.7820196486
3030304009,7840,-2,0,53675.2149826822,48706.6698296989,69047.6641302443,71179.4324459269,65126.7698414131,75028.5129881091,74917.4340838124,78634.8479786736,78817.5094433796,63992.0469387960
3030304009,7840,-2,0,53661.0517835803,48684.4272799065,69049.7326387042,71169.7226238622,65123.6305756328,75029.0240313756,74907.4930755081,78635.0669972164,78819.3832686903,63993.2880438719
3030304009,7840,-2,0,53652.7290789534,48677.7715497444,69048.5523721123,71169.9903131923,65122.4746444346,75024.5463189448,74903.3195554978,78631.9885699202,78820.3931875266,64002.2191333400
3030304009,7840,-2,0,53653.2401222199,48678.8666424584,69049.2459308313,71172.4238525569,65128.3759773937,75037.0790466724,74907.2862246621,78637.6222135492,78821.6342926025,64004.8838589442
3030304009,7840,-2,0,53669.5326682659,48705.0758614150,69057.1914368566,71184.6645555608,65144.2426540508,75038.7825242276,74920.3299956563,78646.7966569537,78828.6185505789,64009.2033913163
3030304009,7840,-2,0,53687.5043564733,48760.1711926293,69054.5023758588,71194.2527006572,65150.3873409464,75019.7522463966,74922.5931872654,78647.4172094917,78827.0002469015,64005.7112623282
3030304009,7840,-2,0,53681.6151912110,48757.2387776950,69048.9539061075,71191.0890994833,65145.4594237331,75034.7793519729,74925.1605712950,78651.0310154481,78825.6496325541,63992.5336466689
3030304009,7840,-2,0,53665.4199867397,48689.8540726896,69053.6871401716,71191.7704905054,65145.6662745791,75042.4693363650,74936.1723369198,78659.8647633415,78832.0863441735,63985.6223948735
3030340267,7841,-2,0,53663.2419690084,48681.6652127277,69054.6970590079,71195.7979981538,65143.3300767891,75026.6756658888,74934.6635425137,78656.8228391358,78834.1670203302,63998.1064518138
3030340267,7841,-2,0,53670.7981087354,48740.3986852920,69049.4406139804,71189.6046404709,65140.5923450040,75027.3205538204,74922.4958456908,78647.3077002202,78830.8695744912,64008.9843727735
3030340267,7841,-2,0,53673.4506666428,48759.0152614312,69049.1242538630,71180.9412403329,65136.7108497174,75031.4575707402,74917.6287669616,78646.8088246505,78831.3562823641,64003.9104431984
3030340267,7841,-2,0,53666.2838932141,48733.4022596189,69049.3432724058,71184.6888909544,65134.2164718687,75031.5549123148,74924.8442111776,78644.6308069192,78833.3882877335,63998.1672902979
3030340267,7841,-2,0,53656.0630278829,48704.5769858453,69047.6884656379,71191.0282609992,65130.5296597314,75022.8306736928,74931.3539289779,78643.2071863909,78831.6361393910,63993.1298638132
3030340267,7841,-2,0,53646.6573982387,48666.1879023689,69045.3157647575,71182.1458423184,65127.8405987335,75026.9798583094,74923.1529013192,78639.7880635837,78823.6541302752,63984.4907990689
3030340267,7841,-2,0,53661.2464667294,48680.3754368645,69053.5776309002,71187.2076041968,65140.2029787056,75037.4684129708,74920.6098526832,78647.0156754965,78829.1174261487,63993.2515407815
3030340267,7841,-2,0,53683.6715319741,48748.6483837380,69051.7038055895,71191.6488135371,65145.7149453664,75018.1461104159,74916.3146557047,78645.6528934523,78825.6131294636,63996.5246512268
3030371824,7842,-2,0,53671.4064935766,48746.9327384860,69042.5171944882,71177.9966577018,65136.9298682603,75022.5021458785,74908.3813173762,78640.9683301755,78820.5391998885,63991.6210694072
3030371824,7842,-2,0,53648.8840867573,48667.5506844131,69051.1562592325,71177.2544281956,65135.2385584019,75040.6685172352,74917.6896054457,78648.5488052962,78825.7469741287,63994.6508259161
3030371824,7842,-2,0,53655.5033138290,48644.2617126940,69063.8958378061,71193.2062787305,65143.7437784811,75039.7802753671,74930.8428857113,78654.4988090426,78835.7488209172,64010.4688317859
3030371824,7842,-2,0,53663.9476954241,48671.1036518854,69061.3771245637,71190.0061744660,65143.9749647207,75028.4886527154,74924.8320434808,78649.9359227340,78833.3517846430,64006.9767027977
3030371824,7842,-2,0,53662.6944226514,48674.8634702037,69054.7822328857,71178.9335703572,65136.3458188127,75025.8360948080,74918.4561703456,78643.5965526893,78827.6086317426,63998.1429549043
3030371824,7842,-2,0,53656.5010649685,48663.6205183393,69049.0269122884,71174.9912365865,65129.2155484745,75014.2524474326,74912.3236511468,78636.7461393779,78822.1940066564,63991.2317031089
3030371824,7842,-2,0,53644.4063743265,48646.1720410952,69042.6510391532,71170.4891887620,65120.1749497351,75009.8964119700,74902.9058538058,78630.1269123063,78812.9100539805,63983.1280170248
3030371824,7842,-2,0,53631.6302926624,48598.8883712412,69041.7627972851,71167.2769168008,65118.9095092655,75025.8360948080,74907.2010507843,78630.7961356315,78815.7937981275,63983.7364018659
3030416915,7843,-2,0,53645.6353117056,48599.8252838966,69048.3333535695,71184.1413445974,65129.7509271347,75018.3651289587,74928.3606755594,78637.5492073683,78820.2715105584,64000.6616681466
3030416915,7843,-2,0,53668.7417679724,48668.0982307701,69045.4496094225,71191.7339874149,65135.9807879081,75004.3114391282,74924.5521864539,78635.2130095782,78816.6577046020,64011.5760921968
3030416915,7843,-2,0,53662.4023979276,48674.8391348100,69039.1102393778,71176.2810124497,65130.2376350076,75009.8964119700,74908.2839758016,78629.0439872890,78811.3769241808,64002.4259841860
3030416915,7843,-2,0,53635.3536078902,48604.6558595353,69037.6866188495,71160.0979756752,65120.0046019795,75011.4173740728,74894.9238446900,78625.4180136358,78812.1191536870,63991.4750570453
3030416915,7843,-2,0,53625.5586119477,48582.3768066525,69037.7352896368,71159.0637214453,65117.8995904292,75002.9121539936,74885.1410164444,78622.7654557284,78812.8248801027,63994.3709688892
3030416915,7843,-2,0,53632.7132176796,48613.6964582748,69036.4576814703,71158.6378520565,65119.6517387717,75010.0789274223,74884.4474577254,78621.1958228382,78810.1479868017,63995.7824217206
3030416915,7843,-2,0,53648.1053541607,48640.9642668550,69043.5514487181,71169.7347915590,65129.7387594379,75023.5607355021,74899.8882649938,78630.5406139982,78815.7086242498,63995.6729124492
3030416915,7843,-2,0,53661.5628268468,48662.9877981045,69048.0048257553,71187.1224303190,65138.0857994584,75015.9072542005,74914.8423643891,78637.0016610112,78822.2913482310,64000.7590097212
3030426066,7844,-2,0,53650.1738626206,48642.9962722244,69041.8479711629,71181.7443083233,65129.4467347141,75012.7314853297,74911.9342848485,78631.7573836805,78819.4076040839,64005.5774176631
3030426066,7844,-2,0,53627.9434805250,48572.7521584656,69043.2959270848,71170.9272258477,65124.5796559850,75027.3692246077,74907.4930755081,78631.2706758076,78822.1210004755,64006.5508334089
3030426066,7844,-2,0,53636.4365329074,48561.5457096916,69048.3576889632,71177.3517697702,65133.6445901181,75021.9911026120,74906.4953243686,78636.5149531383,78828.1683457965,64013.8636191995
3030426066,7844,-2,0,53659.3361383282,48633.3837917343,69047.8709810903,71182.2431838930,65138.9740413265,75014.0820996771,74901.0320284951,78634.7628047958,78825.3819432240,64011.2840674731
3030426066,7844,-2,0,53662.9742796783,48656.7214342407,69048.2481796918,71180.5762094283,65139.3390722312,75029.4985715517,74906.5196597623,78637.3788596127,78825.5887940700,64010.3349871209
3030426066,7844,-2,0,53645.4162931628,48604.4125055988,69050.5235389977,71179.9799922839,65136.8811974730,75022.9158475705,74914.2096441544,78640.5059576962,78829.2269354201,64008.1326339959
3030426066,7844,-2,0,53628.0651574933,48569.7102342598,69041.8236357693,71171.8398031094,65125.4922332467,74999.8215590006,74902.6990029599,78631.8668929519,78820.7460507345,64001.0510344450
3030426066,7844,-2,0,53620.2534961329,48563.2370195500,69030.4346715430,71156.6423497775,65113.9329212649,74999.2861803404,74889.0225117309,78618.9813020164,78806.1083114565,63985.8292457195
3030467699,7845,-2,0,53629.5131134152,48576.2199520601,69033.7686204725,71160.1953172498,65115.8432496661,75015.9194218973,74892.1739452080,78623.7753745647,78809.8194589875,63988.3479589618
3030467699,7845,-2,0,53658.2653810078,48620.0844991068,69046.5933729239,71184.2386861720,65131.8924417756,75024.4368096734,74911.3989061883,78636.6001270161,78821.8654788422,64007.8162738785
3030467699,7845,-2,0,53660.0418647440,48620.5590392829,69051.2657685039,71188.5338831504,65134.7883536194,75023.7189155608,74914.0879671861,78638.0724183316,78827.0002469015,64016.5770155910
3030467699,7845,-2,0,53629.5374488088,48540.5807680657,69046.8732299508,71170.1849963415,65125.3097177943,75018.6693213793,74905.6435855910,78633.9840721991,78823.3134347641,64007.9379508468
3030467699,7845,-2,0,53621.1539056978,48512.0961898032,69043.1985855103,71164.5756881061,65122.4381413441,75006.1852644390,74896.5543160643,78626.3305908975,78819.2372563284,64004.9081943378
3030467699,7845,-2,0,53639.3689478418,48573.3605433067,69038.4653514461,71168.4085126053,65125.0176930706,74997.9720690835,74893.3542117998,78620.6361087844,78814.2606683278,64003.8739401079
3030467699,7845,-2,0,53645.1729392263,48596.1871425465,69038.1733267224,71165.6707808201,65126.1857919656,75016.0289311687,74901.6404133363,78623.4346790536,78811.8392966601,63996.6219928014
3030467699,7845,-2,0,53641.6321394508,48564.9161617116,69051.3144392912,71181.3549420249,65137.6964331601,75027.5760754537,74925.4404283219,78637.6222135492,78825.1994277717,64009.8726146416
3030524127,7846,-2,0,53633.0174101002,48535.8840370920,69048.6010428996,71181.3062712376,65133.5715839371,75001.3303534066,74917.3124068442,78632.9619856660,78821.1110816392,64015.6644383293
3030524127,7846,-2,0,53622.3098368960,48506.1218506631,69034.8272100961,71160.7793666973,65119.2867078670,74994.1635799779,74892.4172991445,78620.6969472685,78808.5661862147,64002.3408103082
3030524127,7846,-2,0,53621.4215950279,48501.8996598656,69030.5563485112,71152.4323266768,65114.8333308298,74994.9666479682,74885.1410164444,78615.7446946615,78804.7211940187,63997.6684147282
3030524127,7846,-2,0,53633.0539131907,48551.7020429619,69029.1570633766,71155.0118784033,65117.0235162579,74987.3861728475,74881.8435706053,78613.5423415366,78804.6238524441,63993.6895778671
3030524127,7846,-2,0,53628.9533993613,48563.9914167530,69026.9060394643,71151.5197494151,65113.2271948492,74999.9554036656,74878.5339570695,78610.0623802452,78804.5508462631,63985.3790409370
3030524127,7846,-2,0,53616.0191376386,48501.3156104181,69036.5063522576,71155.2430646429,65116.8410008056,75017.0875207923,74891.9670943620,78621.8285430730,78815.5261087974,63993.7747517449
3030524127,7846,-2,0,53616.3841685432,48487.0307343479,69040.9232262044,71163.6631108444,65124.9203514960,75000.0892483307,74899.3528863335,78627.6568698512,78818.9087285142,64011.9411231015
3030524127,7846,-2,0,53628.1624990679,48546.9566412009,69032.5153476997,71165.7316193043,65124.6161590754,74991.5840282514,74893.1108578634,78622.9601388775,78812.1191536870,64015.6766060261
3030539068,7847,-2,0,53637.1057562327,48579.1523669944,69032.4423415188,71165.5491038519,65125.8450964545,75006.6233015246,74895.8364219517,78625.6491998754,78813.3602587629,64011.7586076492
3030539068,7847,-2,0,53640.0503388639,48569.9900912867,69041.5194433487,71177.0232419559,65134.5328319861,75017.0996884892,74910.9852044963,78635.2738480624,78821.6342926025,64018.9010456842
3030539068,7847,-2,0,53641.6808102381,48566.4006207240,69049.1850923472,71192.3667076497,65141.4075806911,75019.3750477950,74923.7491184635,78640.7736470263,78829.6893078993,64024.8145463402
3030539068,7847,-2,0,53634.3436890539,48542.8074565843,69050.2071788803,71181.3914451154,65140.1786433120,75023.2322076879,74916.0713017683,78638.3036045713,78831.9281641148,64018.6576917478
3030539068,7847,-2,0,53633.1390870684,48536.9791298061,69050.7790606310,71169.6617853781,65138.9375382360,75015.0190123324,74906.9090260606,78637.3301888254,78832.9867537384,64011.4544152286
3030539068,7847,-2,0,53637.9818304040,48587.3655623499,69040.4973568156,71162.7505335826,65132.1357957120,74986.7656203096,74896.1771174628,78625.2598335771,78821.3301001820,64005.6139207536
3030539068,7847,-2,0,53629.3671010533,48592.5124981060,69030.1669822129,71152.3349851022,65118.9338446591,74992.6547855719,74886.9905063614,78617.7523646373,78806.5950193294,64002.0001147972
3030539068,7847,-2,0,53615.4229204942,48523.0349492470,69035.6181103896,71157.8956225503,65117.8995904292,75012.2934482441,74900.1681220207,78627.5716959734,78808.9312171194,64005.7477654186
3030552782,7848,-2,0,53619.0367264506,48497.7018044616,69042.8822253929,71168.6153634513,65126.1249534815,75004.7738116075,74902.3339720552,78632.3292654312,78818.8357223333,64010.6391795414
3030552782,7848,-2,0,53632.3968575622,48540.3739172197,69041.8479711629,71165.7559546979,65128.5219897556,75006.9761647325,74891.5777280637,78631.1733342330,78821.3301001820,64008.3394848419
3030552782,7848,-2,0,53642.8489091331,48568.8463277854,69049.6718002201,71165.8411285757,65138.2439795171,75030.6179996594,74893.0013485920,78641.2725225961,78830.2246865595,64009.6535960988
3030552782,7848,-2,0,53655.2477921957,48573.8594188764,69063.2022790872,71186.4288716001,65151.6649491128,75031.4819061339,74918.7968658566,78654.9490138251,78842.2828741111,64026.8100486191
3030552782,7848,-2,0,53648.4338819749,48554.1112469328,69059.6371439181,71186.8912440794,65146.1773178457,75009.3610333098,74916.2659849174,78650.6416491497,78836.6370627852,64030.6063700279
3030552782,7848,-2,0,53627.7487973759,48495.9496561191,69050.8033960246,71170.6838719112,65131.7464294137,75016.4791359512,74903.2222139232,78645.0201732175,78828.8740722122,64018.5116793859
3030552782,7848,-2,0,53643.5303001552,48485.2664183086,69059.8804978545,71181.0385819075,65139.7041031359,75030.5449934785,74908.9288637332,78650.9336738735,78836.6370627852,64019.3634181635
3030552782,7848,-2,0,53675.2758211663,48546.8106288390,69061.6448138938,71192.8534155226,65147.5887706771,75018.8396691348,74910.9487014058,78649.9845935213,78846.8335927229,64021.8942991027
3030581353,7849,-2,0,53671.3821581829,48562.5799639216,69055.5244623919,71184.5915493798,65145.0943928284,75015.5908940831,74910.2673103837,78647.4902156726,78838.6082296705,64015.2994074246
3030581353,7849,-2,0,53642.9705861014,48498.1641769409,69052.9084075750,71173.4946098773,65137.2948991649,75012.4151252123,74908.5881682222,78646.6993153791,78827.1584269602,64008.5706710815
3030581353,7849,-2,0,53626.3738476349,48472.6363490064,69046.5325344397,71171.7911323221,65133.5959193308,74993.4456858654,74903.3803939819,78640.6884731486,78817.2539217463,64002.9735305430
3030581353,7849,-2,0,53628.2841760361,48510.0520167369,69040.4365183315,71170.0268162828,65131.3935662058,74995.7332128681,74898.5741537369,78635.7240528448,78812.2529983521,63989.2848716172
3030581353,7849,-2,0,53640.6465560082,48542.5275995574,69044.2206720434,71172.1196601363,65139.1930598693,75014.1186027675,74902.0662827251,78641.6862242881,78816.9984001130,63984.9531715482
3030581353,7849,-2,0,53657.9855239809,48568.6151415458,69053.8818233208,71188.4608769695,65152.2489985603,75015.8099126259,74919.5999338469,78651.2865370814,78827.7059733172,64004.9203620347
3030581353,7849,-2,0,53656.1847048511,48560.0612506792,69058.1526849057,71200.5799030052,65156.4955247515,75023.2322076879,74935.0285734184,78658.6358259624,78836.9534229026,64017.1123942512
3030581353,7849,-2,0,53652.2545387773,48499.3201081391,69068.8845935035,71212.3947366202,65168.7483954522,75040.5590079638,74955.5554779587,78675.1717259448,78846.4928972118,64021.9794729804
3030613993,7850,-2,0,53665.6390052825,48472.3929950699,69073.1067843011,71220.5349257948,65176.0611812428,75022.2952950326,74958.4635574994,78679.4912583169,78845.6411584342,64023.9141367753
3030613993,7850,-2,0,53686.1659098228,48534.3509072923,69064.0905209552,71220.6322673694,65172.9827539466,75001.0139932892,74945.2859418401,78667.2870584035,78836.3207026678,64017.3070774004
3030613993,7850,-2,0,53665.2496389842,48561.3510265425,69046.2405097160,71184.3360277465,65152.9182218856,74996.7066286139,74916.2781526142,78646.0179243570,78817.7406296192,63997.5589054568
3030613993,7850,-2,0,53625.5951150382,48521.2706332077,69041.9574804343,71159.9641310102,65140.8965374245,75007.4142018181,74908.3691496793,78641.7713981658,78812.8492154964,63990.8788399010
3030613993,7850,-2,0,53614.1696477215,48507.5698065851,69040.3148413632,71160.9862175433,65140.5315065198,74992.9954810829,74896.6029868516,78638.3522753586,78813.2507494915,63997.8265947869
3030613993,7850,-2,0,53625.8263012778,48525.5293270957,69040.0106489426,71168.7248727227,65144.3034925349,75004.4331160965,74893.7922488855,78639.3013557108,78812.4476815012,64002.1826302495
3030613993,7850,-2,0,53645.4162931628,48537.8552039774,69054.0643387731,71183.3869473943,65155.8628045167,75026.4809827396,74904.2808035468,78651.1161893258,78820.5757029790,64012.2939863094
3030613993,7850,-2,0,53658.6182442157,48558.7349717255,69061.9368386176,71192.4397138306,65162.6402116471,75010.2371074810,74912.0681295135,78654.8395045537,78826.9880792046,64021.6874482567
3030651419,7851,-2,0,53654.7489166260,48555.0724949818,69059.3329514975,71191.9651736545,65159.1967534462,75011.2956971046,74912.6886820515,78652.1139404653,78825.6496325541,64024.9362233084
3030651419,7851,-2,0,53632.7497207701,48487.5052745240,69054.4537050715,71180.6492156092,65151.6771168097,75011.8310757648,74912.1898064818,78652.7101576096,78822.5712052579,64015.3115751215
3030651419,7851,-2,0,53622.2976691992,48462.7196760957,69051.9471595260,71176.2201739656,65148.4283417579,75003.9585759204,74906.8238521828,78648.3297867534,78820.0403243187,64010.1159685781
3030651419,7851,-2,0,53635.7429741885,48531.6618462945,69047.5424532761,71178.7510549048,65149.4990990783,74995.2343372983,74903.1735431359,78641.9295782245,78818.5436976095,64006.9036966168
3030651419,7851,-2,0,53646.9494229625,48576.3416290283,69048.2603473886,71179.2255950809,65151.0687319685,75008.3997852608,74907.9554479874,78644.6064715256,78818.5923683968,64005.8694423869
3030651419,7851,-2,0,53637.7871472548,48546.4821010248,69054.4902081620,71174.8695596183,65150.8132103352,75008.1685990211,74910.8391921344,78647.9525881519,78821.6951310867,64012.9753773315
3030651419,7851,-2,0,53618.9880556634,48517.4743117989,69051.1075884452,71165.4152591869,65141.7239408085,74996.4997777679,74903.1857108328,78640.3842807280,78819.6752934141,64013.9122899868
3030651419,7851,-2,0,53612.1133069584,48504.9902548586,69045.6686279653,71158.1633118804,65133.6567578149,75002.8026447222,74897.9049304116,78634.4464446784,78815.5626118879,64007.1713859469
3030676330,7852,-2,0,53621.7014520549,48510.6604015781,69051.3144392912,71160.4143357926,65136.5526696587,75009.0203377987,74896.2987944310,78637.1963441604,78817.9109773747,64003.9347785920
3030676330,7852,-2,0,53642.5568844094,48563.7602305134,69055.7678163284,71170.5135241557,65142.8798720067,75003.6178804093,74898.9148492479,78639.2648526203,78822.4373605929,64016.0781400213
3030676330,7852,-2,0,53642.9949214950,48582.9973591905,69054.4658727683,71170.8663873635,65140.2029787056,75006.0392520771,74900.7643391650,78638.2427660872,78820.6487091599,64015.6644383293
3030676330,7852,-2,0,53625.2544195272,48510.3927122480,69058.4447096294,71167.7879600673,65136.4188249937,75017.5863963621,74905.9964487989,78641.3333610802,78823.1795900991,64007.0253735850
3030676330,7852,-2,0,53621.6771166612,48462.3059744037,69059.8804978545,71170.7082073048,65135.3115645828,74998.3614353818,74904.4754866960,78636.4906177447,78822.8023914975,64006.3926533502
3030676330,7852,-2,0,53632.7253853765,48497.9938291854,69048.6132105965,71168.1529909720,65128.6071636334,74976.9706243671,74892.5268084159,78621.7433691952,78810.6468623714,64002.0852886749
3030676330,7852,-2,0,53635.5239556457,48521.6965025965,69039.5969472507,71159.7572801642,65120.7711668794,74988.9436380409,74890.2879522005,78614.5400926761,78800.9978787908,63996.1961234126
3030676330,7852,-2,0,53631.5329510878,48503.5909697240,69042.6632068500,71164.8798805267,65119.7369126494,74996.1104114696,74895.8972604358,78617.4116691263,78804.5265108695,63998.3619734471
3030708781,7853,1,0,53630.0606597722,48489.1235782015,69048.7835583520,71175.6239568213,65122.9126815202,74998.4222738659,74906.3979827940,78622.3760894301,78813.2385817947,64004.5066603427
3030708781,7853,1,0,53620.3508377075,48454.6889961925,69051.6307994086,71170.8663873635,65121.3673840237,75010.2371074810,74905.9356103148,78625.5883613913,78820.8190569154,64003.6914246555
3030708781,7853,1,0,53619.3165834776,48431.2540121116,69056.9602506170,71166.6806996565,65126.2831335402,75009.3123625225,74903.1613754391,78630.1390800031,78824.2625151163,64009.4467452528
3030708781,7853,1,0,53636.4243652106,48473.2203984539,69054.1860157414,71170.3796794906,65128.6314990270,74990.9148049262,74898.8905138543,78627.3770128243,78817.9839835557,64017.1854004322
3030708781,7853,1,0,53643.1044307664,48498.5900463297,69051.8863210418,71171.2922567523,65125.3340531880,75007.1343447912,74900.2654635953,78625.0164796406,78816.0128166704,64018.1344807844
3030708781,7853,1,0,53635.6578003108,48454.6281577084,69067.2662898260,71181.5739605677,65132.9388637023,75032.0294524909,74920.8167035292,78640.0070821265,78829.6163017184,64026.1408252939
3030708781,7853,1,0,53627.7974681632,48424.7199589176,69065.9765139628,71183.6789721181,65129.2398838681,74999.6755466387,74920.7193619546,78636.8434809525,78828.9714137868,64024.6685339783
3030708781,7853,1,0,53627.7366296790,48460.7850123008,69049.3311047090,71175.0764104643,65116.9748454706,74980.9129581377,74909.0505407014,78621.7068661048,78813.0925694328,64013.3282405393
3030764989,7854,1,0,53631.2652617577,48489.7441307394,69044.8777276718,71169.1872452020,65115.9405912407,74995.2830080856,74907.9554479874,78620.3319163638,78809.4057572955,64003.0343690271
3030764989,7854,1,0,53633.7231365159,48495.0127434638,69054.3441958001,71175.2102551293,65124.6891652564,75003.3866941697,74909.5007454839,78627.3040066433,78817.3390956240,64008.5341679911
3030764989,7854,1,0,53627.3959341680,48485.0595674626,69054.2955250128,71174.5045287136,65123.7522526010,74999.6877143355,74903.5142386470,78627.5960313671,78818.0448220398,64012.0262969793
3030764989,7854,1,0,53618.3918385190,48444.6749817073,69057.2157722503,71174.4436902295,65124.0199419311,75012.7923238138,74904.4268159087,78629.4941920715,78817.9839835557,64005.1637159711
3030764989,7854,1,0,53620.0466452870,48430.1710870943,69064.5163903441,71178.1548377605,65128.5463251492,75013.0235100535,74909.2573915474,78634.1544199546,78825.6496325541,64009.1060497418
3030764989,7854,1,0,53640.9629161256,48498.0424999727,69063.4456330236,71185.9543314240,65132.0749572279,75003.6300481062,74910.2064718996,78633.3270165707,78824.0678319671,64017.1123942512
3030764989,7854,1,0,53654.6880781419,48549.4023482623,69071.9143500124,71194.6785700460,65137.4774146173,75026.5539889206,74928.0078123516,78639.9827467328,78831.0642576403,64021.8334606186
3030764989,7854,1,0,53641.3644501207,48503.2016034256,69079.3488127712,71196.7835815964,65139.5945938645,75032.9420297526,74936.7077155800,78650.0575997022,78840.7375766146,64024.4738508291
3030799005,7855,1,0,53627.7487973759,48464.1311289272,69075.5889944529,71198.8155869658,65137.3922407395,75013.4128763518,74931.4877736429,78647.9282527582,78841.6379861795,64031.0444071135
3030799005,7855,1,0,53629.1724179042,48479.0608929289,69062.2410310382,71194.3622099286,65130.3958150663,74993.5551951368,74920.2204863849,78635.0304941259,78827.1827623538,64018.4630085986
3030799005,7855,1,0,53626.4103507253,48486.5196910814,69052.6893890322,71176.9989065623,65123.2290416376,74996.5484485552,74905.9599457084,78626.9998142228,78815.5869472815,64003.0952075112
3030799005,7855,1,0,53626.5198599968,48493.2484274244,69050.5478743913,71173.8474730852,65124.5188175009,74991.8273821879,74901.0441961919,78626.7686279831,78813.2385817947,64006.0641255360
3030799005,7855,1,0,53621.2269118788,48486.7873804115,69050.3775266358,71175.6604599118,65126.7455060194,74993.9688968287,74904.3416420310,78626.1359077483,78812.3746753203,64009.9821239130
3030799005,7855,1,0,53609.2173951145,48428.7718019597,69056.5343812282,71178.7023841175,65132.6590066754,75010.9671692904,74916.9838790300,78636.1742576273,78819.3589332967,64008.0717955118
3030799005,7855,1,0,53619.0610618443,48400.7130930860,69068.9697673812,71198.3775498802,65146.7857026868,75020.2876250568,74934.8947287534,78652.4911390668,78831.7334809656,64014.2894885883
3030799005,7855,1,0,53640.0138357734,48459.9332735232,69069.1644505304,71206.7367575976,65154.6825379249,74997.1446656995,74933.5927851933,78649.7655749785,78829.2634385105,64018.3169962367
3030808921,7856,1,0,53638.3955320959,48497.1299227110,69060.2090256687,71196.1021905743,65146.4206717821,75002.6079615730,74925.3552544442,78640.9561624787,78819.4927779617,64011.0285458398
3030808921,7856,1,0,53619.3652542649,48453.4843942071,69062.9102543634,71186.6843932334,65142.5635118893,75011.7215664934,74920.1718155976,78643.0368386354,78818.8843931206,64012.8902034537
3030808921,7856,1,0,53611.4440836331,48420.0962341249,69063.7863285347,71187.6578089792,65143.2205675177,75007.0005001261,74915.0735506288,78641.6862242881,78821.3057647883,64020.7383679045
3030808921,7856,1,0,53617.5279320446,48424.2575864384,69063.3604591459,71189.1909387789,65143.6586046033,75007.5480464831,74912.2141418754,78641.8930751340,78821.7438018739,64022.4540131565
3030808921,7856,1,0,53622.5288554388,48425.2796729715,69058.6515604754,71183.6303013308,65140.8600343341,75002.8999862968,74907.7729325350,78634.6289601308,78820.2593428616,64012.7563587886
3030808921,7856,1,0,53630.4256906769,48446.4027946561,69055.2567730618,71183.2044319420,65140.0082955565,74994.7354617286,74906.8360198797,78631.1733342330,78821.6099572089,64007.1105474628
3030808921,7856,1,0,53625.8141335810,48458.8138454155,69048.6618813838,71181.8903206851,65134.1678010814,74997.6192058756,74905.1447100213,78627.9002237877,78820.4053552234,64006.1858025043
3030808921,7856,1,0,53611.8212822346,48410.7757783585,69057.0210891011,71186.6600578397,65135.0317075559,75025.4710639033,74921.9604670306,78639.2405172266,78831.0034191562,64013.5107559917
3030835588,7857,1,0,53611.4440836331,48384.8829195193,69067.6799915180,71191.0160933023,65142.1011394100,75021.3462146804,74922.5445164781,78643.4140372369,78844.3027117837,64022.9285533326
3030835588,7857,1,0,53624.8650532288,48445.9160867832,69064.5650611313,71188.1810199426,65145.2525728871,75006.9883324293,74910.3524842615,78637.6587166397,78838.2188633722,64030.5211961501
3030835588,7857,1,0,53631.6059572687,48494.5138678940,69062.2531987350,71184.5793816830,65145.3134113713,75012.9018330852,74908.5760005253,78636.0647483559,78832.6947290146,64025.6176143305
3030835588,7857,1,0,53620.2899992234,48465.5060786681,69061.1094352336,71179.2620981714,65143.2327352145,75011.6850634029,74912.1046326040,78639.3743618917,78829.1904323296,64017.3679158845
3030835588,7857,1,0,53607.0150419896,48438.0435869388,69057.4469584899,71179.3594397460,65139.7649416200,75000.6124592941,74912.3236511468,78634.0327429864,78825.9294895810,64015.6279352389
3030835588,7857,1,0,53609.4120782637,48432.8236450017,69055.6826424506,71183.2044319420,65142.7946981289,75008.4849591385,74914.0636317925,78633.2053396025,78824.9439061384,64014.8248672485
3030835588,7857,1,0,53621.7622905390,48436.1089231439,69058.0553433311,71186.3923685096,65148.7568695721,75008.0590897497,74913.4674146482,78636.8556486493,78824.6275460210,64008.4368264165
3030835588,7857,1,0,53635.8281480663,48472.9648768206,69050.9859114769,71185.9543314240,65146.5423487504,74986.6926141286,74903.6237479184,78629.0439872890,78815.5747795847,64007.1227151596
3030880181,7858,1,0,53634.1125028143,48497.1299227110,69044.0259888942,71179.2255950809,65140.1299725247,74986.8264587937,74899.7057495414,78622.6802818506,78809.9168005620,64001.8541024353
3030880181,7858,1,0,53618.3066646413,48449.4082157714,69050.0003280343,71183.3747796975,65140.2151464024,75016.3331235893,74919.9284616611,78633.1810042088,78817.1322447781,64004.3241448903
3030880181,7858,1,0,53621.9204705977,48421.0939852644,69060.7687397226,71202.5510698905,65152.3463401349,75008.4727914417,74940.6500493506,78645.0566763080,78827.3409424125,64018.1709838749
3030880181,7858,1,0,53636.4852036947,48463.9607811716,69054.0521710763,71202.1373681985,65151.3729243891,74989.7953768185,74926.4138440678,78637.3058534318,78820.2836782552,64020.3003308189
3030880181,7858,1,0,53644.5280512947,48488.8072180841,69049.2824339217,71187.4022873459,65146.4206717821,74999.0793294944,74909.1113791855,78631.1611665362,78816.0736551545,64013.0848866029
3030880181,7858,1,0,53633.6744657286,48450.7223270283,69046.8002237699,71176.7190495354,65137.5382531014,74994.9301448778,74903.3803939819,78629.6280367365,78818.8843931206,64012.4034955808
3030880181,7858,1,0,53617.7591182842,48415.6428570877,69041.4586048646,71174.7843857405,65131.8802740787,74987.4348436348,74898.6228245242,78624.4324301931,78817.7406296192,64018.2804931463
3030880181,7858,1,0,53604.0339562680,48390.5774016325,69037.8204635145,71169.4184314416,65126.0397796037,74995.3316788729,74897.7467503529,78625.7222060564,78814.9663947436,64018.0858099971
3030905379,7859,1,0,53611.1398912126,48396.6734177408,69046.6663791048,71179.2134273841,65136.2241418445,75009.0933439797,74912.8955328975,78635.8578975099,78822.7293853166,64022.7338701835
3030905379,7859,1,0,53635.2927694061,48462.1234589514,69049.2337631344,71189.9088328915,65143.9384616303,74989.0531473123,74912.7130174451,78637.2693503413,78823.6906333656,64027.1994149175
3030905379,7859,1,0,53631.9466527798,48491.0704096931,69036.9200539496,71176.5852048703,65131.6977586264,74979.3311575507,74897.5642349006,78624.9799765502,78812.8978862837,64010.6635149351
3030905379,7859,1,0,53605.8834461850,48423.1989968148,69034.3039991327,71167.2647491040,65125.9546057260,75000.7341362623,74897.4060548419,78626.3549262911,78812.8127124059,63999.3597245866
3030905379,7859,1,0,53600.1524609814,48370.2086771509,69043.4662748404,71177.5464529193,65133.2430561229,74998.4344415628,74907.4444047208,78634.8114755831,78821.6342926025,64010.1403039717
3030905379,7859,1,0,53614.3156600833,48402.6842599713,69042.8092192119,71184.4820401084,65136.6378435365,74990.8052956548,74904.9013560848,78633.1445011184,78822.6685468325,64015.5305936643
3030905379,7859,1,0,53626.6537046618,48442.1927715554,69045.5226156034,71185.1269280400,65140.5680096103,75008.8986608305,74910.2308072933,78636.8313132557,78824.5423721432,64008.0474601182
3030905379,7859,1,0,53635.8646511568,48452.1581152534,69055.1472637904,71197.7326619486,65149.2192420514,75015.9072542005,74927.3142536327,78646.1517690221,78837.4401307755,64018.9375487747
3030927933,7860,1,0,53626.7875493269,48444.3099508026,69053.4437862352,71195.2017810094,65145.6784422759,74998.4222738659,74924.2479940333,78643.2071863909,78840.0926886829,64027.9659798173
3030927933,7860,1,0,53603.3769006395,48398.6080815356,69043.0404054516,71179.5176198047,65134.2164718687,75003.1555079301,74917.2759037537,78637.2571826445,78833.5951385795,64016.8325372243
3030927933,7860,1,0,53599.7144238958,48366.6070388913,69044.7803860972,71180.6857186996,65135.9807879081,75008.8378223464,74921.1573990403,78638.6564677791,78835.0187591078,64010.6391795414
3030927933,7860,1,0,53621.8961352040,48417.6140239730,69046.0458265668,71192.7560739480,65144.8997096793,74994.1514122811,74926.0244777694,78641.3698641707,78832.6095551368,64016.1268108086
3030927933,7860,1,0,53630.5595353420,48457.0495293762,69042.0304866153,71189.3856219281,65142.3079902560,74998.0329075676,74913.4674146482,78634.1300845610,78829.5311278406,64014.5450102216
3030927933,7860,1,0,53613.8532876041,48403.5359987489,69044.8412245814,71181.9389914724,65140.8235312436,75008.8499900432,74912.6521789610,78638.1575922094,78831.4657916355,64010.1768070622
3030927933,7860,1,0,53603.3038944586,48358.1261542057,69048.2238442981,71185.2242696146,65142.0037978354,75001.3060180130,74914.6476812400,78639.1796787425,78833.6438093668,64006.4169887439
3030927933,7860,1,0,53619.0002233602,48393.6193258382,69051.9349918291,71202.1252005017,65152.4680171031,75011.3322001951,74928.5918617991,78645.8232412079,78835.8096594013,64013.0727189060
3030957678,7861,1,0,53642.5325490157,48436.9119911342,69060.2576964560,71216.4465796623,65165.5361234910,75019.2655385236,74945.7726497131,78653.2455362699,78838.8637513038,64017.3070774004
3030957678,7861,1,0,53655.7953385528,48460.8580184818,69064.0661855616,71219.1113052665,65172.5447168610,75012.9383361757,74948.7294000410,78658.4411428132,78841.1877813970,64022.6851993962
3030957678,7861,1,0,53638.9917492403,48460.2983044279,69052.8354013940,71199.0832762959,65159.7321321064,74992.2775869703,74925.0388943268,78644.9958378239,78829.3972831756,64018.3656670240
3030957678,7861,1,0,53609.8501153493,48408.3544066908,69043.3445978721,71174.3463486549,65144.7780327110,74998.3979384723,74905.8626041338,78635.3590219401,78819.7604672918,64004.7378465823
3030957678,7861,1,0,53604.1434655394,48372.9464089360,69043.9529827133,71174.8573919215,65144.5103433809,74999.1158325849,74904.9500268721,78636.5514562288,78821.6342926025,63998.3498057503
3030957678,7861,1,0,53627.0430709601,48434.2229301364,69045.6321248748,71187.3171134682,65152.7722095237,74989.6493644566,74906.7021752146,78636.8434809525,78825.2724339526,64003.7765985333
3030957678,7861,1,0,53640.1476804385,48491.7274653216,69043.4662748404,71190.0061744660,65155.4856059152,75001.0504963797,74912.1168003008,78637.1111702826,78822.7902238007,64008.8018573212
3030957678,7861,1,0,53631.0097401244,48460.0549504915,69050.6452159659,71189.1544356884,65157.8826421894,75014.6661491246,74920.2083186881,78647.8309111836,78829.0930907550,64013.8271161091
3031001793,7862,1,0,53617.6739444065,48419.8285447948,69052.2391842497,71190.0426775565,65158.0043191576,74998.2275907168,74920.5125111086,78646.6506445918,78831.1615992149,64018.2196546621
3031001793,7862,1,0,53614.8875418340,48418.5022658411,69045.3766032416,71184.5307108957,65149.8276268926,74989.5641905788,74912.7981913229,78636.1620899304,78823.6662979720,64011.8802846174
3031001793,7862,1,0,53620.4116761916,48425.8028839349,69043.6731256864,71181.2819358440,65147.5400998899,75001.5128688590,74911.8612786675,78634.2395938324,78823.2404285832,64002.8031827875
3031001793,7862,1,0,53631.6789634497,48445.2955342452,69045.1454170019,71184.5307108957,65146.9317150487,74996.0982437728,74911.5692539438,78630.9056449029,78824.1651735417,64005.2975606362
3031001793,7862,1,0,53630.7420507943,48457.9864420316,69044.5735352513,71185.1755988273,65142.0281332291,74995.1613311174,74909.7319317235,78629.1413288636,78822.7780561039,64010.9433719620
3031001793,7862,1,0,53609.6554322002,48402.0758751301,69044.3788521021,71176.0133231197,65138.3899918790,75007.2438540626,74909.4034039093,78629.5428628588,78822.1088327786,64014.8735380358
3031001793,7862,1,0,53604.2043040235,48360.3650104211,69049.6961356137,71181.1359234821,65143.9141262366,75012.1596035790,74913.6377624037,78634.7141340085,78826.3553589698,64023.5491058706
3031001793,7862,1,0,53626.7875493269,48416.9691360414,69051.9471595260,71192.6100615861,65152.6018617682,74996.9743179440,74916.5701773380,78632.6091224581,78828.8862399090,64031.5311149864
3031022063,7863,1,0,53641.1089284875,48471.1032192067,69051.8619856482,71189.8844974978,65151.3364212986,75009.4948779748,74913.5890916164,78630.8934772061,78829.1904323296,64027.1629118270
3031022063,7863,1,0,53635.4144463743,48442.6429763378,69060.0630133068,71184.3968662307,65152.0421477143,75019.6792402156,74911.9707879389,78637.4518657937,78836.1260195187,64023.7316213229
3031022063,7863,1,0,53622.8695509499,48398.1092059659,69057.6781447296,71181.3184389345,65145.2282374935,75002.9121539936,74905.5584117132,78635.1765064878,78834.7875728681,64022.4540131565
3031022063,7863,1,0,53608.6211779702,48373.0437505106,69046.3135158969,71172.4603556473,65132.2453049834,74996.0982437728,74898.0022719862,78623.5076852346,78824.1286704512,64016.6743571656
3031022063,7863,1,0,53609.1078858431,48366.9964051896,69046.2283420192,71172.3630140728,65129.9456102839,75004.9806624535,74899.9004326906,78622.1084000999,78823.4351117323,64015.9077922658
3031022063,7863,1,0,53623.1129048863,48404.6189237661,69046.7637206794,71180.2476816140,65133.2065530324,74994.0784061001,74904.2929712437,78622.5586048824,78822.9849069499,64018.2074869653
3031022063,7863,1,0,53625.4977734636,48434.5757933442,69041.0570708694,71178.1183346700,65129.9091071934,74988.0067253855,74898.4038059814,78618.0930601484,78817.7527973160,64015.2142335469
3031022063,7863,1,0,53604.0947947521,48379.4074559490,69039.9254750649,71168.7613758132,65126.3318043275,75002.9608247809,74899.0486939130,78620.9403012049,78818.6288714873,64013.1700604806
3031054072,7864,1,0,53597.0131952011,48326.5874840406,69047.3842732174,71176.8772295941,65132.3426465580,75005.2483517836,74907.5052432049,78627.3770128243,78825.3697755272,64021.9551375868
3031054072,7864,1,0,53618.5743539714,48367.2762622165,69048.7348875647,71187.4752935269,65140.4341649453,74999.2253418562,74906.2884735226,78628.5207763256,78826.6108806031,64029.1219110155
3031054072,7864,1,0,53635.0859185601,48419.7190355234,69052.3730289147,71187.8646598252,65143.5490953319,75015.8585834132,74907.7242617477,78629.9078937634,78829.6163017184,64032.4071891577
3031054072,7864,1,0,53634.1246705111,48414.2070688626,69059.0165913801,71187.1832688031,65147.6374414644,75020.9325129884,74916.3389910984,78636.6244624097,78836.6735658757,64029.9493143995
3031054072,7864,1,0,53618.0024722207,48390.8937617499,69054.8065682793,71180.4301970664,65138.9497059329,74996.6092870393,74911.0582106772,78630.5041109078,78834.7145666872,64027.6739550936
3031054072,7864,1,0,53595.2367114650,48357.1892415503,69036.8835508591,71161.4729254162,65117.6440687959,74984.9404657861,74892.3077898731,78613.0191305732,78817.9596481620,64018.5238470827
3031054072,7864,1,0,53592.5354827703,48340.8115216266,69033.9389682280,71157.8347840662,65114.2492813823,74993.9323937383,74889.5700580879,78610.3179018785,78812.7275385282,64017.5869344273
3031054072,7864,1,0,53614.1818154183,48393.5463196573,69035.0462286389,71173.0200697012,65123.2290416376,74984.1008947053,74895.2645402010,78613.5180061429,78813.3724264598,64023.0015595136
3031081988,7865,1,0,53620.8618809741,48445.4902173944,69033.0385586631,71177.7654714621,65126.2587981465,74984.7336149401,74900.7035006809,78614.8564527935,78810.8658809142,64019.7041136745
3031081988,7865,1,0,53597.3295553185,48402.2340551888,69035.5694396023,71164.8433774362,65125.0420284642,75007.5480464831,74899.0121908225,78619.8938792782,78815.6964565529,64013.4377498107
3031081988,7865,1,0,53586.0987711509,48355.1694038777,69045.0602431242,71166.1696563899,65130.3593119759,75003.3623587761,74897.0166885435,78628.6789563843,78826.2458496984,64024.9240556116
3031081988,7865,1,0,53599.8847716513,48384.6760686733,69040.3270090600,71170.0998224637,65131.6734232327,74987.9215515077,74890.0324305672,78624.6271133423,78821.0502431550,64027.6739550936
3031081988,7865,1,0,53612.4540024694,48422.6757858514,69036.2386629275,71166.8023766247,65129.0086976285,74996.6336224330,74886.6133077599,78620.5509349066,78816.5846984210,64019.9352999142
3031081988,7865,1,0,53617.1994042304,48428.5162803264,69041.3734309868,71169.8564685272,65132.5738327976,75000.2352606926,74894.1451120933,78624.3715917090,78823.3986086419,64016.6986925593
3031081988,7865,1,0,53611.2980712713,48423.1503260275,69040.7528784489,71173.2634236377,65132.0749572279,74991.7057052197,74900.8251776491,78625.3206720612,78824.0799996640,64019.0713934397
3031081988,7865,1,0,53592.3651350148,48388.1681976615,69038.5870284144,71167.5324384340,65130.6878397901,74994.3217600366,74904.9013560848,78626.2332493229,78819.7604672918,64017.9032945447
3031125085,7866,1,0,53587.1573607745,48352.6020198481,69039.2684194364,71164.3079987760,65133.9609502355,74996.6822932203,74905.7895979529,78628.7762979589,78820.7825538249,64017.8424560606
3031125085,7866,1,0,53608.1588054909,48396.7099208312,69039.1345747714,71172.2778401950,65141.4927545689,74985.1473166321,74899.7665880255,78628.2530869955,78820.8068892186,64022.9407210294
3031125085,7866,1,0,53619.7059497759,48445.3198696389,69033.9998067121,71168.3963449085,65138.6941842996,74988.2622470188,74891.0058463130,78625.0773181247,78815.4287672228,64017.1123942512
3031125085,7866,1,0,53609.7892768652,48405.8721965389,69040.7528784489,71167.9461401260,65142.7703627353,75011.2226909237,74899.0121908225,78632.3292654312,78821.1475847296,64016.0781400213
3031125085,7866,1,0,53600.4201503115,48354.7435344889,69048.8808999266,71173.5919514519,65144.2548217477,74999.4321927022,74901.8107610918,78636.1985930209,78824.9439061384,64018.3169962367
3031125085,7866,1,0,53604.8370242583,48368.6512119575,69046.4473605620,71174.5045287136,65142.0159655322,74990.5011032342,74896.1162789786,78630.1755830936,78818.5315299127,64019.7162813714
3031125085,7866,1,0,53614.1088092374,48394.6049092809,69047.4451117015,71174.6870441659,65145.1673990094,75002.9121539936,74898.8296753702,78630.3702662427,78819.1399147538,64019.0713934397
3031125085,7866,1,0,53626.4225184222,48410.5932629062,69053.0665876337,71186.7330640207,65151.2877505113,74998.9941556166,74911.1677199486,78637.5492073683,78822.4616959865,64020.3611693030
3031150216,7867,1,0,53618.4161739127,48414.7667829165,69046.7028821953,71183.6789721181,65145.8974608188,74988.3352531997,74915.7549416509,78632.9011471819,78816.9132262352,64017.9154622416
3031150216,7867,1,0,53596.3561395727,48372.2771856108,69042.3225113390,71174.2125039899,65140.8600343341,75000.5637885068,74912.4574958118,78634.5924570403,78812.7518739218,64010.1524716685
3031150216,7867,1,0,53599.3858960816,48339.7164289126,69053.4316185384,71181.9268237756,65153.3805943649,75015.6760679609,74915.8522832255,78647.6240603377,78824.1530058449,64025.0944033671
3031150216,7867,1,0,53621.0565641233,48389.5796504930,69052.7745629099,71189.6411435613,65159.7808028937,74992.4357670290,74909.9752856600,78644.8011546747,78821.4639448470,64029.9858174899
3031150216,7867,1,0,53633.1147516748,48444.6263109200,69046.5933729239,71186.5018777810,65155.6924567612,74991.1581588626,74902.7841768376,78637.8533997888,78816.0736551545,64025.4716019686
3031150216,7867,1,0,53614.9118772277,48406.0912150817,69044.1476658624,71175.3197644007,65147.6617768581,74999.8945651815,74904.5484928769,78636.2959345955,78815.4287672228,64018.8037041096
3031150216,7867,1,0,53599.2398837197,48352.9792184496,69043.2594239944,71173.7988022979,65142.8798720067,74991.9855622466,74907.3227277526,78636.6609655002,78815.7207919466,64023.0623979977
3031150216,7867,1,0,53599.5684115339,48352.0179704006,69040.7893815393,71174.6627087723,65141.7604438990,74993.0198164765,74903.0275307741,78633.4608612357,78815.7816304307,64027.3454272793
3031178998,7868,1,0,53611.4684190268,48369.3204352828,69043.9894858037,71177.4977821320,65147.8077892200,75008.9108285273,74907.1767153907,78636.8556486493,78819.6387903236,64020.0569768824
3031178998,7868,1,0,53620.8862163677,48393.7531705033,69049.4041108900,71183.2409350325,65155.0597365264,75006.0149166835,74910.5836705011,78640.9196593882,78822.8388945880,64018.1466484812
3031178998,7868,1,0,53620.9470548518,48414.1097272880,69047.0070746158,71187.8281567347,65153.1129050348,74993.3726796844,74910.1821365060,78639.0458340775,78820.8798953995,64019.0470580461
3031178998,7868,1,0,53591.7202470831,48360.8152152036,69040.9840646885,71170.6838719112,65142.0524686227,74998.9576525262,74902.0176119378,78635.5902081798,78812.6910354377,64005.5165791790
3031178998,7868,1,0,53577.9220788859,48309.8934039995,69048.7592229583,71167.6784507959,65146.7005288091,75008.4241206544,74901.9811088473,78641.8444043467,78819.1155793602,64009.6170930083
3031178998,7868,1,0,53599.9456101355,48363.4677731110,69055.5974685728,71183.0705872769,65159.8051382874,75005.6742211724,74910.8148567407,78648.7556561422,78829.3729477819,64029.6937927662
3031178998,7868,1,0,53619.6816143823,48429.7452177055,69056.1328472330,71188.2175230331,65163.5041181216,75007.5358787863,74916.4850034602,78649.3275378929,78829.0565876645,64033.0520770893
3031178998,7868,1,0,53612.3323255012,48406.4684136832,69056.2788595949,71183.1192580642,65158.2355053972,75008.2902759893,74918.6751888884,78648.7678238390,78827.3652778062,64025.3012542131
3031240178,7869,1,0,53599.8361008640,48360.1338241815,69054.4172019810,71183.6911398149,65152.0664831080,75000.7949747464,74918.0303009568,78649.0355131691,78827.8884887695,64028.0998244824
3031240178,7869,1,0,53594.8960159539,48337.1003740956,69047.8588133934,71188.0350075807,65146.6275226281,74998.6777954992,74920.5246788055,78643.9615835939,78825.6131294636,64024.4495154355
3031240178,7869,1,0,53593.4480600320,48323.6550691063,69045.2184231829,71185.5893005193,65147.1507335915,75001.5372042526,74925.8906331044,78644.7159807970,78822.8632299817,64015.1290596691
3031240178,7869,1,0,53604.2529748108,48352.8332060877,69045.3644355447,71184.0440030228,65150.7767072448,74996.0617406823,74916.6553512158,78643.2436894814,78825.1750923780,64013.7054391408
3031240178,7869,1,0,53608.7550226353,48393.4124749922,69039.1832455587,71175.2710936135,65144.7171942269,74988.0188930823,74896.0919435850,78633.6920474754,78818.3003436731,64013.6080975662
3031240178,7869,1,0,53593.4237246383,48363.7719655315,69042.0304866153,71166.0358117248,65142.1984809846,75005.7228919597,74892.2956221762,78636.7096362875,78817.5702818637,64015.9564630531
3031240178,7869,1,0,53584.8211629845,48320.5158033260,69049.2946016185,71175.2102551293,65147.9538015818,75010.1519336033,74906.5804982464,78645.4338749095,78825.3211047399,64023.8654659880
3031240178,7869,1,0,53601.9532801112,48362.1901649445,69050.3653589390,71189.7628205296,65154.3783455044,74995.1369957237,74914.9032028733,78646.1396013253,78825.7348064319,64028.7690478076
3031242541,7870,1,0,53614.8388710467,48416.1173972638,69045.8511434177,71189.0327587202,65153.2467496998,74999.7363851228,74918.0059655631,78640.8709886009,78820.4661937075,64023.1232364818
3031242541,7870,1,0,53606.6986818722,48399.5206587973,69042.8457223024,71179.8339799221,65147.6009383740,74998.0207398708,74913.8446132497,78639.2770203171,78817.3025925336,64019.6432751904
3031242541,7870,1,0,53590.9658498801,48357.0675645821,69035.8492966292,71171.5356106888,65138.4751657568,74982.0323862454,74902.5529905980,78630.9421479934,78814.6622023230,64020.2273246379
3031242541,7870,1,0,53580.5259660060,48323.1683612334,69030.3494976652,71166.6806996565,65132.4643235262,74987.1063158206,74897.1261978149,78628.8006333526,78813.5914450026,64015.2750720310
3031242541,7870,1,0,53582.7526545246,48302.0817426392,69034.9245516707,71169.7956300431,65139.6676000454,74998.7021308929,74904.0739527008,78635.1035003068,78818.2151697953,64011.8437815269
3031242541,7870,1,0,53602.2088017445,48339.4852426729,69036.8957185560,71179.2499304745,65147.2237397725,74986.9846388524,74908.0162864715,78639.2283495298,78819.9064796537,64015.6279352389
3031242541,7870,1,0,53609.3512397796,48390.3827184833,69032.6248569711,71178.8605641762,65145.7514484569,74982.3244109692,74903.9522757326,78634.3734384975,78817.3877664113,64020.2029892443
3031242541,7870,1,0,53589.2988754154,48352.3343305180,69032.7343662425,71168.9438912655,65138.2683149108,74996.6457901298,74903.6724187057,78635.5050343020,78815.9154750958,64016.9542141926
3031272948,7871,1,0,53576.5957999322,48300.3660973872,69041.2030832313,71173.5554483614,65143.9871324176,75001.5858750399,74914.3069857289,78642.1729321610,78824.2868505099,64024.1453230149
3031272948,7871,1,0,53584.3952935957,48327.9380983880,69040.0349843363,71180.2355139172,65144.5955172587,74979.9273746951,74911.2407261296,78637.0990025858,78819.5414487490,64024.7050370688
3031272948,7871,1,0,53595.7720901252,48374.4187002516,69033.8537943502,71176.9502357750,65141.5900961434,74985.9138815320,74905.9356103148,78632.5726193677,78811.7419550855,64014.7640287644
3031272948,7871,1,0,53603.5350806982,48383.9703422576,69034.7420362183,71180.7708925774,65143.2692383050,74992.2410838799,74916.0834694651,78637.7317228206,78812.7762093154,64008.5341679911
3031272948,7871,1,0,53604.9587012265,48380.2835301203,69036.0439797784,71185.7718159716,65143.5004245446,74980.9251258345,74917.7991147171,78636.1012514463,78813.2994202788,64015.3115751215
3031272948,7871,1,0,53585.8067464272,48344.1819736466,69024.8010279140,71167.7149538864,65129.0208653253,74968.4289011974,74896.5664837611,78623.6536975965,78800.5841770988,64006.3561502598
3031272948,7871,1,0,53572.1910936823,48296.9713099736,69018.8510241676,71153.7951087210,65121.4525579015,74975.6443454134,74885.2870288062,78616.9492966470,78795.3764028586,63999.5787431294
3031272948,7871,1,0,53591.0875268484,48327.2688750627,69020.4084893609,71161.2052360861,65128.9478591444,74964.8759337251,74885.2383580189,78616.9857997375,78795.8387753379,64006.3561502598
3031301856,7872,1,0,53609.8866184398,48379.0059219539,69021.2602281385,71166.0236440280,65133.7784347831,74976.3257364355,74888.0125928946,78619.0178051069,78796.6661787219,64007.8162738785
3031301856,7872,1,0,53600.8703550940,48342.5028314850,69026.3828285010,71165.7802900916,65135.2628937955,74993.4335181685,74898.7566691892,78627.2796712497,78802.3241577445,64003.4967415064
3031301856,7872,1,0,53586.0379326668,48282.8081108717,69033.7686204725,71170.4283502779,65137.7572716442,74988.3474208965,74905.2785546863,78634.4951154657,78808.5053477306,64014.6423517962
3031301856,7872,1,0,53584.6143121385,48290.3277475083,69028.1471445403,71167.3134198912,65132.9875344896,74970.1080433590,74895.3497140788,78625.1746596993,78801.6427667224,64019.8379583396
3031301856,7872,1,0,53591.7202470831,48322.2314485780,69022.5256686081,71158.7838644184,65128.0596172763,74982.0323862454,74884.7516501460,78616.7546134978,78796.1186323648,64006.9401997073
3031301856,7872,1,0,53604.4963287472,48343.4275764436,69028.4148338704,71163.7239493285,65131.0163676043,74990.3429231755,74888.8278285817,78621.8893815571,78802.1781453827,64003.4115676286
3031301856,7872,1,0,53605.7982723073,48355.6196086602,69031.6757766189,71168.8952204782,65131.6369201423,74975.9242024403,74888.3289530120,78619.4680098894,78801.5089220574,64010.7973596001
3031301856,7872,1,0,53584.6994860163,48311.5238753738,69025.4702512392,71158.7351936311,65120.6859930016,74980.6574365044,74884.6421408746,78616.7911165883,78798.2114762184,64009.4467452528
3031354143,7873,1,0,53571.5097026602,48258.9837604924,69025.8474498407,71156.7396913521,65116.9383423802,74987.1549866079,74888.6453131294,78618.4459233562,78796.4836632695,64006.3318148661
3031354143,7873,1,0,53590.1506141930,48304.7343005466,69029.0353864084,71170.8420519699,65123.8982649629,74981.9715477613,74894.7656646313,78622.7046172443,78801.9104560526,64014.3259916788
3031354143,7873,1,0,53606.8811973245,48381.0987658074,69028.0863060562,71173.5311129678,65125.7355871831,74982.1905663041,74894.7169938440,78622.2422447650,78803.6626043951,64014.8370349454
3031354143,7873,1,0,53592.4989796798,48362.1658295509,69024.2048107696,71162.8965459445,65120.9050115444,74987.3861728475,74890.0689336576,78620.2954132733,78796.7026818123,64007.0618766755
3031354143,7873,1,0,53578.3114451843,48313.3611975941,69026.3098223200,71166.5590226882,65122.0731104394,74981.3388275265,74895.9946020104,78622.4369279142,78803.4557535491,64013.7419422313
3031354143,7873,1,0,53572.5196214965,48308.2994357157,69021.2845635321,71166.0479794217,65118.3619629084,74973.2959799266,74892.4781376286,78618.2390725102,78801.2412327273,64013.2065635711
3031354143,7873,1,0,53578.9806685095,48322.6816533605,69021.0533772925,71165.0988990695,65118.2646213339,74985.5853537177,74895.1671986265,78616.6937750137,78804.3196600235,64008.2786463578
3031354143,7873,1,0,53594.9081836508,48347.4307486983,69022.8663641191,71174.5410318041,65122.5719860092,74979.9882131792,74901.9811088473,78620.3075809701,78805.4877589185,64008.2178078737
3031384171,7874,1,0,53594.8230097730,48369.7463046716,69017.2448881869,71167.3255875881,65114.0911013236,74964.1458719157,74887.4893819312,78610.3544049690,78798.1263023406,64010.0551300939
3031384171,7874,1,0,53571.9720751395,48326.7334964025,69011.0515305040,71150.5585013660,65099.9765730090,74975.0724636627,74871.0629912202,78602.1655450071,78790.7040072786,64002.2069656431
3031384171,7874,1,0,53557.4925159202,48264.9702673292,69018.0236207836,71149.8892780408,65099.5385359233,74983.7723668911,74872.9124811373,78605.7550155699,78795.9604523061,64006.4656595312
3031384171,7874,1,0,53573.4565341519,48293.9658888583,69020.2868123927,71161.6189377781,65106.4254523251,74963.9998595538,74876.6357963651,78605.3534815748,78794.8045211080,64016.5648478942
3031384171,7874,1,0,53585.1253554051,48347.7714442094,69012.5359895164,71161.8014532305,65103.0915033956,74960.2035381451,74874.1414185164,78596.8239261019,78790.5458272199,64013.0240481187
3031384171,7874,1,0,53578.5913022112,48328.6316571069,69012.6820018783,71158.1389764867,65102.2762677085,74978.4307479858,74881.1621795832,78600.6324152075,78791.9572800514,64009.1668882259
3031384171,7874,1,0,53569.2100079607,48287.4683387549,69018.7536825930,71167.7514569769,65105.4398688825,74974.5370850025,74892.3442929635,78605.7185124794,78798.9050349373,64016.8690403148
3031384171,7874,1,0,53560.8751356370,48273.8770214036,69015.5292429349,71164.3079987760,65102.0207460752,74964.0485303411,74888.2194437406,78599.6711671584,78797.2502281694,64012.1236385538
3031400260,7875,1,0,53556.6529448394,48266.9414342146,69013.3877282941,71157.8712871566,65098.1514184855,74978.5037541668,74885.2870288062,78599.7928441267,78796.7878556901,64003.1195429049
3031400260,7875,1,0,53571.7773919903,48300.3539296904,69020.3719862704,71165.1962406440,65106.1942660855,74975.5956746261,74888.5358038579,78604.4165689194,78802.5066731969,64012.8171972728
3031400260,7875,1,0,53578.4696252430,48340.9331985949,69018.2548070232,71162.8843782477,65102.8603171560,74967.9421933245,74880.6389686199,78598.6490806253,78803.2732380967,64019.6067721000
3031400260,7875,1,0,53560.2545830990,48302.5562828153,69016.2714724411,71152.0186249848,65093.0409858199,74981.5456783725,74876.0882500081,78595.5341502386,78800.6936863703,64015.7861152976
3031400260,7875,1,0,53547.7948615523,48234.2590005481,69024.3021523442,71156.9222068044,65098.6259586616,74987.4470113316,74886.0170906156,78601.6666694374,78808.5905216083,64021.8456283154
3031400260,7875,1,0,53564.2212522633,48255.5281345946,69022.2823146716,71168.4815187862,65101.8503983197,74962.9169345366,74886.9783386646,78599.4764840093,78805.6094358867,64028.4283522966
3031400260,7875,1,0,53582.0712635025,48309.8447332122,69012.4021448514,71170.6230334271,65100.5606224565,74962.8439283557,74885.0436748698,78592.0541889473,78794.1474654795,64020.7870386918
3031400260,7875,1,0,53578.4696252430,48298.5044397733,69009.6400776726,71162.5315150398,65094.8296372529,74968.2585534419,74881.1865149769,78590.9712639300,78793.7337637875,64011.8681169206
3031431870,7876,1,0,53562.8341348255,48262.6949080233,69007.5228984254,71155.2308969461,65090.7534588172,74959.2544577929,74875.3946912892,78588.7324077146,78794.7436826238,64011.8316138301
3031431870,7876,1,0,53547.1986444080,48240.5983705929,69005.2597068163,71147.9546142459,65088.3685902399,74962.8682637493,74867.2545021146,78586.9194208880,78794.4638255969,64013.7541099281
3031431870,7876,1,0,53547.3811598603,48230.4870145330,69012.8645173307,71150.6558429406,65100.0252437963,74986.3519186176,74877.2076781158,78597.8338449382,78801.5332574510,64014.8978734295
3031431870,7876,1,0,53575.9752473942,48277.8436905679,69025.6162636011,71174.3220132613,65119.0676893242,74982.1783986073,74896.9680177562,78612.3620749448,78813.5792773058,64024.0723168340
3031431870,7876,1,0,53592.2921288338,48334.4599838851,69018.8023533803,71172.9105604298,65118.2767890307,74963.1967915635,74888.2072760437,78602.9807806943,78805.5242620090,64018.1831515717
3031431870,7876,1,0,53573.2861863964,48300.0984080571,69015.2980566952,71156.4963374157,65109.6255565896,74978.2725679271,74876.4776163064,78600.0118626695,78801.1803942432,64007.2687275215
3031431870,7876,1,0,53552.1630647118,48230.7790392568,69022.0632961288,71150.6436752438,65108.9563332643,74985.2811612972,74876.5627901842,78601.9465264643,78804.9280448646,64009.2277267100
3031431870,7876,1,0,53560.9116387274,48247.9598271708,69027.1615610976,71162.7140304922,65114.4682999251,74976.8976181862,74881.1986826737,78603.2971408117,78806.4611746643,64020.5558524521
3031471830,7877,1,0,53575.0383347389,48300.2809235094,69025.9326237185,71165.6221100329,65113.0081763063,74982.3487463628,74882.2207692068,78602.5184082150,78803.9181260283,64018.4508409018
3031471830,7877,1,0,53581.2316924218,48312.8623220243,69028.0132998752,71167.3864260722,65115.7824111820,74987.6416944808,74886.4064569139,78605.8888602350,78807.7509505276,64015.2507366373
3031471830,7877,1,0,53576.1820982402,48309.7960624250,69026.9912133421,71167.7271215832,65114.9428401012,74979.3554929444,74885.5182150459,78605.6698416921,78808.9068817258,64016.4431709260
3031471830,7877,1,0,53564.6471216521,48296.8496330053,69027.5144243055,71169.8077977400,65114.0545982331,74990.5862771120,74892.6971561714,78609.5878400691,78810.1236514080,64015.8712891753
3031471830,7877,1,0,53562.5056070113,48269.9590230266,69034.4500114946,71170.0024808891,65122.3042966791,75006.3191091040,74901.2875501284,78619.6505253417,78818.9330639079,64014.4841717375
3031471830,7877,1,0,53582.9595053706,48303.2741769279,69039.8889719744,71180.2963524013,65132.9023606119,74987.0819804270,74903.1248723486,78623.0818158458,78822.7902238007,64017.3314127941
3031471830,7877,1,0,53590.6373220659,48356.2766642886,69026.8573686770,71170.4891887620,65126.8671829877,74968.1855472609,74888.0734313787,78612.2403979765,78804.6238524441,64006.4048210471
3031471830,7877,1,0,53571.7895596872,48322.8398334192,69020.6153402069,71155.9001202713,65115.6729019106,74983.8940438593,74878.9354910647,78605.5968355112,78799.0145442087,63999.4327307675
3031497040,7878,1,0,53555.0954796461,48256.8422458515,69025.9082883249,71153.9046179924,65112.4362945557,74983.5898514388,74880.7484778913,78608.5535858392,78803.1028903412,64009.1668882259
3031497040,7878,1,0,53555.4361751571,48256.5258857341,69023.0245441778,71155.7297725158,65108.8711593865,74970.8746082588,74875.8327283748,78601.1312907772,78801.6792698129,64018.6455240509
3031497040,7878,1,0,53565.1459972218,48292.5422683300,69018.4494901724,71156.4720020220,65109.3822026531,74977.2869844845,74877.7795598665,78600.2552166059,78799.8541152895,64015.5427613611
3031497040,7878,1,0,53574.4299498977,48307.6667154809,69021.0290418989,71157.9442933376,65113.4948841793,74980.2680702061,74882.9873341067,78604.5382458876,78802.7256917397,64013.9366253805
3031497040,7878,1,0,53576.3281106021,48313.9452470416,69020.2624769990,71159.1488953230,65114.4682999251,74970.1323787526,74883.0968433781,78605.1831338192,78804.3561631140,64012.0384646761
3031497040,7878,1,0,53560.4614339450,48274.6192509098,69014.8721873064,71152.5175005545,65108.5061284819,74971.5194961904,74879.4708697249,78601.4841539851,78798.9537057246,64009.0330435608
3031497040,7878,1,0,53549.6808545599,48217.7474359594,69019.2525581627,71154.9145368287,65110.3677860958,74985.1473166321,74892.2104482985,78609.1011321962,78801.4845866637,64012.2939863094
3031497040,7878,1,0,53569.7453866209,48248.7507274643,69023.0002087842,71167.8609662483,65117.8387519451,74968.5992489529,74890.5069707433,78610.9627898101,78803.8937906347,64021.8091252249
3031527759,7879,1,0,53588.4836397282,48324.4824724903,69015.4075659667,71167.9339724292,65114.2127782918,74963.0386115048,74881.2473534610,78602.5670790023,78797.3354020471,64018.7306979287
3031527759,7879,1,0,53578.1654328224,48318.4351271692,69013.9231069543,71157.8469517630,65109.4795442277,74978.6375988318,74876.1855915827,78601.8856879802,78798.0411284629,64009.3980744655
3031527759,7879,1,0,53556.8719633822,48262.3542125123,69014.9330257906,71152.0672957721,65108.3966192104,74971.4708254031,74875.7110514066,78603.2119669339,78799.1362211769,64011.9167877079
3031527759,7879,1,0,53551.8467045944,48250.7340620464,69011.3192198342,71154.1479719288,65111.2195248734,74962.7100836906,74875.1391696559,78600.2552166059,78796.9095326583,64015.3480782119
3031527759,7879,1,0,53557.3221681647,48260.6994057444,69009.9321023963,71153.8559472051,65114.8698339203,74972.5537504204,74878.8259817932,78602.0682034326,78797.1042158075,64013.8757868964
3031527759,7879,1,0,53568.5407846354,48273.9986983719,69012.6089956974,71155.7906109999,65119.8464219208,74972.2860610903,74882.0139183609,78608.3832380837,78800.6206801893,64014.7275256740
3031527759,7879,1,0,53571.3636902984,48297.5310240274,69010.7960088708,71154.0141272638,65117.2303671039,74962.7100836906,74875.3946912892,78608.4197411741,78799.0875503896,64019.1930704080
3031527759,7879,1,0,53550.0823885550,48265.0311058134,69006.7076627382,71144.3651436832,65109.6985627705,74969.1589630068,74874.2752631815,78607.0569591300,78797.6639298613,64013.0362158156
3031558904,7880,1,0,53537.0994560450,48207.1128689362,69014.3003055558,71146.6283352922,65111.1221832988,74981.0468028028,74883.2915265273,78615.4405022410,78804.8672063805,64012.1601416443
3031558904,7880,1,0,53559.5001858960,48237.0210677269,69015.5535783285,71162.3611672843,65116.8044977151,74961.0796123163,74887.2460279947,78613.7005215953,78804.2588215394,64018.4873439922
3031558904,7880,1,0,53581.2316924218,48311.7428939166,69007.7419169682,71164.0646448395,65114.0789336268,74958.3297128343,74881.5272104879,78604.8546060050,78793.8554407558,64016.6135186815
3031558904,7880,1,0,53575.2451855849,48309.4188638234,69004.2862910705,71155.0362137969,65106.6931416552,74967.0539514564,74881.1500118864,78604.6112520686,78791.7017584181,64010.3228194241
3031558904,7880,1,0,53555.7647029713,48264.4835594563,69004.5418127038,71150.3638182169,65102.8481494592,74960.4955628688,74880.9553287373,78602.7617621515,78791.2150505452,64008.2664786610
3031558904,7880,1,0,53543.2198075469,48247.6434670534,69001.0740191092,71149.9987873122,65098.8328095076,74958.7920853136,74883.9850852462,78600.9609430217,78791.6165845403,64014.9343765199
3031558904,7880,1,0,53549.5226745012,48250.2108510830,69006.3304641367,71157.5427593424,65108.9198301738,74974.3789049438,74894.0721059124,78609.0767968026,78795.9847876998,64017.2705743100
3031558904,7880,1,0,53569.5142003813,48274.8504371495,69013.0957035703,71164.8190420425,65118.7148261163,74968.8912736767,74895.6295711057,78614.6861050380,78801.0952203654,64022.6000255184
3031587684,7881,1,0,53576.3767813894,48315.5148799317,69005.0528559703,71160.2683234308,65117.0113485611,74953.7789942226,74882.7074770798,78606.3512327142,78797.1893896853,64024.0966522276
3031587684,7881,1,0,53555.4848459444,48288.0767235960,68997.8739148448,71144.2799698054,65104.6002978017,74962.9412699302,74868.4469364033,78600.5472413297,78790.8500196405,64017.2827420068
3031587684,7881,1,0,53534.6172458931,48221.2152295539,69003.3737138088,71142.4061444947,65102.1667584371,74973.0282905965,74874.0927477291,78607.1177976141,78793.2713913083,64015.7617799039
3031587684,7881,1,0,53547.7948615523,48239.2234208519,69008.3503018093,71160.5481804577,65108.3114453327,74959.1327808247,74885.6033889236,78608.6874305042,78793.7459314844,64018.9497164715
3031587684,7881,1,0,53566.5696177501,48301.0109853188,69001.1835283806,71158.9663798707,65104.9166579191,74949.5568034250,74878.4731185854,78600.6689182979,78786.7738412048,64011.3327382604
3031587684,7881,1,0,53561.6417005368,48303.3228477151,68997.2898653973,71145.6062487591,65100.0617468867,74958.3175451375,74868.4104333128,78598.1258696619,78782.1257810184,64002.5233257605
3031587684,7881,1,0,53548.1355570634,48277.6855105092,68998.7743244097,71143.8419327198,65101.4366966277,74957.2832909076,74868.4104333128,78600.3160550901,78786.4939841779,64007.8892800595
3031587684,7881,1,0,53544.4122418355,48264.9094288451,69000.1857772412,71150.6436752438,65103.8215652050,74960.1913704483,74872.2919285993,78603.1024576625,78789.1952128726,64015.4819228770
3031619080,7882,1,0,53547.4176629508,48246.3050204028,69003.9820986499,71154.5616736208,65106.1455952982,74970.5582481414,74880.4199500770,78606.2417234428,78792.5048264084,64017.0150526767
3031619080,7882,1,0,53563.0288179746,48266.6615771876,69007.3768860635,71159.1975661103,65112.8378285508,74966.1657095883,74884.1067622144,78610.5490881181,78797.7856068296,64020.6653617235
3031619080,7882,1,0,53581.3898724805,48323.8862553459,69007.1822029144,71165.3300853091,65115.3200387027,74963.5618224682,74881.8192352117,78608.8334428661,78798.6860163945,64024.5590247069
3031619080,7882,1,0,53565.8517236376,48303.6878786198,69006.0384394130,71154.9267045255,65108.9441655675,74967.7718455689,74876.9764918762,78604.9641152764,78795.9604523061,64017.6234375178
3031619080,7882,1,0,53539.7641816492,48227.1408979067,69009.4453945234,71150.1569673709,65105.3546950047,74971.4464900095,74881.7705644244,78604.1367118925,78794.6098379588,64015.5184259674
3031619080,7882,1,0,53543.3658199088,48224.8777062976,69011.1610397755,71159.0515537485,65109.4795442277,74957.3197939980,74885.8102397696,78602.9686129975,78793.6364222129,64018.3048285399
3031619080,7882,1,0,53554.8399580128,48267.6836637208,69006.4886441954,71154.2453135034,65107.7273958852,74960.8970968640,74878.4974539790,78596.6900814368,78788.7936788774,64011.8194461333
3031619080,7882,1,0,53558.7092856025,48276.1645484063,69006.8780104938,71148.8306884172,65105.9387444522,74966.6280820676,74872.3405993866,78597.0551123415,78788.0636170681,64004.8108527633
3031654207,7883,1,0,53550.3257424915,48266.4303909480,69005.2232037259,71145.2533855512,65103.2861865448,74957.6118187218,74866.4149310338,78595.6071564196,78786.3601395128,64009.2885651941
3031654207,7883,1,0,53539.2653060794,48247.4487839042,69003.7387447135,71145.1317085830,65103.7242236304,74968.1733795641,74867.4856883543,78598.9289376522,78789.4750698995,64013.8271161091
3031654207,7883,1,0,53537.5739962211,48213.3670651031,69010.3701394820,71151.7631033515,65109.9540844038,74980.4262502648,74881.9652475736,78606.8501082840,78795.1087135285,64019.6676105841
3031654207,7883,1,0,53554.3532501399,48231.9349704550,69012.2317970959,71160.9983852401,65114.7481569520,74961.3959724337,74886.3334507330,78606.5094127729,78796.3984893918,64028.7203770203
3031654207,7883,1,0,53574.0770866899,48294.8906338169,69004.8946759116,71160.1709818562,65110.7206493036,74950.1773559630,74879.0936711234,78598.1015342683,78789.4020637186,64031.6892950451
3031654207,7883,1,0,53562.3352592557,48282.9541232335,69003.1303598723,71149.2443901092,65103.0915033956,74969.3658138528,74877.0373303603,78597.0794477351,78787.6012445888,64025.1795772449
3031654207,7883,1,0,53542.9277828231,48215.2287227171,69010.8325119612,71145.4115656099,65102.9089879433,74968.2950565323,74876.8791503016,78601.3746447137,78792.8941927067,64026.4936885017
3031654207,7883,1,0,53535.3959784897,48200.2259525344,69007.1456998239,71141.7369211694,65095.9977361479,74950.3477037185,74861.1706537032,78591.2876240474,78787.3213875619,64023.4639319928
3031677749,7884,1,0,53544.3757387451,48229.9638035696,69002.9235090263,71139.3398848953,65091.4470175361,74955.2877886286,74855.3301592281,78586.0068436263,78781.8337562947,64015.2142335469
3031677749,7884,1,0,53552.9417973084,48245.2099276888,69003.3615461119,71139.4980649540,65093.1504950913,74962.2842143018,74858.7249466417,78589.5476434017,78783.8657616641,64009.9334531257
3031677749,7884,1,0,53555.5943552158,48257.6088107514,69002.7896643613,71143.2213801818,65092.6272841279,74959.2787931865,74860.2702441383,78588.3795445068,78787.5160707110,64016.2484877768
3031677749,7884,1,0,53546.9552904715,48244.5163689699,69004.2376202832,71143.7445911452,65093.0653212135,74973.7218493154,74867.7655453812,78592.9302631185,78792.2371370783,64023.2692488437
3031677749,7884,1,0,53537.0751206513,48199.6662384805,69012.8645173307,71142.1141197709,65094.8174695560,74981.1441443774,74873.4721951911,78596.6779137400,78799.3552397197,64026.9317255874
3031677749,7884,1,0,53546.1522224812,48212.4909909319,69011.7207538293,71143.6715849643,65094.4037678641,74955.9813473475,74868.3982656160,78589.7423265509,78795.5224152205,64025.0457325798
3031677749,7884,1,0,53556.5069324775,48276.5295793110,68998.3484550209,71134.2902907138,65085.3144983373,74938.2043422892,74851.9597072082,78575.2627673316,78779.9964340744,64017.6112698210
3031677749,7884,1,0,53544.8746143148,48273.0617857165,68991.1695138954,71122.3902832209,65076.5415889280,74954.6794037875,74845.4864924984,78574.4353639476,78774.8981691056,64009.1912236195
3031708044,7885,1,0,53531.4049739318,48220.3148199890,68996.8396606148,71127.6953990357,65079.9728794321,74958.5608990740,74855.3666623186,78581.7359820414,78781.3470484218,64015.2385689405
3031708044,7885,1,0,53532.3662219808,48213.6590898269,68997.8860825416,71136.8941778339,65084.9372997358,74951.8199950341,74857.7636985927,78584.1330183155,78783.0748613706,64023.8776336848
3031708044,7885,1,0,53544.3270679578,48233.4437648610,68998.5796412605,71141.7004180790,65088.9404719906,74960.7145814116,74864.6992857818,78588.5377245654,78783.2452091262,64022.5513547311
3031708044,7885,1,0,53564.1239106887,48260.2492009619,69009.0195251346,71154.9023691318,65101.1690072976,74977.6033446019,74879.4830374217,78598.4178943857,78792.7481803449,64027.2602534016
3031708044,7885,1,0,53572.7021369489,48293.1871562616,69012.5968280006,71161.5459315972,65105.7562289999,74962.1138665463,74880.6146332262,78598.8924345618,78795.9361169125,64033.2224248448
3031708044,7885,1,0,53552.8687911275,48267.9878561413,69003.5318938675,71152.0429603784,65095.5353636686,74957.6604895091,74877.7673921696,78592.5408968202,78790.1564609216,64023.5126027801
3031708044,7885,1,0,53527.4139693739,48191.3922046409,68996.6449774657,71135.6409050611,65084.7061134962,74955.6771549269,74867.1328251464,78586.0798498072,78783.8049231800,64013.5715944758
3031708044,7885,1,0,53535.6758355167,48191.0515091299,68994.4547920375,71134.8135016772,65082.9661328505,74940.1025029936,74851.1931423083,78580.5313800560,78778.5606458493,64019.1930704080
3031739144,7886,1,0,53553.4406728782,48251.7196454891,68989.4173655529,71134.2416199265,65083.2338221806,74939.1169195509,74844.6469214176,78572.9630726321,78770.6638106112,64017.5747667305
3031739144,7886,1,0,53552.7957849465,48253.7394831617,68993.1650161743,71135.5557311834,65087.1153174671,74962.9899407175,74852.5924274430,78579.9594983053,78774.9468398929,64014.6545194930
3031739144,7886,1,0,53545.4951668528,48209.9114392054,69003.2520368405,71143.4647341183,65094.9756496147,74968.1247087768,74868.4104333128,78590.1803636365,78786.2993010287,64020.5071816649
3031739144,7886,1,0,53543.9133662658,48195.9429232527,69006.2574579558,71152.3958235863,65099.0518280504,74956.1881981935,74878.7773110059,78595.5828210259,78789.0005297234,64027.3697626730
3031739144,7886,1,0,53551.6033506579,48198.1331086808,69004.6148188847,71154.2574812002,65101.0229949357,74963.1116176858,74879.0815034265,78592.6139030011,78787.4065614396,64022.7095347898
3031739144,7886,1,0,53568.8206416624,48216.1291322819,69006.2331225622,71160.1101433721,65107.1311787409,74957.6118187218,74878.1932615585,78595.9721873243,78789.6454176550,64015.5914321484
3031739144,7886,1,0,53582.1929404708,48257.9130031719,69003.4345522929,71163.7604524189,65110.2826122180,74951.3332871611,74873.5208659784,78593.9888527421,78787.5769091951,64017.7329467892
3031739144,7886,1,0,53570.1834237065,48237.0940739079,68998.8716659843,71154.8293629509,65103.5173727845,74958.3905513185,74869.8583892347,78593.5629833533,78785.5205684321,64011.3935767445
3031763790,7887,1,0,53548.1355570634,48160.5714285884,68999.1880261017,71147.6747572190,65103.0550003052,74964.2553811871,74871.9390653915,78598.0528634810,78788.9761943298,64007.9987893309
3031763790,7887,1,0,53552.8931265211,48160.8391179185,68999.7355724587,71151.4345755373,65103.6512174495,74950.4328775962,74869.2378366968,78598.1015342683,78788.8423496647,64016.2606554736
3031763790,7887,1,0,53567.2266733786,48226.5811838529,68993.4692085949,71146.0686212384,65099.7575544662,74947.1354317572,74857.9462140451,78587.5399734260,78781.5295638741,64014.1678116201
3031763790,7887,1,0,53567.9810705816,48247.3149392391,68994.6251397931,71139.5467357413,65095.6935437273,74960.4347243847,74858.1043941038,78586.9437562816,78779.2542045682,64013.2917374488
3031763790,7887,1,0,53565.7422143662,48231.9836412422,69003.1060244787,71147.4070678889,65099.3073496837,74962.8804314461,74868.0210670145,78592.2002013092,78785.9099347304,64027.4549365508
3031763790,7887,1,0,53559.7557075293,48223.8069489772,69005.7585823861,71151.7387679579,65100.0982499772,74962.5640713287,74870.4546063791,78593.6116541406,78787.6377476792,64040.2310182148
3031763790,7887,1,0,53553.1486481544,48210.7631779830,69008.1434509634,71153.3814070290,65103.2131803639,74973.7583524058,74879.7020559645,78597.4444786398,78792.7360126480,64036.2765167474
3031763790,7887,1,0,53568.5772877259,48229.3310833348,69013.2782190226,71162.7140304922,65111.0613448147,74966.5794112803,74885.4330411681,78605.0371214574,78794.5246640810,64031.7379658324
3031825211,7888,1,0,53579.5160471697,48280.5570869594,69004.2619556768,71159.3800815627,65105.5737135475,74945.6144696544,74872.3162639930,78592.0906920377,78784.0117740260,64024.5590247069
3031825211,7888,1,0,53561.1549926639,48259.5678099399,68995.1361830596,71140.2767975507,65088.3929256335,74952.2945352102,74857.2891584166,78581.8333236160,78775.6890693991,64011.7099368619
3031825211,7888,1,0,53539.3383122604,48182.2542643269,68997.7035670893,71130.9563417843,65081.0801398429,74961.8705126098,74854.3324080887,78582.0766775525,78777.8427517368,64007.1105474628
3031825211,7888,1,0,53542.1003794392,48178.5309490991,68998.4822996859,71136.5534823229,65082.3090772221,74949.3621202758,74853.7848617316,78580.0690075767,78778.7309936049,64012.9023711505
3031825211,7888,1,0,53554.3532501399,48232.4095106310,68992.2281035190,71136.8090039561,65080.6299350605,74944.6897246958,74850.8281114037,78572.1113338545,78773.4380454869,64010.4079933018
3031825211,7888,1,0,53555.1684858270,48252.1333471810,68991.4250355286,71130.3722923368,65081.3843322635,74950.5667222613,74849.8303602642,78573.3646066272,78772.3916235601,64004.6161696141
3031825211,7888,1,0,53550.9706304231,48243.3604377717,68992.5931344236,71133.2925395743,65080.5325934859,74946.1741837082,74851.1809746115,78573.7174698351,78771.9535864745,64008.8505281085
3031825211,7888,1,0,53543.4509937865,48223.7339427963,68992.4714574554,71133.7427443567,65078.3910788451,74951.9295043055,74855.9263763725,78575.6764690236,78774.8129952279,64017.4165866718
3031831957,7889,1,0,53539.6303369841,48187.4742062639,69000.2222803316,71142.7225046121,65086.9328020148,74971.3978192222,74877.2563489031,78585.3984587851,78782.8801782215,64024.5225216164
3031831957,7889,1,0,53556.1784046633,48192.9496698342,69006.2331225622,71157.0073806822,65094.3307616831,74958.2567066534,74880.4564531675,78588.6837369273,78786.5183195715,64029.2435879837
3031831957,7889,1,0,53576.0117504847,48249.2009322467,68999.2123614953,71159.8424540420,65089.8652169491,74941.5139558250,74868.1184085891,78579.5336289165,78777.9887640987,64027.9173090300
3031831957,7889,1,0,53561.8728867765,48241.1702523436,68992.2524389126,71142.3574737074,65080.2040656717,74952.2336967260,74855.7803640106,78577.9274929358,78773.0851822790,64017.2584066131
3031831957,7889,1,0,53529.0201053545,48177.2655086295,68994.4426243407,71129.4840504687,65076.9066198327,74954.5942299097,74855.9628794629,78580.4948769655,78775.5065539468,64018.0006361193
3031831957,7889,1,0,53521.9385058036,48173.9437273968,68991.2303523795,71128.6931501752,65074.5460866490,74935.9289829833,74848.7352675501,78576.6255493758,78770.6029721271,64019.3755858603
3031831957,7889,1,0,53535.0674506755,48224.2328183660,68986.8621492200,71127.4398774025,65074.5704220427,74944.1300106420,74838.4657314315,78572.6102094242,78767.1595139262,64011.0650489302
3031831957,7889,1,0,53552.2847416800,48254.4330418806,68991.0965077144,71133.0005148505,65081.8953755301,74956.3342105554,74844.0872073637,78580.4705415718,78772.8904991298,64008.3516525387
3031870164,7890,1,0,53557.1761558028,48260.5290579889,68994.1627673138,71140.0577790079,65085.3266660342,74943.9353274928,74850.7672729195,78581.2857772590,78772.6958159807,64014.0704700455
3031870164,7890,1,0,53547.6245137968,48228.6861954032,68990.5611290542,71138.8653447192,65081.7736985619,74946.5757177034,74852.9817937413,78579.8013182466,78771.2235246651,64019.6189397968
3031870164,7890,1,0,53534.4468981376,48161.9342106326,68991.9604141889,71133.0613533347,65081.5668477159,74956.9304276997,74854.7461097806,78584.2911983742,78771.6128909634,64017.6356052146
3031870164,7890,1,0,53544.0472109309,48160.8634533121,68994.0532580424,71138.0501090321,65086.1297340245,74946.3932022510,74853.4319985238,78585.8729989612,78771.6493940539,64018.2439900558
3031870164,7890,1,0,53566.4722761755,48239.5397809693,68989.6242163988,71145.2168824608,65090.1815770665,74938.8613979176,74852.0813841764,78582.1496837334,78766.5754644787,64019.1687350143
3031870164,7890,1,0,53570.3902745525,48261.4416352506,68992.1794327317,71144.4259821673,65093.6128675706,74960.6780783212,74856.4617550327,78588.3308737195,78769.3375316575,64013.2065635711
3031870164,7890,1,0,53560.1450738276,48214.3526485458,69003.7630801071,71150.4733274883,65102.4466154640,74966.3603927375,74870.1625816553,78599.5494901902,78780.7873343679,64019.2417411953
3031870164,7890,1,0,53553.1608158512,48195.4562153798,69004.2011171927,71154.5616736208,65103.2375157575,74948.3035306522,74870.1869170490,78600.8270983566,78780.2884587982,64025.7027882082
3031887057,7891,1,0,53554.0977285066,48211.1160411909,68998.5431381701,71150.1813027645,65102.4101123736,74955.0322669953,74869.6515383887,78597.9190188159,78777.9887640987,64017.6356052146
3031887057,7891,1,0,53566.6669593247,48230.0246420537,69003.3128753247,71155.4012447016,65109.3700349563,74967.5406593293,74880.2739377152,78605.0006183669,78783.6345754245,64015.0682211850
3031887057,7891,1,0,53575.9265766070,48261.5024737347,69002.7166581803,71163.6752785412,65113.7260704189,74954.2778697923,74884.1067622144,78607.3124807632,78786.6886673270,64015.5792644516
3031887057,7891,1,0,53566.5331146597,48254.2018556409,68995.3430339056,71156.4841697188,65106.9486632885,74957.0886077584,74879.4952051185,78603.6500040195,78782.4664765295,64014.9587119136
3031887057,7891,1,0,53554.2194054748,48198.7901643093,69000.3439572999,71153.7586056305,65107.0216694695,74971.0084529239,74881.6002166689,78607.1543007045,78784.2307925688,64011.2597320794
3031887057,7891,1,0,53562.1649115002,48201.3818837325,69006.1357809876,71162.3003288002,65116.2934544485,74964.3770581553,74885.3356995935,78611.3886591989,78792.3953171370,64014.4963394343
3031887057,7891,1,0,53584.3587905053,48271.4678174327,69004.7121604593,71169.7956300431,65120.2357882192,74956.9912661838,74882.7196447766,78608.1520518440,78790.3024732835,64017.6477729115
3031887057,7891,1,0,53584.7238214099,48279.4498265485,69002.8991736327,71167.4107614658,65115.4417156709,74966.2265480724,74887.1730218138,78607.3124807632,78782.8558428278,64016.5283448038
3031946894,7892,1,0,53568.8449770560,48221.1787264635,69002.6679873930,71165.7559546979,65110.5868046386,74958.2688743502,74888.7548224008,78610.2935664849,78783.1722029452,64020.1056476697
3031946894,7892,1,0,53559.3055027468,48186.6102997895,68996.3164496515,71163.2494091524,65105.6710551221,74951.2967840707,74880.9188256468,78607.0082883427,78780.9455144266,64019.1200642270
3031946894,7892,1,0,53564.0995752951,48182.0109103904,68994.7711521549,71164.7947066489,65105.6832228189,74959.6438240912,74881.9044090894,78606.2903942301,78780.6778250965,64009.1182174386
3031946894,7892,1,0,53576.7783153846,48197.8654193507,68997.9469210257,71165.7559546979,65109.6377242864,74955.3851302032,74885.1531841412,78606.9596175554,78778.7674966953,64010.4688317859
3031946894,7892,1,0,53584.2249458402,48238.5541975266,68990.1960981495,71159.8789571324,65103.9675775669,74931.6824567921,74874.1779216069,78596.0938642925,78769.6660594718,64012.7441910918
3031946894,7892,1,0,53566.6669593247,48225.4130849579,68978.2230844757,71144.9978639180,65087.4073421909,74934.1768346408,74861.9250509062,78584.6075584916,78759.7250511674,64005.6017530567
3031946894,7892,1,0,53542.0517086519,48149.2311351494,68979.6223696104,71140.4106422157,65081.3478291730,74949.7514865742,74864.4802672390,78587.4426318514,78762.3776090748,64001.7689285575
3031946894,7892,1,0,53539.1436291112,48133.7051540033,68980.6566238403,71146.8960246223,65080.0823887035,74935.5031135945,74863.9448885788,78584.9725893963,78763.7890619063,64006.6116718930
3031972764,7893,1,0,53547.3568244667,48186.9996660878,68969.2798273109,71142.4061444947,65070.7132621498,74923.1894044097,74853.4928370079,78571.7463029498,78753.2275010640,64003.9712816825
3031972764,7893,1,0,53550.7881149708,48203.7910877035,68970.0828953012,71137.7945873988,65068.6812567804,74943.7649797373,74853.3103215555,78571.6854644657,78753.1788302767,64002.2434687336
3031972764,7893,1,0,53546.9309550779,48176.7544653629,68981.9463997036,71146.7621799573,65072.8061060033,74953.2922863496,74867.4370175670,78581.4317896209,78765.0788377695,64011.2475643826
3031972764,7893,1,0,53540.1778833412,48154.2442262405,68981.9463997036,71149.3052285933,65071.4676593528,74937.5959574481,74867.0841543591,78580.3731999973,78765.6993903075,64012.5738433363
3031972764,7893,1,0,53530.2125396432,48128.1201811616,68976.9333086125,71142.5399891597,65065.7488418460,74943.3391103485,74863.4338453122,78573.9486560747,78761.4528641163,64000.6251650562
3031972764,7893,1,0,53540.3117280062,48142.1617032953,68982.2992629114,71150.7896876057,65074.1567203507,74950.5545545645,74870.5884510441,78579.9716660021,78767.6827248896,64003.2533875699
3031972764,7893,1,0,53561.0333156957,48212.8560218366,68986.6552983740,71165.1597375536,65081.9075432269,74944.5923831212,74882.6101355052,78581.4561250145,78772.0265926554,64010.6391795414
3031972764,7893,1,0,53553.9152130543,48224.5856815739,68983.1631693859,71163.1885706683,65074.8137759791,74947.5369657524,74891.0058463130,78579.1199272245,78768.8873268751,64008.1448016927
3032021456,7894,1,0,53527.6816587040,48151.5551652426,68980.9973193514,71148.3318128474,65062.5730729753,74953.5964787702,74880.0427514755,78577.3921142756,78769.2523577798,64005.3097283330
3032021456,7894,1,0,53530.5288997606,48134.9219236856,68984.7328022760,71153.3205685449,65069.5573309516,74953.9250065844,74870.9656496456,78580.7747339924,78777.2221991988,64015.8347860848
3032021456,7894,1,0,53556.0080569078,48188.1434295892,68986.8621492200,71162.3855026779,65078.6587681752,74949.0822632489,74869.5785322078,78583.0622609951,78779.3758815365,64018.8767102906
3032021456,7894,1,0,53556.5556032648,48205.2025405349,68981.3866856497,71151.1303831167,65073.0251245462,74948.8389093124,74862.2170756299,78576.8202325249,78771.3938724206,64006.1492994138
3032021456,7894,1,0,53544.9962912830,48187.5472124449,68978.5272768963,71141.0068593600,65067.0386177093,74937.0605787878,74853.5780108856,78569.6534590962,78767.2325201072,64007.3295660056
3032021456,7894,1,0,53529.0201053545,48166.7404508776,68971.8228759469,71133.9252598091,65057.6451557620,74934.0551576726,74846.6424236966,78565.2365851495,78761.7570565369,64003.7887662301
3032021456,7894,1,0,53522.1575243464,48131.7704902085,68973.0396456292,71132.0514344984,65057.3044602509,74948.8024062220,74851.2418130956,78567.7187953014,78765.3830301901,63997.4980669727
3032021456,7894,1,0,53541.2121375711,48140.2635425909,68979.5006926422,71148.3074774538,65070.0562065214,74950.1895236598,74863.7137023391,78575.8346490823,78773.1946915504,64005.8937777805
3032026554,7895,1,0,53567.9810705816,48213.2210527413,68981.5205303148,71162.5315150398,65079.0968052608,74942.8280670819,74870.9048111615,78578.1951822659,78775.5308893404,64017.4530897623
3032026554,7895,1,0,53563.7588797840,48227.2747425718,68982.0680766718,71157.2507346187,65079.4861715591,74957.4658063599,74873.9102322768,78580.4705415718,78777.4290500448,64019.9109645205
3032026554,7895,1,0,53543.0129567009,48162.9319617720,68988.7238068340,71153.3570716353,65083.4528407234,74966.2387157693,74877.2685165999,78588.3187060226,78786.0924501827,64020.0691445792
3032026554,7895,1,0,53541.1634667838,48141.7845046938,68989.5512102179,71160.3534973085,65087.5411868559,74945.5414634734,74877.4145289618,78588.8419169860,78783.7319169991,64021.7726221344
3032026554,7895,1,0,53548.4762525744,48172.9581439542,68979.4520218549,71153.1988915766,65080.8976243906,74934.3593500931,74866.5487756989,78575.6156305395,78773.2920331250,64010.9555396588
3032026554,7895,1,0,53557.1031496219,48191.2948630663,68977.9432274488,71148.0154527301,65080.3744134272,74946.8434070335,74863.3608391313,78573.9121529843,78772.0509280491,63997.1330360680
3032026554,7895,1,0,53562.5907808890,48198.3521272236,68978.9896493756,71150.3394828232,65081.6641892904,74939.2750996096,74865.6970369213,78577.2947727010,78774.0707657217,63998.4958181121
3032026554,7895,1,0,53550.7151087898,48182.1812581459,68973.7088689544,71143.5499079960,65075.8967009964,74935.2475919612,74860.7447843143,78573.0725819035,78770.7489844890,63999.9194386404
3032065206,7896,1,0,53535.3838107929,48128.5460505504,68975.7652097175,71142.5399891597,65074.1932234412,74955.0200992985,74870.6857926187,78577.8544867549,78773.4137100932,64001.0023636577
3032065206,7896,1,0,53545.4099929750,48125.4919586478,68983.4673618064,71155.0362137969,65087.2004913449,74949.3621202758,74879.9210745073,78584.8874155186,78778.3051242160,64006.6846780740
3032065206,7896,1,0,53567.6403750705,48197.0501836636,68980.9973193514,71159.8546217388,65091.8120484408,74934.4688593646,74874.1900893037,78580.4097030877,78773.8274117852,64010.5540056637
3032065206,7896,1,0,53566.0220713931,48214.1336300030,68975.9477251699,71152.2741466181,65089.3176705921,74944.4463707594,74872.1215808438,78577.3921142756,78768.2302712466,64006.3561502598
3032065206,7896,1,0,53540.3725664903,48151.4943267585,68979.4763572485,71142.4183121915,65084.3410825915,74947.0989286668,74873.2288412547,78581.4926281050,78770.3474504938,64008.1813047832
3032065206,7896,1,0,53526.5135598090,48117.4126079574,68976.4709361332,71135.5192280929,65083.7813685376,74935.0407411152,74859.2481576051,78577.5381266375,78770.9193322445,64009.1790559227
3032065206,7896,1,0,53532.1228680444,48137.9881832850,68974.6092785193,71135.5800665770,65085.3510014278,74943.1687625930,74853.6996878539,78575.9076552632,78772.0752634427,64004.9446974283
3032065206,7896,1,0,53546.9796258652,48169.2104933327,68980.9243131704,71139.0478601715,65093.3086751500,74954.3143728828,74856.0845564312,78582.2713607016,78777.0518514433,64001.8419347385
3032087011,7897,1,0,53555.2171566143,48209.7410914499,68982.0437412781,71142.7468400057,65096.9589841969,74944.3246937911,74855.7316932233,78581.6508081637,78777.9279256145,64006.7820196486
3032087011,7897,1,0,53548.1598924570,48214.6446732695,68979.3911833708,71139.5224003476,65091.3983467488,74941.0272479521,74854.2228988173,78579.5336289165,78775.5308893404,64012.8050295759
3032087011,7897,1,0,53528.0953603960,48153.9522015167,68979.5615311263,71136.8576747434,65089.3176705921,74959.2301223992,74861.8277093316,78581.8089882224,78775.7620755800,64013.1700604806
3032087011,7897,1,0,53540.9201128474,48142.4658957159,68992.6296375141,71163.4440923015,65105.0626702810,74962.8074252652,74889.7769089339,78595.0717777594,78788.2704679140,64027.9781475141
3032087011,7897,1,0,53559.0499811135,48196.4539665192,68984.9883239093,71163.7726201158,65104.4299500462,74931.9623138190,74881.3933658229,78584.2181921933,78779.1446952968,64020.8113740854
3032087011,7897,1,0,53551.7250276261,48204.5576526033,68973.0518133260,71137.3565503132,65089.5610245285,74932.8627233839,74855.4153331059,78570.6755456294,78764.4339498379,63998.8851844105
3032087011,7897,1,0,53530.6992475161,48153.0396242550,68972.1635714579,71124.6656425268,65082.9661328505,74940.5405400792,74842.0308666007,78567.6092860300,78765.0910054663,63994.0424410750
3032087011,7897,1,0,53522.0115119845,48135.8345009474,68971.9932237024,71128.2551130896,65081.9927171047,74931.7432952762,74842.0065312070,78567.5971183332,78766.9769984739,64002.1096240686
3032115310,7898,1,0,53525.2481193394,48148.5984149146,68971.4943481327,71132.1731114666,65081.7980339555,74943.6798058595,74848.3093981613,78568.7652172282,78767.5732156182,64005.3583991203
3032115310,7898,1,0,53540.4942434586,48172.0942374797,68979.7318788818,71139.4858972572,65090.5831110617,74948.1696859872,74860.1120640796,78576.8080648281,78771.7954064158,64009.4832483433
3032115310,7898,1,0,53552.4307540419,48213.0507049857,68979.8048850627,71141.3718902647,65091.0211481473,74932.6072017506,74855.3544946218,78570.9188995658,78771.9657541713,64013.9244576836
3032115310,7898,1,0,53541.7231808377,48209.3517251516,68974.4024276733,71129.5813920433,65080.8854566938,74941.4896204314,74845.0849585032,78566.1613301081,78768.9116622687,64010.8338626906
3032115310,7898,1,0,53521.0259285418,48141.5776538478,68980.2185867547,71127.3668712215,65078.6587681752,74954.9349254207,74851.0592976433,78572.6345448179,78775.4578831595,64009.6170930083
3032115310,7898,1,0,53525.9416780583,48128.3878704917,68986.6431306772,71142.8685169739,65088.0035593352,74948.3643691364,74862.3752556886,78583.2082733570,78785.3380529797,64017.5260959432
3032115310,7898,1,0,53543.3901553024,48199.0578536394,68981.7273811608,71150.0961288868,65092.1040731645,74934.2133377313,74868.6172841588,78578.9617471658,78780.4953096442,64016.7473633466
3032115310,7898,1,0,53549.8998731027,48234.6848699369,68979.6832080945,71145.1682116735,65091.5078560202,74948.9970893711,74866.7069557576,78578.7183932293,78777.9522610082,64009.9699562162
3032144049,7899,1,0,53545.6168438210,48209.8871038118,68988.6142975625,71147.6504218254,65094.5984510132,74961.3107985560,74869.4568552396,78584.6440615821,78785.1920406178,64019.1322319239
3032144049,7899,1,0,53547.5515076159,48187.1943492370,68996.5111328006,71158.0538026090,65102.6412986132,74962.3207173923,74879.4708697249,78592.5408968202,78791.7382615086,64033.1372509671
3032144049,7899,1,0,53548.3180725157,48161.3988319724,69000.4899696617,71158.8447029025,65104.7463101636,74963.1359530794,74883.4132034955,78595.2299578181,78794.1474654795,64032.1151644339
3032144049,7899,1,0,53544.5339188038,48144.3275533298,68992.9094945410,71145.6914226369,65096.2289223875,74946.6122207938,74870.8196372837,78587.2479487022,78784.4863142021,64015.1777304564
3032144049,7899,1,0,53551.2383197532,48183.4953694028,68981.0216547450,71137.2835441322,65085.3510014278,74926.2556640091,74853.7361909443,78572.4520293655,78774.1559395994,64008.3881556292
3032144049,7899,1,0,53542.8061058549,48193.1808560739,68971.4091742549,71125.3957043362,65073.7186832651,74933.3737666505,74844.3913997843,78563.8616354085,78766.6971414470,64003.0952075112
3032144049,7899,1,0,53522.9970954272,48130.3833727707,68975.0229802113,71124.1059284730,65070.5185790006,74953.7911619194,74850.3657389244,78570.3470178151,78773.6935671201,64006.3926533502
3032144049,7899,1,0,53523.3134555446,48109.7226235653,68982.0924120654,71135.1541971882,65078.4397496324,74946.0768421336,74861.3775045491,78577.7571451803,78781.2010360599,64023.4152612055
3032198364,7900,1,0,53541.7231808377,48159.8535344758,68980.7296300213,71143.5620756929,65081.9197109237,74938.7275532526,74864.5289380263,78575.1532580602,78780.3006264950,64027.1142410397
3032198364,7900,1,0,53551.1531458755,48185.0893376866,68980.2794252388,71142.9050200644,65080.8611213001,74950.3477037185,74867.0476512686,78574.4718670381,78779.2663722651,64015.6644383293
