steady_timestamp,sequence,battery,flags,EEG-ch1,EEG-ch2,EEG-ch3,EEG-ch4,EEG-ch5,EEG-ch6,EEG-ch7,EEG-ch8,EEG-ch9,EEG-ch10
2993100069,7345,-2,0,55981.0787045074,48281.6035088862,69964.7069366989,72169.8586319207,65467.7817125729,75836.7035787857,75374.7934719932,79335.9019988242,79627.0871514940,64649.4919335332
2993100069,7345,-2,0,55974.5446513135,48299.6603709714,69964.6460982148,72165.1010624630,65463.1093169929,75842.4588993830,75372.2990941445,79335.5856387068,79627.0384807067,64649.4919335332
2993100069,7345,-2,0,55950.1727545772,48228.0778105621,69966.4469173446,72157.7639412787,65460.6757776283,75852.4729138682,75376.1440863405,79337.6054763794,79630.0560695188,64645.9267983641
2993100069,7345,-2,0,55948.5301155061,48202.7933365640,69970.2432387534,72165.2105717344,65464.5572729148,75842.0938684783,75380.8043142237,79342.3873812308,79636.0669117493,64654.6875400766
2993100069,7345,-2,0,55964.4941337378,48259.7989961795,69964.9746260291,72172.6328667964,65469.1931654043,75834.0145177878,75381.7290591823,79337.2404454747,79632.3435965215,64654.4076830497
2993100069,7345,-2,0,55972.3666335822,48290.3399152051,69964.4514150657,72167.6927818862,65467.6478679078,75843.7000044589,75381.5343760331,79336.3157005162,79632.2462549469,64646.7785371417
2993100069,7345,-2,0,55967.3657101880,48269.6183275156,69964.8529490608,72159.6499342863,65465.2264962401,75839.3561366931,75373.8930624283,79336.6928991177,79631.6378701058,64647.9709714303
2993100069,7345,-2,0,55954.0420821669,48246.5970451266,69957.4671570893,72148.7355102361,65456.5752637989,75823.1000937377,75358.3549135854,79329.0029147256,79624.9943076405,64649.0173933571
2993132337,7346,-2,0,55941.3146712901,48209.8506007213,69952.1863766681,72140.4858117901,65447.1939695484,75833.0289343452,75352.5022514135,79323.4057741870,79618.6671052925,64643.3837497281
2993132337,7346,-2,0,55950.4282762104,48204.5698203002,69957.4914924829,72147.9811130331,65450.8077755049,75833.7711638514,75358.4887582504,79326.3260214245,79617.9248757863,64647.1922388337
2993132337,7346,-2,0,55971.0890254158,48267.9756884445,69956.7492629767,72156.7053516551,65454.9204570310,75819.8269832923,75359.5351801772,79323.5761219425,79619.3971671019,64652.5703608294
2993132337,7346,-2,0,55969.8722557335,48285.6066811409,69953.0137800521,72148.2853054537,65453.7888612265,75827.1032659924,75355.6171818002,79321.0939117907,79613.4228279619,64645.9998045450
2993132337,7346,-2,0,55953.3850265384,48214.4499901204,69957.1386292751,72144.8175118591,65455.3463264198,75839.3318012995,75363.4410108574,79329.3071071461,79619.4336701924,64640.2809870382
2993132337,7346,-2,0,55950.7811394183,48182.0595811777,69958.5744175002,72153.7364336303,65456.9646300973,75825.4362915277,75367.8092140168,79330.7550630681,79620.0420550335,64642.1913154394
2993132337,7346,-2,0,55962.1457682509,48227.9683012907,69954.5590775486,72157.6422643105,65455.6261834467,75819.7053063241,75365.5460224077,79328.0416666766,79613.1186355413,64639.6847698939
2993132337,7346,-2,0,55972.5856521250,48261.9526785171,69956.5789152212,72157.3137364963,65458.4612568065,75835.5841506780,75369.0624867896,79328.5648776399,79613.0212939667,64636.5576718104
2993162334,7347,-2,0,55978.9006867761,48270.2632154472,69960.5212489918,72161.6697719589,65461.6735287678,75829.7071531125,75372.2990941445,79332.4342052296,79616.8906215564,64640.8893718794
2993162334,7347,-2,0,55973.7780864137,48262.9504296566,69957.8200202972,72158.7008539341,65461.4545102249,75829.5976438411,75369.7438778117,79329.4652872048,79615.3939948472,64642.6050171314
2993162334,7347,-2,0,55964.7253199774,48217.8447775340,69961.8596956424,72156.6688485647,65460.0065543030,75845.5981651633,75372.0070694207,79335.4517940417,79617.9127080895,64639.4049128670
2993162334,7347,-2,0,55974.7515021595,48203.3408829210,69972.9566351449,72166.1839874802,65469.9232272137,75847.7396798041,75379.7092215096,79342.7159090450,79626.0042264768,64646.1579846037
2993162334,7347,-2,0,55996.2274870520,48271.0419480439,69972.8349581767,72174.2146673833,65478.0269132978,75831.0212643694,75379.0521658812,79337.6298117730,79624.1425688629,64651.6699512645
2993162334,7347,-2,0,55998.0526415754,48303.3836861993,69969.8660401519,72171.7811280187,65476.9683236742,75841.5706575149,75382.7754811090,79337.2891162620,79620.3827505446,64642.1791477426
2993162334,7347,-2,0,55981.5532446835,48247.2662684519,69975.1954913603,72170.5886937301,65479.0246644373,75852.2295599318,75387.2045227526,79344.7114113240,79626.4179281688,64641.0232165444
2993162334,7347,-2,0,55975.8587625704,48218.7695224925,69976.2905840744,72175.1394123419,65479.5722107943,75838.9911057884,75383.8827415199,79346.1350318523,79629.8248832792,64646.9732202908
2993198614,7348,-2,0,55977.2458800082,48247.8503178994,69969.4401707631,72173.2655870311,65477.1021683392,75838.5287333091,75381.5100406394,79339.2237800569,79625.9798910831,64643.0187188234
2993198614,7348,-2,0,55988.3671549044,48277.4786596632,69973.3338337464,72179.0209076284,65484.0620909220,75852.5945908365,75390.7574902249,79345.4293054366,79631.4310192598,64641.0353842413
2993198614,7348,-2,0,56003.6376144172,48305.2940146005,69976.0228947443,72189.4364561088,65490.4988025413,75842.2033777497,75395.2838734430,79350.2112102880,79634.9231482480,64644.6735255913
2993198614,7348,-2,0,55999.2207404704,48302.4224381502,69970.2675741470,72185.1412591303,65484.3906187362,75838.7477518520,75390.7574902249,79347.0232737204,79629.0704860761,64641.4004151459
2993198614,7348,-2,0,55982.1981326152,48237.2400862698,69971.7398654626,72177.6702932811,65484.1350971029,75859.5301780255,75390.8913348899,79350.6979181609,79633.8767263212,64637.7744414927
2993198614,7348,-2,0,55984.8506905226,48209.9114392054,69979.8922223340,72183.8636509639,65492.0319323410,75853.7383543378,75395.1013579907,79357.1589651739,79638.0380786347,64642.0574707744
2993198614,7348,-2,0,56001.8124598937,48275.7143436239,69975.4145099031,72184.8735698002,65495.9742661116,75837.5553175633,75385.1116788990,79351.6104954226,79632.3192611279,64643.7852837232
2993198614,7348,-2,0,56004.7327071312,48314.2737748558,69974.9521374239,72178.5341997555,65493.4920559597,75854.7482731741,75381.7777299695,79346.8650936617,79627.4765177923,64639.0398819623
2993227366,7349,-2,0,55992.5163395210,48272.5507424499,69984.0049038601,72176.7212129289,65494.2829562532,75865.1273185641,75388.1049323175,79353.9345255158,79634.9961544289,64639.4049128670
2993227366,7349,-2,0,55982.2833064929,48246.0008279823,69986.1585861978,72179.8361433155,65494.3316270405,75849.9176975354,75390.1977761710,79353.7398423666,79637.0159921015,64645.9754691514
2993227366,7349,-2,0,55980.7866797837,48254.7615696948,69981.4131844369,72174.9812322832,65490.5718087222,75849.5039958434,75384.3451139992,79347.9845217694,79632.5747827612,64645.7929536990
2993227366,7349,-2,0,55987.7222669728,48269.4723151537,69982.2770909113,72175.6991263957,65493.1026896614,75859.2138179082,75386.1946039163,79350.0651979261,79634.7528004925,64642.7997002806
2993227366,7349,-2,0,55999.0382250181,48309.7960624250,69982.8124695715,72179.4467770172,65496.0229368989,75848.0317045279,75384.1017600627,79349.3838069040,79637.4540291872,64646.4135062370
2993227366,7349,-2,0,55990.8493650563,48322.2192808812,69977.4830183630,72171.8541341997,65489.6105606732,75846.1457115203,75377.9692408640,79345.0642745319,79632.0515717978,64645.1724011610
2993227366,7349,-2,0,55968.9961815623,48252.1698502715,69976.7286211600,72164.1641498076,65480.9106574448,75857.4616695656,75378.1882594068,79344.9182621700,79629.6910386141,64638.6383479671
2993227366,7349,-2,0,55968.4973059925,48216.7740202136,69977.7385399963,72172.5963637059,65484.0134201347,75848.9686171832,75385.3063620482,79348.5807389137,79634.1322479545,64642.7023587060
2993272819,7350,-2,0,55984.9358644003,48277.0771256681,69971.4843438293,72173.6792887231,65483.4658737776,75831.9095062375,75379.6362153287,79338.8465814553,79626.9533068290,64644.9047118309
2993272819,7350,-2,0,55988.4279933885,48312.7528127529,69965.3274892369,72164.0059697489,65477.2238453075,75844.6369171143,75373.1873360125,79332.3611990487,79621.6846941046,64641.1205581190
2993272819,7350,-2,0,55977.8177617589,48276.7972686411,69970.6934435358,72160.4651699734,65476.4451127108,75848.9929525769,75374.5014472694,79334.7947384133,79626.8803006480,64644.4180039580
2993272819,7350,-2,0,55967.7307410927,48248.5560443151,69971.9345486118,72160.4408345798,65471.0183199278,75834.7689149909,75371.7272123938,79332.4463729265,79627.0749837972,64646.1823199974
2993272819,7350,-2,0,55963.1921901777,48235.6826210764,69969.0386367679,72158.2749845453,65468.1954142648,75847.2894750217,75372.4937772936,79331.2417709410,79624.7144506135,64641.9966322903
2993272819,7350,-2,0,55976.4428120179,48239.6249548471,69974.3680879764,72168.8243776908,65476.3842742267,75853.4950004014,75391.9620922103,79338.7857429712,79629.4841877681,64640.8528687889
2993272819,7350,-2,0,55995.8016176632,48288.6121022562,69977.0571489742,72179.4102739267,65482.1882656112,75836.1438647318,75392.9355079562,79336.4130420907,79627.4521823987,64646.1701523005
2993272819,7350,-2,0,55991.4699175942,48306.0119087130,69964.9624583322,72168.5931914511,65469.8502210328,75827.4439615034,75377.1053343895,79326.9465739625,79621.0276384762,64639.9889623145
2993312303,7351,-2,0,55966.3557913517,48231.8497965772,69959.7181810015,72155.1965572491,65458.4125860192,75840.2808816516,75367.7727109263,79324.8172270185,79616.0632181724,64633.3453998491
2993312303,7351,-2,0,55960.5152968767,48192.6454774137,69963.1616392024,72158.6035123595,65462.2940813057,75836.0100200668,75368.4784373421,79329.4044487207,79620.4800921191,64639.8551176494
2993312303,7351,-2,0,55973.6442417486,48248.8237336452,69960.9836214711,72162.3876660714,65466.9543091889,75831.6904876947,75362.9664706813,79325.6081273120,79618.4480867497,64642.6415202219
2993312303,7351,-2,0,55988.6470119313,48295.9127203500,69964.6095951244,72162.7405292793,65473.6587101383,75847.0582887820,75367.5901954740,79330.5360445253,79622.8284576060,64640.0741361922
2993312303,7351,-2,0,55984.7776843416,48278.4885784995,69966.2278988018,72157.9951275184,65473.1841699623,75838.6017394901,75368.0890710437,79333.6144718215,79624.5806059485,64639.9402915272
2993312303,7351,-2,0,55968.9353430781,48246.6578836107,69960.1197149967,72148.7720133266,65463.0728139024,75824.2316895422,75356.8947899666,79324.5982084757,79617.7423603340,64638.0908016101
2993312303,7351,-2,0,55953.6162127781,48207.1372043298,69955.2769716612,72140.1451162791,65455.0056309088,75835.3164613479,75353.4756671594,79321.1182471843,79613.7635234729,64634.2701448077
2993312303,7351,-2,0,55957.6802235169,48196.4417988224,69963.3198192611,72145.6084121526,65462.0628950661,75847.3624812026,75357.7100256538,79328.0660020702,79620.5165952096,64639.2345651115
2993321180,7352,-2,0,55976.9660229813,48261.3077905855,69966.4590850415,72154.7341847698,65469.2661715853,75833.3452944626,75360.0948942311,79327.4697849259,79623.9235503200,64650.1124860712
2993321180,7352,-2,0,55974.7149990690,48295.0609815724,69959.9371995444,72147.0076972872,65462.2210751248,75833.7224930641,75352.9281208023,79320.8018870669,79621.0398061730,64650.1246537680
2993321180,7352,-2,0,55954.1272560446,48230.3653375648,69961.4824970409,72137.6629061272,65456.1128913197,75844.9046064444,75354.6072629639,79324.2331775710,79621.1128123540,64647.5329343447
2993321180,7352,-2,0,55948.6031216870,48188.7883175208,69963.5023347135,72143.7710899323,65456.0642205324,75832.9315927706,75359.4986770867,79328.1998467353,79620.5044275128,64655.7461297002
2993321180,7352,-2,0,55955.7820628125,48224.7803647231,69954.3400590058,72144.6228287100,65453.0709671139,75820.0338341383,75353.9502073355,79318.7577140007,79612.0600459177,64649.6501135919
2993321180,7352,-2,0,55964.2994505886,48259.3731267907,69951.5049856461,72147.4335666760,65454.4215814613,75832.4327172008,75359.4986770867,79319.3660988418,79607.8621905138,64641.0962227254
2993321180,7352,-2,0,55971.5270625014,48269.3384704887,69957.1264615783,72154.2596445937,65458.3030767478,75832.0798539930,75367.6632016549,79325.3039348914,79614.6761007346,64642.8483710679
2993321180,7352,-2,0,55965.8569157819,48265.6638260481,69952.8799353870,72154.6003401047,65455.5653449626,75823.3799507646,75365.0228114444,79323.4666126711,79611.9505366463,64644.5031778358
2993354065,7353,-2,0,55952.6914678195,48221.3734096126,69950.1908743892,72146.9346911063,65452.3530730014,75831.2889536995,75362.4067566274,79323.9533205441,79609.7603512181,64638.6991864512
2993354065,7353,-2,0,55956.5121246219,48194.5436381180,69954.0845373725,72151.2298880848,65458.8992938921,75835.0001012305,75368.2350834056,79329.8668212000,79616.4160813803,64641.6681044760
2993354065,7353,-2,0,55977.0025260718,48258.7647419495,69953.7925126488,72158.0437983056,65463.8028757118,75824.0370063930,75364.6821159333,79326.2408475468,79614.5787591600,64649.0052256603
2993354065,7353,-2,0,55979.9714440965,48302.7144628740,69951.3954763746,72150.3903170040,65462.4644290612,75832.9072573770,75359.7785341137,79322.0429921429,79610.3322329688,64646.5351832052
2993354065,7353,-2,0,55962.0240912827,48251.2207699193,69957.8565233876,72146.3263062652,65462.5496029390,75845.4399851046,75364.7916252047,79328.1511759480,79617.2434847643,64643.0430542170
2993354065,7353,-2,0,55950.1849222740,48211.5297428829,69960.0223734221,72149.1370442313,65464.0097265578,75826.8112412686,75366.5437735472,79329.8424858064,79619.7987010971,64647.4477604669
2993354065,7353,-2,0,55950.3187669390,48229.6474434522,69952.0281966094,72146.5574925048,65460.6271068410,75820.2771880747,75357.0286346317,79323.9289851504,79609.6995127340,64645.0993949801
2993354065,7353,-2,0,55957.5098757614,48247.9719948676,69952.2958859395,72147.0076972872,65464.0949004355,75833.9293439101,75359.5230124804,79326.8492323879,79610.6729284799,64640.9988811508
2993383687,7354,-2,0,55967.3657101880,48266.1627016179,69956.7492629767,72155.4764142760,65472.0647418545,75828.3443710683,75371.1066598558,79332.1786835964,79614.6639330378,64643.6879421487
2993383687,7354,-2,0,55965.1998601535,48268.9856072808,69951.2859671032,72153.2253903638,65468.1954142648,75820.7030574635,75362.6501105639,79326.3016860309,79608.9329478342,64642.4711724664
2993383687,7354,-2,0,55952.7888093941,48216.8835294850,69951.5049856461,72144.1969593211,65465.0074776972,75837.4944790792,75357.3814978396,79329.2219332684,79611.1231332623,64639.6482668034
2993383687,7354,-2,0,55957.2421864313,48188.5692989780,69961.4703293440,72151.6922605641,65472.1742511260,75837.1051127809,75361.1169807642,79335.5369679195,79617.9613788768,64645.5252643689
2993383687,7354,-2,0,55978.7911775047,48258.8377481305,69959.7425163952,72159.4430834403,65476.3842742267,75819.6931386272,75357.1746469936,79330.8037338554,79614.0555481966,64646.4865124179
2993383687,7354,-2,0,55986.9800374666,48316.1719355602,69956.0678719547,72160.4043314893,65472.8069713607,75833.0411020420,75361.9930549354,79328.7230576986,79609.8211897023,64638.9060372972
2993383687,7354,-2,0,55976.1507872941,48283.8423651016,69962.1517203661,72159.0293817483,65469.8988918201,75847.2773073248,75371.6298708192,79334.9772538656,79615.9780442947,64640.5730117620
2993383687,7354,-2,0,55962.4012898842,48252.0238379096,69963.6361793785,72156.8635317138,65466.9908122794,75832.5908972595,75370.6929581639,79331.9353296599,79620.6626075715,64647.1800711368
2993438539,7355,-2,0,55955.2223487587,48254.9440851471,69955.1187916025,72144.8296795559,65458.3030767478,75825.4849623149,75356.6149329397,79321.8604766905,79611.3421518051,64642.5928494346
2993438539,7355,-2,0,55959.7730673705,48261.9891816076,69956.4572382530,72143.0775312134,65460.2012374522,75838.6869133678,75356.3107405191,79323.2962649156,79610.6242576926,64638.5896771798
2993438539,7355,-2,0,55978.6451651429,48293.4913486822,69960.6307582633,72153.7486013272,65468.4387682013,75829.6706500220,75362.2607442655,79325.6446304024,79615.1993116980,64643.9677991756
2993438539,7355,-2,0,55978.7060036270,48308.5427896522,69957.4306539988,72150.6458386373,65464.3017512815,75825.4362915277,75354.9601261718,79320.6680424019,79612.3155675510,64645.7199475181
2993438539,7355,-2,0,55955.5873796634,48240.5131967151,69956.0435365610,72138.2834586652,65456.7699469481,75838.5043979155,75351.4071586995,79323.0407432823,79611.2569779274,64637.2025597420
2993438539,7355,-2,0,55948.5787862934,48190.0172548999,69962.0300433979,72144.1604562307,65457.7311949971,75838.6260748837,75356.3715790032,79329.7208088381,79617.6450187594,64644.0043022660
2993438539,7355,-2,0,55967.0493500706,48240.3428489596,69959.3774854905,72150.5850001532,65463.1823231738,75826.7990735718,75353.8528657609,79324.7320531407,79614.3840760109,64647.6181082225
2993438539,7355,-2,0,55981.6992570454,48283.7450235270,69956.4329028593,72151.5340805054,65466.3459243478,75838.8572611234,75356.8461191793,79324.0749975123,79615.0046285488,64643.3959174249
2993447456,7356,-2,0,55975.7492532990,48247.6678024470,69959.7181810015,72149.0883734440,65464.7641237608,75840.4755648008,75360.1435650184,79328.6743869114,79618.9834654099,64640.7068564270
2993447456,7356,-2,0,55961.5373834098,48207.4170613567,69955.3013070548,72145.5232382748,65457.0863070655,75819.9486602605,75356.4932559715,79322.7608862554,79613.3619894777,64640.6825210334
2993447456,7356,-2,0,55949.2601773154,48191.3557015504,69947.9398504769,72139.7800853744,65449.7856889717,75822.8932428917,75351.1029662789,79316.7013732376,79607.4606565186,64636.1561378152
2993447456,7356,-2,0,55952.8496478782,48195.2493645338,69950.4707314161,72142.6029910373,65453.3751595345,75832.9680958611,75361.8835456640,79319.6946266560,79609.0667924992,64635.9249515756
2993447456,7356,-2,0,55970.4928082715,48252.1333471810,69953.1597924140,72151.1447142070,65457.6946919066,75823.8179878502,75362.4310920211,79320.9722348224,79611.7436858003,64640.7920303048
2993447456,7356,-2,0,55972.0016026775,48292.2502436063,69947.5504841786,72145.5840767590,65450.2723968447,75822.2361872632,75353.2444809197,79314.8275479268,79608.7869354723,64640.0132977081
2993447456,7356,-2,0,55953.7865605336,48239.6736256343,69946.9420993375,72135.1320251881,65444.0182006777,75836.1316970350,75354.2057289688,79317.1150749296,79609.2614756484,64631.8852762304
2993447456,7356,-2,0,55947.2403396428,48196.5148050034,69950.7870915335,72139.9991039172,65446.9506156120,75828.7215696699,75357.8317026220,79322.6513769840,79614.3110698299,64636.4238271454
2993479739,7357,-2,0,55960.6613092385,48245.1125861142,69945.8105035329,72146.4844863239,65446.4030692550,75814.4366935997,75357.1016408126,79317.0177333550,79607.7770166360,64641.2178996936
2993479739,7357,-2,0,55972.9871861202,48288.2349036547,69945.1777832981,72147.6525852188,65447.0357894897,75829.0987682714,75359.7785341137,79315.3750942839,79605.7936820539,64640.4635024906
2993479739,7357,-2,0,55974.8488437341,48271.2609665867,69953.3666432600,72151.3272296594,65450.8929493826,75835.8275046145,75367.6510339581,79322.0916629302,79612.8144431207,64646.7298663544
2993479739,7357,-2,0,55963.5328856888,48241.2189231309,69952.7460907220,72147.2997220110,65449.1894718274,75821.9198271458,75360.9344653118,79319.4999435069,79614.8342807933,64650.7330386091
2993479739,7357,-2,0,55947.6662090316,48204.5576526033,69946.9177639438,72137.7724153986,65444.3832315823,75824.4385403882,75355.2764862892,79314.7423740491,79605.5259927238,64640.9745457571
2993479739,7357,-2,0,55950.8298102056,48188.6544728557,69950.4828991129,72142.1284508612,65450.9659555636,75833.4061329467,75359.1336461820,79320.3638499813,79610.7094315703,64639.0277142655
2993479739,7357,-2,0,55970.3711313032,48244.6988844222,69949.9353527559,72151.3150619626,65455.0177986056,75816.0428295803,75359.4500062994,79319.6337881719,79610.7215992672,64641.9601291998
2993479739,7357,-2,0,55969.2152001051,48285.7283581092,69937.8163267202,72142.6151587342,65440.7694256259,75806.6128645426,75349.8010227188,79307.7094452854,79598.7364178966,64634.7446849838
2993512364,7358,-2,0,55947.2768427333,48226.7028608211,69935.1150980255,72133.0635167281,65428.0176793555,75823.1487645249,75352.5509222008,79309.2425750851,79599.7220013392,64627.0668682885
2993512364,7358,-2,0,55935.9487169911,48171.4493495481,69935.2489426906,72136.1906148116,65423.8076562548,75813.9378180300,75355.1426416241,79311.5057666942,79603.5304904448,64633.0047043381
2993512364,7358,-2,0,55943.1763289040,48200.8951758596,69929.9438268758,72137.4073844939,65422.5787188756,75803.3762571877,75349.1196316968,79305.2272351336,79598.9432687425,64635.9249515756
2993512364,7358,-2,0,55951.9005675260,48235.5731118050,69926.5977102495,72135.6795715451,65422.3231972424,75813.5484517317,75346.7347631195,79302.1488078374,79595.1834504243,64629.1597121421
2993512364,7358,-2,0,55959.3350302848,48243.3117669844,69930.9659134089,72140.0356070077,65428.6017288030,75813.5119486412,75351.7843573010,79305.3002413145,79595.4998105417,64631.8122700495
2993512364,7358,-2,0,55952.3021015212,48244.1026672779,69928.1673431396,72140.7535011202,65424.4282087927,75799.2392402679,75349.8496935061,79301.4430814216,79591.5574767710,64632.5544995557
2993512364,7358,-2,0,55934.3547487073,48203.7789200067,69921.8523084885,72132.4307964934,65417.2857707577,75805.0188962588,75347.9150297113,79298.9000327856,79585.2059390294,64624.5481550462
2993512364,7358,-2,0,55932.2740725506,48173.3231748588,69924.4196925182,72132.8444981853,65419.5489623667,75807.7687957407,75351.5775064550,79300.8468642773,79586.9580873720,64622.7230005227
2993552308,7359,-2,0,55951.7302197705,48231.5456041566,69922.8257242344,72144.2699655021,65427.1537728811,75793.3014042183,75349.7645196284,79299.6544299886,79584.6948957629,64625.4363969142
2993552308,7359,-2,0,55960.6369738449,48285.5093395664,69916.9243912753,72142.7246680056,65426.5453880399,75794.3478261450,75346.7347631195,79294.9455313182,79580.5213757526,64618.1722819109
2993552308,7359,-2,0,55945.1961665766,48237.0454031206,69917.9951485957,72135.4483853054,65421.1794337410,75808.7908822739,75347.8906943177,79300.1776409520,79581.6408038603,64613.7432402674
2993552308,7359,-2,0,55934.1722332550,48184.7851452660,69919.0537382193,72136.3974656576,65419.1474283716,75797.3897503508,75345.4328195594,79300.4696656758,79584.6583926724,64619.7905855884
2993552308,7359,-2,0,55938.4674302335,48199.6540707837,69912.5805235095,72137.3952167971,65416.1663426499,75788.7263502128,75338.1200337688,79293.9356124819,79580.3753633907,64624.0979502637
2993552308,7359,-2,0,55943.3831797500,48220.7771924683,69911.0108906193,72133.8909201121,65416.3488581023,75802.5123507132,75337.9496860133,79291.5385762077,79577.0292467644,64618.5251451188
2993552308,7359,-2,0,55950.8419779024,48238.7002098885,69917.6422853878,72140.4371410029,65424.1726871594,75805.1770763175,75343.5103234614,79296.3691518464,79584.7679019438,64620.1556164931
2993552308,7359,-2,0,55947.5932028507,48244.9057352682,69916.1456586786,72139.7192468903,65424.1726871594,75794.7858632307,75343.3156403122,79291.3073899681,79580.8255681732,64622.6499943418
2993574823,7360,-2,0,55929.6336823400,48193.2903653453,69915.2452491137,72132.8566658822,65419.3907823080,75809.4844409928,75345.1407948357,79295.4809099784,79581.9693316745,64618.1601142141
2993574823,7360,-2,0,55930.8139489319,48151.7498483918,69925.8189776528,72141.8485938343,65427.5309714826,75817.5516239864,75356.5662621524,79306.7725326301,79590.6205641157,64627.4805699805
2993574823,7360,-2,0,55950.7568040247,48203.0853612878,69924.9185680879,72148.4313178155,65430.5728956883,75801.1860717595,75353.6581826117,79301.8081123263,79589.0509312255,64636.7645226564
2993574823,7360,-2,0,55962.8514946667,48262.2447032409,69922.1808363028,72145.2433812479,65429.0519335854,75805.3230886793,75352.0277112375,79297.8171077684,79584.5488834010,64634.0146231744
2993574823,7360,-2,0,55954.8086470667,48223.6000981312,69921.6454576426,72143.7832576292,65425.7666554432,75813.0982469492,75354.2909028465,79301.9662923850,79586.0576778071,64627.0181975012
2993574823,7360,-2,0,55942.9451426643,48177.6792103215,69919.9419800873,72144.2943008957,65422.2866941519,75796.9030424779,75353.8285303672,79300.3479887076,79584.9260820025,64626.3733095696
2993574823,7360,-2,0,55934.9022950644,48178.4822783118,69912.8725482332,72139.0865266555,65416.0203302881,75791.7561067218,75350.1660536235,79291.4899054204,79580.3510279971,64622.8933482782
2993574823,7360,-2,0,55940.5846094807,48192.5846389296,69913.5782746489,72137.8454215796,65417.8333171147,75804.8120454128,75353.4391640689,79294.8116866531,79578.3068549308,64621.2750446008
2993621479,7361,-2,0,55956.0375844458,48226.4351714910,69917.3380929672,72141.7999230470,65423.5521346215,75795.2117326195,75350.2877305918,79296.1257979100,79579.4992892195,64625.7527570316
2993621479,7361,-2,0,55956.4877892283,48252.7052289317,69911.7774555191,72139.5732345284,65420.5953842935,75786.4874939974,75341.0402810063,79292.3781472885,79576.2261787741,64624.7671735890
2993621479,7361,-2,0,55934.6832765216,48200.8951758596,69908.9302144626,72130.0337602192,65412.8688968109,75802.0256428403,75340.3345545906,79292.9500290392,79574.7295520649,64615.9820964828
2993621479,7361,-2,0,55924.1825541634,48145.8485154326,69914.1501563996,72133.9639262930,65413.5502878330,75803.0598970703,75346.8077693004,79298.9000327856,79582.3952010634,64620.1069457058
2993621479,7361,-2,0,55937.9807223606,48189.1898515160,69912.0086417588,72139.0135204746,65414.0978341900,75787.7407667702,75343.5589942487,79294.8116866531,79582.6385549998,64626.2516326014
2993621479,7361,-2,0,55951.3286857753,48249.6024662419,69912.3980080571,72140.3519671251,65416.5922120387,75800.6141900089,75343.0479509821,79293.0717060074,79581.9936670682,64624.8036766794
2993621479,7361,-2,0,55949.1871711345,48229.8786296919,69920.5990357158,72141.7999230470,65420.9847505918,75810.8837261274,75351.4679971836,79299.8369454410,79587.7003168782,64625.2660491587
2993621479,7361,-2,0,55936.7396172846,48191.4287077314,69919.9663154810,72140.8265073012,65418.3565280781,75792.4131623502,75349.8131904157,79295.6269223402,79585.7778207801,64625.9474401808
2993624853,7362,-2,0,55929.0983036798,48176.9126454216,69913.5296038617,72137.7602477018,65413.2339277156,75792.0724668391,75346.8199369972,79290.3583096159,79583.4659583838,64625.2295460682
2993624853,7362,-2,0,55931.5926815285,48170.8531324038,69912.5318527222,72137.2613721321,65411.7007979159,75799.8232897154,75347.8906943177,79292.7918489805,79584.0986786186,64617.6855740380
2993624853,7362,-2,0,55947.5566997602,48210.4711532593,69912.0329771524,72141.2402089932,65414.8278959994,75786.4753263006,75346.5400799703,79289.2997199923,79583.7701508043,64616.9676799255
2993624853,7362,-2,0,55946.9969857064,48252.4132042080,69904.1848127016,72137.4803906749,65409.0725754022,75784.0417869360,75344.6175838723,79280.8796737908,79576.4695327106,64614.9356745560
2993624853,7362,-2,0,55930.0230486384,48210.4954886529,69907.1415630296,72134.1221063517,65405.8359680473,75801.3685872119,75355.0696354432,79283.4957286078,79580.9229097478,64613.1226877294
2993624853,7362,-2,0,55920.6295866911,48162.9076263784,69914.0649825219,72133.5867276915,65408.1113273532,75798.3996691871,75352.8551146214,79288.9711921781,79586.2401932594,64619.0240206886
2993624853,7362,-2,0,55931.1303090493,48212.8316864429,69910.8283751670,72133.3312060583,65409.5957863656,75785.7695998849,75337.5846551086,79282.8873437666,79581.7989839190,64621.9807710165
2993624853,7362,-2,0,55943.0059811485,48273.4998228021,69911.2299091621,72130.3257849430,65412.1875057888,75800.9670532167,75332.1578623256,79280.9040091845,79580.7647296891,64619.9365979503
2993690509,7363,-2,0,55943.2128319944,48264.2767086103,69917.8613039306,72134.4871372564,65416.2271811341,75809.9224780784,75345.4328195594,79288.2776334592,79587.2014413084,64620.6788274565
2993690509,7363,-2,0,55936.7882880719,48233.6019449197,69920.6720418967,72140.5223148806,65418.1375095353,75795.0900556512,75349.9105319903,79290.9910298507,79587.2622797925,64626.8356820489
2993690509,7363,-2,0,55924.9004482759,48193.5580546754,69913.4565976807,72136.8598381369,65412.7837229332,75794.2139814800,75345.7126765864,79285.3938893122,79582.3952010634,64622.2362926498
2993690509,7363,-2,0,55924.3407342221,48166.2902460952,69914.6125288789,72137.4317198876,65416.3366904055,75803.4127602781,75347.6351726844,79288.4114781242,79583.4781260806,64619.6567409233
2993690509,7363,-2,0,55940.3655909379,48217.5770882039,69915.7076215930,72143.9657730815,65422.0068371250,75791.7196036313,75345.9925336133,79287.1460376547,79584.0621755281,64623.1975406988
2993690509,7363,-2,0,55948.8099725330,48282.7959431748,69912.8117097491,72142.4083078882,65422.0433402154,75791.3545727266,75344.5445776913,79285.4790631899,79582.5412134252,64621.5792370214
2993690509,7363,-2,0,55929.7188562178,48246.9620760313,69914.5395226980,72132.2239456474,65416.6895536133,75803.9116358479,75346.2358875497,79287.3650561975,79581.3001083493,64613.9622588102
2993690509,7363,-2,0,55914.9837753652,48187.1456784497,69918.3601795004,72130.8003251191,65415.4727839310,75798.8863770600,75348.0002035891,79289.9811110144,79586.1185162912,64618.6833251775
2993703807,7364,-2,0,55918.4150658693,48206.6383287601,69914.3813426393,72131.4695484443,65414.2560142487,75785.3072274056,75339.3611388448,79282.9603499476,79582.6020519093,64623.0880314274
2993703807,7364,-2,0,55924.9369513664,48242.3140158449,69910.3294995972,72130.2406110652,65414.5723743661,75795.8566205511,75336.5260654850,79282.2911266223,79579.3776122512,64615.5318917004
2993703807,7364,-2,0,55929.6701854305,48245.2829338697,69916.0483171040,72134.6331496183,65420.7657320490,75799.5677680821,75343.6685035201,79288.4114781242,79583.5146291711,64618.5251451188
2993703807,7364,-2,0,55925.5696716012,48242.5695374782,69914.7463735440,72134.6939881024,65419.5124592763,75786.4631586038,75341.5026534856,79286.6593297817,79583.0522566918,64622.3944727085
2993703807,7364,-2,0,55911.3456340152,48215.1192134456,69911.5462692795,72127.2108545563,65412.2483442730,75796.0026329130,75336.7450840278,79285.4425600994,79583.5876353520,64619.8392563757
2993703807,7364,-2,0,55905.6754872957,48187.5350447480,69917.4962730259,72127.2473576468,65416.9572429434,75805.5056041317,75342.5855785029,79292.1956318362,79586.9459196751,64618.4399712410
2993703807,7364,-2,0,55920.2158849991,48241.8881464561,69918.2019994417,72134.8156650707,65424.5620534578,75787.9962884035,75343.1939633440,79291.6480854791,79587.1771059148,64623.5625716035
2993703807,7364,-2,0,55928.2465649022,48301.3638485267,69911.7652878223,72131.9927594077,65422.4205388169,75784.8326872295,75339.0447787274,79284.5178151409,79581.6651392540,64618.7198282680
2993735164,7365,-2,0,55912.9639376926,48251.7074777922,69910.8892136511,72124.4244519839,65414.5358712757,75798.9958863314,75339.2759649670,79286.6471620849,79581.4826238016,64613.5972279055
2993735164,7365,-2,0,55900.4312099650,48175.1604970791,69912.9942252014,72125.6047185757,65411.5912886445,75794.3356584482,75342.4395661410,79289.1293722368,79585.3762867850,64619.3403808059
2993735164,7365,-2,0,55903.9355066500,48176.7666330597,69907.6039355089,72127.8070717006,65411.1410838621,75783.6037498504,75339.1664556956,79283.2767100650,79579.3532768576,64620.6179889723
2993735164,7365,-2,0,55911.8445095849,48204.5698203002,69906.7400290345,72126.1279295391,65413.5381201362,75797.0368871429,75337.3413011722,79286.0631126374,79579.0855875275,64614.2664512308
2993735164,7365,-2,0,55923.1239645398,48230.6330268949,69914.4786842138,72130.3501203366,65424.5012149737,75798.8620416663,75337.4994812309,79293.4124015185,79585.7778207801,64618.8658406298
2993735164,7365,-2,0,55917.0766192188,48248.4343673469,69912.3858403603,72126.8336559548,65423.0654267486,75786.8890279926,75328.7022364279,79284.8706783488,79580.0346678797,64621.5305662341
2993735164,7365,-2,0,55897.6083043021,48211.0308673131,69909.1127299149,72117.8903987899,65415.3876100533,75796.3676638177,75327.0595973568,79281.9869342017,79579.4627861290,64616.4323012653
2993735164,7365,-2,0,55892.1450084286,48162.1045583881,69915.9388078326,72121.7475586828,65418.6972235891,75807.5376095011,75336.1853699740,79291.5385762077,79588.3208694161,64619.9487656471
2993756110,7366,-2,0,55914.3023843431,48205.2877144127,69918.9077258574,72136.0446024498,65426.0221770765,75791.0017095187,75343.9970313343,79288.7278382416,79588.5277202621,64627.5657438582
2993756110,7366,-2,0,55927.6990185452,48264.9702673292,69911.6314431573,72132.2361133442,65421.4957938584,75789.6997659587,75335.9420160375,79284.1892873267,79579.3897799481,64622.4918142831
2993756110,7366,-2,0,55924.6935974299,48236.6317014286,69915.6467831089,72129.8269093733,65420.6562227776,75806.7710446013,75338.3025492212,79289.9324402271,79583.0035859045,64619.2795423218
2993756110,7366,-2,0,55916.2492158348,48188.8491560049,69920.7937188650,72133.5867276915,65422.2258556678,75799.4339234170,75341.1011194905,79295.0550405896,79585.1816036358,64622.8446774910
2993756110,7366,-2,0,55911.7471680103,48191.9397509979,69918.9928997352,72133.0513490313,65424.4038733991,75800.3221652851,75337.7306674705,79293.0352029170,79583.4294552933,64622.3823050117
2993756110,7366,-2,0,55915.5313217223,48210.6415010148,69920.9518989237,72132.2482810410,65427.0564313065,75809.9103103816,75341.3931442142,79295.3957361006,79585.5831376310,64620.1921195835
2993756110,7366,-2,0,55926.8716151612,48242.7885560210,69924.2980155500,72138.6241541762,65432.8725903878,75804.1549897843,75346.8199369972,79299.2650636903,79586.6173918609,64622.4309757990
2993756110,7366,-2,0,55927.9910432689,48273.6214997704,69916.7783789134,72137.5898999463,65429.2587844314,75791.9994606582,75342.3300568696,79293.4245692153,79583.6971446234,64625.4729000047
2993791812,7367,-2,0,55910.7007460835,48229.3432510317,69911.4489277049,72130.6056419699,65421.1307629537,75805.3960948603,75343.3034726154,79291.3925638459,79579.8278170337,64618.1722819109
2993791812,7367,-2,0,55906.2595367432,48171.8387158464,69919.9541477842,72137.3830491003,65426.7400711891,75813.4024393698,75354.8019461131,79302.4530002579,79588.1870247511,64621.0195229675
2993791812,7367,-2,0,55925.1438022124,48215.4720766535,69922.3998548456,72149.9036091311,65436.9122657331,75799.9084635931,75357.4423363237,79302.3678263802,79588.4790494748,64621.9929387133
2993791812,7367,-2,0,55937.6400268495,48280.4719130817,69919.6742907572,72146.3749770524,65436.8027564617,75804.9093869874,75351.4923325772,79298.9487035729,79585.8264915674,64614.0596003848
2993791812,7367,-2,0,55931.2398183207,48264.0211869771,69924.7238849388,72142.7733387929,65438.0560292344,75819.0847537861,75356.6879391206,79305.8964584588,79589.7079868539,64611.2001916314
2993791812,7367,-2,0,55916.6750852236,48219.1223857004,69926.9870765478,72142.4204755850,65433.6634906813,75805.0919024397,75355.8362003430,79305.1542289526,79592.0441846439,64616.9798476223
2993791812,7367,-2,0,55906.0405182004,48197.7072392920,69921.6454576426,72138.2834586652,65425.6328107782,75799.3000787520,75349.2413086650,79298.4133249127,79587.2501120957,64617.3083754365
2993791812,7367,-2,0,55909.2162870711,48190.1024287777,69924.2006739754,72138.3564648461,65425.1826059957,75814.6557121425,75352.7699407437,79301.8202800231,79588.7589065017,64616.5783136271
2993822399,7368,-2,0,55927.4800000024,48224.5978492707,69928.8609018586,72146.8373495317,65432.8117519037,75807.7687957407,75356.0065480986,79305.9086261556,79591.7521599202,64623.2340437893
2993822399,7368,-2,0,55935.2064874849,48269.5453213347,69923.7748045866,72145.7179214240,65429.2831198251,75797.3045764730,75348.8154392762,79299.5935915045,79586.5200502863,64626.9573590171
2993822399,7368,-2,0,55912.9639376926,48224.1354767914,69919.7716323318,72132.2239456474,65419.2326022493,75809.0829069976,75344.1187083025,79296.0162886386,79581.8598224031,64620.9100136961
2993822399,7368,-2,0,55897.9124967226,48157.7728583191,69924.5535371832,72134.3654602882,65421.8729924599,75809.2410870563,75350.5189168314,79299.2042252062,79588.1261862669,64625.0713660095
2993822399,7368,-2,0,55909.7760011250,48185.9410764642,69922.7283826598,72144.2212947148,65426.9225866414,75792.5226716216,75350.9934570075,79297.0383751717,79586.8485781005,64629.9384447387
2993822399,7368,-2,0,55918.5245751407,48237.1305769983,69915.6102800184,72140.6196564552,65424.2091902499,75797.9372967078,75349.5333333888,79290.7720113079,79579.7304754591,64623.2097083956
2993822399,7368,-2,0,55918.7314259867,48231.8497965772,69921.1709174665,72143.2600466658,65427.1659405779,75812.7088806509,75367.8578848041,79299.1068836316,79585.8873300515,64623.7450870558
2993822399,7368,-2,0,55912.4407267292,48206.4193102172,69922.4728610265,72141.5809045042,65427.3241206366,75798.0833090697,75361.4090054879,79297.0748782622,79586.7269011323,64627.5900792519
2993855063,7369,-2,0,55896.6713916467,48174.2600875142,69913.7121193140,72130.1189340970,65417.4196154227,75792.0846345360,75343.3034726154,79290.7598436111,79581.1784313810,64619.3282131091
2993855063,7369,-2,0,55890.7700586876,48146.0797016723,69912.4588465412,72122.8304837001,65417.6508016623,75804.0454805129,75335.7473328884,79291.5264085109,79580.5578788431,64613.2930354849
2993855063,7369,-2,0,55911.2239570469,48190.3822858046,69916.4985218864,72134.9495097357,65427.9690085682,75797.6209365904,75339.3489711479,79295.0915436800,79584.1595171027,64620.9221813929
2993855063,7369,-2,0,55925.5696716012,48255.7228177438,69914.7707089376,72139.6584084062,65430.4512187201,75792.3766592597,75341.6608335443,79294.4101526580,79583.0400889950,64624.5359873493
2993855063,7369,-2,0,55915.2514646953,48223.5270919503,69916.3646772214,72136.8111673496,65427.9811762650,75809.7642980197,75351.6261772423,79299.8247777442,79584.1716847995,64619.2795423218
2993855063,7369,-2,0,55903.2419479311,48154.9134495657,69922.5458672075,72139.6462407094,65432.5440625736,75809.7156272324,75358.2332366172,79303.8522853926,79586.1185162912,64623.0150252465
2993855063,7369,-2,0,55912.1973727928,48172.4471006876,69922.6797118725,72147.3970635856,65436.0240238650,75797.6452719841,75358.7807829742,79303.2682359451,79590.6448995093,64631.1430467242
2993855063,7369,-2,0,55926.3970749851,48222.4563346299,69918.7130427082,72146.3628093556,65435.9753530777,75804.3983437208,75358.3184104949,79300.9685412455,79588.4425463844,64628.1497933058
2993907581,7370,-2,0,55929.9378747606,48235.2567516876,69921.9983208504,72145.9491076636,65437.6666629361,75808.8152176675,75360.3139127739,79304.5701795051,79589.3551236461,64626.9330236235
2993907581,7370,-2,0,55922.4790766081,48234.1251558831,69919.8568062096,72145.7787599081,65436.8270918553,75799.6286065662,75358.2940751013,79303.6089314561,79589.8661669126,64629.5004076531
2993907581,7370,-2,0,55908.0238527825,48208.2688001343,69918.2750056226,72139.9017623426,65433.4566398353,75805.5542749190,75355.0574677464,79301.2118951820,79587.0310935529,64624.1101179605
2993907581,7370,-2,0,55903.3271218088,48170.2812506531,69924.6143756674,72138.4173033303,65436.0605269555,75818.7562259719,75360.0583911406,79309.1695689042,79592.2510354899,64621.1411999357
2993907581,7370,-2,0,55925.0099575473,48213.2088850444,69930.2358515996,72151.8139375323,65444.6509209125,75809.3992671150,75365.5825254982,79311.0433942149,79599.6733305519,64631.3377298734
2993907581,7370,-2,0,55935.9122139007,48280.8491116832,69923.2272582295,72148.6381686615,65441.5846613131,75801.3564195151,75359.1336461820,79302.0149631723,79592.0685200376,64630.2304694625
2993907581,7370,-2,0,55920.8242698402,48251.2329376161,69920.5381972317,72137.9305954573,65433.9555154051,75816.1280034581,75356.3837467001,79300.7130196122,79589.4646329175,64623.7085839654
2993907581,7370,-2,0,55907.5736480000,48190.2849442300,69929.1164234918,72143.5034006022,65438.7617556502,75820.7517282508,75363.6113586129,79309.2304073883,79596.6070709525,64629.2448860198
2993911758,7371,-2,0,55916.7724267982,48199.8122508424,69932.4382047245,72153.8824459922,65443.1664619001,75813.1590854333,75367.5536923835,79312.1263192322,79601.2794665325,64633.1628843968
2993911758,7371,-2,0,55928.3560741736,48227.2869102686,69930.2723546900,72153.5052473907,65443.8721883158,75812.9035638000,75367.5171892931,79309.3399166597,79598.1280330554,64623.6720808749
2993911758,7371,-2,0,55929.6823531273,48233.1274047436,69926.5612071590,72147.7985975807,65438.9929418898,75805.1649086206,75361.5915209403,79304.6310179892,79590.7300733871,64615.9212579987
2993911758,7371,-2,0,55921.5178285591,48238.9435638250,69917.9099747179,72142.0554446803,65430.7067403534,75791.3910758171,75352.7699407437,79298.2916479445,79584.5245480074,64615.0573515243
2993911758,7371,-2,0,55900.3582037840,48199.2403690917,69911.1325675875,72131.6885669872,65422.1650171837,75797.7547812555,75348.9614516381,79294.7386804722,79577.9296563293,64608.4016213621
2993911758,7371,-2,0,55894.1040076170,48146.3838940928,69917.5571115100,72138.9283465968,65425.6206430814,75810.5917014037,75363.7087001875,79300.2749825266,79583.4902937774,64611.0298438759
2993911758,7371,-2,0,55913.4263101719,48185.8802379801,69919.5282783954,72151.4002358403,65434.4787263685,75794.3113230546,75369.1476606673,79300.5426718567,79585.7169822960,64623.7450870558
2993911758,7371,-2,0,55929.7431916114,48261.0644366491,69912.3858403603,72146.3506416588,65430.6580695661,75788.3248162177,75357.0529700253,79291.6967562664,79579.5236246131,64622.8325097941
2993945059,7372,-2,0,55919.5101585834,48243.4091085590,69910.3538349909,72132.5159703711,65423.9171655262,75801.5997734515,75347.1971355987,79289.1415399336,79578.3068549308,64617.0285184096
2993945059,7372,-2,0,55902.2198613979,48184.5661267232,69912.1668218175,72130.9950082682,65421.0212536823,75793.0823856755,75344.7514285373,79289.1050368431,79578.0026625103,64617.3570462238
2993945059,7372,-2,0,55892.4126977587,48169.0279778803,69903.5520924668,72127.3812023118,65413.0392445664,75776.3639702407,75336.4043885168,79279.9792642259,79569.6556224897,64612.8306630057
2993945059,7372,-2,0,55893.5442935632,48173.2380009811,69898.0157904124,72123.6457193872,65409.7174633338,75788.5316670637,75336.0271899153,79277.1320231694,79567.1247415505,64606.2722744181
2993945059,7372,-2,0,55909.1189454966,48199.7149092678,69904.8418683301,72130.1067664002,65417.4439508164,75791.5979266631,75344.5202422977,79284.3596350822,79571.8944787051,64612.1736073772
2993945059,7372,-2,0,55913.5966579274,48237.0819062111,69902.9193722320,72131.2018591142,65417.8454848115,75778.0796154928,75342.8532678330,79280.5268105830,79569.9598149103,64616.2984566002
2993945059,7372,-2,0,55893.5199581695,48204.5333172097,69897.9062811410,72120.3726089418,65407.9774826881,75787.4974128337,75338.7892570941,79279.0545192674,79567.5992817267,64609.5940556508
2993945059,7372,-2,0,55881.6564537672,48139.9593501703,69902.1893104227,72122.5506266731,65410.2893450845,75795.2239003163,75346.1507136720,79288.4479812147,79572.8070559669,64609.9347511618
2993976159,7373,-2,0,55893.7754798028,48164.9274640510,69901.4349132197,72133.2216967868,65414.4750327916,75778.9435219672,75345.4936580435,79285.0045230138,79573.3180992334,64616.2619535097
2993976159,7373,-2,0,55909.5083117949,48230.7182007727,69895.5822510478,72134.9130066452,65413.3921077743,75777.6902491944,75343.6928389137,79279.9914319228,79566.6015305872,64613.1348554262
2993976159,7373,-2,0,55903.7164881072,48220.5703416223,69896.0446235271,72127.0405068008,65408.0018180817,75794.2383168736,75344.1552113930,79279.9062580450,79567.9278095409,64609.0708446874
2993976159,7373,-2,0,55892.6925547856,48180.2952651384,69901.0942177086,72128.7196489624,65408.7683829816,75788.6898471224,75347.0267878432,79285.5155662804,79573.4641115953,64614.5584759545
2993976159,7373,-2,0,55887.8863145405,48168.0667298313,69899.1960570042,72127.4785438864,65409.8513079988,75782.0949554443,75345.4571549531,79283.0455238253,79571.2009199862,64616.8094998668
2993976159,7373,-2,0,55889.6019597926,48165.0491410192,69898.4173244076,72125.8724079058,65409.9729849671,75793.3135719151,75347.3309802638,79283.2523746713,79569.1202438295,64610.5188006093
2993976159,7373,-2,0,55906.5150583764,48196.6121465780,69902.1284719386,72132.6741504298,65415.4362808406,75786.2563077578,75350.1173828363,79284.7976721678,79570.6898767197,64610.2997820665
2993976159,7373,-2,0,55918.7679290771,48251.6344716113,69897.1518839380,72137.4682229781,65417.4439508164,75776.2301255757,75348.9492839413,79281.5488971161,79568.9985668613,64611.5895579297
2994025005,7374,-2,0,55903.8868358627,48224.5856815739,69894.0734566418,72129.7174001018,65410.7638852606,75787.9476176162,75345.7613473736,79279.9305934387,79565.2387485430,64604.5444614692
2994025005,7374,-2,0,55890.6483817193,48154.3050647246,69901.3132362514,72131.6155608062,65413.8301448599,75795.9904652161,75355.2643185924,79290.0176141049,79571.5781185878,64609.2046893524
2994025005,7374,-2,0,55897.0120871577,48171.9968959051,69904.9513776015,72138.9040112032,65419.6828070318,75781.9489430825,75353.0741331642,79288.9955275718,79571.2860938640,64616.8094998668
2994025005,7374,-2,0,55904.8480839117,48230.4018406553,69898.8188584027,72131.7859085617,65416.0324979849,75782.0462846570,75345.2746395007,79282.5831513461,79566.6380336776,64611.1758562378
2994025005,7374,-2,0,55904.2518667674,48231.9228027581,69900.3276528088,72126.6998112898,65414.4141943074,75794.8588694116,75349.0466255158,79283.9337656934,79568.0008157218,64604.9338277676
2994025005,7374,-2,0,55896.6835593435,48207.1737074203,69900.9117022563,72129.0481767766,65413.2460954124,75785.7574321880,75352.6604314722,79284.6029890187,79570.8358890816,64609.0708446874
2994025005,7374,-2,0,55888.1175007802,48186.6346351831,69899.9261188136,72129.2063568353,65410.5692021114,75787.1810527163,75357.1259762063,79281.4393878447,79569.8868087294,64612.7089860374
2994025005,7374,-2,0,55888.0809976897,48162.8224525006,69904.5011728190,72127.0161714071,65412.7350521459,75802.5001830164,75352.7699407437,79286.9878575960,79574.7903905490,64610.8959992108
2994032817,7375,-2,0,55907.5249772127,48196.8920036049,69912.8847159300,72132.7714920044,65421.7513154917,75796.3676638177,75346.0777074910,79292.4146503790,79579.9859970924,64616.8460029572
2994032817,7375,-2,0,55920.6904251752,48265.2501243562,69911.6679462477,72132.1387717696,65419.5489623667,75787.8016052543,75335.7838359788,79285.9049325787,79576.5182034979,64619.6689086202
2994032817,7375,-2,0,55906.5150583764,48247.2419330582,69912.9455544142,72123.9134087173,65416.0811687722,75806.8197153886,75335.0051033822,79284.9436845297,79575.2040922410,64615.6048978813
2994032817,7375,-2,0,55891.1594249859,48181.6702148794,69921.8401407917,72125.1666814901,65419.0379191002,75809.0099008167,75341.8676843903,79294.3249787802,79581.8354870095,64621.1168645421
2994032817,7375,-2,0,55896.0995098960,48190.2241057459,69919.9784831778,72130.0215925224,65422.5178803915,75791.7317713281,75340.9307717349,79290.7598436111,79582.5777165157,64626.1664587236
2994032817,7375,-2,0,55908.0481881761,48237.5321109935,69915.1844106296,72130.1067664002,65422.2988618487,75793.5447581547,75338.2660461307,79285.6859140359,79574.4618627348,64618.1357788205
2994032817,7375,-2,0,55916.1275388666,48251.0869252543,69918.1168255639,72132.0414301950,65425.4989661131,75801.5024318769,75343.6076650360,79288.7643413321,79574.4618627348,64614.9600099497
2994032817,7375,-2,0,55911.2239570469,48246.6457159139,69912.9333867173,72131.0558467524,65421.0212536823,75783.8836068773,75340.8699332508,79284.2501258108,79570.7385475070,64616.8581706541
2994069032,7376,1,0,55895.7223112945,48219.8159444193,69905.7787809854,72119.8737333721,65413.7449709822,75783.9809484519,75333.8005013967,79280.3442951306,79565.5064378731,64613.9500911134
2994069032,7376,1,0,55886.0489923203,48173.1528271033,69906.5940166726,72114.6659591319,65411.8346425810,75795.5645958273,75333.6666567316,79284.1771196299,79565.9444749587,64609.7400680126
2994069032,7376,1,0,55904.0206805277,48200.2746233217,69909.5142639101,72126.5172958374,65419.2812730366,75782.6546694982,75341.3809765174,79288.4844843052,79569.1324115263,64612.5629736756
2994069032,7376,1,0,55919.5466616738,48269.6304952124,69900.6075098357,72127.6488916419,65421.6661416139,75774.5266480205,75337.2804626881,79285.7224171264,79564.2653327972,64614.4246312895
2994069032,7376,1,0,55907.7804988460,48250.5150435036,69900.2789820215,72115.4933625158,65416.5800443419,75792.1211376264,75333.8370044872,79286.6228266913,79566.9057230077,64610.6161421839
2994069032,7376,1,0,55888.5190347753,48178.1050797103,69905.4380854744,72113.3640155718,65417.6264662687,75792.0724668391,75338.2538784339,79290.0662848922,79572.2351742162,64620.4719766105
2994069032,7376,1,0,55885.1485827554,48174.0897397587,69902.7976952638,72115.9800703887,65415.3146038723,75775.6582438250,75337.0127733579,79284.1771196299,79569.1689146168,64626.9086882298
2994069032,7376,1,0,55891.6339651620,48205.0078573858,69897.5534179331,72114.6537914350,65412.8445614173,75779.5154037179,75340.4562315588,79278.0932712184,79564.5816929146,64618.4643066347
2994110078,7377,1,0,55898.8859124685,48221.7384405173,69900.2424789310,72114.7024622223,65417.3466092418,75786.2684754546,75340.5414054366,79281.2812077860,79565.3604255112,64616.1281088447
2994110078,7377,1,0,55896.2698576515,48232.9327215944,69897.7481010823,72113.1693324226,65413.6841324981,75771.6185684798,75329.5296398118,79276.7183214774,79565.8106302937,64614.2786189276
2994110078,7377,1,0,55875.2927483288,48200.2137848375,69891.5669110962,72101.3179957171,65401.3704233132,75774.6848280792,75318.8585696981,79267.0450025032,79556.0278020480,64608.9126646287
2994110078,7377,1,0,55862.2368096378,48140.8232566448,69896.6408406714,72100.5514308172,65399.2289086724,75789.5537535968,75324.7964057477,79272.1676028656,79561.7466195548,64609.8252418904
2994110078,7377,1,0,55878.2373309599,48164.4164207844,69904.0388003398,72109.7137065249,65407.0162346391,75778.8218449990,75328.2641993422,79275.9030857903,79565.2387485430,64621.0195229675
2994110078,7377,1,0,55894.4325354313,48241.0972461626,69901.5809255815,72107.8763843047,65407.9774826881,75778.8948511799,75323.1781020703,79271.0360070611,79564.9345561224,64622.1024479847
2994110078,7377,1,0,55889.5654567021,48232.8110446262,69906.7765321249,72103.5811873262,65408.5615321356,75800.0909790455,75325.4899644666,79275.9639242744,79568.0251511154,64620.3746350359
2994110078,7377,1,0,55875.9984747445,48174.5277768443,69917.5571115100,72110.2734205788,65415.3632746596,75803.0720647671,75332.7297440763,79285.0288584075,79577.4186130628,64630.8145189100
2994143951,7378,1,0,55876.0593132286,48165.0734764129,69922.0713270314,72119.7885594943,65423.3087806850,75797.6209365904,75336.4043885168,79287.4137269848,79581.7138100413,64640.3539932192
2994143951,7378,1,0,55883.6276206525,48179.1149985466,69926.2691824353,72118.2432619978,65426.8617481573,75807.4646033202,75335.7351651915,79289.1293722368,79581.7746485254,64638.4801679084
2994143951,7378,1,0,55896.3063607420,48198.1209409840,69930.7103917756,72119.3140193182,65431.1934482263,75809.6426210515,75339.0812818178,79290.6381666428,79584.5975541883,64639.4414159574
2994143951,7378,1,0,55901.6236442536,48233.3829263769,69929.5057897902,72120.7011367560,65428.8329150426,75797.0612225366,75338.9231017592,79290.0419494985,79586.2158578658,64644.8195379532
2994143951,7378,1,0,55883.6276206525,48211.0430350100,69927.7414737509,72113.9602327161,65417.8941555988,75810.0441550466,75339.2637972702,79288.6791674543,79586.2645286530,64641.1692289063
2994143951,7378,1,0,55869.4035830665,48143.1959575252,69935.6018058985,72113.4491894496,65418.6120497114,75821.6156347253,75342.8045970457,79291.2952222713,79590.6327318125,64639.1372235369
2994143951,7378,1,0,55876.5825241920,48153.3803197660,69937.0984326077,72116.5641198362,65421.9459986408,75801.1982394564,75334.2750415728,79290.2122972540,79588.9292542573,64641.0232165444
2994143951,7378,1,0,55889.2855996752,48222.6388500822,69930.8077333502,72112.5244444910,65420.7292289585,75797.6696073777,75323.4701267940,79282.9238468571,79584.0500078313,64636.2656470867
2994159557,7379,1,0,55883.2747574446,48221.5680927618,69930.7103917756,72106.6352792287,65417.6386339655,75808.8395530612,75327.8870007407,79284.1892873267,79581.1540959874,64627.5292407678
2994159557,7379,1,0,55873.1755690816,48176.4867760328,69931.5256274628,72106.8299623779,65415.2172622978,75805.1284055302,75330.7707448878,79284.9436845297,79585.1451005453,64632.0191208954
2994159557,7379,1,0,55870.4500049932,48162.9928002562,69929.4206159124,72107.9737258792,65412.6012074808,75797.2559056857,75327.0352619631,79281.5245617225,79581.6408038603,64636.2048086025
2994159557,7379,1,0,55873.9177985878,48160.4254162265,69929.2259327632,72107.6695334587,65410.9342330161,75806.6128645426,75328.0086777090,79283.8850949061,79579.7669785496,64630.9726989687
2994159557,7379,1,0,55889.9669906972,48186.2331011880,69934.2025207638,72116.5154490490,65418.6485528018,75802.2568290800,75333.3016258269,79286.3186342707,79581.1054252001,64630.3643141275
2994159557,7379,1,0,55898.3505338083,48237.4712725094,69926.9262380637,72112.7921338211,65416.9694106403,75786.5605001784,75324.1393501193,79275.8909180934,79574.6687135808,64629.1840475357
2994159557,7379,1,0,55880.9872304419,48218.8546963703,69921.5237806743,72100.5027600300,65405.5439433235,75799.7016127471,75316.3520241526,79273.0071739464,79570.6290382356,64621.3845538722
2994159557,7379,1,0,55868.6978566507,48149.7421784160,69930.5157086265,72102.6564423676,65408.1599981405,75816.9797422357,75326.5242186966,79284.4204735663,79582.1031763396,64626.8113466552
2994189330,7380,1,0,55878.5171879869,48159.6588513267,69935.2854457811,72114.2035866526,65413.7571386790,75802.7313692561,75330.7585771910,79287.2068761388,79586.2766963499,64634.7325172870
2994189330,7380,1,0,55894.6272185804,48226.3134945228,69931.7081429151,72113.6195372051,65413.4651139553,75801.5024318769,75329.7973291419,79285.5155662804,79584.7679019438,64631.4107360543
2994189330,7380,1,0,55894.6150508836,48237.8971418982,69932.0610061230,72109.3365079234,65414.6453805471,75814.6557121425,75330.7099064037,79288.5331550925,79583.9039954694,64625.9352724840
2994189330,7380,1,0,55891.4636174065,48222.6996885663,69937.6581466615,72117.1116661933,65420.3033595697,75810.1658320149,75333.8370044872,79295.4687422815,79589.6714837635,64633.4792445142
2994189330,7380,1,0,55881.9363107941,48213.5739159491,69935.7599859572,72117.1238338901,65422.1650171837,75809.4601055991,75334.2872092696,79297.2938968050,79591.0829365949,64636.4481625390
2994189330,7380,1,0,55882.7758818749,48199.1673629108,69941.0407663783,72120.1900934895,65428.7842442553,75826.4827134544,75341.4418150015,79306.8455388110,79598.2010392363,64636.4481625390
2994189330,7380,1,0,55899.3117818573,48221.9696267570,69944.8857585744,72130.7029835445,65438.2142092931,75818.9387414242,75349.8618612030,79309.8874630167,79602.7274224545,64640.3783286128
2994189330,7380,1,0,55913.2437947195,48280.6179254435,69937.9623390821,72131.5303869285,65437.7031660266,75804.2279959653,75342.7072554711,79303.8644530894,79598.5539024442,64639.2467328083
2994224038,7381,1,0,55899.5186327033,48259.4704683653,69931.9271614579,72118.5352867216,65427.3727914239,75815.9698233994,75337.2074565071,79300.2506471330,79594.4168855244,64629.1232090516
2994224038,7381,1,0,55879.1985790089,48174.9658139299,69936.5387185538,72115.7245487555,65427.2146113652,75822.6985597425,75341.1862933682,79303.5359252752,79596.8747602826,64627.1520421663
2994224038,7381,1,0,55882.3013416988,48165.4993458017,69938.5585562264,72126.9553329230,65430.9744296835,75813.4997809444,75350.2998982886,79303.1100558864,79597.5196482143,64635.1705543726
2994224038,7381,1,0,55899.4456265223,48214.0971269125,69936.8794140649,72132.0535978918,65434.9045957573,75814.0229919077,75357.2354854777,79306.2979924540,79597.5074805174,64635.0245420107
2994224038,7381,1,0,55907.6101510905,48225.4009172610,69938.1813576249,72126.0427556613,65436.0361915618,75820.3501942557,75349.8740288998,79305.1907320431,79595.7431644781,64629.5490784404
2994224038,7381,1,0,55907.2329524890,48218.4896654656,69939.2277795517,72124.4244519839,65438.0925323249,75813.2685947047,75341.0281133095,79305.4219182827,79599.1014488012,64632.0191208954
2994224038,7381,1,0,55896.6227208594,48198.7171581283,69936.4413769793,72120.7741429370,65435.1722850874,75819.7053063241,75335.9785191280,79304.1686455100,79597.8116729380,64632.9073627635
2994224038,7381,1,0,55889.5654567021,48161.3501611851,69944.0705228872,72126.9309975294,65439.7595067896,75835.8031692208,75348.6329238239,79312.5521886210,79605.1487941222,64632.3111456192
2994296182,7382,1,0,55903.4974695644,48182.8139783807,69949.8988496654,72137.6142353399,65448.8244409227,75823.4164538551,75357.0894731158,79316.3850131202,79609.1763017706,64638.1029693069
2994296182,7382,1,0,55920.8972760212,48266.0531923465,69947.5504841786,72142.1892893454,65451.7446881602,75814.4731966902,75353.0741331642,79313.3795920049,79606.1100421713,64640.5121732779
2994296182,7382,1,0,55907.7074926651,48271.7233390660,69942.4887223003,72128.9751705956,65447.0844602770,75825.9229994006,75344.3742299358,79308.4638424884,79597.9333499062,64627.7117562201
2994296182,7382,1,0,55888.4946993817,48212.0286184526,69946.2850437090,72123.4023654507,65448.1795529911,75828.6363957921,75345.8951920387,79313.6472813350,79602.1433730070,64624.6333289239
2994296182,7382,1,0,55884.9904026967,48204.4359756351,69943.6811565889,72123.6092162967,65447.6441743309,75809.9103103816,75339.9208528986,79309.6319413835,79596.7895864049,64629.5977492277
2994296182,7382,1,0,55893.0940887807,48234.6605345433,69937.9258359917,72119.9345718562,65446.5004108295,75815.3371031646,75336.7572517247,79305.3245767081,79591.7156568297,64627.5414084646
2994296182,7382,1,0,55904.4952207038,48246.9499083345,69941.5274742512,72122.9034898810,65448.5689192894,75822.7959013171,75341.4783180920,79308.0258054028,79594.7575810355,64630.2669725529
2994296182,7382,1,0,55913.2681301132,48253.5569677093,69942.3913807257,72129.3158661067,65450.8077755049,75811.3947693940,75344.6784223564,79308.1596500679,79596.1203630796,64640.0376331018
2994302868,7383,1,0,55900.4433776618,48222.0426329379,69937.7433205393,72123.2320176952,65441.3048042861,75810.5065275259,75339.1299526051,79303.0005466149,79592.9932649961,64637.4702490721
2994302868,7383,1,0,55878.9795604661,48150.1193770175,69937.0740972140,72112.3784321291,65432.6779072387,75820.3988650430,75336.7694194215,79302.4773356516,79593.4556374754,64632.1042947732
2994302868,7383,1,0,55884.0778254349,48157.0184611161,69938.8992517375,72119.1315038659,65433.8095030432,75807.8174665280,75336.6842455437,79298.9852066634,79593.7963329864,64638.0664662164
2994302868,7383,1,0,55902.3172029725,48243.5186178304,69934.6648932431,72125.8724079058,65434.6612418208,75801.6849473293,75335.2241219250,79295.6025869466,79590.7179056902,64641.4125828428
2994302868,7383,1,0,55896.8174040086,48256.0270101644,69931.3917827977,72117.7443864281,65429.2222813410,75816.8215621770,75333.8613398808,79295.1158790737,79587.5421368195,64633.1263813063
2994302868,7383,1,0,55881.4739383148,48198.2547856490,69933.6306390132,72115.3351824571,65429.9280077567,75816.3591896977,75335.9055129471,79299.4597468395,79592.0806877344,64632.0312885923
2994302868,7383,1,0,55871.5694331010,48177.5575333532,69928.2890201079,72111.8917242562,65423.5156315310,75797.2559056857,75330.0041799879,79294.3858172643,79586.2888640467,64633.9902877808
2994302868,7383,1,0,55874.4775126416,48186.5129582149,69922.0348239409,72106.9638070429,65423.5034638342,75807.3185909583,75326.2686970633,79293.0595383106,79584.6827280661,64631.0457051496
2994314953,7384,1,0,55890.1495061496,48207.1128689362,69927.6197967826,72117.0994984964,65432.4953917863,75811.9544834478,75335.6621590106,79300.3601564044,79589.1604404969,64635.2678959472
2994314953,7384,1,0,55899.9323343952,48245.1855922951,69928.6053802253,72124.6921413140,65436.4255578601,75799.9693020772,75343.1452925567,79299.6422622918,79586.5808887704,64640.6946887302
2994314953,7384,1,0,55882.9827327209,48228.5645184350,69921.3290975252,72117.6713802471,65426.2290279225,75801.4415933928,75347.2336386892,79292.8770228583,79578.7570597133,64633.8686108125
2994314953,7384,1,0,55864.4513304595,48157.6390136541,69923.9573200389,72114.5199467700,65423.2722775945,75812.1248312034,75344.7392608405,79295.5539161593,79582.4438718506,64629.5490784404
2994314953,7384,1,0,55873.1512336879,48159.9022052631,69926.2083439512,72120.2752673672,65427.8473316000,75802.5123507132,75341.1132871873,79297.1600521399,79584.2933617677,64632.3111456192
2994314953,7384,1,0,55893.6781382282,48237.6781233554,69924.3588540341,72122.5992974604,65432.3372117276,75799.0445571187,75332.4377193525,79293.7287616359,79580.5700465399,64633.8564431157
2994314953,7384,1,0,55893.4347842918,48250.1135095084,69924.5048663959,72118.1702558169,65431.0352681676,75812.0639927193,75336.1975376708,79294.6170035039,79581.2392698652,64628.1132902153
2994314953,7384,1,0,55884.0778254349,48205.7500868920,69929.0434173109,72118.5352867216,65432.2885409403,75811.7841356923,75341.5756596665,79299.4597468395,79587.4691306385,64631.4229037511
2994384158,7385,1,0,55875.8889654731,48184.0185803662,69926.4030271003,72120.9809937830,65432.6657395419,75806.1504920633,75344.3863976327,79300.8468642773,79585.6074730246,64635.7546038201
2994384158,7385,1,0,55873.7596185291,48174.7589630839,69924.0424939167,72119.4356962865,65430.4025479328,75814.7652214139,75347.2458063860,79302.2826525024,79584.2933617677,64630.4129849148
2994384158,7385,1,0,55889.0057426482,48193.3268684358,69930.7103917756,72126.6024697152,65434.5030617621,75817.2474315658,75351.7843573010,79306.1763154857,79589.1482728001,64629.5734138340
2994384158,7385,1,0,55905.6146488115,48249.8336524815,69930.3331931741,72133.1365229091,65435.2087881778,75805.8584673396,75349.9105319903,79301.7837769327,79589.2577820715,64635.4869144900
2994384158,7385,1,0,55898.1193475686,48246.8403990631,69927.7293060540,72128.1112641212,65429.6724861234,75812.7940545286,75349.2778117555,79299.6544299886,79587.1649382179,64633.2358905777
2994384158,7385,1,0,55879.6122807009,48167.9085497726,69930.6738886852,72125.4465385170,65426.0221770765,75819.3524431162,75353.2566486166,79304.6431856860,79591.2167812600,64629.6220846213
2994384158,7385,1,0,55881.9363107941,48155.7773560402,69927.2791012716,72129.6687293146,65426.0951832575,75798.8985447568,75352.3319036580,79299.4354114458,79588.1748570542,64633.0290397318
2994384158,7385,1,0,55895.3937834803,48217.7352682626,69917.0825713340,72127.8314070943,65423.5886377119,75796.2946576367,75345.0312855643,79290.5164896746,79582.2613563983,64630.4494880053
2994387365,7386,1,0,55898.4235399892,48235.8408011351,69916.6810373388,72123.2806884825,65421.6904770076,75811.2730924257,75346.5765830608,79291.7332593569,79581.0567544128,64620.4233058232
2994387365,7386,1,0,55891.9381575826,48211.0186996163,69920.6477065031,72126.1766003264,65422.3597003328,75806.4911875743,75348.7302653984,79294.0451217533,79585.8508269611,64622.2241249530
2994387365,7386,1,0,55878.7118711360,48188.8856590954,69918.0924901703,72122.8304837001,65417.4196154227,75800.8697116421,75344.4837392072,79289.7134216843,79584.2933617677,64624.9131859508
2994387365,7386,1,0,55869.8294524553,48158.4299139476,69921.3047621315,72118.9124853231,65416.6165474324,75817.4056116245,75345.5544965276,79292.5363273472,79588.2843663256,64626.0204463617
2994387365,7386,1,0,55886.1219985012,48171.9603928147,69931.9149937611,72128.3546180577,65429.0519335854,75818.1721765244,75357.5761809887,79301.2362305756,79597.2397911873,64632.7370150080
2994387365,7386,1,0,55907.5614803032,48238.6150360107,69930.2966900837,72129.5470523463,65433.8216707400,75800.9548855199,75357.8682057125,79300.6400134313,79596.5827355589,64635.3287344313
2994387365,7386,1,0,55898.9832540431,48234.5875283624,69921.1952528601,72106.2094098399,65425.2799475703,75805.8584673396,75348.8762777603,79291.9644455965,79589.6106452793,64625.6675831539
2994387365,7386,1,0,55878.9917281630,48155.4974990132,69922.9839042931,72092.5937570950,65423.1992714136,75816.9432391452,75351.1273016726,79296.8801951130,79593.0784388739,64625.6067446698
2994411751,7387,1,0,55880.6465349309,48146.0918693691,69926.7072195209,72103.3256656929,65428.6503995903,75806.5763614521,75358.9876338202,79298.0969647953,79598.2010392363,64636.0222931502
2994411751,7387,1,0,55890.6240463257,48199.3255429695,69921.8644761854,72104.7249508275,65429.3196229155,75804.2523313589,75355.3008216828,79294.0694571469,79594.1005254070,64634.3066478982
2994411751,7387,1,0,55898.9832540431,48227.6762765669,69929.4692866997,72101.3423311107,65433.4809752290,75819.8148155955,75349.8861965966,79295.0915436800,79595.2564566052,64629.1475444452
2994411751,7387,1,0,55900.9909240188,48230.0368097506,69933.9713345242,72103.5933550230,65435.8415084126,75809.6791241420,75345.4571549531,79296.9166982035,79597.8725114221,64634.5743372283
2994411751,7387,1,0,55888.3000162325,48212.5396617192,69927.7414737509,72095.7573582690,65427.8716669936,75799.5556003853,75338.6189093386,79292.4754888631,79592.9202588152,64632.1651332573
2994411751,7387,1,0,55874.9763882114,48161.7395274834,69923.0812458677,72086.4977409868,65422.4083711201,75806.6615353299,75339.3368034511,79292.9135259487,79590.1460239396,64623.2827145766
2994411751,7387,1,0,55882.7150433908,48159.2451496347,69922.4606933297,72089.9777022781,65426.2776987098,75798.8255385759,75342.2205475982,79291.9887809902,79587.1162674307,64621.6279078087
2994411751,7387,1,0,55901.1491040775,48232.9692246849,69915.1114044486,72094.8934517946,65425.1704382989,75782.2531355030,75340.0546975637,79285.0531938011,79579.7183077623,64622.0781125911
2994440319,7388,1,0,55897.6326396957,48242.7885560210,69912.2763310889,72088.3837339943,65421.5079615552,75801.6849473293,75339.5801573876,79283.4957286078,79577.2360976104,64619.5228962583
2994440319,7388,1,0,55880.0746531802,48175.3795156219,69920.0271539651,72088.1890508451,65424.0753455849,75810.0806581371,75343.5346588550,79291.1978806967,79585.2546098167,64623.4530623321
2994440319,7388,1,0,55876.9110520062,48161.0581364613,69920.9762343173,72092.2408938872,65426.8739158541,75796.3189930304,75339.0326110305,79289.5187385351,79586.2036901689,64630.3034756434
2994440319,7388,1,0,55887.7768052691,48200.9925174342,69917.2042483022,72091.1579688699,65428.1028532332,75796.9152101747,75332.9609303159,79288.0707826132,79582.4803749411,64622.7838390068
2994440319,7388,1,0,55895.1991003311,48221.2273972508,69917.0947390308,72087.1791320088,65426.4602141622,75800.3465006788,75332.4133839589,79289.0807014495,79581.5312945889,64615.4588855194
2994440319,7388,1,0,55897.6691427862,48228.6010215255,69914.1136533091,72086.8262688010,65425.2799475703,75788.5803378510,75330.7585771910,79286.6836651754,79579.0855875275,64619.4012192901
2994440319,7388,1,0,55883.0070681145,48205.5310683492,69907.6769416898,72077.8586762425,65414.1465049773,75785.8304383690,75324.3096978748,79282.1816173509,79573.2450930525,64620.0217718280
2994440319,7388,1,0,55866.7753605527,48142.6119080777,69910.2321580226,72073.3931315084,65413.9883249186,75803.1694063417,75326.8040757235,79287.6570809212,79575.5204523584,64619.9487656471
2994499970,7389,1,0,55876.7528719475,48142.3807218381,69916.7053727324,72087.5198275199,65424.5620534578,75794.3843292355,75335.4431404678,79291.8914394156,79580.9594128382,64626.6044958092
2994499970,7389,1,0,55890.7943940812,48217.8204421403,69910.2929965067,72084.9889465807,65423.1871037168,75779.9656085003,75324.0055054542,79283.2158715808,79576.6642158597,64626.1056202395
2994499970,7389,1,0,55883.7979684080,48238.3716820743,69908.1393141691,72073.4539699926,65418.6972235891,75797.6574396809,75320.9879166421,79280.5268105830,79574.3401857666,64622.5648204640
2994499970,7389,1,0,55870.8515389884,48185.1380084739,69914.3691749424,72073.2957899339,65421.7513154917,75801.0765624881,75328.5318886724,79287.3893915911,79582.3343625792,64625.6189123666
2994499970,7389,1,0,55866.6658512813,48165.6331904667,69912.5440204190,72080.4260602721,65422.6030542693,75786.9255310830,75334.4697247219,79285.7832556105,79583.5267968679,64633.0655428222
2994499970,7389,1,0,55869.4035830665,48179.8815634464,69906.0343026187,72076.7635835284,65421.8121539758,75786.1102953959,75325.2101074397,79280.1496119815,79575.8733155662,64627.7117562201
2994499970,7389,1,0,55881.1332428038,48201.4427222167,69905.5232593522,72080.1827063356,65424.8054073942,75790.7096847950,75329.9555092006,79282.5953190429,79576.1531725932,64621.9807710165
2994499970,7389,1,0,55889.4437797339,48236.2179997366,69903.3817447113,72082.5067364288,65422.3962034233,75777.5564045294,75328.0208454058,79279.7602456831,79573.3789377175,64623.4287269385
2994508915,7390,1,0,55875.4995991748,48231.5456041566,69896.7625176396,72075.1574475478,65409.2550908545,75774.5266480205,75327.5463052297,79275.2338624650,79565.2144131494,64618.0506049427
2994508915,7390,1,0,55853.4395648348,48167.0689786918,69896.1419651017,72067.7229847890,65399.8372935136,75787.9232822225,75328.6900687311,79273.3357017606,79563.0850662053,64615.2398669766
2994508915,7390,1,0,55858.6960098623,48165.5115134985,69900.9603730435,72073.7338270195,65404.6557014554,75781.8394338111,75327.0717650536,79275.4893840983,79568.5118589884,64624.7671735890
2994508915,7390,1,0,55879.2107467058,48247.5339577820,69896.3731513413,72078.1385332694,65408.9874015244,75773.1395305827,75319.0410851505,79271.7295657800,79567.2342508220,64626.4949865378
2994508915,7390,1,0,55886.5722032836,48273.2564688657,69897.1518839380,72078.1750363599,65411.0194068938,75790.1134676507,75324.3948717525,79273.9684219954,79569.2054177073,64619.1578653536
2994508915,7390,1,0,55879.1255728280,48220.5581739255,69901.4592486133,72080.4747310594,65411.2384254367,75787.3514004718,75330.3327078022,79280.5146428861,79573.0625776002,64619.7905855884
2994508915,7390,1,0,55868.6370181666,48179.7477187813,69896.4218221286,72078.1020301789,65404.6557014554,75772.3729656828,75327.8991684376,79277.0225138980,79568.9620637708,64620.1799518867
2994508915,7390,1,0,55864.9015352420,48162.2018999627,69893.5380779816,72074.0623548337,65400.7498707753,75779.8682669257,75324.5895549017,79273.7737388462,79564.6546990955,64614.4489666831
2994538933,7391,1,0,55874.9885559082,48171.8752189369,69896.7381822460,72076.6905773475,65407.9653149913,75783.0683711902,75328.7144041247,79278.3609605485,79567.6601202108,64614.1691096562
2994538933,7391,1,0,55887.1562527311,48222.3224899648,69892.4429852675,72081.0344451133,65407.7462964485,75766.0214279412,75327.9600069217,79273.2870309733,79561.3572532565,64615.8725872114
2994538933,7391,1,0,55880.3058394198,48226.0214697990,69887.4907326606,72077.2502914013,65405.2519185998,75777.8605969500,75331.7198252400,79270.7561500342,79558.7898692268,64613.9865942038
2994538933,7391,1,0,55866.0574664402,48150.6425879809,69895.9594496493,72081.2656313529,65407.3690978470,75795.7957820670,75344.0943729089,79277.9837619470,79566.5771951935,64616.1767796320
2994538933,7391,1,0,55866.2399818925,48129.5072985994,69902.7733598702,72085.9745300234,65411.8833133683,75781.2310489699,75341.8555166935,79279.6020656244,79568.9255606803,64624.0614471732
2994538933,7391,1,0,55880.1841624516,48190.4552919855,69898.6850137377,72083.8573507762,65411.2262577398,75773.9912693603,75329.9920122911,79269.6610573201,79563.3892586259,64620.3624673391
2994538933,7391,1,0,55884.9782349998,48216.2629769470,69900.3154851119,72079.5256507072,65410.3623512654,75790.3689892839,75327.8504976503,79270.2694421612,79561.5276010120,64613.8284141452
2994538933,7391,1,0,55881.3400936498,48197.3908791746,69911.0473937098,72083.5653260524,65415.0469145422,75795.8322851574,75335.5404820424,79274.6011422302,79570.2153365436,64621.8712617451
2994566579,7392,1,0,55866.5928451004,48175.3551802283,69909.1127299149,72077.7735023647,65411.2140900430,75783.2508866425,75330.1258569562,79273.1288509146,79568.1833311742,64625.9839432713
2994566579,7392,1,0,55854.1209558569,48148.4037317655,69907.1902338169,72071.3854615327,65406.3470113138,75796.4406699986,75326.8770819044,79270.9995039706,79566.9422260982,64624.0249440828
2994566579,7392,1,0,55862.5044989679,48153.7088475803,69913.4565976807,72076.4350557142,65410.3745189622,75801.5024318769,75329.8094968388,79273.5547203034,79571.0184045339,64626.6288312029
2994566579,7392,1,0,55882.3013416988,48220.1444722335,69916.6810373388,72081.0952835974,65414.6818836375,75792.5348393184,75324.3583686621,79271.1820194230,79573.3667700207,64635.8884484851
2994566579,7392,1,0,55877.9818093267,48235.0012300543,69914.5030196075,72072.8577528482,65409.4984447910,75801.5024318769,75322.3385309895,79269.9652497407,79572.5271989399,64632.6396734334
2994566579,7392,1,0,55858.6838421655,48160.9242917963,69920.7815511681,72070.3390396059,65406.4930236757,75812.5750359858,75330.3327078022,79276.7304891742,79575.8489801726,64632.8708596731
2994566579,7392,1,0,55856.3111412850,48130.6632297976,69921.0614081950,72074.7680812494,65409.1577492799,75790.5393370395,75330.6247325259,79275.2460301618,79575.6786324171,64636.9592058056
2994566579,7392,1,0,55864.4756658532,48171.5953619100,69907.7256124771,72071.3002876549,65402.9522239002,75779.0773666322,75320.6107180406,79262.6524639501,79564.9102207288,64631.4229037511
2994616145,7393,1,0,55868.1016395064,48191.2461922790,69903.5034216795,72068.4895496888,65399.9589704818,75791.7196036313,75324.5165487208,79259.8903967713,79562.2698305182,64624.3169688065
2994616145,7393,1,0,55867.1403914574,48183.1546738918,69906.2046503742,72072.1885295230,65400.4335106579,75789.2860642667,75333.0826072841,79264.7696431973,79566.4920213158,64631.1187113305
2994616145,7393,1,0,55859.3165624003,48165.6331904667,69901.7391056402,72065.4476254831,65393.7047743148,75781.9732784761,75320.6715565247,79259.6227074412,79563.7664572274,64630.3278110371
2994616145,7393,1,0,55848.4994799247,48123.7884810926,69901.1428884959,72057.3439393990,65390.1883099330,75794.1896460863,75311.5579516044,79259.4766950793,79563.6082771687,64626.8721851393
2994616145,7393,1,0,55858.8055191337,48128.1688519489,69910.2078226290,72066.2871965638,65399.9102996945,75797.2802410794,75317.2767691111,79268.3104429727,79571.8458079179,64632.6031703429
2994616145,7393,1,0,55880.5491933563,48213.5860836460,69909.6724439688,72078.8564273819,65407.6854579644,75785.3924012834,75319.7589792630,79267.1910148650,79574.0481610428,64638.9668757813
2994616145,7393,1,0,55879.3080882803,48245.6114616839,69908.0176372009,72077.2259560077,65407.1379116073,75795.1387264385,75323.0929281925,79267.5560457697,79571.6146216782,64635.3530698249
2994616145,7393,1,0,55858.2458050798,48176.0852420376,69910.0983133576,72068.5868912634,65404.6070306682,75800.1639852264,75326.2443616696,79272.3622860148,79575.1432537569,64634.7325172870
2994640060,7394,1,0,55842.8536685988,48136.5767304536,69908.0419725945,72064.5350482213,65400.4821814452,75785.5627490389,75319.7468115662,79268.4442876378,79574.8390613363,64642.3981662854
2994640060,7394,1,0,55847.4043872106,48163.5890174005,69902.9802107162,72063.4277878104,65400.3361690833,75784.0661223297,75316.8022289350,79264.7818108941,79570.2518396340,64641.3639120555
2994640060,7394,1,0,55858.6473390750,48186.1235919166,69903.5520924668,72065.3502839085,65403.8282980715,75794.3356584482,75320.9392458548,79268.5659646060,79569.5947840056,64635.5112498836
2994640060,7394,1,0,55865.3030692371,48203.6572430384,69905.1460607506,72071.0325983248,65407.4421040279,75786.3049785451,75324.6990641731,79270.6831438532,79570.7872182943,64638.3463232434
2994640060,7394,1,0,55856.3354766786,48194.9086690227,69897.2005547253,72067.8568294540,65397.6957788727,75780.7686764906,75321.7058107547,79265.1225064051,79567.2099154283,64634.4526602600
2994640060,7394,1,0,55838.5341362267,48133.1454399495,69895.9351142557,72060.8482360840,65391.2712349502,75792.8390317390,75324.3096978748,79266.8989901413,79571.5416154973,64629.9506124355
2994640060,7394,1,0,55843.3647118654,48116.1471674878,69900.7413545007,72064.2916942849,65396.8440400951,75787.1080465354,75323.8959961828,79271.6078888118,79573.7561363191,64635.5964237614
2994640060,7394,1,0,55863.5995916819,48188.9951683668,69897.1762193316,72069.3291207696,65401.4434294942,75774.7943373506,75317.9338247396,79265.3050218575,79569.8503056389,64641.0475519381
2994668492,7395,1,0,55865.0232122102,48216.4211570057,69891.6642526708,72062.6977260011,65397.5132634204,75785.1368796501,75313.2370937659,79263.6015443023,79566.2851704698,64635.0610451012
2994668492,7395,1,0,55850.7748392306,48159.7683605981,69898.3199828330,72062.5638813360,65401.7597896116,75797.4627565317,75321.4624568182,79273.6155587875,79575.3014338156,64641.6559367792
2994668492,7395,1,0,55839.2398626424,48122.1458420215,69899.7801064517,72065.9221656592,65402.2464974845,75784.2486377820,75320.6593888279,79271.9485843228,79577.3456068818,64651.0250633329
2994668492,7395,1,0,55840.4444646279,48128.5825536409,69893.5015748911,72061.7243102552,65399.1315670978,75780.8416826716,75313.8819816975,79265.6213819749,79573.0625776002,64645.8781275768
2994668492,7395,1,0,55852.3809752112,48147.9656946798,69897.5534179331,72065.3381162117,65405.0815708442,75791.8047775091,75319.7711469598,79271.9242489292,79575.9098186567,64641.5342598110
2994668492,7395,1,0,55866.1426403179,48190.3701181078,69899.1595539138,72072.8699205451,65410.4840282336,75781.8272661142,75322.4358725641,79273.7372357558,79577.6132962119,64644.1138115375
2994668492,7395,1,0,55861.6405924934,48202.2579579038,69896.7503499428,72069.3777915569,65406.6633714312,75784.2243023883,75321.1582643977,79270.8413239119,79576.2018433805,64641.4247505396
2994668492,7395,1,0,55841.7829112784,48138.3410464929,69898.9040322805,72068.3192019333,65404.7043722427,75798.9472155441,75332.3038746875,79275.4285456142,79579.0125813466,64634.1241324458
2994730640,7396,1,0,55842.5251407846,48111.5477780888,69903.2844031367,72075.2912922128,65409.5227801846,75784.1391285106,75339.8600144145,79278.3122897612,79579.8278170337,64632.5910026461
2994730640,7396,1,0,55857.1142092753,48174.8076338712,69894.2803074878,72071.7991632246,65407.0527377296,75769.5865631104,75321.6206368769,79269.6488896233,79572.4176896685,64630.0722894038
2994730640,7396,1,0,55859.5234132463,48205.6284099237,69891.1775447979,72062.1745150377,65404.7165399396,75787.6799282861,75311.3997715456,79264.6966370163,79567.4776047584,64624.5359873493
2994730640,7396,1,0,55852.9528569619,48170.7801262228,69901.6660994593,72064.8757437324,65409.2672585513,75798.4361722776,75319.5277930234,79275.0635147095,79575.6177939330,64630.1452955847
2994730640,7396,1,0,55850.3611375386,48151.7255129981,69903.1262230780,72072.4805542467,65413.3921077743,75787.8016052543,75322.3750340799,79278.3122897612,79578.0026625103,64636.4116594485
2994730640,7396,1,0,55850.4949822036,48153.1613012232,69900.2059758405,72072.5170573372,65413.2947661997,75790.8435294600,75326.0131754300,79277.4970540741,79576.0801664122,64632.6153380398
2994730640,7396,1,0,55862.6018405425,48167.1054817823,69906.2898242520,72079.4161414358,65422.1771848805,75800.5655192216,75334.2872092696,79285.2235415566,79581.6894746476,64632.1773009542
2994730640,7396,1,0,55877.4220952728,48218.8425286735,69907.7864509612,72084.2467170745,65427.8594992968,75783.9201099678,75331.1114403988,79282.4371389842,79577.6741346960,64637.2999013166
2994740817,7397,1,0,55870.2309864504,48231.2292440392,69901.0820500118,72075.6563231175,65419.5611300636,75782.1192908380,75320.9392458548,79276.9373400202,79573.8291425000,64631.7757669590
2994740817,7397,1,0,55851.9307704287,48159.9143729600,69902.5300059337,72068.9275867744,65414.7792252121,75800.5046807374,75325.5264675571,79279.4925563530,79573.8899809841,64628.0281163375
2994740817,7397,1,0,55855.3863963264,48134.3378742381,69910.4755119591,72080.4017248785,65419.8531547873,75792.5470070153,75334.7374140521,79282.1816173509,79577.6619669992,64636.0344608470
2994740817,7397,1,0,55871.3747499518,48195.1276875656,69904.4890051222,72078.7590858074,65420.2546887825,75780.2089624368,75323.3241144321,79273.5425526066,79573.6831301381,64635.7667715169
2994740817,7397,1,0,55876.8502135221,48234.7943792083,69901.5687578847,72068.9275867744,65418.7093912859,75794.6520185656,75314.5998758101,79270.1964359803,79568.9620637708,64628.4053149390
2994740817,7397,1,0,55872.6401904214,48215.7154305900,69908.3461650151,72070.6188966328,65420.6318873840,75800.6993638866,75317.3984460794,79279.1396931452,79577.1265883390,64632.4814933747
2994740817,7397,1,0,55859.7424317891,48194.2272780007,69909.1248976117,72072.1885295230,65419.7923163032,75790.7948586727,75320.0996747741,79278.7259914532,79576.6520481629,64635.0245420107
2994740817,7397,1,0,55849.9596035434,48169.5511888437,69910.1591518417,72073.0159329069,65420.9847505918,75802.9625554957,75328.7995780025,79281.7314125684,79577.8566501484,64632.2624748319
2994757293,7398,1,0,55858.6838421655,48167.3488357188,69914.0771502187,72077.8221731520,65426.9225866414,75805.7611257650,75334.4332216315,79287.5232362562,79583.9526662567,64630.9118604846
2994757293,7398,1,0,55876.1323194096,48229.4405926062,69909.9766363894,72079.6838307659,65427.8594992968,75787.7407667702,75326.4512125156,79280.5998167639,79582.4073687602,64631.4350714479
2994757293,7398,1,0,55875.4387606907,48255.9540039834,69902.8341983543,72071.8600017087,65419.8653224841,75789.5659212936,75317.9216570428,79273.7494034526,79574.6200427935,64625.3633907333
2994757293,7398,1,0,55859.5964194272,48189.9929195063,69906.9225444868,72069.8523317330,65417.0545845180,75808.0486527677,75326.8040757235,79280.7823322163,79579.0855875275,64624.8158443763
2994757293,7398,1,0,55857.7469295101,48155.1568035022,69913.9676409473,72076.8244220125,65420.8387382300,75798.4240045807,75334.2750415728,79284.9315168329,79582.4438718506,64634.7811880743
2994757293,7398,1,0,55869.1358937364,48202.4039702657,69913.2497468347,72075.6441554207,65422.8464082057,75795.5280927369,75328.2520316454,79280.4903074925,79581.7381454349,64636.8375288373
2994757293,7398,1,0,55876.5460211015,48237.4226017221,69915.7197892898,72071.2394491708,65423.1262652327,75809.8008011102,75329.0794350294,79281.1960339082,79582.3586979729,64632.9316981572
2994757293,7398,1,0,55877.3490890919,48235.3784286558,69922.7892211439,72074.3057087702,65426.5818911304,75808.5840314279,75334.5183955092,79283.9702687839,79587.5543045163,64638.0664662164
2994787771,7399,1,0,55864.6825166992,48217.5040820229,69917.5084407228,72071.3976292295,65420.6927258681,75795.7471112797,75332.5958994112,79277.1441908662,79580.6430527208,64639.0642173559
2994787771,7399,1,0,55850.3611375386,48168.7359531566,69914.4908519107,72063.2452723581,65415.2415976914,75805.3352563762,75328.1668577677,79277.3753771058,79580.5943819336,64634.7325172870
2994787771,7399,1,0,55854.5954960330,48150.0707062302,69916.3281741309,72066.6765628622,65418.1496772321,75803.9481389383,75326.9744234790,79281.5123940256,79582.3586979729,64632.4449902843
2994787771,7399,1,0,55875.3535868129,48213.8659406729,69913.2984176220,72075.0236028827,65423.3087806850,75789.3590704476,75324.4435425398,79278.2514512771,79582.7237288776,64632.4693256779
2994787771,7399,1,0,55880.2206655421,48251.6466393081,69911.6192754605,72074.0745225305,65422.9072466899,75800.0909790455,75327.6071437138,79277.7160726169,79579.0004136497,64628.7825135405
2994787771,7399,1,0,55863.2345607772,48194.1542718197,69919.0537382193,72069.9740087012,65421.0577567728,75816.7972267834,75331.3547943353,79284.2136227203,79584.5367157042,64633.5765860888
2994787771,7399,1,0,55856.5544952214,48155.7286852529,69924.5170340928,72073.1862806625,65421.0090859855,75806.4790198775,75330.3813785894,79286.4038081485,79589.6836514603,64643.7974514201
2994787771,7399,1,0,55865.2057276626,48186.0384180388,69920.6477065031,72074.3543795575,65422.3597003328,75799.3365818424,75324.5652195081,79281.1473631210,79584.1230140122,64642.9457126425
2994813026,7400,1,0,55879.1134051312,48210.6901718021,69921.4994452807,72074.6585719780,65427.3971268175,75813.9134826363,75330.6490679195,79286.3064665739,79584.7313988534,64638.5410063925
2994813026,7400,1,0,55888.3365193230,48224.8168678135,69924.0059908262,72082.1538732210,65434.3813847939,75804.0211451193,75339.7991759304,79291.6480854791,79588.5642233526,64640.8285333953
2994813026,7400,1,0,55879.3932621581,48220.4973354414,69915.8171308644,72078.7834212010,65428.8329150426,75793.2162303405,75336.1610345803,79284.0554426616,79583.4537906869,64640.1349746764
2994813026,7400,1,0,55858.8785253146,48165.0369733224,69913.6026100426,72067.7594878794,65421.7269800980,75807.6957895598,75334.6279047806,79279.5533948371,79581.1905990779,64635.6085914582
2994813026,7400,1,0,55863.6117593788,48146.4690679706,69921.2682590410,72075.5711492398,65427.2754498493,75808.2920067041,75339.7261697495,79286.2334603929,79588.3330371129,64642.4346693759
2994813026,7400,1,0,55883.9804838604,48220.0592983558,69919.0294028256,72084.4535679205,65431.5949822214,75796.4650053922,75337.4751458372,79285.9901064565,79585.4127898754,64646.0241399387
2994813026,7400,1,0,55894.3351938567,48266.4547263416,69917.1312421212,72086.7897657105,65430.9987650771,75807.1847462932,75342.1718768109,79287.3528885007,79583.4902937774,64640.8285333953
2994813026,7400,1,0,55881.9119754005,48212.5761648097,69919.6134522731,72080.4260602721,65428.4800518348,75811.0175707925,75343.8631866693,79291.1613776062,79587.2257767020,64636.6428456882
2994856437,7401,1,0,55867.8217824795,48167.0689786918,69917.8491362338,72077.4693099441,65424.9027489688,75793.6055966388,75337.0249410548,79289.4579000510,79584.3663679487,64637.7744414927
2994856437,7401,1,0,55863.9646225866,48175.1848324727,69908.3096619246,72072.6874050927,65420.6562227776,75789.5780889905,75328.7144041247,79281.1595308178,79577.6619669992,64631.2890590861
2994856437,7401,1,0,55874.8303758495,48193.9960917610,69907.0198860614,72075.4494722715,65425.7058169591,75796.4041669081,75332.8879241350,79283.2037038840,79574.4983658253,64628.5634949977
2994856437,7401,1,0,55890.7335555971,48226.0336374958,69905.5962655331,72081.3143021402,65428.5652257125,75780.9998627303,75337.2074565071,79280.7944999131,79570.8237213847,64629.3543952912
2994856437,7401,1,0,55889.3221027656,48238.4568559520,69897.7967718696,72077.1529498267,65421.7391477949,75779.3085528719,75332.5958994112,79276.4506321473,79565.5794440540,64627.6630854328
2994856437,7401,1,0,55874.8425435463,48177.2776763263,69898.9161999773,72071.8113309215,65416.8112305816,75791.2572311520,75335.2606250154,79278.3001220644,79564.8128791542,64620.8491752120
2994856437,7401,1,0,55874.5748542162,48139.3022945419,69903.5034216795,72079.4526445263,65421.5079615552,75783.7254268186,75340.9307717349,79282.0721080795,79566.4190151348,64622.7230005227
2994856437,7401,1,0,55893.0819210839,48199.3620460599,69898.8918645837,72085.4999898473,65424.6715627292,75766.5933096919,75337.6576612896,79276.9008369297,79562.3671720928,64623.2827145766
2994901180,7402,1,0,55900.6623962046,48238.9192284313,69893.0026993214,72079.2822967707,65420.8630736236,75774.8065050474,75333.9830168490,79275.6353964602,79555.4315849037,64615.6900717591
2994901180,7402,1,0,55891.5731266779,48198.8996735807,69894.2316367005,72076.5810680760,65418.8554036478,75783.0927065838,75338.6797478227,79277.4970540741,79558.0598074175,64615.3858793385
2994901180,7402,1,0,55879.3445913708,48160.8634533121,69890.7881784996,72075.7658323889,65415.3024361755,75766.7879928411,75334.8955941108,79272.9098323718,79557.4635902731,64618.8536729330
2994901180,7402,1,0,55870.6325204456,48145.4469814375,69882.7940016869,72065.9099979623,65404.8017138173,75764.7803228653,75323.8473253955,79264.2220968402,79550.3211522381,64612.8671660961
2994901180,7402,1,0,55874.7452019717,48144.9724412614,69885.5073980784,72066.0925134147,65407.9044765072,75775.7069146123,75325.4777967698,79266.0837544541,79551.8299466441,64607.4890441004
2994901180,7402,1,0,55887.0224080661,48190.5526335601,69890.0459489934,72070.7892443883,65409.8269726052,75764.4031242638,75323.6039714591,79266.3149406938,79553.1440579010,64609.0830123842
2994901180,7402,1,0,55883.3842667160,48215.7762690741,69886.6754969734,72063.1722661772,65405.1424093284,75763.5757208798,75317.4592845635,79261.5695389328,79551.2093941061,64612.5508059787
2994901180,7402,1,0,55859.4869101558,48154.4632447833,69889.4984026363,72054.8617292471,65402.7088699638,75785.1733827405,75318.7977312140,79265.4023634321,79550.8565308983,64610.5553036998
2994917578,7403,1,0,55857.9051095688,48115.2102548325,69897.8454426569,72064.2430234976,65410.1920035099,75778.4689817911,75328.9212549707,79271.5105472372,79557.4027517890,64619.8879271630
2994917578,7403,1,0,55874.4896803385,48168.9914747899,69894.7913507543,72067.9663387254,65412.6742136618,75762.9064975546,75326.6823987553,79270.3302806454,79552.2314806393,64620.5814858819
2994917578,7403,1,0,55881.4374352244,48209.7167560563,69888.4154776191,72061.4809563188,65409.4497740037,75769.0025136629,75324.1028470288,79265.0616679210,79545.8556075041,64606.9536654402
2994917578,7403,1,0,55878.8578834979,48188.6179697653,69890.6786692282,72061.7121425584,65413.4042754711,75775.9867716392,75324.8207411414,79268.4199522441,79551.0268786538,64603.2303502124
2994917578,7403,1,0,55868.2111487778,48166.7769539681,69887.4542295701,72061.1645962014,65411.4331085858,75763.2471930656,75319.9901655026,79264.9886617401,79550.9417047760,64604.5931322565
2994917578,7403,1,0,55856.9925323071,48146.5420741515,69883.1955356821,72054.5940399170,65410.1798358131,75773.8817600889,75316.3033533653,79264.3924445958,79548.9340348003,64601.0888355715
2994917578,7403,1,0,55863.7699394375,48149.0121166066,69892.1996313310,72059.0717523478,65419.2082668557,75784.1512962074,75323.4336237035,79272.7881554036,79554.8962062435,64603.6805549948
2994917578,7403,1,0,55887.2049235184,48211.4324013083,69895.6674249256,72072.9915975133,65430.9379265930,75773.9182631793,75327.8870007407,79277.3753771058,79554.0444674659,64613.2930354849
2994962953,7404,1,0,55891.4027789224,48247.7773117184,69893.3555625292,72072.3102064912,65428.8329150426,75777.9701062214,75329.9676768975,79276.4871352378,79555.0787216958,64615.9455933923
2994962953,7404,1,0,55868.2111487778,48179.1880047275,69894.3168105782,72061.7486456489,65423.3209483818,75791.4884173917,75328.8725841834,79279.6750718054,79556.6970253733,64615.6900717591
2994962953,7404,1,0,55858.3066435640,48127.5239640173,69896.2271389794,72061.3471116537,65422.5787188756,75775.5243991600,75326.5850571807,79280.7701645194,79559.1427324347,64619.6689086202
2994962953,7404,1,0,55867.0917206701,48167.9450528631,69888.3303037413,72060.1790127587,65416.9572429434,75759.3778654759,75315.6949685242,79270.3424483422,79551.1607233189,64616.9190091382
2994962953,7404,1,0,55877.7262876934,48209.2422158802,69886.2496275846,72057.9888273306,65415.3997777501,75775.2202067394,75314.4660311450,79269.8557404693,79549.1895564335,64611.3827070837
2994962953,7404,1,0,55882.3013416988,48212.3936493573,69895.8134372874,72062.2596889155,65421.8121539758,75786.8038541148,75323.2997790385,79276.7791599615,79556.2224851972,64618.5981512997
2994962953,7404,1,0,55877.2760829109,48204.4724787256,69898.5024982853,72067.1511030383,65422.3110295455,75776.7655042359,75324.8815796255,79278.8963392087,79558.9115461951,64627.3467253154
2994962953,7404,1,0,55858.9515314956,48162.0437199040,69897.3100639967,72060.5318759666,65419.1230929779,75784.9178611073,75323.3971206131,79278.7746622405,79556.6240191924,64620.6666597596
2994971857,7405,1,0,55859.6815933049,48133.6199801256,69902.3353227846,72065.3746193021,65423.4182899564,75786.8403572053,75329.4931367214,79284.4569766568,79561.3207501660,64620.1069457058
2994971857,7405,1,0,55878.5293556837,48190.1267641713,69897.0910454539,72072.0790202516,65426.1925248320,75762.1642680484,75326.9500880854,79276.8521661424,79555.8087835052,64622.1267833784
2994971857,7405,1,0,55882.2526709115,48235.1837455067,69884.8260070563,72063.9631664707,65415.6187962929,75757.0903384732,75316.8265643287,79265.9134066986,79544.0912914647,64613.8284141452
2994971857,7405,1,0,55863.9524548898,48181.7797241508,69879.9102575399,72055.2510955454,65407.5394456025,75769.0511844501,75315.2934345290,79266.5704623271,79540.2949700560,64608.0974289415
2994971857,7405,1,0,55855.5080732947,48139.2414560578,69883.4145542249,72058.7553922304,65409.7661341211,75763.9164163909,75317.7513092872,79270.1477651930,79541.5725782224,64614.3394574117
2994971857,7405,1,0,55862.8086913884,48167.7868728044,69880.1901145668,72061.1524285046,65408.2695074119,75760.5459643709,75313.2857645532,79264.4532830799,79540.0272807259,64614.9600099497
2994971857,7405,1,0,55873.7717862259,48196.3322895510,69881.6502381855,72061.8094841330,65412.1996734857,75774.7091634728,75313.7238016388,79267.3370272269,79541.6942551906,64610.7499868489
2994971857,7405,1,0,55883.4086021097,48205.6040745301,69887.9652728366,72066.7982398304,65418.4660373495,75770.2314510420,75321.1825997913,79270.4519576136,79545.0525395137,64613.5363894214
2995007803,7406,1,0,55875.9741393509,48201.1750328866,69882.9278463520,72064.9609176101,65416.0203302881,75757.5040401652,75320.2700225296,79267.5317103761,79542.6676709364,64612.0154273185
2995007803,7406,1,0,55859.3652331875,48144.8994350804,69880.2022822636,72055.4822817851,65409.7417987274,75769.5135569294,75314.9892421084,79266.8259839603,79540.5626593861,64603.9604120217
2995007803,7406,1,0,55859.9614503319,48112.6307031060,69885.8845966799,72064.1578496198,65417.9184909925,75775.2810452235,75323.0320897084,79273.3965402447,79546.1963030151,64604.0090828090
2995007803,7406,1,0,55882.1188262464,48185.5030393786,69887.5150680542,72076.2403725650,65426.6062265240,75764.4882981415,75323.5066298845,79274.2117759319,79548.3864884432,64612.2344458613
2995007803,7406,1,0,55888.1175007802,48250.5150435036,69884.3149637898,72068.1731895714,65424.7932396974,75768.6131473645,75314.9770744116,79272.7029815258,79542.8258509951,64609.9347511618
2995007803,7406,1,0,55869.6712723966,48211.9312768780,69887.3568879955,72055.3362694232,65422.7003958439,75781.0485335176,75312.0811625677,79274.5403037461,79546.1232968342,64608.0000873670
2995007803,7406,1,0,55858.9393637987,48169.7093689024,69891.5669110962,72058.0253304211,65423.7224823770,75769.7204077754,75311.8864794186,79274.2969498096,79551.1850587125,64615.6657363654
2995007803,7406,1,0,55860.7401829285,48172.6661192304,69886.2496275846,72060.3371928174,65420.3398626602,75767.2868684108,75309.6597909000,79269.6732250169,79547.8146066925,64614.0839357784
2995046132,7407,1,0,55873.4797615022,48183.5562078869,69890.4961537758,72066.0195072337,65424.8297427879,75784.4311532343,75318.0555017078,79273.6885649685,79552.7668592995,64610.3727882474
2995046132,7407,1,0,55890.0034937877,48212.7221771715,69896.6165052778,72077.2746267950,65433.8703415273,75781.7785953269,75331.4156328194,79281.5610648129,79558.9358815887,64615.0816869179
2995046132,7407,1,0,55889.2855996752,48232.7380384453,69894.0247858545,72077.9316824234,65433.2497889894,75770.9493451545,75332.3038746875,79280.0401027101,79557.1472301557,64615.1790284925
2995046132,7407,1,0,55862.4558281806,48172.2524175384,69887.7584219907,72062.1015088568,65419.9018255746,75778.4081433070,75323.9690023638,79276.6331475996,79552.1219713679,64606.4182867800
2995046132,7407,1,0,55854.2304651283,48121.2576001535,69888.7075023428,72059.9599942159,65419.0014160097,75774.9525174093,75322.7400649846,79279.5168917467,79552.9493747518,64606.4304544768
2995046132,7407,1,0,55871.4599238296,48171.8630512401,69883.9012620978,72063.3547816295,65420.8022351395,75761.7383986596,75314.7702235656,79273.1410186115,79549.0800471621,64606.4304544768
2995046132,7407,1,0,55884.4915271269,48224.3788307279,69884.3392991834,72064.9487499133,65423.6008054088,75772.5919842256,75316.6197134827,79273.9319189049,79547.2183895482,64600.0302459479
2995046132,7407,1,0,55882.6177018162,48195.2980353211,69893.9761150672,72072.0181817674,65428.7234057712,75791.1598895774,75332.3282100811,79286.4524789358,79556.5510130114,64603.4006979679
2995104479,7408,1,0,55877.3855921823,48162.2505707500,69896.8598592142,72077.5788192155,65430.5850633851,75775.0133558934,75338.0348598911,79286.5863236008,79557.0985593684,64611.5652225361
2995104479,7408,1,0,55872.3603333944,48157.0062934193,69888.7561731301,72072.0303494643,65425.6449784750,75768.1142717948,75331.2331173671,79280.5876490671,79551.3067356807,64609.2411924429
2995104479,7408,1,0,55880.4761871754,48168.7359531566,69890.4353152917,72068.2340280555,65427.4701329985,75779.2598820846,75331.2817881543,79281.2203693019,79550.2846491476,64604.5809645597
2995104479,7408,1,0,55900.0053405762,48223.7339427963,69892.1874636342,72075.0601059732,65434.6247387304,75772.5676488320,75333.3624643111,79284.4448089600,79552.4261637884,64607.1970193766
2995104479,7408,1,0,55902.3780414566,48269.4723151537,69890.4961537758,72076.1551986873,65435.1236143001,75769.0633521470,75332.4012162620,79280.9770153654,79549.9561213334,64607.3308640417
2995104479,7408,1,0,55880.9507273514,48220.3878261700,69892.4673206611,72070.5702258455,65431.8383361579,75788.3734870050,75335.8203390693,79287.2433792292,79555.0057155149,64604.8608215866
2995104479,7408,1,0,55873.7961216196,48165.2073210779,69898.7701876154,72075.9240124476,65435.5859867794,75783.4942405790,75341.5756596665,79293.7044262422,79560.5906883566,64611.6382287170
2995104479,7408,1,0,55890.1130030591,48201.3453806421,69895.8256049843,72083.7721768984,65438.7739233470,75765.4495461906,75341.4539826983,79290.7476759142,79559.1427324347,64617.7585802190
2995108998,7409,1,0,55896.8174040086,48233.6627834038,69887.1622048463,72077.8343408488,65432.4953917863,75765.8389124889,75337.0127733579,79283.9824364807,79551.4405803458,64611.2001916314
2995108998,7409,1,0,55881.3644290434,48201.0533559183,69883.5849019804,72067.4187923684,65426.4480464653,75767.4693838632,75332.8270856508,79280.3929659179,79548.7271839543,64604.0455858995
2995108998,7409,1,0,55866.7023543718,48171.8022127560,69880.1901145668,72064.9365822165,65420.1086764206,75755.5085378862,75328.8239133961,79273.6520618780,79543.7140928632,64605.8342373325
2995108998,7409,1,0,55854.2669682187,48150.7642649491,69875.6393959550,72055.5552879660,65411.8954810651,75760.5337966741,75318.5178741871,79265.2441833734,79540.5383239924,64600.8698170287
2995108998,7409,1,0,55860.4359905080,48142.2955479603,69881.9422629093,72058.3903613258,65417.6021308750,75771.6307361766,75320.6715565247,79269.5272126550,79543.2030495966,64600.2370967939
2995108998,7409,1,0,55883.4694405938,48193.3633715262,69885.5073980784,72069.4873008283,65427.0320959128,75760.2782750408,75323.8351576987,79274.2604467192,79547.6564266339,64606.3939513863
2995108998,7409,1,0,55890.1373384528,48236.4491859763,69882.9765171393,72069.7063193711,65425.0244259370,75761.1300138184,75320.7202273120,79273.1775217019,79544.8943594550,64605.6395541833
2995108998,7409,1,0,55870.3891665091,48181.1591716128,69882.4411384790,72061.1402608077,65420.0721733301,75779.9412731067,75323.6039714591,79276.5844768123,79545.6852597485,64602.1230898015
2995131975,7410,1,0,55866.2643172862,48129.9453356850,69894.5479968179,72074.0988579242,65427.4214622112,75784.2486377820,75336.0758607026,79288.8738506035,79558.8993784982,64614.3637928054
2995131975,7410,1,0,55877.5316045442,48168.3100837678,69893.3433948324,72078.3453841154,65435.2452912683,75771.1805313942,75332.3160423843,79287.8517640704,79559.5199310362,64618.8415052362
2995131975,7410,1,0,55888.4338608976,48216.7496848199,69892.2969729056,72076.0456894158,65437.3016320314,75785.1977181342,75331.0384342179,79288.9468567845,79555.9669635639,64611.6990672011
2995131975,7410,1,0,55888.3243516262,48221.4707511872,69897.5412502363,72076.8487574062,65442.8014309954,75790.1256353475,75335.3823019837,79292.7431781932,79560.8948807772,64610.1050989173
2995131975,7410,1,0,55883.3477636256,48216.1412999788,69897.2857286030,72079.8663462182,65440.9884441687,75781.2188812731,75337.8523444387,79292.9013582519,79562.2454951246,64613.4025447563
2995131975,7410,1,0,55870.7055266265,48179.9545696273,69892.5646622357,72074.6464042812,65435.8536761095,75785.2463889215,75339.4219773289,79290.9180236698,79558.3274967476,64609.2290247461
2995131975,7410,1,0,55874.1003140401,48151.1657989443,69897.9914550188,72079.9758554897,65439.5161528532,75796.4041669081,75346.6617569385,79299.9829578029,79563.4379294132,64611.2001916314
2995131975,7410,1,0,55896.5253792848,48201.4670576103,69898.6363429504,72092.6789309728,65445.3323119345,75774.8795112283,75348.0488743764,79297.5615861351,79559.3860863712,64616.3471273875
2995164121,7411,1,0,55903.9355066500,48251.1842668288,69888.6344961619,72088.3837339943,65440.3313885403,75771.8984255067,75343.7293420042,79288.7278382416,79553.6794365612,64610.0929312205
2995164121,7411,1,0,55881.9363107941,48194.2759487879,69886.2252921910,72079.2822967707,65430.3660448423,75782.2288001094,75344.7514285373,79289.8472663493,79551.2580648934,64600.3344383685
2995164121,7411,1,0,55864.5851751246,48128.6798952155,69887.1013663622,72077.0434405553,65425.4137922354,75772.8353381621,75343.8145158820,79287.1217022610,79554.5555107325,64605.7977342420
2995164121,7411,1,0,55866.1183049243,48143.0377774665,69882.5749831441,72080.7789234800,65423.7468177706,75765.2426953446,75339.4584804194,79279.0788546610,79550.6496800523,64606.0654235721
2995164121,7411,1,0,55877.0327289745,48177.7035457151,69882.0152690902,72080.6450788149,65425.8639970178,75779.7830930480,75340.8942686445,79282.2667912287,79550.6375123555,64602.8409839140
2995164121,7411,1,0,55884.4915271269,48191.3678692473,69888.2329621668,72080.6815819054,65429.6481507298,75782.9710296156,75338.0591952847,79284.7124982901,79552.5965115440,64606.4182867800
2995164121,7411,1,0,55880.5856964468,48195.2250291401,69886.3104660687,72077.1164467363,65426.9469220351,75772.2147856241,75328.3980440073,79279.8940903482,79553.4604180184,64610.0442604332
2995164121,7411,1,0,55863.4900824105,48147.7831792275,69881.7840828506,72069.6089777965,65414.5602066693,75778.1891247642,75326.3052001538,79274.2117759319,79548.3864884432,64605.6760572738
2995212978,7412,1,0,55859.1218792511,48103.7726198189,69885.9941059513,72074.5247273130,65415.1685915105,75780.4644840701,75337.3413011722,79277.1928616535,79552.9858778423,64607.1605162862
2995212978,7412,1,0,55877.9574739330,48158.0770507397,69887.7219189002,72088.6270879308,65421.7026447044,75768.3089549439,75345.6518381022,79276.2437813013,79555.1030570895,64617.2718723460
2995212978,7412,1,0,55889.3586058561,48221.7384405173,69882.1977845426,72084.2588847713,65419.4516207921,75771.5577299957,75340.4197284684,79271.8269073546,79551.0390463506,64617.1988661651
2995212978,7412,1,0,55875.5239345684,48184.4201143614,69885.7142489244,72074.3057087702,65415.0955853295,75786.0737923054,75332.1821977192,79274.5889745334,79555.5045910846,64615.7874133336
2995212978,7412,1,0,55863.3075669582,48131.7826579053,69890.1554582648,72071.7626601342,65415.8134794421,75776.9723550819,75329.3227889658,79277.7404080105,79558.9845523760,64622.0902802879
2995212978,7412,1,0,55861.2755615888,48134.2527003604,69885.7629197117,72072.6387343054,65416.0081625912,75769.8177493500,75326.3173678506,79273.5790556971,79554.1661444341,64619.0118529917
2995212978,7412,1,0,55869.3670799760,48154.2928970278,69888.0382790176,72077.0921113426,65422.0190048218,75786.9133633862,75333.1677811619,79277.9107557660,79553.6672688644,64611.4678809615
2995212978,7412,1,0,55888.4095255039,48189.6643916921,69896.3974867349,72088.0187030896,65435.8536761095,75782.7885141632,75342.1232060236,79284.1771196299,79561.4667625279,64616.5053074462
2995223857,7413,1,0,55889.1395873133,48213.8294375824,69888.3546391350,72084.3805617396,65428.2732009888,75767.7370731933,75336.4652270009,79278.3366251548,79556.9647147034,64614.2056127467
2995223857,7413,1,0,55871.4112530423,48167.7503697139,69883.3172126503,72073.2227837529,65420.0843410269,75783.8471037868,75333.4963089761,79275.9395888807,79551.9029528251,64605.8707404229
2995223857,7413,1,0,55869.3305768855,48119.8096442315,69892.1266251501,72078.0290239980,65427.3971268175,75793.3744103992,75340.0790329573,79286.5011497230,79563.2067431736,64609.8252418904
2995223857,7413,1,0,55889.3221027656,48173.4448518271,69895.7525988033,72090.6955963907,65437.2407935473,75781.6934214492,75343.4738203709,79285.1748707693,79567.9886480250,64619.3525485028
2995223857,7413,1,0,55903.4366310802,48242.0828296053,69894.6210029988,72092.5937570950,65438.9199357088,75788.6898471224,75345.2624718039,79287.0121929896,79566.6258659808,64615.2885377639
2995223857,7413,1,0,55895.3572803898,48222.6875208695,69900.4128266865,72088.6757587181,65438.5305694105,75801.2590779405,75350.3972398632,79291.1005391221,79569.2175854041,64611.8329118662
2995223857,7413,1,0,55884.3333470682,48187.2430200243,69904.1604773080,72091.2553104445,65438.2263769899,75788.2518100367,75352.1007174184,79292.3659795917,79573.0382422065,64616.0794380574
2995223857,7413,1,0,55879.1134051312,48174.8076338712,69899.2568954883,72088.2377216324,65434.7707510922,75780.5496579478,75347.2944771733,79288.4114781242,79567.1125738537,64614.2299481403
2995251632,7414,1,0,55879.5392745200,48169.2834995136,69898.2956474393,72082.2147117051,65437.1799550632,75790.8070263696,75343.1939633440,79288.0951180069,79566.4555182253,64608.2556090002
2995251632,7414,1,0,55894.9435786978,48202.5134795371,69900.6075098357,72088.3959016911,65445.3809827218,75784.4068178407,75345.7248442832,79293.1568798852,79568.6822067439,64612.5508059787
2995251632,7414,1,0,55899.1049310113,48241.1215815563,69896.2028035858,72090.3670685765,65444.1155422522,75779.0651989354,75346.7834339068,79289.9081048335,79565.3725932081,64617.3205431333
2995251632,7414,1,0,55878.0426478108,48194.6409796926,69894.1829659132,72084.1493754999,65440.2705500562,75795.1630618322,75350.8717800393,79292.4146503790,79566.4920213158,64612.7333214311
2995251632,7414,1,0,55863.2953992614,48137.9151771041,69900.5345036548,72084.3197232554,65443.1786295969,75794.9562109862,75353.2688163134,79297.8049400716,79572.1378326416,64614.2177804435
2995251632,7414,1,0,55869.3184091887,48179.1880047275,69895.7769341970,72084.7577603411,65444.2980577046,75774.3684679618,75343.4008141900,79290.0662848922,79568.0981572964,64617.9410956713
2995251632,7414,1,0,55877.0327289745,48238.0553219569,69889.0968686412,72078.2358748440,65441.6211644035,75781.9124399920,75338.8865986687,79285.0775291948,79561.9656380976,64612.7698245216
2995251632,7414,1,0,55876.1323194096,48221.8114466983,69892.8201838690,72075.8631739635,65442.7040894208,75793.4352488833,75343.0601186789,79289.4822354447,79566.3581766507,64612.5508059787
2995291715,7415,1,0,55869.2454030078,48182.4002766887,69894.9860339035,72079.0876136216,65441.4629843448,75781.5474090873,75343.5346588550,79287.4015592879,79568.7308775312,64617.0406861064
2995291715,7415,1,0,55860.9592014714,48151.0441219760,69892.0171158787,72074.9749320954,65434.7464156986,75781.6204152682,75339.9330205954,79283.5322316982,79565.8227979905,64617.0528538032
2995291715,7415,1,0,55862.7843559948,48133.8024955779,69896.5921698841,72077.3476329759,65434.4787263685,75793.5082550643,75343.8145158820,79285.6250755518,79567.0639030664,64617.0650215000
2995291715,7415,1,0,55876.5946918888,48176.4137698519,69899.7192679676,72083.8451830793,65439.0172772834,75779.7587576543,75349.1074639999,79285.0896968916,79569.1202438295,64621.3967215690
2995291715,7415,1,0,55877.6167784220,48227.2869102686,69889.7417565728,72077.2502914013,65432.1181931848,75770.9128420641,75338.8257601846,79275.8787503966,79560.6150237503,64621.9564356229
2995291715,7415,1,0,55858.5378298036,48181.0253269478,69885.7142489244,72066.4088735321,65422.2745264551,75782.3869801681,75332.9730980127,79270.3302806454,79558.7777015300,64615.8239164241
2995291715,7415,1,0,55844.5571461540,48107.5811089245,69885.7994228022,72063.5738001723,65418.2713542003,75775.5730699472,75327.8261622566,79271.1333486357,79562.7200353006,64617.9532633681
2995291715,7415,1,0,55849.8622619688,48127.8524918315,69880.1414437795,72065.2042715466,65416.0081625912,75762.1886034420,75321.4624568182,79265.1225064051,79559.1062293442,64618.6711574807
2995344269,7416,1,0,55859.7789348795,48180.3074328352,69879.1315249432,72063.4764585977,65419.6949747286,75778.2377955515,75323.8594930923,79263.3460226690,79557.4757579700,64614.9356745560
2995344269,7416,1,0,55861.8961141267,48192.3047819026,69886.7728385480,72065.5084639672,65426.6670650081,75784.9665318945,75332.6445701985,79270.8656593056,79561.7709549485,64615.9455933923
2995344269,7416,1,0,55855.4837379010,48188.3867835256,69886.6511615798,72064.1821850135,65421.5566323425,75771.8740901131,75329.1889443008,79267.1788471682,79562.9755569339,64620.5449827914
2995344269,7416,1,0,55840.2984522660,48162.7007755324,69880.4578038969,72056.1393374135,65411.3114316176,75772.8110027684,75322.5818849259,79262.1900914708,79557.3175779113,64616.2619535097
2995344269,7416,1,0,55839.1546887646,48132.0138441450,69883.1590325916,72059.6071310080,65411.7738040969,75781.8029307206,75326.7067341489,79265.0981710115,79557.1228947621,64615.0573515243
2995344269,7416,1,0,55860.0222888160,48173.4083487366,69886.2739629783,72071.7748278310,65419.8166516968,75773.2490398541,75332.1700300224,79266.1810960287,79559.4955956426,64621.9564356229
2995344269,7416,1,0,55876.5338534047,48229.1242324889,69881.6259027919,72074.4638888289,65422.0555079122,75774.4171387491,75331.6954898463,79264.5506246545,79557.6947765128,64618.7806667521
2995344269,7416,1,0,55867.5419254526,48187.0605045719,69884.8503424500,72072.9064236355,65423.8198239516,75791.5249204821,75340.8455978572,79271.2671933007,79562.7565383911,64613.9987619007
2995356187,7417,1,0,55853.3665586538,48118.7875576984,69889.5470734236,72070.2173626377,65424.8419104847,75784.9421965009,75342.9992801948,79275.9882596680,79567.4411016680,64617.0163507128
2995356187,7417,1,0,55854.6441668202,48130.0913480469,69887.3568879955,72072.3953803690,65425.0609290275,75771.9835993845,75335.1024449567,79272.0215905037,79563.6082771687,64618.0019341554
2995356187,7417,1,0,55864.8650321515,48169.1739902422,69885.1058640833,72072.2372003103,65426.5697234336,75783.8106006964,75334.9199295044,79274.2604467192,79561.6127748898,64612.0519304090
2995356187,7417,1,0,55876.4608472238,48192.7428189883,69891.0315324360,72080.0853647611,65433.7729999527,75787.4730774401,75345.4936580435,79280.2834566465,79565.9688103524,64613.8770849324
2995356187,7417,1,0,55877.5194368474,48209.5585759976,69888.4763161032,72080.6450788149,65435.1601173906,75773.3342137318,75345.7856827673,79278.6286498786,79563.6204448655,64617.6125678571
2995356187,7417,1,0,55858.5986682877,48172.9581439542,69880.7984994079,72066.5305505003,65426.9225866414,75776.5951564804,75336.9275994802,79272.8003231004,79557.3175779113,64610.5674713966
2995356187,7417,1,0,55849.9596035434,48118.6050422461,69882.2707907235,72065.8004886909,65425.8396616242,75784.0904577233,75337.5238166245,79276.2194459077,79561.2355762883,64608.4502921494
2995356187,7417,1,0,55869.1602291300,48153.5871706120,69884.3149637898,72078.9781043502,65429.8306661821,75772.2391210178,75341.0159456127,79275.5623902792,79564.1923266162,64610.5553036998
2995376264,7418,1,0,55884.4063532492,48217.4675789325,69878.2311153783,72078.9416012597,65424.6350596387,75769.7447431691,75334.3723831474,79269.0405047821,79558.3518321412,64606.9049946529
2995376264,7418,1,0,55874.8425435463,48191.0028383426,69881.9787659998,72071.9816786770,65422.1650171837,75790.5515047363,75336.8059225120,79273.7250680589,79557.0620562780,64602.6584684617
2995376264,7418,1,0,55865.2057276626,48142.3442187476,69889.2793840935,72079.2944644676,65427.2511144556,75784.8813580168,75345.5666642245,79278.6043144850,79563.3527555354,64610.9811730886
2995376264,7418,1,0,55862.8086913884,48148.9999489098,69884.2784606993,72077.1529498267,65427.7256546317,75770.5478111594,75339.6896666590,79273.2870309733,79561.6249425866,64612.1492719836
2995376264,7418,1,0,55865.2665661467,48170.2447475626,69879.7764128748,72070.7527412979,65426.4237110717,75778.7853419085,75336.2218730645,79272.8611615845,79558.0963105079,64605.2015170977
2995376264,7418,1,0,55878.3468402313,48194.7261535704,69884.1081129438,72077.7126638806,65435.0141050287,75782.0341169602,75343.0722863758,79279.0180161769,79560.2013220583,64609.4480432889
2995376264,7418,1,0,55881.4374352244,48217.7717713530,69882.9765171393,72081.0222774164,65434.1867016447,75770.8520035799,75345.6396704054,79276.1829428172,79561.1138993200,64614.0474326880
2995376264,7418,1,0,55863.2953992614,48173.4813549175,69880.3969654128,72073.4418022957,65423.6373084992,75780.2332978304,75346.7956016036,79273.0801801273,79556.1494790163,64608.6328076018
2995451362,7419,1,0,55855.7635949280,48112.9348955266,69888.4398130128,72076.8852604966,65428.4070456538,75787.3392327750,75353.4026609784,79280.8188353067,79560.7001976280,64609.3020309270
2995451362,7419,1,0,55869.6347693061,48149.3649798145,69889.1212040348,72083.3098044191,65433.8703415273,75772.9935182208,75347.1606325083,79277.6552341328,79560.9678869581,64612.3561228296
2995451362,7419,1,0,55883.2017512637,48216.7375171231,69880.3117915350,72077.1164467363,65431.7166591897,75771.3387114529,75337.2196242039,79270.8778270024,79554.6893553975,64604.6904738311
2995451362,7419,1,0,55877.4951014537,48202.1362809356,69882.3316292076,72071.1056045057,65430.0740201186,75786.2198046673,75342.8776032266,79275.1243531936,79556.8552054320,64600.3709414590
2995451362,7419,1,0,55866.3494911639,48160.6566024662,69885.9576028609,72079.3309675580,65428.1271886269,75775.8894300646,75351.2854817313,79278.1541097025,79559.8119557600,64608.4867952399
2995451362,7419,1,0,55858.0754573243,48148.8052657606,69879.8615867526,72075.8145031762,65421.5322969489,75763.4053731243,75344.4715715104,79271.2063548166,79552.8398654804,64610.1172666142
2995451362,7419,1,0,55856.6275014024,48144.4613979948,69874.2157754267,72070.2416980313,65416.0690010754,75772.4459718638,75342.2570506886,79268.1887660045,79547.8754451767,64601.7580588968
2995451362,7419,1,0,55872.6523581182,48177.3141794168,69877.9269229577,72079.6229922818,65422.8829112962,75770.1097740737,75345.6396704054,79272.5569691640,79552.9980455391,64604.4957906820
2995457321,7420,1,0,55877.3369213950,48224.1476444883,69874.8119925710,72076.8609251030,65420.6075519903,75761.4707093295,75339.0569464242,79264.9643263464,79550.1994752698,64604.6661384375
2995457321,7420,1,0,55859.1340469479,48188.6179697653,69874.5808063314,72066.2506934734,65416.8112305816,75778.5419879720,75335.8325067661,79266.9476609286,79549.1773887367,64602.7436423394
2995457321,7420,1,0,55845.5548972935,48122.3526928675,69883.2442064693,72067.1145999478,65420.8387382300,75783.4334020949,75341.1132871873,79276.6696506901,79557.3175779113,64606.2966098117
2995457321,7420,1,0,55851.1642055289,48146.3717263960,69881.3582134618,72069.2561145886,65423.0289236581,75761.1543492121,75332.0118499637,79270.7074792469,79554.7015230943,64609.1803539588
2995457321,7420,1,0,55857.6982587228,48204.3629694542,69873.4492105269,72061.8216518298,65421.1794337410,75764.6829812907,75323.7499838209,79265.5605434908,79547.0967125800,64601.1131709652
2995457321,7420,1,0,55856.0921227422,48200.0434370820,69877.8904198673,72059.9599942159,65423.3696191691,75783.5550790631,75328.1303546772,79270.7318146405,79551.8299466441,64602.9261577918
2995457321,7420,1,0,55851.2493794066,48174.9414785363,69885.9697705577,72065.6179732386,65428.9424243140,75775.5852376441,75334.0560230300,79276.2072782108,79560.4446759948,64614.2056127467
2995457321,7420,1,0,55841.6247312197,48155.9963745830,69882.1734491489,72061.5782978934,65423.3087806850,75773.3585491255,75329.8581676261,79272.4596275894,79557.1350624589,64616.5418105367
2995483063,7421,1,0,55842.7928301147,48138.9737667277,69884.8746778436,72062.9775830280,65424.3308672181,75785.4775751611,75338.3268846148,79276.3167874822,79559.4347571585,64615.8847549082
2995483063,7421,1,0,55862.3219835155,48168.3952576455,69887.4055587828,72072.6265666086,65430.0861878154,75772.0931086559,75341.3566411237,79278.3244574580,79561.5519364057,64617.1745307715
2995483063,7421,1,0,55870.8272035948,48218.8425286735,69876.5763086104,72071.1907783835,65426.1073509543,75757.1146738668,75334.5427309029,79270.1721005867,79553.7402750453,64613.0375138517
2995483063,7421,1,0,55850.0204420275,48180.4412775003,69869.0566719738,72057.3074363085,65414.1586726742,75770.0002648023,75330.4787201640,79267.6655550411,79549.9561213334,64603.2911886965
2995483063,7421,1,0,55833.3385296833,48110.8542193699,69875.4447128058,72053.9248165917,65415.1442561168,75777.4103921675,75337.9861891038,79272.9950062496,79555.0057155149,64607.5498825845
2995483063,7421,1,0,55841.6612343102,48130.9917576118,69878.5718108893,72059.5462925239,65422.3475326360,75768.1386071884,75334.1655323014,79274.8323284698,79558.3518321412,64614.8383329815
2995483063,7421,1,0,55859.9249472414,48188.3624481320,69878.6934878576,72062.6125521233,65429.1127720696,75776.6073241772,75333.1312780714,79274.8323284698,79557.9259627524,64614.4854697736
2995483063,7421,1,0,55870.5230111742,48201.2237036738,69885.1301994769,72066.2993642607,65434.1258631606,75783.9566130583,75338.8987663655,79283.5200640014,79564.4721836432,64617.2840400429
2995542161,7422,1,0,55863.1372192027,48189.3480315746,69883.5240634963,72066.3967058352,65430.1591939963,75768.6983212423,75338.8987663655,79279.6507364117,79562.3793397896,64621.2385415103
2995542161,7422,1,0,55845.5183942030,48161.0703041581,69877.2090288452,72061.8581549203,65420.9969182887,75772.8596735557,75335.5769851328,79273.9197512081,79556.0399697449,64617.9775987618
2995542161,7422,1,0,55841.7707435816,48123.7154749117,69883.0130202297,72064.5350482213,65426.1560217416,75789.5294182032,75344.4107330263,79280.5633136734,79563.1215692958,64617.1258599842
2995542161,7422,1,0,55858.1727988989,48151.5916683331,69886.8336770321,72074.3300441638,65433.7486645591,75774.8065050474,75346.1020428847,79283.2402069745,79567.5749463330,64621.6279078087
2995542161,7422,1,0,55867.6636024208,48213.9024437633,69882.0274367871,72071.1421075962,65430.7919142311,75769.6717369881,75341.2958026396,79276.4141290568,79560.3108313297,64621.1290322389
2995542161,7422,1,0,55851.6509134018,48185.3205239263,69882.4411384790,72058.8162307146,65423.6981469833,75789.4077412349,75337.5968228054,79276.9616754139,79562.3550043960,64616.6756552017
2995542161,7422,1,0,55836.9766710333,48116.8163908131,69890.5326568663,72055.4579463914,65426.5697234336,75789.9917906824,75334.9564325949,79282.0356049890,79569.6921255802,64624.8280120731
2995542161,7422,1,0,55842.8293332052,48120.1868428330,69890.6543338345,72057.9644919369,65428.5165549252,75779.8074284416,75328.2641993422,79283.0820269158,79569.0472376486,64629.7924323769
2995579701,7423,1,0,55854.8023468789,48156.6534302114,69887.6489127193,72055.7499711152,65428.8450827394,75783.6402529409,75327.2421128091,79280.6606552480,79564.5208544304,64623.0393606401
2995579701,7423,1,0,55860.9713691682,48169.9162197484,69889.2307133062,72058.4998705972,65433.4201367449,75783.5429113663,75332.5715640176,79283.7755856347,79565.8593010810,64616.8703383509
