steady_timestamp,sequence,battery,flags,EEG-ch1,EEG-ch2,EEG-ch3,EEG-ch4,EEG-ch5,EEG-ch6,EEG-ch7,EEG-ch8,EEG-ch9,EEG-ch10
8761885447,10965,-2,0,54320.2124235695,56670.2205494684,36994.7384266538,53469.2280431666,55645.3719491625,61783.6464685225,61970.5179563292,57843.1865232000,65967.8010458148,21420.2933441340
8761885447,10965,-2,0,54314.5544445468,56602.9331860375,36954.8283810745,53404.1308651638,55590.6173134592,61794.2932032426,61936.6917591615,57767.5156166581,65967.8740519958,21414.6962035955
8761885447,10965,-2,0,54325.1525084796,56580.2160960691,36951.7377860815,53396.6112285273,55573.8015564499,61815.5745049859,61950.5264304491,57759.4119305741,65990.7128189324,21409.0868953601
8761885447,10965,-2,0,54339.0601859482,56636.8932278704,36995.6388362187,53461.0756862952,55621.5597664800,61822.9968000479,61998.5644975061,57833.8173966463,66006.5429924991,21420.6218719482
8761885447,10965,-2,0,54339.6320676989,56692.4996023512,37024.8291408969,53504.3683515912,55669.6951751115,61803.7353359772,62012.9953859381,57884.1064876156,65994.1197740429,21435.8193252801
8761885447,10965,-2,0,54325.4201978097,56671.8996916300,37001.1142997890,53468.7656706873,55652.4292133198,61784.3400272414,61980.6901508732,57845.4740502027,65972.4369383044,21435.4786297691
8761885447,10965,-2,0,54310.2957506588,56600.8281744872,36955.7531260331,53405.1651193938,55592.6371511318,61781.6874693340,61943.9072033775,57773.1005894999,65965.9028851105,21421.2667598799
8761885447,10965,-2,0,54309.1154840670,56563.5341837248,36941.2492314201,53387.3394435482,55564.1404051725,61802.3968893266,61945.2213146343,57750.8945427980,65979.8470656696,21407.1522315652
8761925612,10966,-2,0,54325.6513840494,56611.6817600532,36981.1349416057,53443.0309919068,55605.4132327959,61836.8679744260,61988.6599922922,57811.7208592159,66005.3140551200,21413.8322971210
8761925612,10966,-2,0,54343.2215382617,56691.6235281800,37033.1396778270,53512.8370685800,55673.2968133711,61838.8269736145,62022.4010155823,57889.2169202812,66017.9441244222,21439.9441745031
8761925612,10966,-2,0,54335.9939263489,56696.8799732075,37023.0404894640,53498.6982048717,55675.8763650976,61805.7551736498,61996.9096907382,57874.8833734238,65999.3275482831,21445.9793521273
8761925612,10966,-2,0,54314.8829723611,56622.4988425288,36965.5116188851,53417.3814870040,55610.2438084346,61788.1363486502,61944.3939112504,57783.8203304009,65979.3116870094,21423.7854731222
8761925612,10966,-2,0,54310.0037259351,56574.5094462591,36940.5435050044,53382.7400541491,55570.1634150999,61808.1400422271,61940.0743788782,57746.8913705432,65989.3743722819,21404.5118413547
8761925612,10966,-2,0,54323.3881924403,56617.2910682886,36977.3629555906,53437.9935654221,55608.7350140286,61822.6561045368,61981.7122374063,57808.7154381006,66006.7255079514,21412.0314779912
8761925612,10966,-2,0,54332.8668282654,56684.6879409909,37019.0738202997,53495.7901253311,55668.3688961578,61813.3599841641,62006.2544818982,57875.9784661378,66006.1292908071,21432.8382395585
8761925612,10966,-2,0,54322.2565966358,56682.1083892644,37006.7966142053,53477.5872508839,55666.9087725391,61789.3044475452,61981.2133618366,57862.1316271533,65985.4198708145,21432.7895687712
8761945558,10967,-2,0,54308.1785714116,56619.8827877119,36964.5138677456,53415.3494816346,55615.7314397018,61792.2611978731,61942.4592474555,57794.9537729939,65975.9290672926,21420.2690087404
8761945558,10967,-2,0,54314.5787799405,56575.3733527336,36948.0996447315,53386.1348415627,55583.6938939670,61818.6164291916,61942.6417629079,57762.7458795035,65992.7691596955,21416.6917058744
8761945558,10967,-2,0,54335.9452555616,56613.9449516623,36985.3449647065,53434.2215794070,55615.4394149780,61850.6418072296,61987.0538563116,57809.6645184528,66020.3411606963,21426.7908942375
8761945558,10967,-2,0,54345.8984315627,56691.3193357594,37033.8819073332,53504.1980038357,55678.2368982812,61838.6566258590,62022.7052080028,57885.3597603883,66024.4781776161,21443.9351790610
8761945558,10967,-2,0,54334.0470948572,56705.1053362598,37029.4528656896,53503.2367557867,55686.9124661160,61800.6569086810,62000.5356643914,57882.1231530334,65995.9449285663,21444.0933591197
8761945558,10967,-2,0,54311.2326633142,56633.6079497282,36969.1984310224,53426.7749489513,55622.8008715559,61781.6022954562,61946.7787798277,57789.9528495996,65967.3873441229,21419.4294376596
8761945558,10967,-2,0,54304.3214115187,56570.6279509726,36932.3424773457,53378.7490495912,55566.4522675689,61796.7267426071,61930.3037183294,57733.2148793143,65970.5996160841,21397.0043724149
8761945558,10967,-2,0,54315.6252018673,56594.5374752297,36961.3746019653,53418.6347597768,55589.4005437769,61819.0544662773,61966.6851318300,57778.5395499797,65991.6375638910,21402.9178730709
8761979665,10968,-2,0,54329.3990346708,56664.5747381426,37009.9723830761,53481.0307090848,55651.1029343661,61821.8652042433,62001.0102045675,57848.1022727165,65997.7092446056,21421.5587846036
8761979665,10968,-2,0,54331.0416737419,56692.7551239845,37021.8967259626,53491.6044376240,55676.3265698800,61806.6799186083,61995.3157224544,57859.2843860968,65985.4807092986,21434.6147232946
8761979665,10968,-2,0,54319.1173308554,56648.7932353632,36985.5396478557,53439.0643227425,55637.5724554990,61791.6528130320,61960.2727556043,57800.8307705594,65972.7167953313,21425.4037767997
8761979665,10968,-2,0,54314.2259167326,56585.2170194633,36946.3596640858,53387.2907727609,55584.0467571748,61804.8425963881,61938.2127212643,57739.7976032955,65977.9975757525,21409.0868953601
8761979665,10968,-2,0,54331.5527170085,56598.5528151813,36964.5868739265,53415.5441647838,55595.4843921884,61840.3479357174,61972.8906572097,57769.4137773625,66007.4555697608,21410.1333172869
8761979665,10968,-2,0,54352.3594785757,56679.1394712396,37019.1224910870,53493.8554615362,55665.1566241966,61834.9333106312,62021.5857798951,57859.5277400332,66022.4096691562,21431.7309791476
8761979665,10968,-2,0,54342.3576317873,56710.8971599475,37026.8368108727,53506.2543445988,55690.1004026836,61796.7389103040,62010.1603125784,57874.8225349397,65996.6263195884,21440.0658514713
8761979665,10968,-2,0,54318.7401322539,56653.3317862782,36976.1583536052,53435.7425415098,55640.3588580714,61782.4296988402,61955.2109937260,57797.8253494441,65968.7622938639,21425.1604228632
8762038791,10969,-2,0,54314.1407428549,56590.0840981925,36941.3587406915,53383.6526314108,55587.6483954344,61810.8656063154,61935.2924740268,57740.1869695938,65978.1557558112,21409.6222740203
8762038791,10969,-2,0,54330.7131459277,56602.6776644043,36965.1344202836,53412.2832220352,55601.6534144776,61837.9265640496,61966.7094672236,57772.9789125316,66006.3604770468,21413.6984524560
8762038791,10969,-2,0,54347.6505799052,56671.9240270236,37017.0539826271,53477.2587230697,55659.8515083818,61840.9319851649,62005.2932338492,57846.8976707310,66016.9342055859,21432.4123701697
8762038791,10969,-2,0,54345.3265498121,56713.5618855517,37037.3375332309,53502.4945262805,55692.8503021656,61819.0788016709,62006.5100035315,57875.6986091109,66003.5740744743,21446.1618675796
8762038791,10969,-2,0,54328.5594635900,56678.3729063398,37002.6839326792,53459.4452149209,55660.1678684992,61796.9579288468,61967.1596720061,57821.7957121853,65979.1413392538,21439.7008205666
8762038791,10969,-2,0,54316.9393131241,56602.3978073773,36948.3795017584,53392.8635779058,55596.3848017533,61801.2409581285,61933.2117978701,57741.4159069729,65973.7023787740,21418.7358789407
8762038791,10969,-2,0,54326.3206073746,56588.4049560309,36948.4890110298,53400.0425190313,55584.6673097128,61827.5840217501,61956.8658004939,57744.0076263962,65993.4262153240,21408.5150136094
8762038791,10969,-2,0,54343.9029292838,56653.4656309432,36997.2814752898,53474.4358174068,55643.3521114899,61831.3560077652,62010.4158342117,57828.9746533108,66009.0252026510,21419.7579654738
8762048271,10970,-2,0,54343.7690846187,56702.2094244159,37021.9210613562,53508.7000516602,55685.4036717099,61805.1467888086,62015.4775960900,57872.1821447291,65994.8133327618,21433.7751522138
8762048271,10970,-2,0,54328.0605880203,56668.0181963435,36989.2264599930,53459.6642334638,55654.3882125083,61790.8254096480,61974.0952591952,57819.3013343366,65972.2665905489,21429.0784212402
8762048271,10970,-2,0,54319.9812373299,56600.4266404920,36950.4358425215,53399.3124572220,55597.3095467118,61807.0571172098,61946.5597612849,57753.8147900355,65978.2165942953,21414.0513156639
8762048271,10970,-2,0,54329.7762332723,56586.2269382996,36952.3340032258,53404.0943620734,55588.3297864565,61820.9647946785,61965.6630452969,57756.4673479429,66001.2500443811,21409.1720692379
8762048271,10970,-2,0,54341.7614146429,56636.7107124180,36987.2066223204,53459.2870348622,55629.8216326227,61823.4835079208,62000.7911860247,57815.8335407420,66009.7674321572,21415.6817870381
8762048271,10970,-2,0,54340.9583466526,56690.0052245025,37013.5618536389,53499.4160989843,55670.9971186716,61801.8493429696,62010.9877159623,57863.7377631340,65997.6362384247,21428.5065394895
8762048271,10970,-2,0,54324.5197882448,56670.5125741922,36987.8393425552,53465.4195540610,55653.1471074323,61769.4832694206,61972.9393279970,57829.3761873060,65969.8452188811,21422.1184986575
8762048271,10970,-2,0,54305.3434980519,56594.9146738312,36934.4961596834,53389.6148028541,55586.0544271506,61769.7996295380,61925.5826519621,57741.9269502395,65957.6166835740,21401.9931281123
8762084298,10971,-2,0,54315.1141586007,56572.1367453787,36930.7120059715,53380.5011979337,55567.5716956766,61814.4307414845,61941.1938069859,57731.9007680574,65986.4662927412,21398.9268685129
8762084298,10971,-2,0,54339.5468938212,56640.3366860713,36989.1534538121,53457.8147435467,55629.1645769943,61844.0590832484,61998.7835160489,57819.4473466984,66016.7273547399,21422.5687034399
8762084298,10971,-2,0,54349.9746099984,56706.5776275754,37030.9738277925,53512.4842053721,55684.7222806879,61817.2049763602,62018.4100110243,57878.7405333166,66011.3979035314,21438.3258708256
8762084298,10971,-2,0,54331.3336984657,56683.3373266435,37004.5820933836,53472.1969611914,55664.2440469349,61785.8366539506,61977.3805373374,57835.6668865634,65982.5117912738,21432.3880347760
8762084298,10971,-2,0,54314.7004569087,56610.4163195836,36955.6314490649,53401.3201271977,55600.9841911524,61783.9871640335,61935.7548465061,57756.8202111508,65969.5166910669,21417.4095999870
8762084298,10971,-2,0,54313.8973889184,56568.0483992462,36936.8810282607,53379.0654097086,55568.5572791192,61800.6934117714,61936.6065852837,57730.0877812308,65980.1147549997,21404.9742138339
8762084298,10971,-2,0,54327.7320602061,56604.2351295976,36968.0668352179,53430.0480593967,55600.4609801890,61814.3090645163,61975.1051780315,57782.3358713885,65993.8764201064,21407.3955855017
8762084298,10971,-2,0,54336.1034356203,56669.5513261431,37009.5343459905,53492.6630272476,55657.0894412030,61805.7673413466,62004.3441534970,57852.7138298124,65990.3842911182,21427.6791361056
8762102179,10972,-2,0,54322.7919752960,56676.0975470339,37003.9615408456,53481.2983984149,55659.0727757851,61780.4220288644,61980.4711323304,57844.0991004617,65968.9204739226,21434.5052140232
8762102179,10972,-2,0,54303.6156851030,56611.6695923564,36957.7851314025,53405.0799455160,55603.1500411869,61779.8501471137,61930.4740660849,57762.9162272591,65958.0425529628,21420.6827104324
8762102179,10972,-2,0,54304.9176286631,56571.6378698089,36939.1807229602,53370.0126432723,55568.1922482145,61805.4144781387,61925.1689502701,57728.8831792453,65976.8173091606,21404.2806551150
8762102179,10972,-2,0,54320.6747960488,56617.1693913204,36979.3341224759,53424.2805711026,55606.2163007862,61830.5286043813,61968.3399385979,57788.0790242889,66001.7854230413,21406.5316790273
8762102179,10972,-2,0,54334.2417780064,56690.2850815294,37025.1333333175,53488.5260103278,55666.6167478153,61818.7137707662,61999.7082610075,57856.1937911037,66002.8440126649,21426.4501987264
8762102179,10972,-2,0,54325.4323655065,56695.4198495887,37016.4699331796,53477.0275368301,55669.5369950528,61792.1516886017,61977.9280836944,57846.7273229755,65980.1390903933,21436.3060331530
8762102179,10972,-2,0,54309.8820489668,56634.0703222074,36972.7879015852,53418.6225920800,55618.3961653060,61784.2426856668,61941.6440117684,57782.4210452662,65967.0588163087,21430.3560294066
8762102179,10972,-2,0,54310.4904338080,56582.5522938591,36947.2844090443,53386.5120401642,55579.5082062599,61807.7263405351,61936.4240698313,57743.7277693693,65978.3017681730,21417.7624631949
8762154895,10973,-2,0,54326.2354334969,56605.2085453434,36972.6905600106,53426.1787318070,55601.3978928444,61823.4105017399,61974.9713333664,57784.0271812469,66000.2157901512,21415.7182901286
8762154895,10973,-2,0,54333.5360515906,56671.6806730872,37016.1657407590,53491.9086300445,55658.3427139757,61814.5524184528,62010.9512128719,57856.8386790354,66000.8606780828,21424.9779074109
8762154895,10973,-2,0,54320.0542435108,56687.7663682871,37015.4600143433,53492.8212073063,55671.6176712096,61783.2571022242,61994.1476235594,57858.3231380478,65975.1990054832,21425.1482551664
8762154895,10973,-2,0,54301.7661951859,56624.0563077222,36967.2881026212,53421.0074606573,55616.9482093841,61771.5882809710,61944.9292899106,57778.7464008257,65954.9884610603,21414.3190049940
8762154895,10973,-2,0,54299.6611836356,56562.3782525267,36932.9265267932,53372.4705180305,55564.4932683804,61789.1097643960,61930.3158860262,57723.1643617385,65962.4229238191,21401.7741095695
8762154895,10973,-2,0,54317.3043440288,56586.8718262313,36959.3182612022,53411.8573526464,55585.3121976444,61812.8124378071,61965.9063992333,57768.7202186436,65984.6411382178,21407.2009023525
8762154895,10973,-2,0,54330.2264380548,56657.9555110709,37007.1738128068,53476.0419533874,55646.0046693973,61812.8732762912,62001.7037632864,57844.4397959728,65990.9561728689,21421.1694183053
8762154895,10973,-2,0,54326.5639613111,56686.6226047857,37017.9787275856,53484.4985026794,55668.9651133022,61796.2765378247,61992.9916923612,57860.0996217839,65977.5717063637,21428.5187071863
8762164605,10974,-2,0,54313.8243827375,56645.1794294068,36987.9001810393,53436.2657524732,55636.3070150294,61788.5257149485,61956.6589496479,57808.3625748928,65967.7280396339,21422.9459020414
8762164605,10974,-2,0,54313.0821532313,56586.8718262313,36954.3051701112,53386.1591769564,55586.2004395125,61804.3558885151,61934.6475860952,57748.8382020349,65975.2476762705,21404.6943568070
8762164605,10974,-2,0,54328.3404450472,56593.2720347601,36968.7117231495,53407.4648140933,55591.5055553273,61830.6746167432,61961.1609974724,57768.2335107707,66001.3230505620,21399.3770732954
8762164605,10974,-2,0,54344.9615189074,56668.2615502799,37019.8525528963,53483.4520807526,55655.3494605573,61833.9233917949,62009.9169586419,57853.1883699885,66014.6223431895,21417.6042831362
8762164605,10974,-2,0,54342.2724579095,56709.0476700304,37036.0964281550,53510.9997463597,55690.2585827423,61810.4397369266,62014.2851618014,57883.5589412585,66000.8728457796,21436.1235177007
8762164605,10974,-2,0,54326.7586444602,56664.7207505044,36996.3810657249,53451.5362119860,55650.3728725567,61792.5410549001,61972.2214338844,57818.4739309526,65980.7109721440,21429.1635951179
8762164605,10974,-2,0,54316.6716237940,56595.8150833961,36952.3583386195,53390.2110199984,55589.7169038943,61803.0174418646,61947.5088416370,57749.9332947490,65984.3004427067,21411.4839316342
8762164605,10974,-2,0,54326.0772534382,56594.2211151123,36961.7396328700,53409.1804593454,55589.5952269261,61820.5267575928,61971.8077321925,57766.5543686091,66002.6858326062,21407.8944610714
8762216742,10975,-2,0,54340.0457693909,56654.3052020240,37004.0953855106,53473.9977803212,55641.8433170838,61820.1008882040,62009.6249339182,57835.1071725096,66009.4267366461,21419.1252452390
8762216742,10975,-2,0,54337.7825777818,56693.2905026447,37022.1279122022,53499.8176329795,55673.7591858504,61794.4392156044,62008.7001889596,57864.2853094910,65989.6420616120,21423.8828146968
8762216742,10975,-2,0,54318.6062875889,56657.1767784742,36988.4355596995,53453.6290558396,55643.2669376121,61771.3084239440,61965.4075236636,57814.8601249962,65962.4107561223,21411.1797392136
8762216742,10975,-2,0,54303.6521881935,56581.8100643529,36936.2361403291,53385.6603013866,55578.7903121473,61780.5072027422,61926.9454340063,57738.6295044005,65954.5139208842,21393.6825911822
8762216742,10975,-2,0,54319.1538339459,56571.6135344153,36941.8332808676,53389.8581567905,55572.9254822787,61824.7854514809,61949.4678408255,57745.9422901911,65984.4099519782,21395.7997704294
8762216742,10975,-2,0,54343.1485320807,56646.0555035780,36999.9462008940,53469.2888816507,55639.7139701398,61839.8977309350,62006.6438481965,57838.5506307105,66012.4929962455,21421.8264739337
8762216742,10975,-2,0,54344.7546680614,56699.8002204450,37030.8764862179,53511.3404418708,55687.8493787714,61809.9651967505,62018.2639986625,57889.3142618558,66002.6858326062,21439.9198391094
8762216742,10975,-2,0,54323.3881924403,56664.6234089299,36995.3954822822,53461.7570773173,55657.3327951394,61783.0989221655,61975.5188797235,57836.0684205586,65974.9921546372,21430.1126754701
8762228045,10976,-2,0,54308.0203913529,56591.9700912001,36945.7877823351,53395.1024341212,55593.2090328825,61781.5414569721,61938.3100628389,57758.5358564028,65970.1007405144,21406.7263621764
8762228045,10976,-2,0,54313.4106810455,56570.6887894567,36941.1518898456,53391.7319821013,55575.2008415846,61804.5384039675,61949.7963686398,57751.2230706122,65984.6533059146,21394.2301375393
8762228045,10976,-2,0,54332.8303251749,56625.7597852774,36983.6414871513,53451.0008333258,55623.5065979716,61822.1572289671,61991.3247178965,57816.7826210942,66001.1892058970,21404.0251334818
8762228045,10976,-2,0,54342.7956688729,56690.3580877104,37021.3856826960,53502.1294953758,55676.6307623006,61818.8354477344,62014.2121556204,57873.3015728368,65999.9237654274,21429.9544954114
8762228045,10976,-2,0,54335.5193861728,56683.3008235531,37010.2522401030,53481.2010568404,55671.5081619381,61790.5820557116,61989.7429173095,57850.5723151715,65980.7231398408,21444.4097192371
8762228045,10976,-2,0,54320.2732620536,56607.3257245906,36957.0550695931,53405.7856719318,55606.5326609036,61783.1232575591,61944.8927868201,57764.4736924524,65965.2458294820,21428.9080734847
8762228045,10976,-2,0,54327.3061908173,56574.1322476576,36946.0798070588,53389.5052935827,55580.7249759422,61815.5988403795,61954.3227518579,57743.2653968900,65984.6046351273,21416.1928303047
8762228045,10976,-2,0,54347.6870829957,56629.6777836544,36993.3026384287,53458.9220039576,55627.5584410137,61825.9778857695,62002.8353590910,57816.0890623753,66008.8791902891,21419.1374129358
8762277359,10977,-2,0,54348.6239956511,56689.9565537152,37024.7196316255,53509.7708089806,55676.4239114546,61799.5496482701,62019.5416068289,57872.0117969736,65998.2811263563,21428.7498934260
8762277359,10977,-2,0,54327.4278677855,56672.4837410775,36995.6023331282,53471.8440979835,55658.2818754916,61772.5251936263,61977.2223572787,57833.7200550718,65968.7379584702,21426.1338386090
8762277359,10977,-2,0,54308.1785714116,56602.7141674947,36943.4637522419,53400.0668544250,55597.9666023403,61771.4057655186,61931.0337801388,57753.6322745832,65957.0691372170,21415.0734021970
8762277359,10977,-2,0,54307.6188573578,56563.0474758519,36926.5384859612,53376.3885164075,55568.1679128209,61793.7943276728,61928.5272345933,57728.8710115485,65970.4901068127,21405.5339278878
8762277359,10977,-2,0,54324.9943284209,56605.4640669767,36961.9829868064,53423.9885463789,55602.6998364044,61815.4649957145,61964.5557848860,57781.9100019997,65990.8466635975,21413.4429308227
8762277359,10977,-2,0,54336.6631496741,56681.1471412154,37009.7776999269,53487.7959485184,55662.4188924114,61811.1089602519,61995.9362749924,57856.2546295878,65995.1540282728,21432.1933516269
8762277359,10977,-2,0,54328.1579295949,56694.0083967573,37010.9823019124,53481.6390939260,55672.8344408918,61788.1363486502,61979.1083502862,57853.7115809519,65976.3671043782,21438.8004110017
8762277359,10977,-2,0,54312.4494329965,56630.9067210335,36965.1344202836,53414.0840411650,55619.3939164455,61786.6883927282,61936.7769330392,57773.2222664681,65964.8807985773,21425.0752489854
8762294231,10978,-2,0,54316.0754066497,56584.0975913556,36943.6462676943,53383.5066190490,55581.6497209007,61809.0161163983,61936.1320451076,57733.4582332507,65984.6411382178,21412.1288195658
8762294231,10978,-2,0,54331.4675431307,56617.4979191346,36975.0024224070,53435.4870198766,55609.0513741460,61813.2139718022,61980.2886168781,57787.8356703524,66000.9580196574,21413.2604153704
8762294231,10978,-2,0,54338.9628443737,56684.7852825655,37015.9588899130,53495.8996346025,55666.1665430329,61795.8263330422,62009.1260583484,57860.3916465077,65996.1517794123,21425.4281121933
8762294231,10978,-2,0,54326.5152905238,56692.7551239845,37008.5487625478,53482.7098512464,55671.5690004223,61772.0749888439,61987.7717504242,57853.0910284139,65971.1349947443,21422.3253495035
8762294231,10978,-2,0,54313.0213147471,56639.7891397142,36969.5756296239,53421.8591994349,55626.8405469011,61771.9411441788,61948.9811329526,57788.3953844063,65962.5080976969,21414.6231974145
8762294231,10978,-2,0,54311.1231540428,56585.2535225538,36942.0157963200,53382.1681723984,55583.1341799131,61790.6915649830,61939.0644600419,57743.3749061614,65973.9092296200,21405.8989587925
8762294231,10978,-2,0,54325.6635517462,56602.6289936170,36966.0591652421,53412.9889484509,55598.3681363354,61811.3644818851,61971.1628442608,57777.7121465958,65994.6673203999,21407.6024363477
8762294231,10978,-2,0,54339.1818629165,56675.0146220166,37016.6524486319,53482.9897082733,55659.0727757851,61807.2031295717,62008.8705367151,57855.5610708689,66002.2842986111,21425.8661492789
8762325622,10979,-2,0,54327.3548616046,56698.9484816674,37022.5051108037,53491.0933943574,55676.5699238165,61776.1146641891,61993.8069280483,57866.9987058825,65978.2287619921,21433.7994876075
8762325622,10979,-2,0,54304.4795915774,56637.0514079291,36973.5666341819,53417.9046979674,55622.4966791353,61759.8829566273,61937.6530072105,57786.9474284844,65955.4995043268,21421.8143062369
8762325622,10979,-2,0,54298.5904263151,56570.7982987281,36935.2505568864,53363.3447454133,55563.7023680869,61782.1376741164,61916.3473700735,57724.9408454747,65962.0943960049,21403.4654194279
8762325622,10979,-2,0,54321.5630379168,56592.9921777332,36961.2772603907,53407.1606216728,55586.1396010284,61811.6565066089,61961.7207115262,57768.5498708881,65991.8444147370,21403.5262579120
8762325622,10979,-2,0,54340.5811480511,56667.3976438055,37009.9602153793,53480.4588273342,55650.2998663758,61812.5325807801,62006.1936434141,57849.8909241495,66001.8097584350,21417.2757553219
8762325622,10979,-2,0,54337.6730685104,56698.1210782834,37018.4654354585,53494.9870573408,55677.5190041687,61795.4978052280,62002.3486512180,57870.7341888072,65989.1918568296,21428.3118563403
8762325622,10979,-2,0,54316.2944251925,56651.7743210848,36979.8329980457,53439.3076766790,55638.5215358511,61772.7928829564,61958.2164148412,57809.9200400861,65968.6649522893,21422.8485604668
8762325622,10979,-2,0,54301.4376673717,56580.6419654579,36934.3379796247,53375.3664298744,55576.7096359906,61784.4617042096,61925.6069873557,57738.4469889481,65965.6716988708,21409.7926217758
8762355094,10980,-2,0,54313.7757119502,56579.7415558930,36945.2159005844,53390.7829017491,55572.8889791882,61811.9485313327,61948.7012759257,57751.7219461820,65988.8389936217,21410.8998821867
8762355094,10980,-2,0,54333.2075237764,56651.7986564785,36999.7880208353,53466.0887773863,55632.4620228333,61818.4947522234,61994.2449651340,57836.2752714046,66002.1626216428,21426.6448818756
8762355094,10980,-2,0,54332.9398344463,56697.5005257454,37024.2815945399,53495.3642559423,55669.9141936543,61792.8939181079,61998.0047834523,57873.5814298637,65984.3247781004,21441.9883475693
8762355094,10980,-2,0,54315.7103757450,56653.7089848797,36986.1602003936,53437.5433606396,55633.3867677919,61775.2629254115,61951.5363492854,57807.8758670198,65959.5513473689,21435.1014311675
8762355094,10980,-2,0,54308.9816394019,56585.7523981235,36945.3010744622,53376.2546717425,55577.4640331936,61790.9714220099,61924.5240623385,57736.4149835787,65963.0799794475,21419.8309716548
8762355094,10980,-2,0,54319.1903370364,56584.1462621429,36953.5142698177,53393.6301428056,55577.3545239222,61809.6001658458,61949.5895177938,57753.6322745832,65983.3391946577,21412.1531549595
8762355094,10980,-2,0,54332.1367664560,56646.3961990891,36991.7208378417,53456.9508370722,55629.1767446911,61806.3148877036,61987.6135703655,57823.7668790706,65989.9827571231,21414.2216634194
8762355094,10980,-2,0,54329.8735748469,56694.1665768160,37010.8727926410,53488.3434948754,55669.2571380259,61788.3797025866,61996.5811629240,57861.1825468011,65976.4157751655,21422.3618525939
8762416871,10981,-2,0,54323.8627326164,56676.1583855180,36988.8127583010,53459.5182211019,55655.1061066208,61779.9474886883,61973.3895327794,57830.8119755311,65965.4648480248,21426.8152296311
8762416871,10981,-2,0,54315.5156925958,56609.5037423219,36945.4227514304,53396.6964024050,55599.3293843845,61782.7703943512,61941.6075086779,57757.6962853220,65964.3575876140,21415.8764701873
8762416871,10981,-2,0,54319.4823617601,56585.9714166664,36939.9229524664,53389.0429211034,55580.8588206072,61812.1918852691,61957.5593592128,57748.9598790032,65986.9651683110,21408.3933366412
8762416871,10981,-2,0,54334.2174426127,56646.7490622969,36989.2629630835,53459.8710843097,55634.6400405646,61825.0409731141,62007.4469161869,57829.8628951789,66008.4046501130,21418.5655311852
8762416871,10981,-2,0,54336.9795097915,56703.1828401618,37021.1544964564,53507.4832819779,55680.4635867998,61796.1183577660,62021.9143077093,57885.3475926915,65996.7601642534,21433.0572581013
8762416871,10981,-2,0,54319.5188648506,56673.5423307011,36986.1602003936,53460.7714938746,55647.2701098668,61758.9338762751,61976.7113140121,57832.0044098197,65961.5833527383,21428.4457010054
8762416871,10981,-2,0,54302.7152755381,56597.9444303401,36934.1189610819,53383.5917929267,55578.6808028759,61760.6495215271,61930.2793829358,57747.3172399321,65949.8658606978,21412.4816827737
8762416871,10981,-2,0,54304.5769331520,56569.0948211729,36925.9057657264,53372.4096795464,55554.4062477142,61784.1088410018,61934.8666046380,57734.6263321457,65964.6009415504,21399.6690980191
8762422030,10982,-2,0,54320.6382929583,56619.2622351739,36964.0636629632,53429.6465254015,55596.7133295675,61800.4743932286,61972.1484277035,57797.6793370822,65980.6988044472,21396.3838198769
8762422030,10982,-2,0,54330.0804256929,56682.7654448929,36998.8267727863,53483.4155776621,55651.7964930850,61792.1516886017,61995.2183808798,57855.0743629960,65976.2940981973,21409.1842369347
8762422030,10982,-2,0,54322.7068014182,56679.5288375380,36983.8240026036,53466.1617835672,55650.3120340726,61765.3584201976,61973.3043589017,57834.7543093017,65955.2804857840,21413.9904771797
8762422030,10982,-2,0,54308.3975899544,56608.8953574808,36931.2108815412,53395.3579557545,55591.8340831415,61764.4701783295,61933.0171147209,57752.0748093898,65941.4944852836,21397.8196081021
8762422030,10982,-2,0,54314.8951400579,56570.6036155790,36914.0665967177,53370.6453635071,55559.5653511671,61792.6992349588,61939.0157892546,57721.8745858753,65960.3544153592,21383.3400488828
8762422030,10982,-2,0,54334.3026164905,56621.2577374529,36959.3790996863,53434.9029704291,55603.4542336074,61805.6699997720,61992.4198106105,57791.8631780008,65985.6875601446,21395.0575409232
8762422030,10982,-2,0,54338.2084471706,56688.1313991918,37000.0557101654,53492.4926794920,55656.8825903570,61782.9407421068,62013.6767769602,57856.7291697639,65976.6104583147,21413.1265707053
8762422030,10982,-2,0,54323.5098694085,56680.5752594647,36983.8605056941,53468.7778383841,55648.6450596078,61759.6761057813,61982.5883115776,57829.5830381520,65951.4354935880,21416.6552027840
8762444657,10983,-2,0,54310.3687568397,56611.4140707231,36935.4817431261,53402.7680831197,55590.3739595228,61751.9617859955,61940.5489190543,57750.6998596488,65939.2434613714,21399.5352533541
8762444657,10983,-2,0,54311.7315388839,56565.7608722434,36912.0954298324,53375.3299267839,55552.5202547066,61771.2962562472,61936.3145605599,57717.1535195080,65948.2962278077,21380.7361617626
8762444657,10983,-2,0,54326.0529180445,56599.4653924430,36940.6651819726,53416.5662513169,55578.9484922060,61792.1638562985,61969.0700004073,57765.0090711126,65966.0002266850,21382.1962853814
8762444657,10983,-2,0,54339.6685707894,56670.3665618303,36984.6635736844,53479.8139394025,55637.7428032545,61785.2161014126,61996.4959890462,57833.1968441084,65966.5234376484,21399.8272780778
8762444657,10983,-2,0,54330.4332889008,56684.3229100862,36982.9479284324,53479.3150638328,55647.9636685858,61756.5855107883,61976.9668356454,57829.6803797265,65944.1835462815,21413.1022353117
8762444657,10983,-2,0,54313.9825627962,56617.9724593107,36930.9310245143,53408.2800497805,55592.7709957969,61745.6345836476,61926.9089309158,57746.9400413305,65924.1555173110,21402.6380160439
8762444657,10983,-2,0,54315.6617049577,56561.9280477442,36901.5338689901,53368.2118241425,55548.2372254249,61767.9988104082,61920.3383746314,57698.2327509483,65936.6030711608,21386.5766562377
8762444657,10983,-2,0,54333.2683622605,56593.7344072394,36934.4109858056,53416.9069468279,55577.7925610078,61787.4792930217,61967.1596720061,57753.3889206467,65960.1840676037,21381.9164283545
8762513059,10984,-2,0,54345.9836054405,56670.7924312191,36982.2543697135,53487.9176254866,55642.2570187758,61782.1620095101,62004.5388366462,57834.5961292430,65965.0389786360,21398.5861730019
8762513059,10984,-2,0,54339.6807384862,56688.8979640916,36983.1426115815,53483.9631240192,55654.0231816036,61762.5963530188,61987.2607071576,57835.0341663286,65945.8383530494,21404.8890399562
8762513059,10984,-2,0,54325.1403407828,56636.8080539926,36943.8774539339,53422.1755595523,55605.8877729720,61751.2682272766,61944.5155882186,57767.5156166581,65932.7580789648,21396.5054968452
8762513059,10984,-2,0,54319.0564923713,56579.4982019566,36913.0566778814,53375.7679638696,55556.0732221789,61765.3219171071,61928.2473775663,57715.9975883098,65938.9271012540,21379.7019075327
8762513059,10984,-2,0,54333.0371760209,56592.3959605889,36933.8026009645,53401.6973257993,55570.0052350412,61786.2260202489,61958.4476010809,57745.8571163133,65958.2494038088,21374.9686734686
8762513059,10984,-2,0,54346.8353442181,56661.6544909050,36981.7919972342,53470.8828499345,55628.6900368182,61784.9849151730,61997.0678707969,57824.7524625133,65963.5545196236,21391.0543686685
8762513059,10984,-2,0,54340.7758312003,56695.3103403173,36992.6090797098,53488.6598549928,55656.7487456919,61756.0257967344,61990.1687866983,57846.6543167945,65946.3007255287,21406.2883250908
8762513059,10984,-2,0,54320.0664112076,56641.2857664234,36947.2600736507,53421.5793424079,55608.8931940873,61741.7774237547,61936.4849083155,57774.3051914853,65924.5692190029,21401.8957865377
8762530991,10985,-2,0,54314.8464692706,56577.8798982791,36910.6353062136,53364.0748072227,55553.1286395477,61761.9879681777,61913.5244644106,57712.2012669010,65934.9117613024,21391.4437349668
8762530991,10985,-2,0,54324.6658006067,56588.9646700848,36931.2108815412,53389.3714489176,55563.0331447616,61782.4296988402,61941.4736640129,57742.4258258092,65957.2273172757,21389.6064127466
8762530991,10985,-2,0,54331.2971953752,56653.2587800972,36977.6428126176,53450.7453116925,55619.2357363868,61778.0736633776,61971.3818628037,57812.2440701793,65958.9186271341,21396.1161305468
8762530991,10985,-2,0,54324.4832851544,56682.3274078072,36988.2043734599,53461.3190402317,55645.8464893386,61757.1573925389,61962.6332887880,57827.5510327825,65940.2533802077,21402.1026373837
8762530991,10985,-2,0,54309.7968750891,56641.1640894552,36954.8162133777,53410.8474338101,55612.8476955547,61744.6124971145,61924.2807084021,57772.1758445413,65923.3767847143,21398.2089744004
8762530991,10985,-2,0,54301.5593443399,56574.8623094670,36911.2436910548,53357.2365616082,55557.0223025311,61751.9131152083,61902.0624940034,57706.7258033307,65925.4696285678,21384.2526261445
8762530991,10985,-2,0,54315.7225434418,56569.0948211729,36915.9525897252,53370.5358542357,55550.6099263054,61777.5261170205,61925.3392980256,57712.2742730820,65947.2741412745,21377.0006788380
8762530991,10985,-2,0,54335.2395291458,56639.4241088095,36968.9064062987,53447.8250644550,55608.0901260970,61786.6153865473,61976.5653016502,57794.8807668129,65963.0313086603,21396.6393415102
8762534223,10986,-2,0,54332.7694866908,56686.7929525412,36993.5946631524,53484.7905274031,55648.8519104538,61760.8807077668,61982.7708270299,57836.6768053997,65949.5251651868,21413.9539740893
8762534223,10986,-2,0,54311.9018866394,56647.5521302873,36957.8459698866,53430.3522518173,55616.9117062936,61740.1104492900,61934.5259091270,57778.4057053147,65923.4254555016,21411.0945653359
8762534223,10986,-2,0,54295.8283591363,56573.2318380927,36908.3356115141,53355.8007733831,55552.4472485257,61742.8238456815,61894.8348820905,57697.6487015008,65920.5417113545,21389.8010958957
8762534223,10986,-2,0,54297.0572965154,56558.3994156656,36909.6618904678,53358.1004680827,55542.9442773069,61766.4170098212,61909.5334598526,57701.8100538142,65938.6472442271,21371.2210228471
8762534223,10986,-2,0,54309.3101672161,56620.3329924943,36955.2299150697,53420.6424297526,55595.5208952789,61775.5549501352,61948.1415618718,57773.4291173141,65951.0704626833,21376.5018032683
8762534223,10986,-2,0,54314.6396184246,56672.3133933220,36985.2597908287,53457.7417373657,55639.9208209858,61762.2678252046,61958.7152904110,57816.6366087324,65941.1051189853,21392.4414861063
8762534223,10986,-2,0,54305.8788767121,56655.7896610364,36967.9938290370,53428.8312897144,55626.1956589695,61747.2528873251,61932.3600590925,57786.2173666750,65925.3601192964,21399.6812657160
8762534223,10986,-2,0,54297.8846998994,56590.1814397671,36925.6745794868,53369.1365691011,55572.6456252517,61747.0703718727,61899.2395883404,57714.7808186275,65921.5394624940,21384.3743031127
8762571910,10987,-2,0,54307.7648697196,56566.2719155100,36920.6371530021,53361.8481187041,55555.0511356458,61781.6144631531,61914.1206815549,57705.9835738245,65946.1182100764,21377.7307406474
8762571910,10987,-2,0,54328.3404450472,56629.1545726910,36968.8334001177,53433.0899836024,55608.3334800334,61798.4788909497,61963.2295059323,57787.1907824208,65970.5144422064,21392.3319768349
8762571910,10987,-2,0,54333.7550701334,56691.6235281800,37004.0953855106,53485.9099555108,55663.0881157367,61781.9551586641,61981.9677590396,57848.5524774989,65962.8122901174,21411.0702299422
8762571910,10987,-2,0,54319.9447342394,56670.5855803731,36979.6018118061,53446.9611579806,55642.8775713138,61756.5368400010,61943.7733587124,57810.5527603209,65939.0001074349,21408.1621504015
8762571910,10987,-2,0,54306.1830691326,56597.4455547704,36932.8170175218,53374.3686787349,55581.1508453310,61762.3043282950,61905.3721075392,57728.8345084580,65933.8775070725,21388.2071276119
8762571910,10987,-2,0,54310.5877753826,56566.4665986592,36925.2973808853,53363.1987330515,55556.3287438122,61782.8555682290,61915.0940973007,57715.9002467352,65953.7595236812,21372.0727616247
8762571910,10987,-2,0,54322.1349196675,56608.6276681507,36962.0803283810,53414.9966184267,55593.9634300855,61791.0200927972,61951.4876784981,57771.9324906049,65967.3995118197,21376.1367723636
8762571910,10987,-2,0,54327.2210169395,56667.9573578593,36996.4540719058,53466.6363237433,55643.5711300327,61778.2561788299,61975.3120288775,57827.8917282936,65963.7978735601,21395.7754350358
8762625588,10988,-2,0,54316.2335867084,56667.8113454975,36986.4157220269,53453.5073788713,55644.5080426880,61752.1443014479,61954.6391119753,57811.7573623064,65946.2642224382,21406.9575484161
8762625588,10988,-2,0,54296.0595453760,56595.9975988485,36933.7539301772,53382.0951662175,55582.3311119228,61743.6147459750,61908.6452179846,57730.4284767418,65929.7283224559,21392.5509953777
8762625588,10988,-2,0,54295.5485021094,56547.5214947059,36910.3919522772,53351.0553716222,55542.9199419133,61779.9353209915,61902.8655619937,57695.7140377060,65944.4877387021,21380.7848325499
8762625588,10988,-2,0,54320.1150819949,56600.0494418905,36960.2430061608,53417.6126732437,55589.5222207452,61816.5479207317,61957.6810361810,57769.4867835435,65977.0484954003,21395.7510996422
8762625588,10988,-2,0,54338.7681612245,56681.2809858805,37015.1193188322,53490.5580156972,55658.4887263376,61801.3626350967,61995.7902626305,57849.3920485797,65981.0151645646,21419.1495806327
8762625588,10988,-2,0,54326.9289922158,56677.9105338605,37001.6375107524,53468.7900060810,55653.2079459164,61759.6396026908,61968.3156032043,57823.5721959214,65952.8956172067,21417.1419106569
8762625588,10988,-2,0,54304.2849084283,56604.6609989864,36944.5831803496,53393.7518197739,55586.9426690187,61741.5949083024,61916.4690470417,57736.5001574565,65929.2416145829,21393.6825911822
8762625588,10988,-2,0,54297.2884827551,56551.6585116257,36912.1927714070,53357.9179526303,55543.0781219720,61760.4305029843,61906.1995109232,57697.6487015008,65933.5489792583,21372.9610034928
8762631889,10989,-2,0,54315.1628293880,56585.1196778887,36942.1861440755,53407.7446711203,55574.6167921371,61792.0300116335,61946.7544444340,57751.2717413995,65958.6509378040,21380.7118263690
8762631889,10989,-2,0,54327.4643708760,56656.0208472760,36987.4986470441,53473.6449171133,55636.0149903056,61790.5820557116,61982.8681686045,57826.7723001859,65967.8983873894,21404.8647045625
8762631889,10989,-2,0,54319.8352249680,56676.7911057528,36992.0493656559,53479.2177222582,55653.5729768211,61767.3539224766,61974.2169361634,57835.7277250475,65951.3381520134,21421.7413000560
8762631889,10989,-2,0,54300.3790777481,56614.8818643177,36943.2325660023,53408.4625652328,55597.9666023403,61746.2429684888,61925.3636334193,57757.9396392585,65929.9108379082,21410.1454849837
8762631889,10989,-2,0,54293.4191551654,56551.3786545987,36907.4473696460,53352.7588491774,55543.3579789989,61765.3827555913,61907.4406159991,57695.2881683172,65936.1163632879,21385.7127497632
8762631889,10989,-2,0,54306.9374663357,56575.5071973986,36934.1919672628,53394.1776891627,55563.4225110600,61784.3278595446,61944.4912528250,57738.6903428846,65958.4562546548,21379.3490443248
8762631889,10989,-2,0,54317.7910519017,56645.8729881257,36980.8794199725,53463.1198593615,55621.4502572086,61776.2971796414,61979.5098842814,57814.3247463360,65960.8167878385,21393.0742063411
8762631889,10989,-2,0,54308.7869562528,56659.9875164403,36981.0376000312,53460.5646430287,55635.3579346772,61751.9374506019,61961.5990345580,57814.7749511184,65937.3331329702,21397.8074404052
8762659874,10990,-2,0,54289.1726289742,56605.0868683752,36940.3974926425,53398.0226813587,55590.5564749751,61748.0194522249,61918.9877602841,57749.4952576634,65921.7949841273,21388.9371894213
8762659874,10990,-2,0,54287.4448160253,56550.6607604862,36913.0201747909,53357.7232694811,55548.1885546376,61773.5959509467,61905.4086106297,57704.9736549882,65935.7026615959,21384.2404584476
8762659874,10990,-2,0,54310.0280613287,56573.5360305133,36939.3389030189,53392.4863793043,55569.0074839017,61804.0638637914,61939.7336833672,57742.4866642933,65967.4481826070,21396.3594844833
8762659874,10990,-2,0,54330.8226551991,56649.8639926836,36990.3458881007,53464.3122936501,55633.3746000950,61799.1602819717,61986.6158192260,57826.6262878240,65983.7772317434,21417.3974322902
8762659874,10990,-2,0,54325.0429992082,56684.1038915434,37002.2823986840,53484.1943102588,55663.7573390619,61767.8162949558,61984.4134661010,57853.7967548296,65966.7667915849,21427.2897698072
8762659874,10990,-2,0,54303.9807160077,56633.2064157330,36958.4421870310,53420.6180943589,55618.5665130615,61749.1388803326,61938.6020875627,57788.5900675555,65943.2101305357,21414.2946696003
8762659874,10990,-2,0,54294.6724279381,56560.6504395778,36914.4194599255,53355.9589534418,55559.3463326243,61767.1592393274,61914.2301908263,57719.0151771219,65947.1889673968,21394.1449636615
8762659874,10990,-2,0,54310.0888998128,56572.0150684104,36937.2825622559,53385.9036553231,55573.9597365086,61804.9399379626,61948.0077172068,57751.0770582503,65979.2143454348,21398.6713468797
8762692945,10991,-2,0,54328.8271529201,56644.4371999006,36989.8226771373,53463.4848902662,55637.2317599879,61805.4388135324,61991.3612209869,57833.8660674336,65992.2946195194,21415.1707437716
8762692945,10991,-2,0,54326.8559860348,56678.8596142127,37004.2779009630,53484.5106703762,55667.2981388374,61780.6288797104,61985.8614220230,57857.3740576956,65974.0552419818,21424.2721809951
8762692945,10991,-2,0,54311.2813341015,56638.2438422177,36969.4174495652,53435.8885538717,55631.9631472636,61760.0776397764,61946.2068980770,57802.4734096304,65951.1799719547,21416.9593952045
8762692945,10991,-2,0,54301.8148659732,56568.5716102095,36924.8228407092,53378.6273726230,55574.9331522545,61765.7842895864,61916.4568793449,57732.9836930746,65948.1015446585,21398.9390362098
8762692945,10991,-2,0,54312.4372652996,56556.9149566532,36928.4974851497,53386.9257418562,55567.4986894956,61800.1823685049,61939.3929878561,57735.3807293487,65971.2445040157,21389.4117295974
8762692945,10991,-2,0,54336.3589572535,56628.3880077911,36982.1448604421,53461.4650525935,55626.6701991456,61810.6952585599,61989.2562094366,57815.5415160183,65991.8444147370,21405.6921079465
8762692945,10991,-2,0,54337.6974039041,56683.1426434944,37010.5807679173,53501.2047504173,55671.6298389064,61785.5811323173,61998.0169511491,57861.7057577645,65978.0462465398,21421.8994801147
8762692945,10991,-2,0,54316.5864499163,56646.2866898177,36971.7779827489,53448.4821200835,55637.6697970735,61752.1564691447,61952.8504605423,57803.2399745303,65945.2056328146,21411.5447701183
8762756868,10992,-2,0,54297.0451288186,56562.3052463457,36912.2779452847,53369.7084508517,55565.1746594025,61752.7161831986,61910.4095340239,57717.1291841143,65933.5733146519,21390.7866793384
8762756868,10992,-2,0,54299.3934943054,56541.5958263531,36908.2747730300,53370.1708233310,55550.2205600071,61778.3170173140,61926.5073969206,57716.7033147255,65951.4111581943,21386.3941407853
8762756868,10992,-2,0,54318.5697844984,56603.4929000914,36953.9401392065,53435.9128892654,55604.1112892359,61790.6550618925,61971.8198998893,57789.9406819028,65966.5842761325,21399.4622471731
8762756868,10992,-2,0,54324.9334899368,56662.4697265922,36983.7388287259,53474.4844881941,55650.9934250947,61772.0749888439,61985.8127512357,57836.0562528618,65957.2394849725,21412.0193102944
8762756868,10992,-2,0,54315.5278602927,56649.0244216028,36963.9054829045,53444.9169849143,55636.7572198118,61749.5647497214,61956.5981111638,57803.5685023445,65936.1772017720,21412.9562229498
8762756868,10992,-2,0,54301.8148659732,56578.9384879027,36915.4780495492,53380.0631608481,55577.9385733697,61750.6598424355,61919.2554496142,57728.3112974946,65926.7107336438,21400.5816752809
8762756868,10992,-2,0,54308.9573040083,56546.8522713806,36904.6487993767,53364.9995521813,55551.4251619925,61775.4089377734,61925.9963536541,57706.5067847879,65944.7067572449,21390.2147975877
8762756868,10992,-2,0,54326.1867627096,56600.3049635238,36946.2744902080,53428.5514326875,55593.1116913079,61784.0845056081,61969.8974037913,57772.4313661746,65962.4350915159,21394.7776838963
8762762029,10993,-2,0,54325.6027132621,56662.3480496240,36982.8384191610,53477.5020770062,55642.1596772012,61762.3895021728,61982.4666346094,57831.1526710421,65951.5815059499,21406.9575484161
8762762029,10993,-2,0,54302.6666047508,56642.9527408882,36958.9897333880,53436.9349757985,55624.5530198984,61738.9545180918,61938.2492243548,57791.0966131010,65922.3425304843,21407.8214548905
8762762029,10993,-2,0,54283.7215007975,56571.2485035106,36908.6519716315,53362.9553791150,55563.3495048790,61744.7341740827,61894.7375405159,57709.2080134826,65914.2023413098,21391.6019150255
8762762029,10993,-2,0,54288.6007472235,56543.0194468814,36903.6388805404,53355.0342084833,55541.8735199865,61778.4751973727,61906.3333555882,57696.6266149677,65937.7590023590,21389.7402574116
8762762029,10993,-2,0,54309.8698812700,56595.8029156993,36950.3506686437,53416.5419159232,55587.2468614393,61792.1881916922,61952.7896220582,57762.4051839925,65961.8145389780,21403.5384256088
8762762029,10993,-2,0,54317.0974931828,56659.6468209293,36987.6081563156,53468.5223167509,55638.1808403401,61774.2895096656,61972.4039493368,57821.4063458869,65954.9397902730,21414.5745266272
8762762029,10993,-2,0,54307.5093480864,56667.0326129008,36980.7334076106,53454.8336578250,55642.5612111964,61751.7427674527,61949.7355301556,57810.2850709908,65934.3398795518,21413.9783094829
8762762029,10993,-2,0,54289.8296846026,56603.8822663897,36932.3303096489,53384.8815687899,55586.2247749061,61741.3758897596,61901.6001215241,57731.3410540035,65918.2906874423,21396.6028384198
8762794020,10994,-2,0,54288.7954303727,56554.1893925648,36905.5492089416,53344.1562875236,55541.7153399278,61763.6306072487,61890.8803806231,57686.2840726682,65928.3168696244,21382.1597822909
8762794020,10994,-2,0,54303.7495297681,56593.6979041489,36942.8797027944,53394.8347447911,55573.4486932421,61786.0435047966,61930.3888922072,57741.1968884301,65951.5450028594,21389.4117295974
8762794020,10994,-2,0,54313.9338920089,56668.0546994339,36995.1399606490,53464.5556475866,55638.4972004575,61782.0525002387,61962.6454564848,57819.3500051239,65953.5283374415,21412.7980428911
8762794020,10994,-2,0,54308.6166084972,56677.5333352590,36992.4022288638,53460.0170966716,55648.6815626983,61768.1448227701,61945.7931963850,57811.7573623064,65936.4205557085,21422.1671694448
8762794020,10994,-2,0,54297.0207934250,56614.6020072907,36947.3452475284,53394.0803475881,55596.1171124232,61764.6648614787,61907.5501252705,57740.6615097699,65927.0879322453,21408.9408829982
8762794020,10994,-2,0,54297.2154765741,56567.6590329478,36923.5939033301,53363.0162175991,55558.3242460911,61783.4274499797,61902.3058479398,57703.3553513108,65945.0231173623,21393.7069265759
8762794020,10994,-2,0,54309.3101672161,56590.8506630924,36946.1771486334,53399.7748297012,55579.8854048614,61795.8506684359,61937.9693673279,57744.0319617899,65964.0047244061,21393.5974173045
8762794020,10994,-2,0,54317.8032195986,56655.5098040095,36984.1160273274,53455.2716949107,55631.8293025985,61779.6919670550,61966.9771565538,57810.0173816607,65961.3034957114,21408.5880197904
8762823456,10995,-2,0,54308.3245837735,56675.5013298896,36985.7586663985,53459.7859104320,55645.7369800672,61753.2272264651,61956.1722417750,57818.8632972510,65939.9978585744,21419.6119531119
8762823456,10995,-2,0,54292.9324472925,56619.9801292865,36942.0036286232,53400.1520283027,55596.8715096262,61748.0316199217,61913.9625014962,57751.0527228567,65923.3524493206,21413.1874091894
8762823456,10995,-2,0,54288.8441011600,56556.5499257485,36904.3324392593,53347.1982117293,55541.6910045342,61760.6373538303,61895.8934717141,57689.8492078373,65931.7359924316,21387.5744073771
8762823456,10995,-2,0,54301.8148659732,56572.4409377992,36927.0738646214,53384.1393392837,55557.9713828833,61782.2471833879,61935.1586293618,57730.1121166244,65952.5914247862,21385.0556941348
8762823456,10995,-2,0,54315.0046493293,56643.2082625215,36975.0510931943,53456.1234336883,55621.1095616975,61778.1953403458,61976.3097800169,57813.3269951965,65956.8987894615,21402.6380160439
8762823456,10995,-2,0,54310.0402290255,56664.9154336536,36976.2191920893,53463.2293686329,55638.9109021495,61753.7504374285,61963.6432076243,57821.4185135838,65936.9194312782,21410.5105158884
8762823456,10995,-2,0,54297.0451288186,56616.0621309095,36935.1653830087,53406.9172677363,55594.6691565013,61741.3758897596,61922.4555538786,57758.4263471314,65921.7584810368,21401.9931281123
8762823456,10995,-2,0,54289.7688461185,56552.1938902859,36896.1314116007,53356.6281767671,55541.0826196930,61745.6589190413,61898.2905079882,57697.6000307135,65924.6787282743,21386.1142837584
8762870827,10996,2,0,54298.6634324961,56556.6229319294,36907.6055497047,53375.6341192045,55543.8933576591,61775.3115961988,61921.7133243724,57715.9002467352,65943.5021552594,21381.2837081197
8762870827,10996,2,0,54318.6184552857,56630.8215471557,36961.4111050558,53452.8989940302,55607.1410457448,61788.1971871343,61970.7369748720,57799.3706469406,65960.3909184497,21396.1526336373
8762870827,10996,2,0,54319.8595603616,56674.8686096548,36984.8825922272,53483.8901178382,55645.2989429815,61759.5909319035,61975.3850350584,57835.6790542603,65946.1182100764,21414.2094957226
8762870827,10996,2,0,54302.9342940809,56630.1523238305,36947.6616076458,53427.3468307020,55606.9220272020,61741.1690389136,61931.0946186229,57776.7874016372,65924.2528588855,21413.8809679083
8762870827,10996,2,0,54297.7386875375,56559.8108684970,36905.3545257925,53366.0094710176,55548.6874302074,61755.2957349250,61903.4617791380,57705.1683381374,65930.1055210574,21400.7033522491
8762870827,10996,2,0,54304.6377716361,56556.0632178756,36912.7768208545,53380.0388254544,55546.2538908428,61762.5355145347,61925.3636334193,57719.1003509997,65949.7928545169,21384.7271663206
8762870827,10996,2,0,54311.1231540428,56617.2789005918,36952.3948417100,53442.1305823419,55597.0905281690,61758.9217085783,61958.6787873205,57790.2570420202,65949.9510345756,21384.1796199635
8762870827,10996,2,0,54309.1276517638,56656.5805613299,36969.7094742890,53463.0955239678,55630.1379927401,61746.1091238237,61954.5174350071,57815.5901868056,65932.8432528425,21393.7312619695
8762891915,10997,2,0,54297.5683397820,56629.0937342069,36945.1307267067,53420.4477466034,55606.6786732655,61743.5539074909,61918.4767170175,57772.1515091477,65920.2740220244,21398.9025331193
8762891915,10997,2,0,54292.7742672338,56571.5283605375,36910.6961446977,53368.2726626266,55559.9425497686,61757.9847959229,61894.3603419144,57711.8484036932,65927.0270937612,21397.6370926497
8762891915,10997,2,0,54304.3092438219,56561.9645508347,36913.4947149670,53373.0180643876,55551.7293544131,61786.3963680045,61915.4712959022,57713.7830674880,65951.6910152213,21396.7853538721
8762891915,10997,2,0,54326.7464767634,56629.1545726910,36961.9464837160,53443.7853891098,55609.1973865079,61798.1138600450,61964.2150893749,57790.5734021376,65971.5486964363,21409.3667523870
8762891915,10997,2,0,54331.4067046466,56687.5595174411,36995.2494699204,53490.8257050273,55661.6523275116,61773.9244787610,61980.2156106971,57845.1211869949,65962.9583024793,21422.4226910780
8762891915,10997,2,0,54311.7923773680,56652.5530536815,36960.9365648797,53440.6461233295,55631.1479115764,61741.5462375151,61934.1973813127,57792.8609291403,65931.3466261333,21412.6641982260
8762891915,10997,2,0,54295.6580113808,56568.9974795984,36904.5392901053,53362.6268513008,55560.6969469716,61743.6147459750,61889.8461263931,57705.1926735310,65920.5903821418,21383.3157134891
8762891915,10997,2,0,54301.1699780416,56547.6675070677,36903.4807004817,53360.2906535108,55545.1344627351,61776.6500428493,61907.0755850944,57705.5333690421,65944.0131985260,21372.2796124707
8762913562,10998,2,0,54323.0718323229,56612.7890204641,36956.4953555393,53433.2359959643,55603.1743765805,61799.5253128764,61958.4597687777,57786.2538697655,65969.5531941573,21395.4104041311
8762913562,10998,2,0,54333.3170330478,56675.8906961879,36992.5604089225,53480.3979888500,55656.1281931539,61785.6784738919,61977.7820713325,57839.5240464563,65966.6329469198,21423.5421191857
8762913562,10998,2,0,54320.6626283520,56663.1146145238,36970.5490453698,53452.0594229494,55643.9118255437,61757.2425664167,61947.9468787227,57808.4842518610,65944.1470431910,21426.3771925455
8762913562,10998,2,0,54303.2141511079,56593.7709103299,36919.2135324738,53384.5165378853,55585.6042223682,61750.0636252912,61907.9151561752,57732.1927927811,65934.2547056740,21409.0017214823
8762913562,10998,2,0,54302.1677291811,56554.8342804964,36898.7109633271,53358.9400391634,55549.9163675865,61777.6234585951,61904.7272196076,57703.6960468218,65947.5905013919,21392.3928153190
8762913562,10998,2,0,54324.3737758829,56610.9638659407,36946.2866579048,53422.1268887650,55595.8859261836,61805.8403475275,61954.7486212467,57777.2862772070,65973.8727265295,21400.7520230364
8762913562,10998,2,0,54335.5680569601,56683.6536867609,36994.5194081110,53485.2163967919,55657.7951676187,61793.6726507046,61981.3837095921,57849.6597379098,65973.1913355074,21417.3365938060
8762913562,10998,2,0,54323.8992357068,56675.8298577038,36983.3494624275,53460.4916368477,55653.1471074323,61776.0659934018,61952.4732619408,57825.3486796576,65951.8491952800,21422.4835295622
8762938751,10999,2,0,54308.5070992258,56603.2738815486,36934.6421720453,53386.4390339833,55593.1603620952,61770.9068899489,61909.4239505812,57744.7376882056,65942.8329319342,21406.4586728463
8762938751,10999,2,0,54309.9915582382,56565.3715059451,36916.7799931092,53365.3524153891,55559.8573758908,61787.1385975107,61911.6628067967,57719.5505557821,65957.3246588503,21391.8574366588
8762938751,10999,2,0,54321.4900317359,56603.2617138518,36946.5665149318,53413.2201346906,55589.6804008039,61793.7213214919,61949.2974930700,57772.8815709571,65969.6018649446,21389.0710340864
8762938751,10999,2,0,54329.0461714630,56663.9906886951,36980.3197059186,53466.9891869512,55637.4021077434,61780.9452398278,61972.3187754590,57832.2234283625,65963.1164825380,21404.3779966896
8762938751,10999,2,0,54321.5021994327,56668.6630842751,36973.9316650866,53462.7791638504,55640.1155041350,61759.1772302115,61954.3470872515,57826.5776170367,65943.2831367166,21417.2270845346
8762938751,10999,2,0,54305.0636410249,56601.4487270251,36928.4366466656,53398.7162400776,55583.2071860941,61750.9031963720,61910.9084095936,57749.9819655363,65927.0757645485,21410.0846464996
8762938751,10999,2,0,54301.4133319781,56544.9176075857,36901.2905150536,53356.5551705861,55537.7973415508,61780.7870597691,61899.7141285165,57700.5324456478,65938.9149335572,21400.8371969141
8762938751,10999,2,0,54318.0222381414,56579.5347050470,36939.9959586474,53406.0898643523,55571.1855016330,61807.9088559874,61943.8220294997,57753.7417838546,65968.2147475068,21408.1743180984
8762984738,11000,2,0,54329.3503638835,56654.6580652319,36991.3314715434,53476.6625059254,55640.7847274602,61797.7001583530,61981.2255295334,57836.3847806760,65973.0818262360,21425.6714661298
8762984738,11000,2,0,54315.6738726545,56662.3358819271,36986.1967034841,53467.3177147654,55647.9393331921,61770.7608775870,61958.3259241126,57825.6407043813,65948.9289480425,21422.6052065304
8762984738,11000,2,0,54302.8612879000,56600.2562927365,36940.7990266377,53401.5148103469,55596.8593419294,61766.5143513958,61917.5519720590,57751.8071200597,65936.2380402561,21405.5582632814
8762984738,11000,2,0,54301.0969718607,56548.4219042708,36913.5920565416,53364.5493473988,55554.5887631665,61775.6887948003,61906.4793679501,57709.5852120841,65946.5197440715,21388.5234877293
8762984738,11000,2,0,54309.6265273335,56567.8050453097,36931.0283660889,53395.9785082925,55568.6911237843,61781.2129291579,61934.9882816062,57740.4059881366,65958.3710807771,21386.0169421838
8762984738,11000,2,0,54316.9758162146,56632.6710370728,36967.3002703181,53453.4222049936,55618.7855316043,61778.1710049522,61964.4462756146,57807.3769914501,65955.8158644442,21399.8759488651
8762984738,11000,2,0,54310.6607815635,56660.7419136433,36973.6153049692,53465.3222124864,55640.4927027365,61759.9316274146,61955.6611985084,57825.4460212322,65939.2191259777,21417.6286185298
8762984738,11000,2,0,54296.0108745887,56612.5578342245,36936.5281650528,53407.4161433060,55599.6700798955,61755.0523809886,61914.5830540342,57763.7679660367,65924.4475420347,21416.9472275077
8763019749,11001,2,0,54296.6314271266,56551.6950147161,36904.0769176261,53356.8471953099,55550.1475538261,61772.5616967168,61897.2805891519,57703.0024881029,65935.8243385642,21403.6114317898
8763019749,11001,2,0,54310.2957506588,56562.5607679790,36926.2464612375,53387.7409775433,55560.1494006146,61790.7524034671,61930.5227368722,57733.1905439206,65957.4463358185,21396.6515092070
8763019749,11001,2,0,54323.4977017117,56634.2771730534,36979.2367809014,53462.4506360362,55620.0874751644,61794.0011785188,61971.0898380799,57815.7727022579,65963.8343766506,21412.7250367102
8763019749,11001,2,0,54317.4990271780,56664.6842474140,36989.4941493231,53476.0662887811,55646.2966941210,61771.8559703011,61963.9474000448,57831.8827328515,65947.3349797587,21427.2167636263
8763019749,11001,2,0,54301.6080151272,56618.0941362789,36949.8517930740,53418.1723872975,55604.3668108692,61755.9406228567,61923.0761064166,57767.8198090787,65930.9450921382,21424.9535720172
8763019749,11001,2,0,54292.5065779037,56554.8221127996,36912.7403177640,53366.1433156826,55552.9704594890,61774.6667082672,61900.0669917244,57709.0133303334,65935.0821090580,21413.8566325147
8763019749,11001,2,0,54305.8423736216,56559.5310114701,36928.9233545385,53385.1614258169,55560.4292576415,61803.7718390676,61925.1446148765,57727.6420741694,65961.1453156527,21412.6033597419
8763019749,11001,2,0,54323.3395216530,56629.7142867448,36983.4711393957,53455.6123904217,55621.8031204164,61817.2171440570,61968.4372801725,57809.3724937291,65977.0849984908,21423.5542868826
8763052064,11002,2,0,54326.4544520397,56679.7356883839,37009.8385384111,53490.0469724306,55661.6401598147,61788.2336902247,61978.6459778070,57851.4118862523,65967.4116795165,21431.0982589128
8763052064,11002,2,0,54303.9807160077,56635.7494643690,36968.4805369099,53431.7272015583,55620.8783754579,61757.3034049008,61930.1333705739,57790.2083712329,65938.5985734398,21413.9661417861
8763052064,11002,2,0,54288.2113809252,56554.9802928583,36911.4627095976,53355.2653947229,55549.4174920167,61760.5035091653,61892.0849826085,57703.8542268805,65929.0956022211,21391.3098903018
8763052064,11002,2,0,54295.6945144713,56547.4363208281,36913.9084166590,53364.0018010418,55539.8050115266,61789.3652860293,61914.5952217310,57710.9479941283,65948.2475570204,21389.1318725705
8763052064,11002,2,0,54311.5855265220,56618.2888194281,36968.3588599417,53434.4162625561,55597.1026958659,61795.5829791058,61956.7684589193,57792.3742212674,65961.9483836430,21405.8746233988
8763052064,11002,2,0,54308.7382854655,56663.5039808221,36989.5793232009,53458.6908177179,55632.6567059825,61771.8072995138,61954.1037333151,57824.1805807626,65945.0717881496,21419.9526486230
8763052064,11002,2,0,54294.6602602413,56633.4132665790,36961.2407573002,53416.4324066518,55609.4529081411,61753.1907233747,61918.3550400493,57778.1866867719,65925.7859886852,21418.6263696693
8763052064,11002,2,0,54292.5795840846,56571.4553543566,36923.5208971491,53364.4641735211,55566.2089136324,61771.8681379979,61894.4576834890,57719.2828664520,65930.2028626320,21407.9187964651
8763095783,11003,2,0,54307.9230497783,56559.0686389908,36928.3758081815,53371.7282885243,55560.2589098860,61803.1877896201,61915.6781467482,57721.1445240659,65955.9132060188,21402.6380160439
8763095783,11003,2,0,54331.3458661625,56626.1978223630,36980.7090722169,53443.6880475352,55616.3641599366,61813.0801271372,61965.4926975414,57799.1151253073,65977.6203771510,21410.3401681329
8763095783,11003,2,0,54328.9244944947,56684.6271025068,37013.2089904310,53488.3678302691,55663.8668483333,61783.0380836813,61979.0475118021,57850.2559550541,65963.6396935014,21415.5236069794
8763095783,11003,2,0,54305.7815351375,56655.0595992270,36981.0376000312,53442.9944888163,55639.2881007510,61754.3344868760,61939.9770373036,57802.0232048480,65934.5710657914,21404.3901643864
8763095783,11003,2,0,54291.7156776102,56575.5923712764,36927.5605724943,53366.6421912524,55575.1035000100,61766.5630221831,61900.8822274115,57717.2265256889,65929.2902853702,21389.6915866243
8763095783,11003,2,0,54300.9752948924,56548.5070781485,36921.8417549875,53362.3956650612,55555.3066572790,61789.8276585085,61917.8074936922,57709.8772368079,65951.9465368545,21384.2647938413
8763095783,11003,2,0,54318.7766353444,56602.8358444629,36962.9807379459,53427.4928430639,55601.1788743015,61800.1093623239,61963.7283815020,57781.9830081806,65968.7622938639,21401.0805508506
8763095783,11003,2,0,54323.8018941323,56661.6058201178,36992.3292226828,53474.7035067369,55649.2169413585,61785.2282691095,61979.9235859734,57835.2531848715,65959.6973597308,21423.0189082224
8763123172,11004,2,0,54314.0677366739,56653.5143017305,36975.6351426418,53452.4244538541,55644.2281856611,61769.1425739095,61953.4466776866,57813.1931505315,65942.8816027215,21430.1613462574
8763123172,11004,2,0,54302.6787724476,56589.4513779577,36931.9652787442,53391.6224728299,55593.5010576063,61774.0583234260,61918.0751830224,57743.1802230122,65937.6616607844,21415.4992715858
8763123172,11004,2,0,54311.6828680966,56553.3254860904,36919.3960479261,53373.5169399573,55566.2575844197,61804.9521056595,61923.7209943482,57719.1855248774,65960.6342723861,21403.9642949976
8763123172,11004,2,0,54330.1777672675,56598.6258213622,36957.4566035883,53427.0061351910,55603.7340906344,61812.1675498755,61969.1916773755,57781.8004927283,65979.4211962808,21410.6321928566
8763123172,11004,2,0,54329.1678484312,56661.3746338781,36994.2882218713,53481.8459447720,55653.0375981609,61786.6153865473,61989.3048802239,57846.3866274644,65967.3751764260,21422.5443680463
8763123172,11004,2,0,54307.7040312355,56651.7499856912,36970.6342192475,53453.1788510571,55640.8820690348,61754.5656731157,61950.4534242682,57817.0746458180,65932.6364019965,21418.5655311852
8763123172,11004,2,0,54292.5065779037,56582.7469770083,36919.3108740484,53380.6593779924,55579.8367340741,61757.3642433849,61904.1066670696,57733.1662085270,65922.1721827288,21402.1878112615
8763123172,11004,2,0,54303.4453373475,56552.6684304620,36912.3874545561,53367.5912716045,55556.8884578660,61808.6997562809,61913.2932781709,57715.9732529162,65951.8491952800,21398.4888314273
8763133008,11005,2,0,54333.3778715319,56607.3987307716,36962.1046637747,53432.3112510058,55606.7151763560,61832.7309575062,61964.8356419129,57787.7869995652,65985.3346969367,21409.7926217758
8763133008,11005,2,0,54341.6032345842,56672.1795486569,37001.5401691778,53483.5372546304,55657.9411799806,61809.5028242712,61984.6081492502,57850.2681227510,65982.6213005452,21418.8818913026
8763133008,11005,2,0,54322.8528137801,56672.8001011949,36989.6766647754,53464.3487967406,55654.6072310511,61770.4323497728,61952.9234667233,57837.4555379964,65953.9542068303,21413.0413968275
8763133008,11005,2,0,54295.2443096888,56603.6754155437,36940.2028094934,53389.5296289763,55592.6979896160,61762.9613839235,61897.4509369075,57755.0315597178,65931.1276075905,21399.1215516621
8763133008,11005,2,0,54292.2632239672,56546.4507373854,36909.9539151915,53344.3388029759,55542.6400848864,61791.8353284843,61885.2832400845,57704.3896055407,65941.7013361296,21395.4104041311
8763133008,11005,2,0,54314.0920720676,56578.7803078440,36945.2645713717,53393.9951737103,55573.9475688118,61823.7877003414,61933.3213071415,57756.2726647937,65972.3882675171,21409.9508018345
8763133008,11005,2,0,54336.2251125885,56661.4841431495,37000.4207410701,53478.6336728107,55646.6008865416,61820.1495589913,61982.1746098856,57847.7615772054,65981.1490092296,21433.8846614853
8763133008,11005,2,0,54334.8866659380,56680.9281226726,36997.7195123754,53482.8558636083,55661.7983398734,61782.3080218720,61967.8167276345,57848.4064651371,65957.4706712122,21437.9730076178
8763164521,11006,2,0,54318.2655920778,56617.5100868314,36944.7656958020,53413.6946748667,55605.5105743705,61765.7599541928,61918.1481892033,57767.7468028978,65933.4029668964,21420.0378225007
8763164521,11006,2,0,54312.0235636077,56560.4192533382,36913.0566778814,53369.7814570327,55557.1318118025,61783.2205991337,61902.7803881159,57719.6844004471,65939.5354860951,21398.4036575496
8763164521,11006,2,0,54320.7356345329,56578.5126185139,36939.7161016204,53399.2151156474,55576.7339713843,61808.8579363396,61934.0757043445,57756.2848324906,65962.3012468509,21397.7587696179
8763164521,11006,2,0,54333.3413684415,56648.5985522140,36994.5802465951,53463.0955239678,55639.6774670493,61810.6100846821,61971.5278751655,57832.3694407244,65973.2521739915,21419.7336300802
8763164521,11006,2,0,54326.3936135556,56676.6207579973,37008.4514209733,53478.7796851726,55665.3148042553,61782.8677359258,61965.8455607492,57850.9130106826,65955.4021627523,21434.6512263851
8763164521,11006,2,0,54305.2339887805,56622.3771655606,36964.2096753250,53420.2895665447,55618.3839976092,61758.1673113752,61921.0927718344,57783.2727840438,65931.1519429841,21425.5376214647
8763164521,11006,2,0,54299.2231465499,56550.0037048577,36919.1405262929,53360.2298150267,55559.4801772893,61774.5085282085,61894.0683171907,57714.9268309894,65935.4349722658,21407.8701256778
8763164521,11006,2,0,54317.0853254860,56561.7942030792,36935.7859355466,53386.5485432547,55567.2188324687,61801.9588522410,61929.5493211264,57743.7886078534,65964.4914322790,21401.5307556330
8763216081,11007,2,0,54335.9939263489,56640.0933321348,36990.9421052450,53464.0932751073,55633.8126371807,61801.7154983046,61976.8573263740,57831.6880497023,65977.9002341779,21424.9414043204
8763216081,11007,2,0,54327.6590540251,56673.7248461534,37000.2868964051,53475.2875561844,55657.3084597458,61767.7432887749,61963.8013876830,57847.9319249610,65954.6599332461,21439.5913112952
8763216081,11007,2,0,54302.3259092398,56620.2356509198,36955.5584428839,53410.0687012134,55608.2726415493,61747.8491044694,61911.0787573492,57777.0915940578,65929.3876269448,21428.3970302181
8763216081,11007,2,0,54287.0067789397,56548.9572829310,36915.7335711824,53353.3185632312,55552.0578822273,61766.6846991513,61880.9272046219,57715.4865450432,65933.3542961091,21406.1788158194
8763216081,11007,2,0,54302.3015738461,56551.9262009558,36932.1356264998,53371.9716424608,55559.6748604385,61803.6744974930,61907.2459328499,57739.7245971145,65960.3179122687,21403.0882208264
8763216081,11007,2,0,54324.3616081861,56623.0950596731,36987.2431254109,53445.2090096381,55626.1348204854,61816.2072252207,61953.0329759947,57822.2945877550,65981.6357171025,21422.0211570829
8763216081,11007,2,0,54324.9699930273,56676.3409009703,37014.6569463530,53480.8116905420,55672.0557082952,61789.7911554181,61962.2074193992,57865.6480915352,65971.7555472823,21438.6543986398
8763216081,11007,2,0,54302.8126171127,56639.7283012301,36977.3751232875,53429.8168731571,55637.0735799292,61757.0235478739,61916.8949164305,57809.0683013085,65942.0420316407,21431.3294451524
8763227999,11008,2,0,54283.2712960150,56558.1073909418,36918.1792782438,53351.4934087078,55562.4125922236,61754.3223191792,61874.6486730613,57716.8614947842,65929.7891609400,21406.9575484161
8763227999,11008,2,0,54291.6426714292,56544.9176075857,36920.5641468211,53358.8426975889,55551.5711743544,61789.6451430562,61899.0327374944,57722.7628277434,65948.9776188298,21401.3117370902
8763227999,11008,2,0,54310.2592475683,56611.8156047183,36970.9019085777,53436.3144232605,55608.8445233000,61791.7623223034,61950.8062874761,57804.6757627554,65964.0168921029,21412.5303535610
8763227999,11008,2,0,54309.5656888494,56658.3327096724,36990.7595897927,53470.9923592059,55647.8176562239,61772.5738644136,61959.1168244061,57843.4663802269,65947.3228120618,21421.6074553909
8763227999,11008,2,0,54295.1348004174,56630.1158207400,36959.1357457499,53430.3035810300,55623.7864549986,61748.0802907090,61925.5339811748,57798.1295418647,65926.6012243724,21418.2735064614
8763227999,11008,2,0,54275.9706779213,56557.8275339149,36907.7272266729,53363.6732732276,55564.3107529280,61748.5913339756,61889.0308907060,57726.5469814553,65921.3691147385,21399.3892409922
8763227999,11008,2,0,54284.3663887291,56536.9599338635,36905.8777367559,53356.4699967084,55549.2836473517,61790.8984158290,61902.7195496318,57721.8137473912,65946.2398870446,21390.3364745559
8763227999,11008,2,0,54312.5954453583,56603.7605894215,36963.2970980633,53425.4851730881,55606.5934993878,61816.3045667953,61952.4975973345,57799.8086840262,65974.2864282215,21409.7804540790
8763263537,11009,2,0,54327.6712217220,56678.5919248826,37013.2333258247,53487.7959485184,55668.6122500943,61797.0065996341,61979.0596794989,57868.1668047775,65971.6703734045,21434.7607356565
8763263537,11009,2,0,54310.9649739841,56662.6279066509,36994.0205325412,53455.2838626075,55652.7455734372,61762.9492162267,61941.3276516510,57828.8529763426,65941.4701498900,21433.4101213092
8763263537,11009,2,0,54292.4214040259,56581.4815365387,36933.8634394486,53376.4493548917,55585.7137316396,61764.2511597867,61895.1877452984,57738.3861504640,65927.3556215754,21413.1387384021
8763263537,11009,2,0,54299.9653760561,56552.3885734350,36922.1702828018,53365.7904524748,55563.2886663949,61798.4788909497,61907.5987960578,57725.9142612205,65954.4287470064,21404.6213506261
8763263537,11009,2,0,54318.6062875889,56603.6875832406,36964.1488368409,53431.3621706536,55607.3965673781,61813.6641765847,61956.4764341956,57800.4414042610,65976.1845889259,21412.2869996245
8763263537,11009,2,0,54325.7487256239,56666.6067435120,37001.9295354761,53484.5593411635,55661.8226752671,61804.1247022755,61977.2953634596,57861.6692546741,65978.0584142366,21431.0374204287
8763263537,11009,2,0,54308.0933975338,56655.9235057014,36986.0750265159,53455.3933718789,55649.5576368696,61769.7631264475,61944.5277559154,57834.1824275510,65954.0150453144,21433.1302642822
8763263537,11009,2,0,54283.9283516435,56586.5676338107,36937.2338914686,53381.1582535621,55589.7047361975,61765.2975817135,61895.7474593522,57756.4795156397,65937.2357913956,21416.4605196348
8763308021,11010,2,0,54283.2469606214,56545.5503278205,36919.3960479261,53350.6781730207,55555.9515452107,61798.2598724068,61890.7100328676,57724.9530131715,65955.8036967474,21402.6258483471
8763308021,11010,2,0,54304.2727407314,56595.1093569804,36962.9807379459,53406.0533612619,55597.2852113182,61835.1888322645,61937.7138456946,57785.9010065576,65985.3590323304,21414.2094957226
8763308021,11010,2,0,54329.1556807344,56684.4202516608,37024.3546007208,53488.5746811151,55671.2769756985,61835.5416954723,61984.7784970057,57874.5183425191,65998.9503496816,21444.9207625037
8763308021,11010,2,0,54322.0984165771,56690.4189261945,37015.3383373750,53478.7066789917,55672.4329068967,61798.3207108910,61961.6355376485,57860.3551434172,65974.5297821579,21455.3606463777
8763308021,11010,2,0,54302.2529030588,56613.5190822735,36957.0307341995,53400.5657299947,55602.8823518568,61780.7140535882,61911.7236452808,57768.5377031913,65951.4719966785,21428.6890549419
8763308021,11010,2,0,54301.2551519194,56562.4390910108,36929.1545407781,53366.3136634381,55560.9159655144,61801.1436165539,61909.5091244590,57728.5303160374,65963.2746625967,21404.5848475356
8763308021,11010,2,0,54315.9780650751,56594.9876800122,36958.9045595102,53409.8983534579,55588.8164943294,61810.4032338361,61946.3529104389,57778.0041713195,65980.4189474202,21402.6136806503
8763308021,11010,2,0,54320.0542435108,56657.3106231393,36994.2273833872,53463.1928655424,55640.1398395286,61795.0476004456,61967.7680568472,57836.9201593362,65972.1205781870,21411.4960993310
8763334486,11011,2,0,54313.3863456518,56674.8199388675,36994.8479359252,53466.1739512640,55653.1592751292,61783.8046485812,61952.6679450900,57840.4609591117,65957.9208759946,21428.4700363990
8763334486,11011,2,0,54300.6954378655,56620.7831972768,36956.7387094757,53411.3949801671,55609.0757095396,61773.8149694895,61913.4271228360,57776.9334139991,65942.8816027215,21427.7156391960
8763334486,11011,2,0,54300.3425746576,56561.3196629031,36926.2464612375,53366.3258311350,55566.0629012705,61795.6924883772,61901.1742521353,57725.9142612205,65953.2119773241,21410.7173667344
8763334486,11011,2,0,54316.9636485178,56582.6739708273,36951.2754136022,53403.1452817212,55588.9868420850,61819.5533418470,61937.2393055185,57767.5764551422,65979.8348979727,21403.9886303913
8763334486,11011,2,0,54331.9664187005,56659.5738147483,37004.4969195058,53477.1492137983,55656.7244102983,61809.7218428141,61976.2246061392,57854.3199657930,65986.1499326238,21416.5943642998
8763334486,11011,2,0,54325.6878871398,56681.7068552693,37006.2003970610,53480.5926719992,55674.9637878359,61788.4040379803,61958.8247996824,57860.2456341458,65962.1065637017,21426.2311801836
8763334486,11011,2,0,54314.4084321850,56628.3271693070,36961.6422912954,53417.8195240897,55625.5142679474,61774.1434973038,61913.9503337994,57784.1123551246,65942.9059381151,21422.4226910780
8763334486,11011,2,0,54310.0767321160,56567.1114865908,36927.1955415896,53369.4042584312,55572.2805943471,61788.5257149485,61895.6744531713,57727.6055710789,65948.0407061744,21411.2770807882
8763350676,11012,2,0,54322.9744907483,56582.1507598640,36948.8297065408,53398.2903706888,55585.0566760111,61809.6366689363,61928.4663961091,57760.4583525008,65968.6892876829,21411.1067330327
8763350676,11012,2,0,54336.4562988281,56649.7909865027,36994.4829050205,53461.1365247793,55639.6166285652,61813.9196982180,61965.5657037223,57831.4690311595,65974.9556515467,21423.8098085159
8763350676,11012,2,0,54333.4508777129,56686.3062446683,37009.3883336286,53482.1866402830,55669.0867902704,61786.9682497551,61964.3245986464,57853.7845871328,65959.6486889435,21432.3393639887
8763350676,11012,2,0,54313.2403332900,56640.0081582570,36966.2173453008,53425.5216761786,55626.1956589695,61762.3773344760,61919.4623004602,57789.0281046411,65932.9770975076,21419.2712576009
8763350676,11012,2,0,54301.7905305796,56565.4931829133,36918.6903215104,53359.9621256966,55560.7942885462,61781.6509662435,61887.0110530334,57713.4545396738,65933.7801654979,21394.0111189965
8763350676,11012,2,0,54313.7635442533,56568.1214054271,36933.4132346662,53378.4448571706,55563.7023680869,61812.2770591469,61914.6925633056,57737.1328776912,65962.5446007873,21389.4725680815
8763350676,11012,2,0,54331.2606922847,56645.5444603115,36990.6865836118,53458.6178115370,55629.5539432926,61817.7646904140,61966.0159085047,57829.8142243916,65978.8979853174,21410.9363852772
8763350676,11012,2,0,54335.5437215664,56691.9763913878,37014.8881325926,53487.9297931834,55669.4518211751,61797.5663136879,61971.9050737670,57865.4290729924,65969.4680202796,21436.5250516958
8763385666,11013,2,0,54321.7212179755,56648.3308628839,36977.3872909843,53434.1607409229,55631.5372778748,61776.6987136366,61931.3744756498,57805.9777063155,65947.5539983015,21434.4078724486
8763385666,11013,2,0,54306.5724354310,56575.8235575160,36933.2307192138,53373.5899461383,55570.8326384251,61782.3931957497,61902.6587111477,57736.3298097009,65944.8406019099,21415.4627684953
8763385666,11013,2,0,54311.4273464633,56564.3372517152,36935.8102709403,53381.3407690145,55559.6626927417,61804.6114101484,61921.8958398248,57737.3275608404,65958.9429625277,21403.0760531296
8763385666,11013,2,0,54328.6324697710,56625.9423007297,36981.4269663295,53443.6637121416,55608.8323556032,61810.2693891711,61962.9253135117,57804.9069489950,65968.9326416194,21410.4618451011
8763385666,11013,2,0,54331.8447417322,56682.0597184771,37011.7975375996,53482.6368450655,55654.6315664447,61794.6825695409,61977.0641772200,57851.3510477682,65960.1232291196,21424.2478456015
8763385666,11013,2,0,54321.6360440978,56659.8415040784,36985.3449647065,53445.9877422348,55635.4066054645,61773.6811248245,61943.7855264092,57813.5703491330,65941.0199451075,21426.9855773866
8763385666,11013,2,0,54309.4196764876,56584.4382868667,36932.5736635854,53372.5800273020,55572.9741530660,61770.4566851664,61905.2382628741,57732.8255130159,65934.5345627009,21409.7926217758
8763385666,11013,2,0,54314.4327675786,56563.6315252994,36926.7210014135,53370.4263449643,55556.5355946582,61794.6947372377,61920.1436914822,57729.7957565070,65954.0758837986,21399.2188932367
8763413624,11014,2,0,54329.9709164215,56629.6899513512,36976.9735892923,53443.1039980877,55612.3609876818,61808.3468930731,61966.1254177762,57811.7695300032,65970.0155666366,21412.1774903531
8763413624,11014,2,0,54332.0150894878,56683.5198420959,37004.2048947820,53482.1014664053,55656.1281931539,61788.0146716819,61974.1317622856,57854.2226242184,65954.4895854905,21425.3307706187
8763413624,11014,2,0,54316.5499468258,56656.7630767822,36979.3949609601,53442.2765947038,55631.1844146669,61772.2940073867,61936.5700821932,57808.5450903451,65932.9284267203,21422.1915048384
8763413624,11014,2,0,54301.8392013669,56586.7501492630,36939.0712136888,53376.4736902853,55572.7916376136,61783.4517853733,61898.8623897389,57736.2081327327,65930.7017382017,21413.8931356052
8763413624,11014,2,0,54308.7261177686,56564.4345932897,36938.9617044174,53368.5160165631,55553.5788443302,61808.2495514985,61908.1341747180,57725.2937086825,65954.6112624588,21414.9030544415
8763413624,11014,2,0,54325.3350239320,56616.8043604157,36981.8771711119,53426.4342534403,55596.2996278755,61820.1495589913,61950.2587411190,57790.1718681425,65974.4932790675,21425.4767829806
8763413624,11014,2,0,54333.1466852923,56685.1138103797,37021.9210613562,53485.6179307871,55653.4512998529,61805.8768506180,61975.4337058457,57856.6804989767,65971.0498208666,21441.6476520583
8763413624,11014,2,0,54318.5941198920,56673.9925354835,37001.7226846302,53456.7318185294,55643.1695960375,61777.1245830254,61942.4349120619,57830.7146339565,65946.8361041889,21438.4962185811
8763454566,11015,2,0,54300.7927794401,56596.3139589659,36943.6584353911,53376.6683734345,55578.0480826411,61776.4675273969,61895.2729191762,57741.0752114619,65932.4173834537,21414.1364895416
8763454566,11015,2,0,54304.6134362425,56560.4192533382,36928.6556652084,53357.3217354860,55548.3832377868,61805.0616149309,61899.8236377879,57720.3657914692,65951.0947980769,21401.5915941172
8763454566,11015,2,0,54323.8505649196,56614.3951564447,36973.1407647931,53423.6356831710,55596.7620003548,61824.7124452999,61950.2344057254,57792.2525442992,65975.1259993023,21412.9805583434
8763454566,11015,2,0,54336.2981187694,56683.7510283355,37013.7930398785,53482.5881742782,55658.8902603328,61809.8435197823,61977.5508850929,57856.8021759449,65974.3107636151,21432.7652333775
8763454566,11015,2,0,54326.5639613111,56681.5486752106,37000.7005980970,53466.8188391956,55659.8758437754,61783.5977977352,61954.5174350071,57838.8304877374,65953.1268034464,21439.1532742096
8763454566,11015,2,0,54309.8333781795,56615.0157089827,36952.9423880670,53405.8708458095,55605.7295929133,61776.0659934018,61913.1229304154,57768.0996661056,65938.2457102319,21424.3451871761
8763454566,11015,2,0,54308.0568944434,56564.5684379548,36925.8935980296,53373.1032382653,55566.0507335737,61792.4558810223,61905.3599398424,57730.0147750498,65944.4147325212,21403.8304503326
8763454566,11015,2,0,54325.9434087731,56599.3923862621,36957.7242929184,53418.6347597768,55594.6448211076,61814.2725614258,61946.7422767372,57777.3957864784,65966.6207792230,21406.4586728463
8763473137,11016,2,0,54337.6000623295,56670.9019404905,37005.9205400341,53486.3601602933,55656.3715470904,61802.0805292092,61982.1502744920,57854.0157733724,65968.3729275655,21423.9801562714
8763473137,11016,2,0,54324.3981112766,56675.4769944959,37000.5059149479,53475.9081087224,55661.1656196386,61771.8559703011,61957.2795021859,57845.5835594741,65941.7621746137,21428.0076639198
8763473137,11016,2,0,54301.3524934939,56601.4000562378,36947.7346138268,53395.8811667179,55600.6313279445,61761.9149619967,61902.0381586097,57756.7107018794,65924.0703434332,21409.7317832917
8763473137,11016,2,0,54299.3934943054,56548.8477736596,36922.8638415207,53356.6281767671,55557.0101348343,61789.2071059706,61893.2895845940,57713.7708997912,65938.0996978700,21394.2058021456
8763473137,11016,2,0,54316.3552636766,56584.0854236588,36956.8238833535,53405.1772870906,55589.5830592293,61815.6475111668,61934.2338844032,57769.1582557292,65964.9294693646,21399.2188932367
8763473137,11016,2,0,54330.7374813213,56657.8946725868,37004.0467147233,53469.8850987950,55651.5409714517,61819.7966957835,61968.3034355075,57845.4862178995,65972.5829506663,21423.4934483985
8763473137,11016,2,0,54333.4508777129,56687.4986789570,37015.5573559178,53482.0649633148,55679.1251401493,61806.2662169163,61966.1132500793,57862.7765150850,65964.4914322790,21444.0568560292
8763473137,11016,2,0,54318.0100704446,56634.3745146280,36975.1606024657,53423.5991800805,55635.8446425501,61787.2116036916,61925.4244719034,57799.5166593025,65947.5783336951,21436.3425362435
8763515487,11017,2,0,54308.3245837735,56569.4720197744,36934.7638490135,53366.7638682206,55581.6983916880,61801.9953553315,61903.1210836270,57734.8453506885,65951.3016489229,21415.3532592239
8763515487,11017,2,0,54319.2633432173,56585.5090441871,36952.6990341305,53390.4787093285,55593.1725297920,61818.7016030694,61934.9517785158,57762.0888238751,65970.8186346269,21405.5217601910
8763515487,11017,2,0,54331.9420833068,56662.7617513159,37003.2071436426,53464.7381630389,55656.4202178777,61814.5280830591,61977.1858541882,57846.4839690390,65977.6082094541,21420.8895612783
8763515487,11017,2,0,54331.9907540941,56697.1841656280,37019.0494849060,53484.2429810461,55684.5884360228,61798.1990339227,61971.5157074687,57866.5485011001,65961.5833527383,21440.1023545618
8763515487,11017,2,0,54321.0033238630,56644.0478336023,36975.2457763434,53424.8646205501,55634.7982206233,61774.4476897243,61928.3325514441,57795.6108286223,65942.9667765992,21427.4966206532
8763515487,11017,2,0,54310.5512722921,56573.1588319118,36931.5272416586,53371.6796177371,55572.2319235598,61779.5216192995,61905.4572814170,57734.0909534855,65941.0077774107,21402.0052958091
8763515487,11017,2,0,54319.3850201855,56577.9772398537,36941.5047530534,53395.2971172704,55577.5613747682,61800.8759272238,61932.7859284813,57758.1099870140,65957.1543110948,21396.4324906642
8763515487,11017,2,0,54332.8303251749,56643.0987532501,36988.1191995821,53457.4983834293,55636.1610026675,61809.8313520855,61970.2015962118,57830.1792552963,65966.2435806215,21413.7349555465
8763567103,11018,2,0,54330.1534318738,56681.8650353280,37010.4104201617,53479.8139394025,55672.1530498698,61793.9768431252,61970.2380993023,57861.8517701264,65956.2904046203,21431.9986684777
8763567103,11018,2,0,54312.6197807520,56642.4051945312,36977.4724648620,53427.3833337925,55640.2371811032,61775.7252978907,61926.7385831603,57809.0683013085,65937.6373253908,21426.3650248487
8763567103,11018,2,0,54300.7562763496,56570.4576032171,36932.9630298837,53360.1568088457,55577.4275301032,61789.0367582151,61892.1823241831,57733.5069040380,65940.7644234743,21406.7506975701
8763567103,11018,2,0,54316.8784746400,56571.5891990216,36945.4592545209,53376.2425040457,55576.6244621128,61825.7223641362,61918.7930771349,57750.0428040204,65969.9425604557,21406.3613312718
8763567103,11018,2,0,54341.2625390732,56651.8108241753,37005.9083723373,53459.9805935811,55644.8122351086,61836.0892418294,61973.0001664811,57841.1058470433,65990.8344959007,21429.7719799591
8763567103,11018,2,0,54340.8853404717,56697.7560473787,37026.0459105792,53488.6233519024,55681.0963070346,61802.7010817472,61972.0997569162,57874.0681377366,65974.9678192436,21437.6201444099
8763567103,11018,2,0,54316.8298038527,56652.0785135054,36981.2444508772,53427.7483646972,55639.7261378366,61771.3570947313,61923.0274356293,57808.5329226483,65944.7675957290,21420.3785180118
8763567103,11018,2,0,54300.2695684767,56575.9817375747,36933.5105762407,53362.3104911834,55574.7263014085,61783.8411516717,61889.3229154297,57737.1328776912,65942.0541993375,21406.4951759368
8763576864,11019,2,0,54312.2182467568,56567.9023868843,36944.8630373766,53373.7481261970,55571.8303895646,61820.6606022579,61913.2202719900,57749.5439284507,65969.1759955558,21415.4992715858
8763576864,11019,2,0,54330.6523074436,56629.1302372973,36996.4662396027,53439.1738320139,55624.1636536001,61832.8161313840,61958.5449426555,57822.2215815741,65988.6808135630,21435.3082820135
8763576864,11019,2,0,54334.5338027301,56683.9335437879,37029.5502072642,53481.0185413880,55669.9141936543,61805.7795090434,61973.2921912049,57869.7364376677,65978.9466561047,21450.8585985533
8763576864,11019,2,0,54316.3674313735,56655.4246301317,36996.8191028105,53442.0575761610,55643.9969994215,61770.2254989268,61934.3920644619,57825.6893751686,65950.5837548104,21442.9374279215
8763576864,11019,2,0,54300.8049471369,56574.1079122640,36937.3799038304,53366.0459741080,55576.6487975065,61769.2520831809,61891.9754733371,57736.5974990310,65936.6882450386,21416.3023395761
8763576864,11019,2,0,54311.7193711871,56552.5832565842,36930.2739688858,53363.6732732276,55563.3981756663,61799.9025114779,61909.1319258575,57731.4262278813,65959.6486889435,21406.2883250908
8763576864,11019,2,0,54333.2075237764,56620.4911725530,36979.0542654490,53438.3220932363,55624.2001566905,61810.8412709218,61959.4818553108,57816.5392671578,65980.3702766329,21421.3884368481
8763576864,11019,2,0,54336.3224541631,56680.3440732251,37010.4834263427,53479.1568837741,55673.8321920313,61791.5676391542,61970.1650931214,57869.2132267043,65968.7501261670,21436.2573623657
8763595859,11020,2,0,54316.9636485178,56659.9266779562,36985.7221633080,53437.4216836714,55651.9303377500,61771.4787716995,61932.5790776353,57828.0255729586,65945.0717881496,21434.3470339645
8763595859,11020,2,0,54302.8734555968,56592.7244884031,36944.0721370831,53374.4416849159,55595.9467646677,61775.9808195240,61896.6843720076,57754.9950566273,65941.5553237678,21419.6606238992
8763595859,11020,2,0,54307.3755034213,56560.1393963112,36934.2528057469,53362.8215344500,55570.3946013395,61800.5595671064,61903.0480774460,57733.6650840967,65958.1277268406,21409.2450754188
8763595859,11020,2,0,54325.2498500542,56608.2017987619,36974.4062052627,53420.5937589653,55612.3609876818,61819.1639755487,61946.1460595929,57794.0533634290,65978.2652650826,21415.1099052875
8763595859,11020,2,0,54340.4473033861,56684.0430530593,37020.8868071263,53487.3700791296,55675.8276943103,61821.4636702482,61981.5297219540,57870.9167042595,65984.2396042226,21440.3092054078
8763595859,11020,2,0,54334.1687718254,56687.9853868299,37015.8372129448,53476.6990090159,55679.0521339684,61798.5884002211,61961.5138606803,57859.1505414317,65968.6041138052,21456.6625899378
8763595859,11020,2,0,54315.0533201166,56611.0733752121,36956.9090572313,53396.2461976226,55610.9738702440,61777.2097569032,61911.1760989237,57768.0266599247,65951.4233258912,21438.8612494858
8763595859,11020,2,0,54308.6044408004,56558.6671049957,36926.3072997216,53362.3591619707,55563.4955172409,61786.5180449727,61902.4640279985,57730.4406444386,65959.5148442784,21418.6385373661
8763635678,11021,2,0,54318.5941198920,56599.4532247462,36957.6147836470,53415.8483572043,55595.9102615772,61800.1458654144,61944.4182466440,57790.8775945582,65975.0286577277,21420.3785180118
8763635678,11021,2,0,54322.0862488802,56662.0195218097,36990.5405712499,53469.5809063744,55646.9172466590,61784.1453440922,61964.2515924654,57848.5524774989,65963.8100412569,21430.3681971034
8763635678,11021,2,0,54308.2394098957,56660.0483549244,36976.9979246859,53453.1545156635,55643.7293100914,61762.8640423489,61939.6971802767,57827.2468403620,65937.3209652734,21424.3086840856
8763635678,11021,2,0,54300.2574007799,56601.7164163552,36937.0392083194,53398.6067308062,55596.2144539978,61765.9911404324,61905.8223123216,57763.5611151907,65929.9230056050,21411.6542793897
8763635678,11021,2,0,54307.6796958419,56557.0731367119,36918.2887875153,53371.1320713800,55560.9159655144,61792.1030178144,61905.4451137201,57728.9196823358,65948.6004202282,21404.4875059610
8763635678,11021,2,0,54329.8857425437,56592.4811344666,36952.7598726146,53414.6437552189,55589.2423637182,61813.9196982180,61946.0487180183,57778.7464008257,65976.2940981973,21414.8300482605
8763635678,11021,2,0,54340.2526202369,56669.1497921480,37002.7812742538,53479.7287655248,55653.5243060338,61805.7916767402,61979.1326856799,57857.3983930892,65980.6257982662,21435.0284249866
8763635678,11021,2,0,54327.3548616046,56684.1160592402,37001.2359767572,53474.0951218958,55664.4508977808,61783.2692699210,61958.9708120443,57856.3519711624,65955.9983798966,21444.3853838434
8763712005,11022,2,0,54311.7802096712,56623.0342211890,36956.3128400869,53404.6784115209,55611.3997396328,61781.7604755149,61914.1206815549,57777.7973204735,65944.6580864576,21437.6323121067
8763712005,11022,2,0,54308.6774469814,56569.2651689285,36930.6755028810,53362.5295097262,55565.6370318817,61803.7231682803,61903.5226176221,57730.2581289863,65957.1178080043,21425.9269877630
8763712005,11022,2,0,54321.5508702200,56596.0584373326,36960.4133539163,53401.6608227088,55589.4492145642,61823.9945511874,61938.4682428976,57777.5783019307,65982.0615864913,21429.9179923210
8763712005,11022,2,0,54331.2363568911,56665.2682968615,37005.6893537944,53463.4483871757,55648.7910719697,61815.4893311081,61967.3543551553,57848.6011482862,65986.0282556556,21440.3822115887
8763712005,11022,2,0,54324.8726514527,56687.4135050792,37009.9480476825,53469.5930740713,55667.4806542898,61790.5455526211,61953.8968824691,57856.3154680720,65968.5797784115,21445.8333397654
8763712005,11022,2,0,54307.2416587562,56634.7760486232,36964.9762402249,53411.1881293211,55623.0077224019,61766.5143513958,61910.6772233540,57790.3178805043,65946.2155516510,21433.3857859155
8763712005,11022,2,0,54300.9752948924,56567.4278467082,36921.4402209924,53358.4654989873,55565.3571748548,61777.6964647761,61890.8195421390,57725.5005595285,65945.1934651178,21411.7151178738
8763712005,11022,2,0,54315.9050588942,56577.5635381617,36936.5768358401,53383.9568238314,55572.9741530660,61807.8601852001,61922.9057586611,57750.4321703187,65967.2048286705,21410.3766712233
8763726868,11023,2,0,54335.7019016251,56659.0019329976,36994.1057064190,53463.6430703249,55641.1254229713,61815.7083496509,61972.0997569162,57839.9377481483,65979.1170038602,21437.3402873830
8763726868,11023,2,0,54333.2805299573,56694.1787445128,37007.5266760147,53481.8216093783,55669.0137840894,61783.0745867718,61966.8433118887,57859.8806032411,65958.4440869580,21451.0167786120
8763726868,11023,2,0,54314.5909476373,56638.1830037336,36958.5881993928,53416.4689097423,55619.8076181375,61762.5841853220,61917.1869411543,57785.3412925037,65933.2934576250,21437.7539890749
8763726868,11023,2,0,54305.8302059248,56569.6180321363,36917.1328563171,53360.2541504203,55562.2179090745,61779.5337869963,61895.4797700221,57721.1688594595,65938.0510270828,21416.1806626079
8763726868,11023,2,0,54315.0776555102,56572.8059687039,36931.4542354777,53382.8373957237,55566.9876462291,61800.8637595269,61921.9810137025,57742.9003659853,65955.4386658427,21406.3856666654
8763726868,11023,2,0,54329.4112023676,56636.5160292689,36976.1340182115,53446.0242453252,55622.2289898052,61803.4919820407,61958.8126319856,57814.1178954900,65964.3940907044,21415.4140977080
8763726868,11023,2,0,54329.8614071501,56679.7965268681,36994.6775881697,53472.4646505215,55655.9700130952,61779.1322530012,61960.8568050518,57847.4087139976,65949.9388668788,21427.7643099833
8763726868,11023,2,0,54314.9438108452,56645.3011063750,36961.3989373589,53427.8578739686,55627.1569070185,61757.3155725976,61923.7209943482,57800.1007087500,65927.5381370277,21424.8562304426
8763731774,11024,2,0,54303.6035174062,56573.8158875402,36914.5654722874,53364.2816580687,55567.1336585910,61772.3305104771,61892.3040011514,57727.9097634995,65927.9031679324,21407.6267717413
8763731774,11024,2,0,54316.7811330654,56568.3039208794,36923.8494249633,53376.5710318599,55563.2034925171,61809.1742964570,61916.0675130466,57738.7998521560,65954.5260885810,21403.9399596040
8763731774,11024,2,0,54339.0845213419,56644.4006968101,36984.2012012051,53458.4839668719,55630.1866635274,61829.1049838530,61969.5080374929,57829.0354917949,65979.9079041537,21427.8859869515
8763731774,11024,2,0,54344.9980219978,56699.8367235354,37015.4478466464,53496.9825596197,55679.0521339684,61804.0273607009,61979.4977165846,57875.4674228713,65970.9768146856,21447.5854881079
8763731774,11024,2,0,54329.1191776439,56664.1610364506,36979.7113210775,53445.1238357603,55648.8884135443,61778.6577128251,61937.7868518755,57818.5834402240,65947.8825261157,21436.9144179942
8763731774,11024,2,0,54315.1384939943,56592.1891097429,36930.6755028810,53380.8418934447,55588.3541218502,61777.7816386538,61906.0413308645,57744.4943342691,65940.1803740268,21409.8656279568
8763731774,11024,2,0,54323.3395216530,56578.8289786313,36931.2960554190,53385.7576429612,55581.0291683628,61809.8678551759,61924.8890932432,57745.9544578879,65959.9042105768,21402.3824944107
8763731774,11024,2,0,54339.8267508481,56642.3078529566,36978.1295204905,53449.6867220689,55635.0172391661,61833.3150069537,61968.4737832630,57817.1111489085,65981.5018724375,21416.2658364856
8763761816,11025,2,0,54348.4293125019,56707.7943972576,37019.8160498059,53497.4449320990,55689.4190116615,61819.7236896025,61989.1223647715,57876.5868509790,65983.2540207800,21440.4552177696
8763761816,11025,2,0,54326.2110981032,56686.0750584287,36996.2228856662,53456.5006322898,55665.9110213996,61780.9939106151,61946.4745874071,57837.3216933314,65956.8257832806,21438.8004110017
8763761816,11025,2,0,54304.7959516948,56601.5947393870,36937.7205993415,53374.0644863144,55590.6173134592,61777.7816386538,61896.0516517728,57745.0297129293,65943.3318075039,21417.6164508330
8763761816,11025,2,0,54307.9838882624,56565.8582138180,36927.0251938341,53361.6534355550,55563.4590141504,61814.0535428830,61904.6542134266,57728.3356328883,65961.6806943129,21407.4320885922
8763761816,11025,2,0,54330.7253136245,56626.7697041137,36977.7036511017,53436.8132988303,55617.3497433792,61827.2189908454,61957.3525083668,57809.0561336117,65985.0426722129,21423.1162497969
8763761816,11025,2,0,54336.3832926472,56688.7032809424,37010.0453892571,53487.6742715502,55668.4540700356,61800.1945362017,61974.5454639776,57864.1758002196,65973.2886770820,21437.3646227766
8763761816,11025,2,0,54322.9014845674,56671.9605301141,36985.2719585255,53454.9066640060,55651.4923006644,61771.1259084917,61940.8896145654,57827.1860018778,65946.8847749762,21433.0450904045
8763761816,11025,2,0,54305.2461564773,56601.7407517489,36934.2771411406,53385.4656182375,55588.7191527548,61764.1781536058,61899.1057436754,57747.9377924700,65932.5755635124,21416.5821966030
8763810755,11026,2,0,54308.2272421989,56563.1448174265,36917.9845950947,53367.0315575507,55557.2291533771,61782.8068974417,61901.0769105607,57723.6023988241,65945.2056328146,21402.5528421662
8763810755,11026,2,0,54324.2399312179,56603.4685646977,36955.3272566443,53414.6437552189,55590.7146550338,61799.9998530525,61937.7260133914,57776.8725755150,65961.9483836430,21407.8701256778
8763810755,11026,2,0,54332.8668282654,56670.8532697032,37000.1408840432,53471.5277378661,55649.1195997839,61794.9380911742,61962.0370716436,57844.6344791219,65962.3620853350,21423.7611377286
8763810755,11026,2,0,54325.4323655065,56675.8420254006,36995.6753393092,53461.6962388332,55655.0209327431,61771.8072995138,61940.3177328147,57835.0219986318,65943.6238322277,21433.2032704632
8763810755,11026,2,0,54308.4219253481,56602.3856396805,36941.8819516549,53386.3295247119,55593.2942067603,61757.6806035023,61893.0583983544,57748.9477113063,65927.4164600595,21416.9350598109
8763810755,11026,2,0,54308.2029068053,56552.6684304620,36913.8232427812,53354.1946374025,55552.0213791369,61778.2805142236,61889.2864123393,57711.0453357029,65941.1781251662,21396.3351490896
8763810755,11026,2,0,54323.6437140736,56594.7808291662,36949.3772528979,53410.4580675118,55591.2500336940,61799.3914682114,61934.7814307603,57777.6026373244,65963.9682213156,21403.6235994866
8763810755,11026,2,0,54337.2471991216,56666.9352713262,36996.0160348202,53473.4380662673,55657.1016088998,61797.6028167784,61966.0767469889,57853.4682270154,65966.5112699516,21425.9513231567
8763824551,11027,2,0,54337.7947454786,56682.8262833770,37000.0070393781,53470.7246698758,55674.0025397869,61787.1994359948,61951.9135478870,57854.8188413627,65956.8136155837,21444.0325206356
8763824551,11027,2,0,54322.6094598436,56623.5452644556,36958.2231684881,53406.4062244697,55623.7012811208,61769.1912446968,61909.1319258575,57784.9884292959,65944.4269002180,21433.7751522138
8763824551,11027,2,0,54314.4936060627,56562.7189480377,36924.1901204744,53360.2176473298,55573.6433763912,61785.2769398968,61892.2553303641,57734.8818537790,65949.9632022724,21415.6087808572
8763824551,11027,2,0,54326.5274582206,56582.4306168909,36947.7589492204,53395.3092849672,55592.2234494399,61812.7272639293,61924.0251867688,57769.5476220276,65972.8628076932,21412.3478381086
8763824551,11027,2,0,54339.8997570290,56659.0262683913,37001.4549953001,53466.7580007115,55655.5806467969,61806.7285893956,61961.3921837120,57850.5236443842,65981.4166985597,21429.5651291131
8763824551,11027,2,0,54330.4941273849,56679.4923344475,37004.1075532075,53470.6029929076,55669.5491627497,61779.0105760329,61944.3939112504,57854.8188413627,65959.8312043958,21435.5394682532
8763824551,11027,2,0,54311.6585327030,56616.2568140587,36954.2078285366,53402.3422137309,55614.5025023227,61764.2754951804,61894.7740436064,57772.8694032602,65938.4768964715,21414.0026448766
8763824551,11027,2,0,54307.4120065118,56552.6927658556,36915.6483973047,53356.8593630067,55560.1372329178,61776.9907383603,61880.6108445045,57715.4378742559,65945.1447943305,21397.9534527671
8763855690,11028,2,0,54322.9623230515,56573.7307136625,36941.8697839581,53399.3732957061,55580.4937897025,61799.7808345097,61920.3505423282,57761.3100912784,65968.2025798100,21411.0580622454
8763855690,11028,2,0,54332.8789959622,56639.9351520761,36987.1457838363,53462.4141329457,55637.6576293767,61788.5622180390,61951.8527094028,57832.4911176926,65968.2269152036,21432.4245378665
8763855690,11028,2,0,54324.8969868463,56663.2606268857,36991.5018192989,53467.6219071860,55654.4490509924,61761.6107695761,61938.5047459881,57842.7971569017,65946.2155516510,21440.4673854665
8763855690,11028,2,0,54303.8712067363,56613.5312499703,36950.4723456119,53409.8131795802,55611.1442179995,61744.9531926255,61896.9277259441,57780.6202261364,65923.3646170175,21428.0198316166
8763855690,11028,2,0,54293.7476829796,56546.5724143537,36910.1607660375,53353.1238800821,55555.3431603695,61765.5896064372,61870.2926375987,57717.1900225985,65924.1433496141,21406.5925175114
8763855690,11028,2,0,54307.1199817880,56553.9825417188,36928.3271373942,53372.3001702750,55563.3860079695,61797.8826738053,61897.2805891519,57740.4789943176,65952.2142261847,21403.7209410612
8763855690,11028,2,0,54325.7487256239,56633.1334095521,36989.4698139295,53449.4433681325,55634.1411649949,61803.9908576104,61945.7688609914,57832.1504221816,65969.3463433114,21423.3352683398
8763855690,11028,2,0,54330.2751088421,56679.3706574793,37015.5816913115,53482.5516711877,55677.7623581051,61791.9326700589,61952.1325664298,57873.0338835067,65963.1286502348,21444.7625824450
8763884653,11029,2,0,54316.5742822194,56635.8103028531,36975.6594780354,53428.9286312890,55641.0280813967,61765.7842895864,61912.0035023077,57808.5572580419,65943.0762858706,21440.3213731046
8763884653,11029,2,0,54300.4764193227,56559.9812162525,36925.2365424012,53363.5637639562,55577.3301885286,61770.7852129806,61880.5013352331,57735.7944310407,65939.2312936746,21417.5312769552
8763884653,11029,2,0,54306.4385907659,56559.1416451718,36935.9684509990,53379.7224653370,55577.1598407731,61804.9399379626,61905.3234367519,57756.4916833365,65961.3643341955,21411.1797392136
8763884653,11029,2,0,54320.6382929583,56628.3393370038,36984.7122444717,53442.7146317894,55634.2385065695,61820.3564098373,61944.3939112504,57831.7853912769,65978.5329544127,21420.2811764372
8763884653,11029,2,0,54318.7888030412,56676.4625779386,37008.3054086114,53469.9094341887,55672.0435405984,61803.2972988915,61946.8031152213,57869.2253944011,65970.6482868714,21430.5750479494
8763884653,11029,2,0,54305.3191626582,56650.8495761263,36983.9213441782,53432.5667726391,55650.5675557059,61790.7767388607,61912.9404149631,57828.5366162252,65956.8987894615,21432.4002024729
8763884653,11029,2,0,54298.7607740707,56584.0975913556,36943.0013797626,53374.7702127301,55595.7399138217,61801.8128398791,61884.9425445735,57759.4727690582,65957.8722052073,21425.2942675283
8763884653,11029,2,0,54311.4516818570,56569.9587276474,36948.4768433330,53380.1483347258,55586.6141412045,61824.7489483904,61906.7227218865,57759.5214398455,65981.1246738360,21419.0157359676
8763938448,11030,2,0,54328.8393206170,56634.9220609850,36999.3986545370,53452.7894847588,55641.0889198808,61825.7832026203,61955.7098692957,57839.5118787595,65994.1197740429,21428.4213656117
8763938448,11030,2,0,54323.6315463767,56681.3418243646,37023.5880358210,53485.6666015744,55677.5311718655,61797.0065996341,61962.5602826070,57877.6211052089,65970.8429700206,21437.4497966544
8763938448,11030,2,0,54302.6057662667,56644.8752369862,36990.1633726484,53435.1949951528,55646.1628494560,61776.4431920033,61922.1756968517,57822.4527678137,65942.5774103009,21427.0220804771
8763938448,11030,2,0,54292.8594411115,56575.9939052715,36946.4448379635,53372.1784933068,55590.0332640117,61794.7312403282,61889.4810954884,57751.8679585438,65942.2245470930,21417.4826061679
8763938448,11030,2,0,54308.4827638322,56565.3715059451,36952.0298108053,53380.6350425987,55583.7912355416,61823.8120357350,61912.0156700045,57758.6575333710,65971.3296778935,21421.9968216892
8763938448,11030,2,0,54322.7798075991,56617.5587576187,36991.1002853037,53438.7236272315,55626.5120190869,61823.1428124098,61947.4601708498,57819.6176944540,65984.0449210735,21430.4655386780
8763938448,11030,2,0,54320.5774544742,56668.1033702212,37016.4577654827,53476.0297856906,55665.3513073457,61799.4158036050,61954.0428948310,57863.7864339213,65969.5531941573,21440.2118638332
8763938448,11030,2,0,54302.1798968779,56649.0487569965,36992.4874027415,53444.4302770414,55649.9470031679,61768.2664997383,61915.9945068656,57830.0575783281,65942.5530749072,21440.8567517648
8763948174,11031,2,0,54285.7048353796,56570.1777461902,36936.7836866861,53367.7737870569,55584.5699681382,61769.1547416064,61869.5139050020,57743.6547631883,65930.2637011161,21416.0833210333
8763948174,11031,2,0,54289.3794798202,56532.0076812566,36921.5862333543,53345.9449389565,55555.8907067266,61801.6668275173,61875.3422317802,57719.1246863933,65950.5837548104,21397.2233909577
8763948174,11031,2,0,54309.6751981208,56588.6361422706,36971.5102934188,53414.0597057714,55607.1532134416,61821.1594778276,61927.5173157570,57796.2435488571,65976.1480858354,21412.5911920451
8763948174,11031,2,0,54314.6517861214,56655.6679840682,37012.8926303136,53465.9792681149,55664.0006929984,61801.4234735808,61947.8860402386,57858.0432810208,65968.6406168956,21436.4885486054
8763948174,11031,2,0,54297.2519796646,56645.7756465511,36993.6311662429,53434.7204549767,55652.7212380435,61776.9907383603,61910.9449126841,57825.7623813496,65944.4390679148,21445.0059363814
8763948174,11031,2,0,54283.9891901276,56585.3265287347,36950.4115071278,53370.9373882309,55600.8503464873,61783.5491269479,61874.3809837312,57757.2704159332,65940.9347712298,21441.2704534568
8763948174,11031,2,0,54288.8684365536,56551.7071824129,36935.0437060404,53352.5276629377,55572.5969544645,61800.8880949206,61878.8586961620,57735.9647787962,65957.8478698137,21426.6083787851
8763948174,11031,2,0,54306.2925784041,56595.2918724327,36971.6563057807,53405.1651193938,55608.8323556032,61822.8386199892,61920.7520763234,57793.8586802798,65982.0859218850,21424.2113425110
8763978149,11032,2,0,54320.6626283520,56669.5878292336,37020.2419191947,53470.9923592059,55671.2161372144,61817.9958766537,61955.8802170512,57867.9964570220,65987.2815284284,21439.2992865715
8763978149,11032,2,0,54310.2835829620,56675.3674852245,37015.4478466464,53463.9229273518,55676.3995760610,61792.9790919857,61936.9837838852,57860.0996217839,65964.8321277900,21446.2105383669
8763978149,11032,2,0,54294.6724279381,56606.1819610893,36968.6873877559,53392.4498762138,55619.1992332963,61792.1881916922,61891.6712809166,57779.9144997207,65952.1168846101,21434.8580772311
8763978149,11032,2,0,54299.1744757626,56556.4282487802,36948.0509739442,53360.5583428409,55579.3256908075,61820.0157143263,61892.2188272736,57741.0508760682,65969.8330511843,21419.9404809262
8763978149,11032,2,0,54318.9956538872,56599.4167216557,36989.5671555040,53417.7221825151,55618.1893144600,61844.7161388768,61941.6075086779,57805.4058245648,65996.9913504931,21430.2100170447
8763978149,11032,2,0,54331.1268476197,56672.2403871410,37033.8575719396,53481.5052492609,55678.2490659781,61826.2942458869,61973.9370791365,57880.9550541384,65995.9570962631,21449.3619718440
8763978149,11032,2,0,54320.7356345329,56678.2147262811,37023.8192220606,53471.0531976900,55681.4856733330,61795.4978052280,61954.5782734912,57871.8049461276,65971.2688394094,21453.3043056147
8763978149,11032,2,0,54298.1767246232,56612.7768527673,36969.8919897413,53399.7139912171,55625.1249016491,61771.3570947313,61904.3135179156,57794.7469221479,65947.9433645998,21436.6467286641
8764006046,11033,2,0,54288.3208901966,56552.7657720365,36933.1698807297,53350.1184589668,55572.9011468850,61787.8321562296,61886.3296620113,57741.5132485475,65954.4895854905,21415.3289238303
8764006046,11033,2,0,54301.2916550098,56571.4796897502,36952.9545557638,53382.0829985207,55587.2225260456,61814.4794122718,61918.4767170175,57772.7355585952,65976.4157751655,21416.2658364856
8764006046,11033,2,0,54316.5012760385,56645.9703297003,37003.0976343712,53455.8070735709,55648.0488424635,61812.5325807801,61961.0393205042,57852.5069789664,65985.2373553621,21435.8314929769
8764006046,11033,2,0,54308.0325590497,56668.3223887640,37007.8308684353,53465.1153616404,55664.7185871109,61780.3490226835,61948.5674312606,57861.0121990456,65960.3422476624,21441.8545029043
8764006046,11033,2,0,54291.9955346371,56608.6763389380,36961.7031297795,53396.5990608304,55614.3686576576,61770.7243744965,61898.6190358025,57783.4187964057,65938.6107411366,21431.8404884190
8764006046,11033,2,0,54291.3384790087,56548.6774259040,36927.9256033990,53348.1837951720,55564.1282374757,61794.0133462156,61880.9637077124,57724.0526036066,65946.9821165508,21413.7349555465
8764006046,11033,2,0,54311.1961602237,56574.7771355892,36960.1213291925,53390.9897525951,55587.5753892535,61828.2045742881,61922.8935909642,57770.0951683846,65978.7154698650,21416.9715629014
8764006046,11033,2,0,54333.7429024366,56658.0285172518,37022.0062352340,53468.0477765748,55662.1633707781,61843.4385307104,61970.1407577277,57861.7179254614,65995.5555622680,21442.5115585327
8764056913,11034,2,0,54332.5991389353,56693.9475582731,37039.0410107861,53482.4786650068,55693.2640038576,61812.2892268437,61966.6364610427,57884.2281645838,65983.5703808974,21458.1835520407
8764056913,11034,2,0,54308.2394098957,56642.5147038026,36994.2760541745,53420.9831252636,55648.0366747667,61777.2705953873,61920.3140392378,57820.0070607523,65957.9330436914,21446.6242400589
8764056913,11034,2,0,54290.2190509009,56563.5950222090,36938.7061827841,53353.7566003169,55580.0435849201,61776.6013720620,61883.4702532579,57744.0684648803,65948.0163707807,21420.4758595864
8764056913,11034,2,0,54302.7882817190,56557.7545277340,36940.8842005155,53366.7151974333,55573.6068733008,61806.3270554004,61902.8777296905,57754.0581439720,65965.3066679661,21405.7772818243
8764056913,11034,2,0,54326.3936135556,56633.2064157330,36995.6875070060,53448.6889709295,55634.5670343837,61822.5587629623,61954.2375779801,57842.3104490288,65984.3247781004,21420.8408904911
8764056913,11034,2,0,54328.3404450472,56681.6946875724,37021.5560304516,53484.3646580143,55675.8276943103,61805.6821674688,61958.0095639952,57884.0578168283,65972.8871430868,21433.0207550108
8764056913,11034,2,0,54310.1740736906,56640.9694063061,36987.6203240124,53427.9308801495,55642.0988387171,61795.8141653454,61913.8651599216,57824.8619717847,65953.3093188987,21425.1117520759
8764056913,11034,2,0,54303.1168095333,56577.7095505236,36953.6481144827,53372.6895365734,55590.0819347990,61819.7115219057,61892.2188272736,57761.9914823005,65965.1849909979,21416.4970227253
8764081907,11035,2,0,54318.0587412318,56583.5013742113,36971.8874920203,53394.7982417006,55595.1315289805,61854.3042839733,61925.5704842653,57786.6797391543,65996.7723319503,21421.4127722417
8764081907,11035,2,0,54338.9506766768,56658.3205419756,37025.7903889459,53467.1595347067,55655.9335100048,61862.7851686589,61975.0443395474,57868.2398109584,66018.7958631998,21438.6543986398
8764081907,11035,2,0,54338.4761365007,56706.3099382452,37050.3326334378,53497.8342983973,55693.1423268893,61837.3181792085,61980.0087598511,57904.4143736131,66009.1833827097,21450.0920336534
8764081907,11035,2,0,54318.7279645571,56676.1462178212,37020.3392607693,53456.3302845343,55666.6167478153,61811.0602894646,61941.8873657048,57858.7733428302,65984.9818337288,21448.3520530077
8764081907,11035,2,0,54303.0924741396,56600.8160067903,36969.2227664161,53385.9888292008,55605.6930898229,61806.8015955765,61902.9872389619,57778.4422084051,65973.8848942263,21427.7156391960
8764081907,11035,2,0,54307.8500435974,56577.3810227094,36959.7441305910,53378.7368818944,55587.8309108868,61830.4555982003,61915.0819296039,57768.0996661056,65989.0336767709,21412.8223782847
8764081907,11035,2,0,54327.4887062696,56643.6828026976,37009.9967184698,53450.9886656290,55645.9925017004,61845.6895546227,61967.8167276345,57850.3167935383,66009.1712150128,21429.3947813576
8764081907,11035,2,0,54326.9289922158,56699.6420403863,37039.2235262385,53491.5679345335,55691.1711600040,61816.1220513429,61978.0619283595,57899.7176426394,65992.7083212114,21446.6364077557
8764101971,11036,2,0,54309.3588380034,56669.6365000209,37008.1958993400,53442.3009300974,55663.0029418589,61787.5036284154,61936.8256038265,57849.3068747019,65962.9948055698,21442.5723970168
8764101971,11036,2,0,54290.0487031454,56589.0255085689,36955.5706105807,53366.9950544602,55593.2455359730,61785.1187598381,61894.7862113032,57763.0987427114,65949.3669851281,21422.2523433225
8764101971,11036,2,0,54293.4799936495,56560.3219117636,36948.5620172107,53359.7431071538,55572.3901036185,61809.4784888776,61903.1332513238,57750.1766486854,65964.2480783425,21416.6186996935
8764101971,11036,2,0,54309.8698812700,56612.6186727086,36991.9763594750,53418.2210580848,55618.4570037901,61829.2388285180,61941.8021918271,57813.0714735632,65980.0174134251,21430.1005077733
8764101971,11036,2,0,54323.5098694085,56678.5797571858,37032.1784297780,53474.1681280767,55676.3265698800,61825.9535503759,61962.4872764261,57872.8026972671,65982.5847974547,21451.6860019372
8764101971,11036,2,0,54316.7324622781,56676.3530686672,37021.9088936594,53457.6687311848,55673.8078566377,61794.5730602695,61936.2537220758,57856.7778405512,65965.9758912914,21459.7288495372
8764101971,11036,2,0,54291.9103607593,56597.5428963450,36961.4232727526,53375.5732807204,55605.2063819499,61778.4143588886,61883.2999055024,57768.2943492548,65948.5882525314,21435.6246421309
8764101971,11036,2,0,54287.2136297857,56550.9892883004,36937.6597608574,53345.5190695677,55563.6780326932,61807.2883034495,61882.0466327296,57733.8232641554,65961.9848867335,21414.0513156639
8764130753,11037,2,0,54308.3489191671,56605.9142717592,36984.5540644130,53412.4535697907,55609.8301067427,61831.7818771540,61936.7647653424,57809.0561336117,65988.8998321058,21420.2690087404
8764130753,11037,2,0,54316.1727482243,56676.3287332735,37027.5060341980,53473.1947123309,55668.4297346419,61813.4694934355,61964.8843127002,57877.2560743042,65983.2540207800,21437.4862997448
8764130753,11037,2,0,54306.9983048198,56671.9848655077,37014.3405862356,53452.9598325143,55663.4896497318,61793.5144706459,61938.3952367167,57852.5069789664,65960.9019617162,21441.8788382979
8764130753,11037,2,0,54296.7652717917,56609.2725560823,36972.0335043822,53392.5958885757,55612.5678385278,61786.6883927282,61903.4374437443,57780.1213505667,65951.1799719547,21429.8814892305
8764130753,11037,2,0,54296.8991164567,56564.1182331723,36949.8396253771,53364.4033350369,55577.4518654968,61808.3225576794,61901.3324321940,57749.9819655363,65962.0335575208,21414.2094957226
8764130753,11037,2,0,54314.3110906104,56601.7650871425,36983.1669469752,53412.5265759717,55610.0491252855,61831.4655170366,61941.4493286192,57801.8041863052,65982.7794806039,21418.4073511265
8764130753,11037,2,0,54324.3981112766,56674.2480571168,37028.8809839390,53471.9657749517,55667.7605113167,61826.0143888600,61970.7978133562,57873.4840882891,65983.8745733180,21432.4610409570
8764130753,11037,2,0,54313.9217243120,56688.5694362774,37027.2140094742,53467.6097394891,55679.9768789269,61804.8182609944,61954.1159010119,57871.6345983721,65963.6518611982,21439.3722927524
8764179385,11038,2,0,54299.8193636943,56626.8913810819,36980.1858612536,53401.7824996770,55627.6071118010,61798.6735740988,61911.2247697110,57793.8343448862,65950.4742455390,21426.6327141788
8764179385,11038,2,0,54297.0086257282,56570.6401186694,36948.8905450250,53358.9157037698,55583.6817262702,61821.3054901895,61902.6222080572,57746.2343149148,65965.2823325725,21412.2748319277
8764179385,11038,2,0,54314.5909476373,56605.8412655782,36983.6901579386,53408.2922174773,55616.5101722984,61842.1122517567,61947.3384938815,57803.2886453176,65990.5059680865,21417.7867985885
8764179385,11038,2,0,54333.2440268669,56686.9998033872,37037.5322163801,53482.5273357941,55689.2243285123,61840.8103081967,61987.4918933972,57887.7081258752,65998.9503496816,21441.8910059947
8764179385,11038,2,0,54328.4134512282,56701.9295673890,37033.5290441253,53478.0739587569,55703.2780183428,61804.3558885151,61969.0700004073,57884.8365494249,65976.9511538257,21445.1762841369
8764179385,11038,2,0,54305.5990196851,56636.6742093276,36979.3341224759,53409.3021363136,55645.3354460720,61782.3810280529,61918.9634248904,57808.4112456800,65953.4918343511,21426.2555155773
8764179385,11038,2,0,54298.3957431660,56572.7694656135,36939.5822569554,53363.7341117117,55591.7245738701,61796.5198917612,61900.1765009958,57752.0018032089,65956.5702616473,21411.1310684263
8764179385,11038,2,0,54310.2470798715,56582.9903309447,36956.7873802630,53390.9897525951,55599.6944152891,61820.4537514119,61928.8922654979,57780.1578536572,65976.4036074687,21413.2847507640
8764199838,11039,2,0,54326.0164149540,56656.1546919411,37009.6803583524,53461.9395927696,55660.6545763721,61823.5200110113,61968.1209200551,57858.8098459207,65985.6388893573,21433.9941707567
8764199838,11039,2,0,54318.9713184936,56689.3360011772,37023.0648248576,53475.7499286637,55684.8804607466,61794.0011785188,61958.1920794476,57878.4241731993,65964.3819230076,21449.6539965678
8764199838,11039,2,0,54296.3880731902,56631.0283980017,36975.4161240990,53404.3498837067,55633.1190784618,61768.6315306430,61903.8511454363,57798.4580696789,65936.9924374592,21435.1622696517
8764199838,11039,2,0,54291.0221188913,56561.3926690840,36933.9486133264,53348.4271491084,55574.7019660148,61787.8686593200,61882.1926450915,57734.3464751188,65941.7256715233,21414.0391479670
8764199838,11039,2,0,54316.0875743465,56585.5333795807,36961.5936205081,53391.0992618665,55596.2266216946,61822.2424028449,61926.7750862508,57778.5517176765,65976.1480858354,21421.9603185988
8764199838,11039,2,0,54334.7041504856,56657.5539770757,37011.7610345091,53462.2194497966,55658.3062108853,61813.4329903450,61968.1574231456,57857.7269209034,65982.8768221785,21441.0027641267
8764199838,11039,2,0,54329.9465810279,56688.0948961013,37020.2297514979,53473.3650600864,55679.7335249905,61788.2336902247,61958.6422842300,57872.4254986655,65964.7469539123,21453.1096224655
8764199838,11039,2,0,54308.9694717051,56642.6363807708,36981.4878048136,53416.5662513169,55640.7238889761,61768.5585244620,61916.5420532227,57812.1588963015,65942.9059381151,21447.0744448413
8764247010,11040,2,0,54294.5872540604,56571.5040251439,36937.3677361336,53353.7931034073,55582.3676150133,61780.1543395343,61884.4071659133,57742.5231673838,65942.2488824867,21426.0121616408
8764247010,11040,2,0,54302.5814308731,56563.9722208105,36944.9482112543,53361.3735785280,55577.3180208317,61809.3081411221,61902.6830465413,57749.4830899665,65963.1043148412,21416.3145072729
8764247010,11040,2,0,54320.7964730170,56633.4497696695,36997.0867921406,53432.7249526978,55636.3070150294,61822.1207258766,61946.8152829181,57831.0796648612,65979.7618917918,21427.8251484674
8764247010,11040,2,0,54323.8627326164,56685.6491890399,37024.8169732001,53470.4083097584,55679.9768789269,61801.8493429696,61954.4565965229,57875.6621060204,65967.9470581767,21445.0181040782
8764247010,11040,2,0,54312.7536254170,56646.8829069620,36988.3625535186,53421.9078702222,55647.9880039794,61776.3701858224,61913.0864273249,57818.2184093193,65942.7234226628,21440.1388576522
8764247010,11040,2,0,54305.1974856900,56570.8348018186,36938.0734625493,53361.1423922884,55583.1950183972,61779.7041347519,61885.5874325051,57741.0022052809,65939.2556290682,21417.8354693758
8764247010,11040,2,0,54314.7734630896,56562.7797865218,36942.5025041929,53376.5101933758,55579.5082062599,61809.8313520855,61913.2324396868,57755.1897397765,65961.3643341955,21413.6132785782
8764247010,11040,2,0,54335.6532308378,56631.4299319969,36991.2219622720,53449.7962313403,55637.9253187068,61816.5722561254,61961.6598730421,57833.4645334385,65979.1170038602,21430.9522465509
8764274842,11041,2,0,54337.2837022121,56685.0043011083,37018.4411000649,53486.1168063568,55678.9182893033,61794.8164142059,61971.6617198306,57875.4917582649,65966.9979778245,21444.5922346894
8764274842,11041,2,0,54315.3088417499,56660.2795411641,36988.7397521201,53445.6348790269,55654.8384172907,61767.7919595622,61936.1077097139,57834.9733278445,65940.7644234743,21433.6413075488
8764274842,11041,2,0,54297.6778490534,56587.5288818597,36938.4019903636,53375.2447529062,55593.1116913079,61772.4643551422,61896.1124902569,57756.3943417620,65932.5147250283,21408.9773860887
8764274842,11041,2,0,54304.8324547853,56565.1768227959,36932.9630298837,53365.0360552717,55570.7474645474,61807.7506759287,61906.5523741310,57743.1315522250,65954.5504239747,21400.4721660095
8764274842,11041,2,0,54326.2841042841,56632.2695030776,36989.5549878072,53435.4383490893,55630.3691789798,61833.0716530173,61955.6368631148,57826.6506232176,65982.6334682420,21422.5078649558
8764274842,11041,2,0,54330.7739844118,56697.4396872613,37032.2879390494,53484.6566827381,55688.9201360918,61813.3234810736,61970.5179563292,57887.8784736307,65978.4964513222,21445.9306813400
8764274842,11041,2,0,54316.6716237940,56677.9227015573,37009.0598058144,53443.1039980877,55670.0967091067,61791.3729560051,61931.0337801388,57844.9021684520,65956.2295661362,21447.8410097412
8764274842,11041,2,0,54302.7152755381,56604.6244958959,36959.7928013783,53374.8188835174,55608.9418648746,61793.1616074380,61892.4256781196,57766.7977225456,65951.4963320721,21429.2487689957
8764295757,11042,2,0,54308.1420683211,56575.0569926162,36949.2069051423,53368.1874887489,55587.5753892535,61814.8931139638,61904.6663811235,57754.5205164512,65969.6748711256,21416.1563272142
8764295757,11042,2,0,54323.8992357068,56622.5596810129,36985.8438402762,53425.2053160612,55627.0595654439,61821.6705210942,61946.6205997690,57814.3855848201,65982.6943067261,21425.0509135918
8764295757,11042,2,0,54326.6734705825,56679.5166698411,37018.5627770331,53471.0653653869,55673.4671611266,61799.4158036050,61965.2615113017,57868.1911401712,65972.1692489743,21437.9851753146
8764295757,11042,2,0,54310.2835829620,56672.7392627108,37003.9007023615,53449.1756788024,55667.2981388374,61775.2872608051,61936.6552560710,57847.8832541737,65947.8703584189,21441.5138073932
8764295757,11042,2,0,54293.2123043194,56602.3734719837,36953.2587481844,53378.5908695325,55610.9982056377,61777.5504524142,61890.4545112343,57769.9369883259,65935.3619660849,21426.2798509709
8764295757,11042,2,0,54302.3745800271,56566.8803003512,36938.7305181778,53358.5263374715,55582.9638321576,61815.7570204382,61896.5748627362,57742.8638628949,65961.1088125622,21416.4726873316
8764295757,11042,2,0,54324.3372727925,56620.1139739515,36985.5761509461,53423.9155401979,55632.0239857477,61837.8900609592,61951.4755108013,57816.2107393436,65992.0999363703,21435.4299589818
