steady_timestamp,sequence,battery,flags,EEG-ch1,EEG-ch2,EEG-ch3,EEG-ch4,EEG-ch5,EEG-ch6,EEG-ch7,EEG-ch8,EEG-ch9,EEG-ch10
5535913726,7064,-2,0,-6718.5398131493,-80196.9490644997,-35662.3877922385,-12639.7912919753,-80537.3403831215,-40741.3547938900,-80472.9002607472,-80461.2679425844,-80502.2730808778,-2415.6893533491
5535913726,7064,-2,0,-6719.4523904110,-80196.3650150522,-35648.8938164618,-12640.5821922688,-80538.8735129212,-40920.6944773633,-80472.1580312410,-80461.8154889415,-80503.2586643204,-2417.0277999997
5535913726,7064,-2,0,-6719.5497319856,-80195.0022330080,-35629.5958493006,-12639.8277950658,-80540.6013258700,-41030.1672456793,-80472.3892174806,-80461.8884951224,-80502.2974162714,-2417.5266755694
5535913726,7064,-2,0,-6719.5618996824,-80196.4501889299,-35631.8590409097,-12640.3023352419,-80542.4264803935,-40925.8414131194,-80472.5839006298,-80462.1805198462,-80503.5628567410,-2417.2224831488
5535913726,7064,-2,0,-6719.8904274966,-80196.7422136537,-35653.4567027704,-12641.2270802004,-80540.7230028383,-40745.2606245701,-80474.0926950358,-80462.3265322080,-80503.3560058950,-2417.6970233249
5535913726,7064,-2,0,-6718.8075024794,-80195.2090838540,-35665.7947473489,-12639.3167517992,-80537.1943707596,-40727.8243150229,-80472.2310374219,-80460.1971852640,-80501.9932238508,-2416.1882289189
5535913726,7064,-2,0,-6719.4645581078,-80196.3163442649,-35654.5152923940,-12640.6065276625,-80538.8005067402,-40901.9197211655,-80473.1801177741,-80461.1097625258,-80502.8206272348,-2416.6627690950
5535913726,7064,-2,0,-6719.7200797411,-80195.8661394824,-35637.1641567245,-12640.4970183911,-80541.1610399239,-41034.8153058657,-80473.7033287375,-80462.2900291176,-80503.3316705014,-2417.2468185425
5535922406,7065,-2,0,-6719.9269305871,-80196.9733998933,-35635.7162008026,-12640.7768754180,-80542.1101202761,-40953.1092216996,-80473.6546579502,-80462.6428923254,-80503.2343289268,-2417.7821972027
5535922406,7065,-2,0,-6719.2942103523,-80196.5475305045,-35655.4887081399,-12640.3388383324,-80540.0416118162,-40769.8515398493,-80473.0097700186,-80461.5477996114,-80502.9179688094,-2417.6361848408
5535922406,7065,-2,0,-6719.6105704697,-80195.7444625142,-35671.2945463129,-12640.7038692370,-80538.6058235911,-40727.4227810277,-80473.3991363169,-80461.8276566383,-80503.1369873522,-2417.5875140535
5535922406,7065,-2,0,-6719.4402227142,-80195.3915993063,-35662.7284877495,-12640.4361799069,-80538.2042895959,-40878.8010972019,-80472.7177452948,-80460.6473900465,-80502.4799317237,-2416.8696199410
5535922406,7065,-2,0,-6720.8151724552,-80195.8661394824,-35641.9217261823,-12640.9107200830,-80540.6134935669,-41027.4903523783,-80473.1071115932,-80461.6086380955,-80502.8936334157,-2417.6605202345
5535922406,7065,-2,0,-6719.0021856286,-80195.1117422794,-35636.7869581230,-12639.5357703420,-80540.7595059287,-40970.5942020342,-80472.1823666346,-80461.0489240416,-80501.7011991271,-2417.2589862393
5535922406,7065,-2,0,-6718.9413471445,-80195.8783071793,-35654.2354353671,-12639.8886335499,-80539.7495870924,-40783.3455156260,-80472.0971927569,-80460.3553653227,-80502.1027331222,-2416.2368997062
5535922406,7065,-2,0,-6719.4158873206,-80195.6471209396,-35671.6839126112,-12641.0080616576,-80537.6080724516,-40716.3866800093,-80472.1215281505,-80460.7447316211,-80502.0418946381,-2416.4559182490
5535953734,7066,-2,0,-6719.6470735602,-80194.8562206461,-35666.4883060678,-12640.7403723275,-80537.5594016643,-40859.3084468916,-80472.3405466933,-80460.2458560513,-80502.1149008191,-2417.3563278139
5535953734,7066,-2,0,-6718.9778502349,-80194.4790220446,-35645.9005630434,-12640.1441551832,-80538.6666620752,-41023.8278756346,-80471.1602801015,-80459.5401296356,-80501.2388266478,-2417.0156323028
5535953734,7066,-2,0,-6719.4158873206,-80194.8197175557,-35638.8798019765,-12640.6673661466,-80541.4895677381,-40991.2914543300,-80471.9025096077,-80461.6329734891,-80501.8472114890,-2417.9038741709
5535953734,7066,-2,0,-6719.5862350761,-80196.2920088712,-35654.1624291862,-12640.9228877799,-80540.7595059287,-40806.7926674038,-80473.6546579502,-80462.1926875430,-80502.9544718999,-2418.0255511391
5535953734,7066,-2,0,-6718.7709993889,-80195.0022330080,-35671.1363662542,-12640.3753414228,-80537.6445755421,-40711.3249181310,-80472.4135528743,-80460.8785762861,-80502.3825901492,-2416.1273904348
5535953734,7066,-2,0,-6719.9025951935,-80196.0973257221,-35667.3765479359,-12640.2658321514,-80538.1921218991,-40827.7819444233,-80473.5573163756,-80461.7668181542,-80503.1004842617,-2416.9182907283
5535953734,7066,-2,0,-6719.5132288951,-80195.4646054873,-35645.9735692243,-12639.3775902833,-80539.7739224861,-41003.7390081799,-80472.3405466933,-80460.6595577433,-80502.6381117824,-2416.3950797649
5535953734,7066,-2,0,-6718.8318378731,-80195.8661394824,-35635.0469774773,-12640.4605153006,-80541.2583814985,-41001.7800089914,-80473.0827761995,-80461.9493336065,-80503.3560058950,-2416.8817876378
5535991035,7067,-2,0,-6719.7687505284,-80196.7057105632,-35648.2245931366,-12640.2901675451,-80541.9519402174,-40822.1117977038,-80472.8515899599,-80462.2656937239,-80503.1126519585,-2417.1008061806
5535991035,7067,-2,0,-6719.0386887190,-80196.5718658982,-35668.1917836230,-12640.1806582737,-80539.3723884909,-40701.2744005552,-80473.0341054122,-80461.7059796701,-80503.0031426871,-2416.2612350998
5535991035,7067,-2,0,-6718.6249870271,-80196.1824995998,-35666.3301260091,-12640.1806582737,-80538.8735129212,-40797.8007394516,-80473.3991363169,-80461.5721350050,-80502.8327949316,-2415.9205395888
5535991035,7067,-2,0,-6719.1847010809,-80196.5353628077,-35645.8153891656,-12639.9738074277,-80540.2119595717,-40979.2089313848,-80474.0318565517,-80462.8984139587,-80504.0982354012,-2417.2711539361
5535991035,7067,-2,0,-6719.4767258047,-80197.0342383774,-35631.0073021321,-12639.9859751245,-80542.7793436013,-41003.6781696958,-80474.5307321214,-80462.5577184477,-80504.7796264233,-2417.6118494472
5535991035,7067,-2,0,-6719.7809182252,-80197.4236046758,-35640.7292918936,-12640.6430307529,-80541.9884433078,-40840.0226474272,-80474.4333905469,-80463.8839974014,-80503.6115275283,-2417.5388432662
5535991035,7067,-2,0,-6719.1238625968,-80195.7809656047,-35660.2827806881,-12639.2315779215,-80539.0803637672,-40701.4934190980,-80472.7542483853,-80461.9128305161,-80502.3704224523,-2416.0787196475
5535991035,7067,-2,0,-6719.8052536189,-80196.7908844410,-35664.3589591238,-12640.7038692370,-80539.7860901829,-40771.8348744314,-80473.8858441898,-80462.4238737826,-80504.0252292203,-2417.5753463567
5536027534,7068,-2,0,-6717.8827575209,-80195.0509037953,-35643.2845082264,-12639.7912919753,-80539.7009163051,-40958.5116790890,-80472.2918759060,-80460.9515824671,-80501.7255345207,-2415.8962041951
5536027534,7068,-2,0,-6719.6592412570,-80196.4136858395,-35627.8923717454,-12639.5844411293,-80542.5359896649,-41016.2839036044,-80474.2022043072,-80461.4261226431,-80503.5628567410,-2417.9525449582
5536027534,7068,-2,0,-6719.7079120443,-80196.1338288125,-35635.8013746803,-12640.3266706355,-80541.3313876794,-40861.3769553515,-80473.8858441898,-80462.6063892350,-80504.0130615234,-2417.4780047821
5536027534,7068,-2,0,-6719.0873595063,-80196.2798411744,-35655.1358449320,-12639.4749318579,-80539.4332269750,-40704.9490449957,-80473.1922854709,-80461.5112965209,-80502.8327949316,-2416.2855704935
5536027534,7068,-2,0,-6719.1725333841,-80196.3528473554,-35661.2561964339,-12640.7403723275,-80537.6689109357,-40750.0546971184,-80472.5717329330,-80461.2314394940,-80502.6624471761,-2416.5289244299
5536027534,7068,-2,0,-6718.6736578144,-80196.1338288125,-35643.8563899771,-12640.7282046307,-80540.3823073272,-40935.0645273112,-80472.9610992313,-80461.4626257336,-80502.3825901492,-2416.8696199410
5536027534,7068,-2,0,-6719.3672165333,-80196.3893504458,-35625.9212048601,-12640.0224782150,-80542.4143126967,-41012.1103835941,-80473.3139624392,-80461.8763274256,-80503.9278876457,-2417.6483525376
5536027534,7068,-2,0,-6719.2577072619,-80195.6957917269,-35629.8878740244,-12640.0711490023,-80541.1853753175,-40879.5919974954,-80473.4721424979,-80461.4626257336,-80503.3438381982,-2416.9182907283
5536047460,7069,-2,0,-6718.7709993889,-80195.1117422794,-35649.8550645108,-12639.8764658531,-80539.0925314640,-40709.9499683900,-80473.0341054122,-80461.2314394940,-80502.2487454841,-2417.0886384838
5536047460,7069,-2,0,-6720.1459491299,-80196.1338288125,-35659.6013896660,-12640.7768754180,-80539.2993823100,-40726.2060113454,-80473.4113040137,-80461.4017872495,-80502.9909749903,-2416.8452845473
5536047460,7069,-2,0,-6720.1702845236,-80197.5331139472,-35645.1218304467,-12641.1662417163,-80540.1267856939,-40908.0400726675,-80474.1291981263,-80463.4581280126,-80504.5727755773,-2417.6483525376
5536047460,7069,-2,0,-6719.1847010809,-80196.6570397759,-35625.2884846253,-12640.4848506942,-80541.9397725205,-41010.9422846991,-80473.5451486788,-80462.3752029953,-80503.3925089855,-2417.8308679900
5536047460,7069,-2,0,-6719.1847010809,-80195.8539717856,-35626.1158880093,-12640.0224782150,-80541.5382385254,-40895.3004940938,-80473.1679500773,-80461.9493336065,-80503.2708320172,-2417.4658370853
5536047460,7069,-2,0,-6718.7344962985,-80196.4015181427,-35645.5233644419,-12640.5578568752,-80540.2971334495,-40714.5980285763,-80472.8515899599,-80462.3265322080,-80502.5772732983,-2416.7479429727
5536047460,7069,-2,0,-6719.8295890125,-80196.6205366855,-35657.0826764237,-12640.8255462053,-80538.6301589847,-40706.5673486732,-80473.0827761995,-80462.0466751811,-80503.4776828632,-2417.2224831488
5536047460,7069,-2,0,-6718.9048440540,-80195.7444625142,-35642.6882910821,-12640.0711490023,-80538.7883390434,-40875.5888252407,-80472.9854346249,-80460.7934024084,-80502.4555963301,-2416.9061230314
5536081163,7070,-2,0,-6719.9634336776,-80196.9125614092,-35622.7211005957,-12641.0567324449,-80541.4165615572,-41002.7534247372,-80473.6789933438,-80462.1683521493,-80503.0518134744,-2418.8651222199
5536081163,7070,-2,0,-6719.2455395650,-80195.8296363920,-35620.7864368008,-12640.2414967578,-80541.9276048237,-40916.8251497736,-80472.8880930504,-80462.1805198462,-80503.0274780808,-2417.9282095646
5536081163,7070,-2,0,-6719.2090364746,-80196.2798411744,-35639.9383916001,-12640.8255462053,-80540.4188104177,-40730.5377114144,-80472.5960683266,-80461.1584333130,-80502.7232856602,-2417.1494769679
5536081163,7070,-2,0,-6719.7687505284,-80196.0608226316,-35653.4567027704,-12640.0954843959,-80538.0826126277,-40691.1873798890,-80472.1336958473,-80460.8542408925,-80502.2609131809,-2416.5289244299
5536081163,7070,-2,0,-6718.6614901175,-80195.3064254286,-35643.9050607644,-12639.4019256770,-80538.7153328625,-40852.0808349788,-80472.1823666346,-80460.3431976259,-80502.5651056015,-2417.2833216329
5536081163,7070,-2,0,-6719.3672165333,-80197.3262631012,-35624.4245781509,-12640.6795338434,-80541.5990770095,-40998.2392092159,-80473.4721424979,-80462.1561844525,-80504.4632663059,-2417.6726879313
5536081163,7070,-2,0,-6718.9535148413,-80195.4524377905,-35618.3042266490,-12639.5479380389,-80541.4530646476,-40933.5557329052,-80473.5086455883,-80462.0710105748,-80503.4655151664,-2417.4171662980
5536081163,7070,-2,0,-6719.6714089538,-80196.7665490473,-35636.3367533405,-12640.6795338434,-80541.0515306525,-40745.2849599638,-80473.1436146836,-80462.9470847460,-80503.8427137679,-2418.1350604106
5536119396,7071,-2,0,-6720.2189553109,-80196.7543813505,-35653.6392182228,-12641.3000863814,-80539.6765809115,-40684.3856373650,-80474.0318565517,-80462.2048552398,-80503.3560058950,-2417.7578618090
5536119396,7071,-2,0,-6718.7344962985,-80194.9535622207,-35645.2070043245,-12639.8277950658,-80537.0726937914,-40825.2753988778,-80472.4013851774,-80460.0025021149,-80501.9080499731,-2416.1760612221
5536119396,7071,-2,0,-6719.4888935015,-80196.2190026903,-35624.4367458477,-12640.3388383324,-80540.6499966573,-40987.3369528626,-80472.6569068107,-80461.9980043938,-80503.3925089855,-2416.8574522441
5536119396,7071,-2,0,-6719.1116949000,-80196.1824995998,-35617.8905249570,-12639.4992672516,-80541.3678907699,-40952.6711846140,-80472.9124284440,-80462.1440167557,-80503.5506890442,-2418.2445696820
5536119396,7071,-2,0,-6719.8052536189,-80196.1338288125,-35634.0005555505,-12640.2658321514,-80540.8325121097,-40766.2742369834,-80473.6789933438,-80461.9615013033,-80503.3073351077,-2417.2224831488
5536119396,7071,-2,0,-6718.4668069684,-80196.2798411744,-35651.1813434645,-12639.4627641611,-80538.4233081387,-40674.4689644543,-80473.4599748010,-80461.6694765796,-80502.7962918412,-2416.7114398823
5536119396,7071,-2,0,-6719.8052536189,-80197.4236046758,-35648.7843071904,-12641.2149125036,-80540.0051087257,-40803.2153645378,-80473.9101795835,-80462.9105816555,-80504.4024278218,-2417.5388432662
5536119396,7071,-2,0,-6719.3428811396,-80197.1802507393,-35628.9022905817,-12640.3753414228,-80541.9884433078,-40978.8317327833,-80473.5816517693,-80463.2634448634,-80504.6822848487,-2417.9038741709
5536143709,7072,-2,0,-6719.9512659808,-80197.4966108567,-35619.6791763899,-12640.7403723275,-80542.4994865744,-40972.4680273449,-80474.2873781850,-80462.3995383890,-80504.2929185504,-2417.3563278139
5536143709,7072,-2,0,-6719.6957443475,-80195.8904748761,-35633.7693693109,-12641.0323970513,-80541.4165615572,-40796.6691436471,-80473.8980118867,-80462.2535260271,-80503.4411797728,-2417.9890480487
5536143709,7072,-2,0,-6718.8926763572,-80195.7687979078,-35653.5540443450,-12640.1441551832,-80539.1168668576,-40682.5848182352,-80473.5816517693,-80461.1219302226,-80502.5164348142,-2416.5532598236
5536143709,7072,-2,0,-6719.0386887190,-80195.7809656047,-35652.8361502325,-12640.0103105181,-80537.7419171166,-40779.8533866378,-80473.3748009233,-80461.6573088828,-80503.2221612299,-2417.1251415743
5536143709,7072,-2,0,-6719.2942103523,-80196.1094934189,-35632.8932951397,-12640.5821922688,-80540.3944750240,-40958.1831512748,-80472.4987267520,-80461.9006628192,-80501.9445530635,-2417.4536693885
5536143709,7072,-2,0,-6719.1481979904,-80195.8904748761,-35620.1537165660,-12639.7304534912,-80541.9884433078,-40978.3085218199,-80473.3139624392,-80461.9615013033,-80502.8692980221,-2416.8209491537
5536143709,7072,-2,0,-6719.5862350761,-80197.5939524313,-35631.9685501811,-12640.3388383324,-80542.1101202761,-40808.0702755702,-80473.4721424979,-80461.4869611273,-80503.7088691029,-2416.8452845473
5536143709,7072,-2,0,-6718.5276454525,-80195.6471209396,-35652.1912623008,-12640.1076520927,-80539.0316929799,-40675.8317464984,-80472.0241865759,-80461.6086380955,-80503.2099935331,-2416.3707443712
5536162416,7073,-2,0,-6718.2477884255,-80196.6570397759,-35656.8636578809,-12639.2559133151,-80538.8735129212,-40759.9226992418,-80472.6447391139,-80461.5721350050,-80502.0662300318,-2415.8475334078
5536162416,7073,-2,0,-6717.8705898240,-80196.5110274140,-35639.5855283923,-12639.0368947723,-80539.9564379384,-40952.1601413474,-80473.5694840724,-80462.3752029953,-80503.9643907361,-2416.4194151585
5536162416,7073,-2,0,-6719.6835766507,-80197.0342383774,-35626.9311236964,-12640.9107200830,-80543.6432500758,-41003.2279649133,-80473.9588503708,-80463.0565940174,-80505.3393404771,-2417.8430356868
5536162416,7073,-2,0,-6720.2189553109,-80197.4722754631,-35635.1808221424,-12640.8133785085,-80542.0006110047,-40849.6594633110,-80474.6645767865,-80463.3242833475,-80504.1225707948,-2417.2224831488
5536162416,7073,-2,0,-6718.7831670858,-80196.5231951109,-35656.4134530984,-12639.8156273690,-80539.4210592782,-40693.6939254345,-80474.1291981263,-80461.7303150637,-80503.9522230393,-2416.8574522441
5536162416,7073,-2,0,-6720.0729429490,-80196.8638906219,-35662.2904506639,-12640.2414967578,-80539.7495870924,-40739.3349562174,-80474.2873781850,-80462.7889046873,-80504.3902601250,-2416.7601106696
5536162416,7073,-2,0,-6718.8926763572,-80197.0829091647,-35643.9537315517,-12640.1806582737,-80541.3800584667,-40925.5980591830,-80473.6303225565,-80462.5090476604,-80503.5871921346,-2417.3441601171
5536162416,7073,-2,0,-6719.4645581078,-80196.2433380840,-35627.5638439312,-12640.0954843959,-80542.0857848824,-41001.1959595439,-80473.4843101947,-80462.3508676017,-80503.4290120759,-2417.7456941122
5536195931,7074,-2,0,-6719.3793842301,-80195.9878164507,-35632.7107796873,-12640.2658321514,-80540.8933505938,-40863.9321716843,-80473.5208132852,-80462.8132400810,-80504.0617323107,-2416.5167567331
5536195931,7074,-2,0,-6718.6736578144,-80196.8882260156,-35653.8339013719,-12640.0103105181,-80540.2727980558,-40696.0909617086,-80473.5329809820,-80462.6550600223,-80503.8670491616,-2415.9448749824
5536195931,7074,-2,0,-6718.7344962985,-80196.4015181427,-35662.8136616273,-12640.0711490023,-80538.8491775275,-40716.1433260728,-80473.8615087962,-80462.4725445699,-80503.2829997141,-2416.0422165570
5536195931,7074,-2,0,-6719.7322474379,-80196.7300459569,-35647.8595622319,-12640.9715585672,-80540.3579719336,-40894.0715567147,-80474.4333905469,-80462.8254077778,-80504.4997693964,-2417.0764707870
5536195931,7074,-2,0,-6719.5132288951,-80197.6182878249,-35626.9919621805,-12640.8742169926,-80541.7815924618,-40989.5879767748,-80473.8980118867,-80462.3630352985,-80504.6701171519,-2417.2103154520
5536195931,7074,-2,0,-6719.5375642888,-80197.3749338885,-35628.0505518041,-12640.3510060292,-80542.9740267505,-40877.0976196467,-80472.9854346249,-80462.9835878365,-80504.1347384917,-2417.7943648995
5536195931,7074,-2,0,-6719.2333718682,-80196.7422136537,-35649.2588473665,-12639.9008012467,-80540.3579719336,-40700.1549724475,-80473.7885026153,-80462.5333830540,-80504.0130615234,-2417.0277999997
5536195931,7074,-2,0,-6718.6371547239,-80194.9413945239,-35660.2584452945,-12639.5722734325,-80537.6080724516,-40694.5821673026,-80471.0386031333,-80460.3553653227,-80501.5916898557,-2416.2734027966
5536228475,7075,-2,0,-6719.1481979904,-80195.1360776731,-35647.4215251463,-12640.4726829974,-80538.9951898894,-40872.3643855826,-80472.6447391139,-80460.7690670147,-80502.0297269413,-2416.9912969092
5536228475,7075,-2,0,-6718.9778502349,-80195.6957917269,-35628.2939057406,-12641.1784094131,-80540.6864997478,-40995.5136451276,-80471.9755157886,-80460.2336883545,-80502.5651056015,-2417.8430356868
5536228475,7075,-2,0,-6719.5375642888,-80196.0364872380,-35627.4665023566,-12640.1928259705,-80542.0614494888,-40900.9949762070,-80473.1679500773,-80461.5234642177,-80502.7111179634,-2418.4270851343
5536228475,7075,-2,0,-6720.2797937950,-80197.4236046758,-35649.4291951220,-12641.2635832909,-80540.3214688431,-40718.1144929582,-80473.2409562582,-80462.0101720907,-80503.6723660124,-2418.1837311978
5536228475,7075,-2,0,-6719.7322474379,-80196.5110274140,-35662.6189784781,-12641.0567324449,-80538.7153328625,-40688.7295051308,-80475.1391169626,-80462.6307246286,-80503.4776828632,-2416.6992721854
5536228475,7075,-2,0,-6719.7565828316,-80197.0342383774,-35653.7973982815,-12640.3510060292,-80539.5792393369,-40851.4359470471,-80473.3504655296,-80461.7911535478,-80502.9179688094,-2416.9791292124
5536228475,7075,-2,0,-6718.4303038779,-80196.2798411744,-35632.7837858682,-12639.3532548897,-80540.5526550827,-40993.3112920026,-80473.6546579502,-80461.6573088828,-80502.4190932396,-2416.3342412808
5536228475,7075,-2,0,-6718.9900179317,-80195.8296363920,-35629.7175262689,-12639.4870995548,-80541.8302632491,-40927.1433566795,-80472.3283789965,-80461.5112965209,-80503.1369873522,-2416.6992721854
5536265012,7076,-2,0,-6719.4280550174,-80196.4136858395,-35648.6504625254,-12640.2049936673,-80539.7374193956,-40739.3227885205,-80473.0341054122,-80461.1584333130,-80503.0031426871,-2416.9547938187
5536265012,7076,-2,0,-6718.5641485429,-80195.6592886365,-35664.9065054808,-12640.9350554767,-80538.3746373514,-40679.1778631247,-80472.1945343314,-80460.8055701052,-80502.3339193619,-2417.0886384838
5536265012,7076,-2,0,-6719.6227381665,-80196.5718658982,-35657.5572165998,-12640.9350554767,-80538.5693205006,-40825.9567898999,-80472.9610992313,-80461.3896195527,-80503.0396457776,-2417.8308679900
5536265012,7076,-2,0,-6719.4280550174,-80195.3185931254,-35636.1785732819,-12640.6795338434,-80540.0051087257,-40984.0273393267,-80472.5352298425,-80461.4991288241,-80502.5407702079,-2417.1251415743
5536265012,7076,-2,0,-6718.8318378731,-80196.4380212331,-35628.8657874913,-12640.5213537847,-80541.7450893714,-40940.9415248767,-80472.6082360234,-80461.4504580368,-80502.9301365062,-2417.6726879313
5536265012,7076,-2,0,-6719.2942103523,-80195.4524377905,-35645.4625259578,-12640.4848506942,-80540.3093011463,-40754.9339435444,-80472.5352298425,-80461.3774518558,-80502.7962918412,-2416.8209491537
5536265012,7076,-2,0,-6719.0873595063,-80195.7931333015,-35663.4220464684,-12640.4240122101,-80538.9830221926,-40671.5243818231,-80474.1535335199,-80461.9128305161,-80503.7453721933,-2417.2103154520
5536265012,7076,-2,0,-6718.4303038779,-80196.2311703871,-35658.7009801011,-12640.0103105181,-80537.4377246961,-40795.7565663854,-80472.5230621457,-80461.0610917385,-80501.9323853667,-2415.9327072856
5536292293,7077,-2,0,-6718.9656825381,-80196.2920088712,-35637.1884921182,-12640.0954843959,-80540.1511210876,-40967.7712963713,-80473.8615087962,-80462.2900291176,-80503.4533474696,-2417.1616446647
5536292293,7077,-2,0,-6719.5010611983,-80196.6692074727,-35628.5615950707,-12640.5700245720,-80542.2074618507,-40957.8302880669,-80474.0561919454,-80462.0345074843,-80504.1347384917,-2418.4149174375
5536292293,7077,-2,0,-6719.2577072619,-80196.8760583187,-35641.7392107299,-12640.4361799069,-80541.3070522858,-40775.1201525736,-80473.4478071042,-80462.1318490589,-80503.9035522520,-2417.4171662980
5536292293,7077,-2,0,-6719.9269305871,-80197.0220706806,-35660.3557868690,-12640.6673661466,-80539.5427362464,-40662.4837830837,-80474.5550675151,-80462.7889046873,-80504.2077446726,-2417.1251415743
5536292293,7077,-2,0,-6719.2820426555,-80196.4136858395,-35659.0660110058,-12639.5479380389,-80539.7982578797,-40767.9898822354,-80473.9466826740,-80462.5942215382,-80503.3195028045,-2416.4680859458
5536292293,7077,-2,0,-6719.2090364746,-80197.1194122552,-35637.4683491451,-12640.2293290610,-80540.7473382319,-40948.8870309021,-80473.8006703121,-80463.4946311031,-80503.6480306188,-2416.4437505522
5536292293,7077,-2,0,-6720.3771353696,-80197.2167538298,-35625.8968694665,-12640.9228877799,-80543.3877284425,-40964.8388814370,-80475.0539430848,-80463.5067987999,-80504.7796264233,-2417.9038741709
5536292293,7077,-2,0,-6719.5740673793,-80196.6935428664,-35636.8356289103,-12640.5578568752,-80540.9663567747,-40795.0751753633,-80473.3626332265,-80463.4337926189,-80503.9278876457,-2417.1738123615
5536322499,7078,-2,0,-6719.1603656873,-80196.3163442649,-35657.4477073284,-12640.1198197895,-80538.7883390434,-40666.2192660083,-80473.0706085027,-80461.9615013033,-80502.8936334157,-2416.7844460632
5536322499,7078,-2,0,-6718.3572976970,-80195.1239099762,-35658.9808371280,-12640.0833166991,-80537.5715693611,-40744.3237119148,-80472.6325714171,-80460.3188622323,-80502.6259440856,-2416.1030550411
5536322499,7078,-2,0,-6718.6249870271,-80195.8783071793,-35640.3764286858,-12640.0103105181,-80539.8712640607,-40929.2483682298,-80473.7033287375,-80461.1827687067,-80502.8936334157,-2417.1494769679
5536322499,7078,-2,0,-6718.7953347826,-80195.6714563333,-35624.6922674810,-12640.3631737260,-80541.3800584667,-40972.3585180735,-80473.5208132852,-80461.6451411860,-80503.1613227458,-2416.9669615156
5536322499,7078,-2,0,-6719.5375642888,-80195.7322948174,-35634.1222325188,-12640.4970183911,-80540.5891581732,-40814.1297885880,-80472.5473975393,-80461.1219302226,-80502.7232856602,-2417.2103154520
5536322499,7078,-2,0,-6719.9269305871,-80196.4866920204,-35655.7929005604,-12640.6673661466,-80538.3624696546,-40665.4040303212,-80473.3139624392,-80461.4261226431,-80502.8084595380,-2417.3806632075
5536322499,7078,-2,0,-6719.0630241127,-80195.1117422794,-35659.5770542724,-12639.2924164056,-80537.3890539088,-40721.8986466701,-80472.6934099012,-80461.1340979194,-80502.2122423937,-2417.1008061806
5536322499,7078,-2,0,-6718.1991176383,-80194.7345436779,-35641.5080244903,-12639.6209442198,-80537.8879294785,-40909.6218732544,-80471.6956587617,-80459.9538313276,-80501.3970067065,-2416.6506013982
5536388725,7079,-2,0,-6719.8539244062,-80195.6227855460,-35626.1402234029,-12640.4848506942,-80541.3192199826,-40980.3770302799,-80472.1701989378,-80461.5234642177,-80502.9058011126,-2417.4780047821
5536388725,7079,-2,0,-6719.0873595063,-80195.3550962159,-35631.9807178779,-12640.7038692370,-80540.6743320510,-40842.1641620681,-80473.2409562582,-80461.4261226431,-80503.2464966236,-2417.8430356868
5536388725,7079,-2,0,-6719.2698749587,-80195.3064254286,-35653.8947398561,-12639.8034596721,-80538.4841466228,-40677.8637518679,-80471.0021000428,-80461.2192717971,-80501.5795221588,-2416.9912969092
5536388725,7079,-2,0,-6719.4037196237,-80195.5376116682,-35662.3026183607,-12640.8012108116,-80537.7540848135,-40705.1923989322,-80472.7907514758,-80461.4261226431,-80502.7841241443,-2417.2833216329
5536388725,7079,-2,0,-6720.1824522204,-80196.3041765681,-35647.7622206573,-12641.3852602591,-80539.6157424274,-40889.5938442839,-80473.7641672216,-80462.4238737826,-80504.1469061885,-2418.2202342883
5536388725,7079,-2,0,-6719.4402227142,-80195.0874068858,-35628.6954397357,-12639.8886335499,-80541.1245368334,-40984.8790781043,-80471.9025096077,-80460.9637501639,-80502.0418946381,-2417.2954893298
5536388725,7079,-2,0,-6718.6493224207,-80195.9026425729,-35632.9906367142,-12640.4483476038,-80540.3823073272,-40864.2363641049,-80472.3892174806,-80461.3774518558,-80501.8228760953,-2417.6848556281
5536388725,7079,-2,0,-6718.9778502349,-80196.0973257221,-35653.7000567069,-12640.8012108116,-80539.3845561877,-40688.6443312530,-80472.6690745075,-80460.7203962274,-80502.3582547555,-2417.0521353933
5536397675,7080,-2,0,-6718.3086269097,-80194.6006990129,-35665.1863625077,-12639.5844411293,-80537.0726937914,-40691.8809386079,-80471.5618140967,-80460.2458560513,-80502.4920994206,-2416.0057134665
5536397675,7080,-2,0,-6719.0630241127,-80195.1360776731,-35652.3007715722,-12640.5943599656,-80538.5449851070,-40868.8965919881,-80471.6469879744,-80461.0367563448,-80502.8692980221,-2416.9669615156
5536397675,7080,-2,0,-6719.2212041714,-80195.5254439714,-35631.6400223669,-12640.0833166991,-80540.2849657526,-40984.3802025346,-80472.1336958473,-80460.8177378020,-80501.8472114890,-2417.3928309044
5536397675,7080,-2,0,-6719.7200797411,-80195.8661394824,-35632.6621089000,-12640.5700245720,-80541.4287292540,-40889.5573411934,-80471.7808326395,-80460.6352223497,-80502.4190932396,-2417.9038741709
5536397675,7080,-2,0,-6719.7809182252,-80195.3307608222,-35652.5319578119,-12640.8012108116,-80539.0438606767,-40705.2775728100,-80472.3283789965,-80460.8542408925,-80501.8837145794,-2417.3806632075
5536397675,7080,-2,0,-6718.5154777557,-80193.9314756876,-35665.6243995934,-12639.4870995548,-80536.3669673756,-40676.3184543714,-80470.9047584682,-80459.8443220562,-80500.4479263543,-2416.2247320094
5536397675,7080,-2,0,-6719.3672165333,-80195.1604130667,-35656.1700991619,-12640.7647077212,-80537.2065384564,-40842.5535283664,-80471.8173357299,-80459.2359372150,-80500.8737957431,-2416.9912969092
5536397675,7080,-2,0,-6719.9390982839,-80194.1504942304,-35635.4971822598,-12640.2414967578,-80539.0925314640,-40983.3581160015,-80471.1116093142,-80460.3188622323,-80500.9346342272,-2417.4415016916
5536416217,7081,-2,0,-6719.3672165333,-80193.4082647242,-35633.0028044111,-12640.8863846894,-80539.8590963638,-40910.2667611861,-80471.5496463998,-80460.1606821736,-80500.8616280463,-2417.4293339948
5536416217,7081,-2,0,-6718.6128193302,-80192.6660352180,-35650.8528156503,-12639.9008012467,-80536.3304642852,-40722.3001806653,-80469.8461688446,-80458.1165091073,-80499.9003799973,-2416.7601106696
5536416217,7081,-2,0,-6719.3915519269,-80193.1892461814,-35667.6929080533,-12639.9616397308,-80535.3935516298,-40670.8673261947,-80471.0386031333,-80459.4671234547,-80500.9711373177,-2417.1981477552
5536416217,7081,-2,0,-6719.4767258047,-80194.1261588367,-35660.9763394070,-12640.2779998482,-80536.8293398549,-40818.7413456839,-80471.0994416174,-80459.0047509754,-80500.8251249558,-2417.2224831488
5536416217,7081,-2,0,-6719.6349058634,-80194.9535622207,-35638.6972865242,-12640.3753414228,-80538.7031651656,-40973.8794801764,-80470.9655969523,-80460.7568993179,-80501.4578451906,-2417.1981477552
5536416217,7081,-2,0,-6719.6105704697,-80195.2334192476,-35633.1001459856,-12641.1662417163,-80540.8081767160,-40930.1609454916,-80472.7420806885,-80460.9759178607,-80502.7476210539,-2418.1593958042
5536416217,7081,-2,0,-6719.1725333841,-80194.8318852525,-35649.6238782712,-12640.1928259705,-80539.0073575862,-40742.8757559928,-80470.7587461063,-80459.8808251466,-80500.8981311368,-2417.3928309044
5536416217,7081,-2,0,-6719.5375642888,-80194.9900653112,-35668.2404544103,-12640.7038692370,-80536.9753522168,-40662.6662985360,-80471.2211185856,-80459.1750987309,-80500.8129572590,-2416.7601106696
5536449228,7082,-2,0,-6720.2676260982,-80194.9170591302,-35662.7041523559,-12640.4848506942,-80537.0361907009,-40795.9877526250,-80472.0363542728,-80460.3066945354,-80501.8837145794,-2418.2445696820
5536449228,7082,-2,0,-6719.1481979904,-80194.4425189542,-35643.0411542900,-12640.9107200830,-80538.6544943784,-40965.5567755495,-80472.3405466933,-80460.8420731956,-80501.7133668239,-2417.2833216329
5536449228,7082,-2,0,-6718.6858255112,-80194.9048914334,-35632.7594504746,-12639.0855655596,-80539.4697300655,-40944.5674985299,-80470.3572121112,-80460.0390052053,-80500.9102988336,-2416.5654275204
5536449228,7082,-2,0,-6719.7930859221,-80195.4524377905,-35647.3606866621,-12640.5700245720,-80539.3723884909,-40762.7091018142,-80472.1336958473,-80460.7812347115,-80501.6890314303,-2417.5875140535
5536449228,7082,-2,0,-6720.0121044649,-80194.8562206461,-35667.1453616962,-12641.2757509877,-80538.0217741436,-40659.2106726383,-80471.4523048252,-80460.6838931369,-80502.3582547555,-2417.1616446647
5536449228,7082,-2,0,-6720.5231477314,-80195.1847484603,-35664.8334992999,-12640.8498815989,-80537.7784202071,-40767.3936650911,-80471.3914663411,-80460.0268375085,-80501.8350437921,-2417.4536693885
5536449228,7082,-2,0,-6718.4789746652,-80193.8828049003,-35643.1628312582,-12639.8156273690,-80538.3624696546,-40945.9059451805,-80471.1481124047,-80459.8199866625,-80501.7255345207,-2417.0764707870
5536449228,7082,-2,0,-6718.7223286016,-80194.9170591302,-35631.5670161860,-12640.1076520927,-80541.3557230731,-40958.6455237541,-80471.9633480918,-80460.2458560513,-80501.4456774938,-2417.0399676965
5536503714,7083,-2,0,-6717.8097513399,-80194.5276928319,-35643.9050607644,-12639.7912919753,-80539.6765809115,-40785.1706701494,-80472.2797082092,-80460.2701914450,-80502.4069255428,-2416.6140983077
5536503714,7083,-2,0,-6719.3672165333,-80196.2798411744,-35665.4053810506,-12640.8255462053,-80538.6179912879,-40658.7848032495,-80473.0949438963,-80461.5477996114,-80502.3460870587,-2417.9403772614
5536503714,7083,-2,0,-6718.9656825381,-80194.8683883429,-35665.4175487474,-12640.3753414228,-80536.6954951899,-40744.2263703402,-80471.1116093142,-80459.7104773911,-80502.2609131809,-2416.4194151585
5536503714,7083,-2,0,-6719.1116949000,-80194.8440529493,-35646.7036310337,-12639.5479380389,-80539.1655376449,-40929.0536850807,-80471.2332862824,-80460.1728498704,-80502.1027331222,-2417.9160418677
5536503714,7083,-2,0,-6719.7079120443,-80194.6250344065,-35632.4065872667,-12640.7890431148,-80540.5526550827,-40964.3400058672,-80472.4865590552,-80460.9637501639,-80502.4434286333,-2417.8065325963
5536503714,7083,-2,0,-6719.6105704697,-80195.1482453699,-35640.7536272873,-12640.5821922688,-80540.0902826035,-40804.8215005184,-80472.4378882679,-80460.6595577433,-80502.2730808778,-2417.9403772614
5536503714,7083,-2,0,-6719.1725333841,-80195.0630714921,-35662.2904506639,-12640.8012108116,-80537.5472339675,-40661.6685473965,-80471.8416711236,-80460.0025021149,-80501.6890314303,-2416.3707443712
5536503714,7083,-2,0,-6718.8196701762,-80195.0144007048,-35666.6343184297,-12639.7426211880,-80536.3913027693,-40720.7548831687,-80471.7930003363,-80459.9294959339,-80501.3726713129,-2415.9935457697
5536511327,7084,-2,0,-6718.5276454525,-80194.8197175557,-35647.9934068969,-12639.3410871929,-80537.9000971753,-40906.0202349949,-80471.7808326395,-80461.0002532543,-80501.9932238508,-2416.4072474617
5536511327,7084,-2,0,-6719.2333718682,-80194.4911897414,-35631.4331715209,-12639.6574473103,-80540.2241272685,-40973.3927723035,-80471.7199941554,-80460.0633405990,-80501.4335097970,-2417.5753463567
5536511327,7084,-2,0,-6719.5984027729,-80195.6592886365,-35638.1497401672,-12640.3388383324,-80540.7716736256,-40828.9743787120,-80472.5595652361,-80461.7181473669,-80501.8593791858,-2417.3563278139
5536511327,7084,-2,0,-6718.9170117508,-80195.1482453699,-35658.2872784091,-12640.5456891783,-80538.6058235911,-40665.8177320132,-80472.4013851774,-80460.8785762861,-80502.4434286333,-2416.2247320094
5536511327,7084,-2,0,-6718.9656825381,-80195.6471209396,-35666.1719459504,-12640.1806582737,-80538.2286249896,-40702.3208224820,-80473.0949438963,-80461.3774518558,-80502.8814657189,-2416.6384337013
5536511327,7084,-2,0,-6719.8295890125,-80196.1824995998,-35650.1592569314,-12639.8642981563,-80539.7252516988,-40886.4667462004,-80473.0462731091,-80461.4991288241,-80502.7597887507,-2417.1616446647
5536511327,7084,-2,0,-6719.9756013744,-80195.7687979078,-35631.5305130955,-12641.3365894718,-80541.3678907699,-40976.3495226315,-80473.0097700186,-80461.8519920320,-80502.9058011126,-2418.1958988947
5536511327,7084,-2,0,-6719.0265210222,-80194.3208419859,-35635.1808221424,-12640.6308630561,-80540.0781149066,-40852.3363566120,-80471.3549632507,-80460.0146698117,-80501.8958822763,-2417.2589862393
5536542652,7085,-2,0,-6719.1968687777,-80194.9048914334,-35656.8636578809,-12640.9228877799,-80537.8027556008,-40682.7795013843,-80471.2941247665,-80459.9416636307,-80501.2023235573,-2417.2346508457
5536542652,7085,-2,0,-6719.5253965920,-80194.0288172622,-35667.6199018723,-12640.2049936673,-80536.5251474343,-40689.3135545783,-80470.5762306540,-80459.6374712102,-80501.6403606430,-2416.9791292124
5536542652,7085,-2,0,-6719.1116949000,-80194.4060158637,-35654.2476030639,-12640.0589813054,-80538.1434511118,-40869.5658153133,-80471.4036340380,-80459.8808251466,-80501.3361682224,-2416.7236075791
5536542652,7085,-2,0,-6718.8318378731,-80195.5011085778,-35637.0059766658,-12640.1319874864,-80539.4818977623,-40985.2441090090,-80471.7321618522,-80460.7203962274,-80502.2974162714,-2416.7114398823
5536542652,7085,-2,0,-6718.7709993889,-80195.5619470619,-35639.2813359717,-12640.4970183911,-80541.9154371269,-40885.0187902785,-80473.1801177741,-80461.3287810686,-80502.4434286333,-2417.5145078726
5536542652,7085,-2,0,-6719.7322474379,-80196.8030521378,-35661.2561964339,-12640.7647077212,-80541.0758660461,-40705.5087590496,-80473.4113040137,-80462.7889046873,-80503.5750244378,-2418.1107250169
5536542652,7085,-2,0,-6718.2964592128,-80196.3406796585,-35674.5676567582,-12639.0247270755,-80538.0582772340,-40687.8899340500,-80471.5739817935,-80461.5964703987,-80502.8084595380,-2416.5167567331
5536542652,7085,-2,0,-6719.4888935015,-80196.8273875314,-35665.7582442584,-12640.6430307529,-80539.7130840020,-40857.8483232728,-80474.1657012168,-80461.8884951224,-80503.0883165649,-2417.7943648995
5536571807,7086,-2,0,-6718.7344962985,-80196.7178782600,-35644.2822593659,-12639.6574473103,-80541.2583814985,-40989.9530076795,-80472.8150868694,-80461.5234642177,-80503.5871921346,-2417.5023401758
5536571807,7086,-2,0,-6719.2820426555,-80196.3528473554,-35641.5445275808,-12639.9494720340,-80541.6599154936,-40913.0531637585,-80473.1314469868,-80461.7303150637,-80502.4190932396,-2417.0399676965
5536571807,7086,-2,0,-6718.9656825381,-80196.2555057808,-35660.7451531674,-12640.6065276625,-80539.2993823100,-40724.1983413696,-80472.4257205711,-80460.6352223497,-80502.4190932396,-2416.4437505522
5536571807,7086,-2,0,-6720.5109800346,-80195.9269779665,-35676.7456744895,-12641.1905771100,-80539.0195252830,-40671.7555680627,-80471.7686649426,-80461.1949364035,-80502.3704224523,-2417.4049986012
5536571807,7086,-2,0,-6719.9512659808,-80194.9657299175,-35668.5446468309,-12640.6673661466,-80538.4598112292,-40824.1316353765,-80472.6082360234,-80461.2557748876,-80502.2487454841,-2417.5753463567
5536571807,7086,-2,0,-6719.1481979904,-80194.4425189542,-35645.6693768037,-12640.0224782150,-80539.4332269750,-40979.8903224069,-80472.0606896664,-80460.3188622323,-80501.6403606430,-2416.4559182490
5536571807,7086,-2,0,-6718.4789746652,-80194.5641959224,-35639.1718267003,-12639.3532548897,-80540.2362949653,-40927.9707600634,-80471.7078264585,-80460.1728498704,-80501.6768637334,-2416.9304584251
5536571807,7086,-2,0,-6718.2964592128,-80194.9778976144,-35657.3381980569,-12639.3775902833,-80539.3602207941,-40741.6468186137,-80471.8416711236,-80460.6352223497,-80501.0441434986,-2416.4194151585
5536624062,7087,-2,0,-6718.3816330906,-80195.7687979078,-35674.4094766995,-12639.8034596721,-80538.3624696546,-40670.1372643853,-80472.4743913584,-80460.0025021149,-80502.0905654254,-2416.1638935252
5536624062,7087,-2,0,-6719.7687505284,-80196.8273875314,-35669.6762426354,-12640.8012108116,-80538.9465191021,-40806.0504378976,-80473.3261301360,-80461.6938119733,-80503.6480306188,-2417.2954893298
5536624062,7087,-2,0,-6719.7565828316,-80196.5962012918,-35647.6892144764,-12640.4848506942,-80540.5283196891,-40971.8353071101,-80473.4599748010,-80462.0101720907,-80503.1734904427,-2417.5266755694
5536624062,7087,-2,0,-6719.9269305871,-80196.4136858395,-35639.8897208128,-12641.8598004352,-80542.1101202761,-40951.8072781396,-80473.4113040137,-80462.4603768731,-80503.9278876457,-2418.1593958042
5536624062,7087,-2,0,-6719.2212041714,-80195.2090838540,-35652.3616100564,-12640.1319874864,-80539.7739224861,-40769.3039934923,-80472.5108944488,-80461.0975948289,-80502.8936334157,-2417.3441601171
5536624062,7087,-2,0,-6718.5884839366,-80193.7489602352,-35670.5523168067,-12640.2293290610,-80537.3890539088,-40666.7181415781,-80471.9268450013,-80459.9659990244,-80501.5308513716,-2415.7136887428
5536624062,7087,-2,0,-6719.6105704697,-80195.3794316095,-35668.2891251976,-12640.2658321514,-80538.8005067402,-40781.7272119485,-80472.8637576567,-80461.0975948289,-80503.3560058950,-2416.5654275204
5536624062,7087,-2,0,-6719.3550488364,-80195.1360776731,-35647.1173327257,-12640.4118445133,-80540.6378289605,-40958.5116790890,-80473.1679500773,-80461.5721350050,-80503.6236952251,-2417.0521353933
5536633542,7088,-2,0,-6718.6493224207,-80196.2920088712,-35635.7283684994,-12640.3145029387,-80542.0492817920,-40961.8942988058,-80473.5329809820,-80462.8132400810,-80504.2442477631,-2416.9061230314
5536633542,7088,-2,0,-6720.0364398585,-80196.7057105632,-35647.4458605399,-12639.9616397308,-80541.0880337429,-40787.8232280568,-80474.3482166691,-80462.0101720907,-80503.9278876457,-2417.1616446647
5536633542,7088,-2,0,-6718.5519808461,-80196.4866920204,-35666.4518029773,-12639.8034596721,-80539.4818977623,-40667.1805140573,-80472.7664160821,-80462.0345074843,-80504.0130615234,-2416.2247320094
5536633542,7088,-2,0,-6719.5010611983,-80196.6935428664,-35668.0092681707,-12640.6551984498,-80539.5914070337,-40756.7225949774,-80474.8227568452,-80462.9470847460,-80503.8427137679,-2416.6140983077
5536633542,7088,-2,0,-6719.0143533254,-80197.4722754631,-35647.6648790827,-12639.9738074277,-80541.4530646476,-40940.0289476150,-80474.7010798770,-80462.1683521493,-80503.7088691029,-2416.8939553346
5536633542,7088,-2,0,-6719.2820426555,-80197.7764678836,-35633.6233569490,-12640.7525400243,-80543.0470329314,-40974.1958402938,-80473.7154964343,-80463.7501527363,-80504.5362724868,-2418.4027497407
5536633542,7088,-2,0,-6719.2820426555,-80197.4357723726,-35642.7126264758,-12640.0103105181,-80542.0979525792,-40812.4019756391,-80474.1657012168,-80462.6063892350,-80504.7674587265,-2417.8917064741
5536633542,7088,-2,0,-6719.3793842301,-80196.6327043823,-35663.6654004049,-12639.4992672516,-80539.7009163051,-40668.4216191333,-80473.6668256470,-80462.8254077778,-80503.1734904427,-2416.8087814569
5536669108,7089,-2,0,-6719.0021856286,-80197.3019277075,-35668.2769575008,-12639.7669565817,-80539.5549039433,-40737.7288202367,-80474.0561919454,-80462.1561844525,-80503.1856581395,-2416.7114398823
5536669108,7089,-2,0,-6719.4037196237,-80196.6448720791,-35649.7090521490,-12639.8521304594,-80540.5769904764,-40924.8558296768,-80473.5694840724,-80461.5477996114,-80503.2221612299,-2416.8939553346
5536669108,7089,-2,0,-6719.7809182252,-80197.2897600107,-35633.0393075015,-12641.1175709290,-80541.3800584667,-40981.1922659670,-80473.0341054122,-80462.1440167557,-80503.1126519585,-2418.1472281074
5536669108,7089,-2,0,-6719.9634336776,-80196.2311703871,-35639.5368576050,-12640.6673661466,-80541.5382385254,-40832.6976939398,-80473.7885026153,-80462.5090476604,-80502.6381117824,-2416.7722783664
5536669108,7089,-2,0,-6719.3915519269,-80196.6327043823,-35660.8668301356,-12640.3388383324,-80540.3093011463,-40675.6127279556,-80473.2774593487,-80462.5455507509,-80503.5750244378,-2417.1859800584
5536669108,7089,-2,0,-6718.0531052764,-80195.7444625142,-35666.0624366790,-12639.3045841024,-80539.1168668576,-40711.9089675785,-80472.9002607472,-80461.0975948289,-80502.9788072935,-2415.8597011047
5536669108,7089,-2,0,-6717.8827575209,-80196.1581642062,-35648.5652886476,-12638.9638885914,-80540.0416118162,-40895.6168542112,-80473.2652916519,-80462.0223397875,-80503.0031426871,-2416.1273904348
5536669108,7089,-2,0,-6718.3207946065,-80196.1459965094,-35630.2164018386,-12638.9395531977,-80541.7572570682,-40981.0827566956,-80473.5573163756,-80462.2535260271,-80503.0153103840,-2416.0665519507
5536703178,7090,-2,0,-6718.6858255112,-80196.2798411744,-35633.5990215554,-12640.1319874864,-80541.4652323445,-40851.6306301963,-80472.1823666346,-80461.2071041003,-80502.9423042030,-2417.3076570266
5536703178,7090,-2,0,-6719.0508564159,-80195.3672639127,-35652.9943302912,-12640.0711490023,-80537.8027556008,-40678.1436088948,-80472.0120188791,-80460.5865515624,-80502.0540623350,-2417.0277999997
5536703178,7090,-2,0,-6720.5231477314,-80195.9148102697,-35662.5459722972,-12640.7403723275,-80538.0217741436,-40691.3455599477,-80472.8272545662,-80461.4382903400,-80501.8837145794,-2417.7335264154
5536703178,7090,-2,0,-6720.0121044649,-80195.9756487538,-35647.1781712098,-12640.6917015402,-80538.7396682561,-40868.3490456310,-80472.5839006298,-80461.0732594353,-80502.5772732983,-2417.9768803519
5536703178,7090,-2,0,-6720.8030047584,-80195.8661394824,-35626.9189559996,-12640.9228877799,-80541.1245368334,-40976.1426717855,-80473.1679500773,-80460.6230546528,-80502.5407702079,-2418.1228927137
5536703178,7090,-2,0,-6718.5763162398,-80194.6493698001,-35626.4565835203,-12640.1928259705,-80540.4553135082,-40869.3589644673,-80472.0728573632,-80459.8808251466,-80501.8593791858,-2416.9669615156
5536703178,7090,-2,0,-6719.1603656873,-80195.3429285191,-35646.5454509750,-12640.0468136086,-80538.5328174101,-40691.4672369159,-80471.8173357299,-80460.0998436894,-80501.5673544620,-2417.2954893298
5536703178,7090,-2,0,-6719.7565828316,-80194.9778976144,-35659.1755202772,-12640.8133785085,-80538.3016311705,-40673.4833810116,-80471.9633480918,-80461.3166133717,-80501.9810561540,-2416.5045890363
5536739806,7091,-2,0,-6719.5375642888,-80195.6227855460,-35645.9492338307,-12641.0202293544,-80538.4719789260,-40844.2935090121,-80472.3162112997,-80460.4283715037,-80503.0031426871,-2417.0643030901
5536739806,7091,-2,0,-6718.7831670858,-80195.5376116682,-35625.1911430507,-12640.7525400243,-80540.6743320510,-40975.6681316094,-80472.3648820870,-80461.6694765796,-80501.8837145794,-2416.5654275204
5536739806,7091,-2,0,-6718.9291794476,-80194.9292268271,-35622.1978896323,-12640.1076520927,-80540.8690152001,-40890.7984462693,-80472.2067020283,-80460.2458560513,-80502.6624471761,-2416.9669615156
5536739806,7091,-2,0,-6719.2333718682,-80195.0387360985,-35642.3840986616,-12640.5091860879,-80539.2872146132,-40704.2189831864,-80473.1557823805,-80460.7812347115,-80502.4190932396,-2417.4049986012
5536739806,7091,-2,0,-6719.5132288951,-80194.9657299175,-35656.3769500079,-12639.8764658531,-80537.8635940849,-40663.7492235533,-80471.9876834855,-80460.6717254401,-80501.3483359192,-2417.0521353933
5536739806,7091,-2,0,-6719.8539244062,-80195.0144007048,-35648.5652886476,-12640.4483476038,-80537.6689109357,-40821.9171145547,-80472.6690745075,-80460.9637501639,-80501.7011991271,-2417.4293339948
5536739806,7091,-2,0,-6719.2820426555,-80194.3086742891,-35626.3105711584,-12640.4726829974,-80539.6400778210,-40970.0466556772,-80470.8439199841,-80459.9173282371,-80501.0076404082,-2417.6848556281
5536739806,7091,-2,0,-6718.7466639953,-80193.7732956289,-35620.7621014072,-12640.2171613641,-80540.1389533907,-40916.0829202674,-80471.0386031333,-80459.8078189657,-80500.6426095035,-2416.9182907283
5536758583,7092,-2,0,-6718.7709993889,-80194.1626619272,-35638.7946280988,-12639.2924164056,-80537.9000971753,-40730.6228852921,-80471.2576216761,-80458.6153846770,-80500.1193985401,-2416.4559182490
5536758583,7092,-2,0,-6719.2455395650,-80194.6372021033,-35656.0727575874,-12640.4726829974,-80536.3913027693,-40660.3057653524,-80470.5518952603,-80459.3211110928,-80500.3627524766,-2415.6893533491
5536758583,7092,-2,0,-6719.6714089538,-80195.2820900349,-35650.5242878361,-12640.8620492957,-80538.0096064467,-40799.2486953735,-80471.4644725221,-80460.5257130782,-80501.7863730048,-2417.4293339948
5536758583,7092,-2,0,-6719.7079120443,-80195.3307608222,-35630.6301035306,-12640.8012108116,-80540.2241272685,-40966.3355081462,-80471.8781742141,-80460.7447316211,-80501.7377022175,-2417.5996817503
5536758583,7092,-2,0,-6719.3915519269,-80195.0995745826,-35622.1613865418,-12640.3875091196,-80541.2827168921,-40937.7170852186,-80471.8538388204,-80461.0732594353,-80502.5042671174,-2418.3784143470
5536758583,7092,-2,0,-6718.3207946065,-80194.9900653112,-35637.4075106610,-12640.0468136086,-80539.1777053417,-40751.9893609132,-80472.4622236616,-80461.0002532543,-80502.5407702079,-2417.5266755694
5536758583,7092,-2,0,-6718.8926763572,-80195.5984501523,-35656.5594654603,-12640.9472231735,-80538.2894634737,-40660.2449268682,-80472.5839006298,-80460.7934024084,-80502.4312609365,-2417.2103154520
5536758583,7092,-2,0,-6719.4645581078,-80195.1847484603,-35654.2110999735,-12640.2901675451,-80537.8514263880,-40777.5536919382,-80472.0850250600,-80461.2314394940,-80501.7742053080,-2416.2125643125
5536798699,7093,-2,0,-6719.4037196237,-80197.0342383774,-35633.4408414967,-12640.4726829974,-80540.8811828970,-40950.1524713717,-80473.9710180676,-80462.3873706922,-80504.0617323107,-2418.0377188360
5536798699,7093,-2,0,-6719.7079120443,-80196.6813751696,-35623.3781562241,-12641.5556080147,-80542.0006110047,-40948.4003230292,-80473.3991363169,-80461.9736690002,-80503.7818752838,-2417.7821972027
5536798699,7093,-2,0,-6720.0242721617,-80196.7665490473,-35637.9915601085,-12640.3753414228,-80540.6864997478,-40770.1070614826,-80472.8150868694,-80460.9880855575,-80503.0396457776,-2417.8673710805
5536798699,7093,-2,0,-6720.2797937950,-80195.4402700936,-35657.6788935680,-12640.7403723275,-80538.7518359529,-40650.7419556495,-80473.5451486788,-80460.7690670147,-80502.5529379047,-2417.5023401758
5536798699,7093,-2,0,-6719.3307134428,-80195.1482453699,-35657.4477073284,-12639.9251366404,-80537.1456999723,-40749.9086847565,-80471.6104848839,-80459.8443220562,-80501.1049819828,-2416.8574522441
5536798699,7093,-2,0,-6719.7565828316,-80194.9292268271,-35639.4881868177,-12640.3266706355,-80539.6279101242,-40941.3552265687,-80472.4622236616,-80460.9394147702,-80501.9445530635,-2417.4901724789
5536798699,7093,-2,0,-6718.8683409635,-80194.6737051938,-35626.9432913932,-12639.6939504007,-80540.9055182906,-40972.9912383083,-80472.1701989378,-80460.7934024084,-80502.6624471761,-2416.7479429727
5536798699,7093,-2,0,-6718.3694653938,-80195.7444625142,-35637.9428893212,-12639.9008012467,-80540.4918165986,-40808.0824432670,-80472.4622236616,-80460.5500484719,-80502.0662300318,-2416.8939553346
5536843768,7094,-2,0,-6718.8926763572,-80195.5619470619,-35658.5062969519,-12639.4019256770,-80538.7275005593,-40671.7068972755,-80471.9633480918,-80460.3310299291,-80502.1514039095,-2416.8331168505
5536843768,7094,-2,0,-6719.7079120443,-80195.2334192476,-35661.3657057053,-12640.4240122101,-80536.9510168231,-40738.3128696842,-80471.9146773045,-80461.0124209512,-80503.1491550490,-2416.7479429727
5536843768,7094,-2,0,-6719.2698749587,-80195.2334192476,-35641.7878815172,-12640.1563228800,-80538.9465191021,-40919.2830245319,-80472.6934099012,-80461.6451411860,-80502.2365777873,-2417.7335264154
5536843768,7094,-2,0,-6720.1216137363,-80195.5011085778,-35626.1645587966,-12639.8764658531,-80540.7230028383,-40973.6726293304,-80472.8272545662,-80461.6451411860,-80502.8936334157,-2417.1129738774
5536843768,7094,-2,0,-6720.4501415505,-80195.9513133602,-35635.1929898392,-12640.4726829974,-80539.9442702416,-40824.7278525208,-80472.9489315345,-80461.0975948289,-80502.3339193619,-2417.5510109631
5536843768,7094,-2,0,-6719.1238625968,-80194.2965065923,-35655.7077266827,-12640.3875091196,-80537.7175817230,-40667.8619050794,-80471.2576216761,-80460.4283715037,-80501.8593791858,-2416.4194151585
5536843768,7094,-2,0,-6718.8926763572,-80195.3672639127,-35663.3125371970,-12639.6331119166,-80537.1091968819,-40710.2419931137,-80471.5618140967,-80460.8420731956,-80502.1027331222,-2416.5167567331
5536843768,7094,-2,0,-6719.0630241127,-80194.7467113747,-35646.7644695178,-12640.1806582737,-80538.7640036498,-40894.6677738591,-80471.5009756125,-80460.3675330196,-80501.3970067065,-2417.1251415743
5536862035,7095,1,0,-6718.0531052764,-80194.2965065923,-35627.8680363518,-12639.5236026452,-80539.8225932734,-40969.4139354424,-80470.2963736271,-80459.7226450879,-80501.1536527701,-2416.5045890363
5536862035,7095,1,0,-6719.0630241127,-80194.6128667097,-35632.8202889587,-12640.8620492957,-80540.1876241781,-40837.9419712705,-80471.9998511823,-80461.0975948289,-80501.8837145794,-2417.5023401758
5536862035,7095,1,0,-6719.8417567094,-80195.0874068858,-35653.8947398561,-12640.1319874864,-80538.2894634737,-40671.2323570994,-80472.4257205711,-80460.4283715037,-80501.7498699144,-2417.4171662980
5536862035,7095,1,0,-6719.2698749587,-80194.4668543478,-35663.9209220382,-12641.1540740195,-80536.8780106422,-40689.6907531798,-80472.0606896664,-80460.1850175672,-80502.0418946381,-2416.9669615156
5536862035,7095,1,0,-6720.0607752522,-80194.7832144652,-35649.3805243347,-12640.7525400243,-80538.4841466228,-40870.7825849956,-80472.2918759060,-80460.7690670147,-80502.4434286333,-2417.6361848408
5536862035,7095,1,0,-6718.0774406700,-80193.7854633257,-35630.0703894767,-12639.6574473103,-80539.3115500068,-40979.3427760499,-80470.1381935684,-80459.6861419975,-80500.8737957431,-2416.3464089776
5536862035,7095,1,0,-6719.1968687777,-80193.7489602352,-35633.2461583475,-12640.0346459118,-80539.8834317575,-40870.3080448195,-80471.6713233681,-80459.4671234547,-80501.3848390097,-2417.1494769679
5536862035,7095,1,0,-6718.9170117508,-80194.5641959224,-35653.4323673768,-12639.8034596721,-80538.3016311705,-40691.3333922509,-80470.8439199841,-80459.6618066038,-80500.4600940511,-2417.2224831488
5536907527,7096,1,0,-6719.7687505284,-80195.0022330080,-35666.0502689822,-12640.8377139021,-80537.7784202071,-40683.8867617952,-80472.0363542728,-80459.6374712102,-80501.3605036160,-2417.7213587186
5536907527,7096,1,0,-6719.4523904110,-80195.7931333015,-35652.9821625943,-12640.8133785085,-80538.1799542023,-40856.7897336492,-80471.3427955538,-80460.4648745941,-80501.4456774938,-2417.2711539361
5536907527,7096,1,0,-6719.1116949000,-80194.4911897414,-35631.9077116970,-12639.7669565817,-80539.4697300655,-40978.9412420547,-80471.8660065172,-80459.1629310341,-80501.2144912542,-2416.7844460632
5536907527,7096,1,0,-6719.5010611983,-80194.2721711986,-35629.4133338483,-12640.0711490023,-80539.3602207941,-40888.6812670222,-80470.9047584682,-80459.7104773911,-80501.3361682224,-2417.0156323028
5536907527,7096,1,0,-6720.6448246997,-80195.5376116682,-35651.4003620073,-12641.6407818924,-80540.0416118162,-40706.0563054066,-80472.6204037203,-80461.8519920320,-80502.3704224523,-2417.6240171440
5536907527,7096,1,0,-6719.4888935015,-80195.5619470619,-35664.5293068793,-12641.1662417163,-80537.4012216056,-40666.9493278177,-80473.0706085027,-80460.4283715037,-80501.9445530635,-2417.5388432662
5536907527,7096,1,0,-6719.4280550174,-80195.5254439714,-35654.5882985750,-12640.0589813054,-80538.7640036498,-40827.8914536947,-80472.5352298425,-80460.7690670147,-80502.2609131809,-2416.7479429727
5536907527,7096,1,0,-6719.5132288951,-80194.8562206461,-35632.8932951397,-12639.8886335499,-80540.2241272685,-40975.0475790714,-80472.8394222631,-80461.1706010099,-80502.2852485746,-2416.3464089776
5536914091,7097,1,0,-6719.3672165333,-80195.3185931254,-35629.5350108165,-12640.2049936673,-80541.2462138016,-40913.0653314553,-80472.1823666346,-80461.1097625258,-80502.3460870587,-2417.1251415743
5536914091,7097,1,0,-6718.8805086603,-80195.8174686951,-35646.5089478845,-12640.0833166991,-80540.3458042367,-40722.4461930271,-80473.2409562582,-80462.3752029953,-80502.9666395967,-2417.4536693885
5536914091,7097,1,0,-6719.3550488364,-80195.5862824555,-35661.9375874560,-12640.1928259705,-80537.7419171166,-40655.8523883152,-80472.4622236616,-80461.2679425844,-80502.7962918412,-2416.4437505522
5536914091,7097,1,0,-6719.1603656873,-80195.0630714921,-35654.6004662718,-12639.6209442198,-80539.5184008528,-40797.1193484295,-80472.6569068107,-80461.5112965209,-80502.4190932396,-2417.1494769679
5536914091,7097,1,0,-6718.8561732667,-80194.9900653112,-35631.7860347288,-12640.0711490023,-80539.9564379384,-40955.9564627562,-80472.6690745075,-80460.5865515624,-80502.2365777873,-2416.4924213395
5536914091,7097,1,0,-6719.9756013744,-80195.2455869445,-35624.5219197255,-12640.6795338434,-80541.3192199826,-40922.2397748598,-80472.2918759060,-80460.9272470734,-80503.1613227458,-2417.8187002932
5536914091,7097,1,0,-6719.0873595063,-80195.8539717856,-35641.0334843142,-12640.9350554767,-80539.4697300655,-40738.5075528334,-80472.8150868694,-80461.1097625258,-80501.9932238508,-2417.0277999997
5536914091,7097,1,0,-6718.9778502349,-80194.6737051938,-35658.2751107123,-12640.2171613641,-80538.4841466228,-40645.2664920792,-80471.9146773045,-80460.2215206577,-80502.1879070000,-2416.3099058871
5536967606,7098,1,0,-6718.9413471445,-80195.4402700936,-35654.4057831226,-12640.2536644546,-80537.9852710531,-40768.1967330814,-80472.7785837790,-80460.6473900465,-80502.0297269413,-2416.2734027966
5536967606,7098,1,0,-6718.8561732667,-80195.7566302110,-35633.5746861617,-12640.3023352419,-80539.6400778210,-40944.0564552634,-80471.3549632507,-80461.6208057923,-80503.5385213473,-2417.1129738774
5536967606,7098,1,0,-6719.1360302936,-80194.7588790716,-35621.8085233340,-12639.3289194961,-80540.2606303590,-40936.9991911061,-80472.0241865759,-80460.2093529609,-80501.7985407017,-2416.9547938187
5536967606,7098,1,0,-6719.4158873206,-80195.6592886365,-35637.2614982991,-12639.8764658531,-80540.2971334495,-40756.6860918869,-80472.6082360234,-80461.7911535478,-80503.0396457776,-2417.4049986012
5536967606,7098,1,0,-6719.4767258047,-80195.5862824555,-35656.9975025459,-12640.9228877799,-80538.4719789260,-40644.9136288713,-80473.1679500773,-80461.4017872495,-80503.2951674109,-2416.6506013982
5536967606,7098,1,0,-6718.3329623033,-80196.3285119617,-35655.7077266827,-12639.9251366404,-80538.2407926864,-40745.9663509859,-80473.3869686201,-80461.0002532543,-80502.7597887507,-2415.4094963222
5536967606,7098,1,0,-6719.2577072619,-80195.8539717856,-35636.4462626120,-12639.7182857944,-80540.1389533907,-40926.3159532955,-80473.9345149771,-80462.4847122667,-80503.7210367997,-2416.6019306109
5536967606,7098,1,0,-6718.5033100588,-80195.6714563333,-35623.5850070701,-12639.7547888849,-80541.2948845889,-40948.8991985989,-80472.6934099012,-80460.9150793766,-80502.8449626284,-2416.5532598236
5537000063,7099,1,0,-6718.5519808461,-80195.1117422794,-35635.4485114725,-12640.6308630561,-80540.2484626622,-40783.5645341688,-80473.1801177741,-80461.3409487654,-80502.6016086920,-2416.5775952172
5537000063,7099,1,0,-6719.3428811396,-80196.5718658982,-35656.8149870936,-12640.2536644546,-80538.5693205006,-40648.8924657324,-80472.5960683266,-80461.2436071908,-80503.1126519585,-2416.9182907283
5537000063,7099,1,0,-6719.3915519269,-80195.8053009983,-35659.8082405120,-12640.4848506942,-80538.2042895959,-40723.8089750713,-80472.4743913584,-80460.7568993179,-80503.4290120759,-2417.2224831488
5537000063,7099,1,0,-6719.1968687777,-80195.1847484603,-35640.3399255953,-12640.3388383324,-80540.2606303590,-40910.5709536066,-80472.7177452948,-80461.3287810686,-80502.2852485746,-2416.6262660045
5537000063,7099,1,0,-6719.1725333841,-80196.3041765681,-35625.0207952952,-12640.8620492957,-80541.5625739190,-40958.0979773970,-80471.8903419109,-80461.9128305161,-80502.0540623350,-2417.2103154520
5537000063,7099,1,0,-6719.7200797411,-80195.3185931254,-35635.1686544455,-12641.0567324449,-80541.3678907699,-40804.2739541614,-80472.9854346249,-80461.3044456749,-80502.6624471761,-2416.9426261219
5537000063,7099,1,0,-6719.3550488364,-80195.5862824555,-35655.6955589858,-12639.5844411293,-80538.9830221926,-40655.1831649899,-80472.3283789965,-80460.4770422909,-80501.7863730048,-2417.2833216329
5537000063,7099,1,0,-6719.9756013744,-80195.7079594237,-35662.2174444829,-12639.9738074277,-80537.6567432389,-40705.3019082036,-80472.8759253535,-80460.9759178607,-80502.3704224523,-2417.0521353933
5537016357,7100,1,0,-6719.2212041714,-80194.5763636192,-35643.5765329502,-12640.4361799069,-80538.8735129212,-40888.0728821810,-80471.5374787030,-80460.3918684132,-80501.5065159779,-2417.0521353933
5537016357,7100,1,0,-6719.6105704697,-80195.4524377905,-35625.6778509237,-12640.7160369339,-80540.0781149066,-40964.8023783465,-80472.9489315345,-80461.1097625258,-80502.6016086920,-2417.2954893298
5537016357,7100,1,0,-6718.1991176383,-80194.6615374970,-35631.7008608510,-12639.5966088262,-80540.4431458113,-40827.9887952693,-80471.6348202776,-80459.8564897530,-80500.5574356257,-2416.7114398823
5537016357,7100,1,0,-6719.8052536189,-80195.7079594237,-35653.7122244037,-12640.4970183911,-80539.2628792195,-40659.9650698413,-80472.8637576567,-80461.1462656162,-80502.9666395967,-2417.6118494472
5537016357,7100,1,0,-6719.4888935015,-80195.9148102697,-35661.2561964339,-12640.1319874864,-80538.4354758355,-40684.7263328760,-80472.4257205711,-80461.8033212447,-80502.9423042030,-2416.9912969092
5537016357,7100,1,0,-6718.3207946065,-80195.5741147587,-35646.5697863686,-12639.5844411293,-80539.0195252830,-40869.0061012595,-80472.3283789965,-80460.9637501639,-80503.1248196554,-2416.3342412808
5537016357,7100,1,0,-6718.2842915160,-80195.1239099762,-35628.3425765279,-12639.6939504007,-80539.9564379384,-40966.5180235985,-80471.5496463998,-80460.8542408925,-80502.3704224523,-2416.7722783664
5537016357,7100,1,0,-6718.7101609048,-80195.7322948174,-35630.2042341418,-12640.2536644546,-80540.6743320510,-40848.2845135700,-80472.5473975393,-80460.8664085893,-80502.2365777873,-2416.5289244299
5537042123,7101,1,0,-6718.7101609048,-80195.0995745826,-35650.6459648043,-12640.3510060292,-80539.1046991608,-40674.9921754177,-80472.1580312410,-80460.8664085893,-80502.0905654254,-2416.6384337013
5537042123,7101,1,0,-6719.9512659808,-80196.1824995998,-35663.4828849525,-12641.5069372274,-80538.1434511118,-40671.4635433390,-80472.0971927569,-80461.3044456749,-80502.6624471761,-2417.5023401758
5537042123,7101,1,0,-6719.5618996824,-80195.1117422794,-35650.1470892346,-12639.6939504007,-80538.4598112292,-40842.4318513982,-80471.8295034268,-80460.2701914450,-80501.8958822763,-2417.0764707870
5537042123,7101,1,0,-6720.4258061569,-80196.1946672967,-35630.8856251639,-12641.9206389193,-80541.4287292540,-40966.8952222000,-80473.5451486788,-80461.2557748876,-80503.2464966236,-2418.8529545231
5537042123,7101,1,0,-6719.8052536189,-80194.9413945239,-35628.5615950707,-12640.0833166991,-80540.6378289605,-40873.5446521744,-80472.4865590552,-80460.9150793766,-80502.8327949316,-2417.3684955107
5537042123,7101,1,0,-6718.5398131493,-80194.9413945239,-35647.8230591414,-12639.5479380389,-80538.8005067402,-40687.8777663532,-80471.9876834855,-80460.1971852640,-80501.5673544620,-2416.2125643125
5537042123,7101,1,0,-6718.2964592128,-80195.8783071793,-35662.1931090893,-12639.8521304594,-80537.4377246961,-40656.9474810292,-80472.5595652361,-80461.0367563448,-80502.4555963301,-2415.7258564396
5537042123,7101,1,0,-6718.6371547239,-80195.9269779665,-35652.5684609024,-12639.8277950658,-80539.3723884909,-40819.6782583393,-80472.3770497838,-80461.1949364035,-80502.2852485746,-2416.6871044886
5537102603,7102,1,0,-6719.5132288951,-80195.6714563333,-35631.9077116970,-12640.4848506942,-80541.1245368334,-40961.8091249280,-80473.2896270455,-80461.7303150637,-80503.3681735918,-2417.0886384838
5537102603,7102,1,0,-6719.9390982839,-80195.8418040888,-35627.7341916867,-12640.6551984498,-80542.1952941538,-40894.3514137416,-80473.4964778915,-80462.2656937239,-80503.3195028045,-2418.2567373788
5537102603,7102,1,0,-6719.9756013744,-80196.7057105632,-35646.1925877671,-12641.0080616576,-80540.3336365399,-40708.1369815633,-80473.0341054122,-80462.2048552398,-80502.7841241443,-2418.2080665915
5537102603,7102,1,0,-6719.8539244062,-80195.8904748761,-35663.3490402875,-12640.9472231735,-80539.5914070337,-40647.1524850868,-80473.6789933438,-80462.0345074843,-80503.1734904427,-2417.7700295059
5537102603,7102,1,0,-6719.9999367681,-80196.4015181427,-35655.9145775287,-12640.6308630561,-80539.3845561877,-40792.4834559400,-80473.6668256470,-80461.6694765796,-80503.5020182569,-2417.5510109631
5537102603,7102,1,0,-6719.3307134428,-80196.4623566268,-35635.1078159614,-12640.3631737260,-80540.5161519923,-40953.7784450249,-80473.7276641311,-80462.1196813620,-80503.3560058950,-2417.3928309044
5537102603,7102,1,0,-6718.8196701762,-80196.0486549348,-35628.0383841073,-12640.3266706355,-80542.5968281490,-40913.6250455092,-80471.6226525808,-80461.4869611273,-80502.7354533570,-2417.0521353933
5537102603,7102,1,0,-6719.5010611983,-80197.1315799520,-35645.5598675323,-12641.4339310464,-80541.4530646476,-40727.0334147294,-80472.7420806885,-80462.4968799636,-80503.4776828632,-2417.9525449582
5537110401,7103,1,0,-6719.2942103523,-80196.3893504458,-35663.7019034953,-12640.7038692370,-80538.6423266815,-40641.8960400593,-80472.4257205711,-80461.6208057923,-80503.4168443791,-2416.7844460632
5537110401,7103,1,0,-6719.6227381665,-80196.5110274140,-35659.9177497834,-12640.4118445133,-80538.1312834150,-40770.5816016587,-80473.1314469868,-80461.6938119733,-80502.6746148729,-2417.2224831488
5537110401,7103,1,0,-6719.6349058634,-80196.3893504458,-35638.5026033750,-12640.3753414228,-80539.9807733321,-40938.5566562994,-80472.8759253535,-80461.3287810686,-80503.1978258363,-2417.6118494472
5537110401,7103,1,0,-6718.8440055699,-80194.8562206461,-35627.9653779264,-12639.9738074277,-80541.3070522858,-40925.5858914861,-80472.5839006298,-80461.5964703987,-80502.1392362127,-2417.4171662980
5537110401,7103,1,0,-6719.7687505284,-80196.0121518443,-35642.4936079330,-12640.3266706355,-80541.1610399239,-40747.7915055093,-80472.8515899599,-80462.4847122667,-80503.5871921346,-2417.3441601171
5537110401,7103,1,0,-6718.6006516334,-80196.2798411744,-35661.5847242482,-12640.3145029387,-80538.8005067402,-40636.8586135745,-80473.2531239550,-80461.6694765796,-80502.7841241443,-2416.2734027966
5537110401,7103,1,0,-6719.1725333841,-80197.1559153457,-35660.8303270451,-12640.5943599656,-80539.8712640607,-40743.2286192007,-80473.2287885614,-80461.9128305161,-80503.9643907361,-2417.6605202345
5537110401,7103,1,0,-6719.2820426555,-80197.0342383774,-35640.8996396491,-12640.5700245720,-80540.5404873859,-40925.7440715448,-80473.6789933438,-80462.9105816555,-80503.7818752838,-2416.4437505522
5537136047,7104,1,0,-6718.6371547239,-80196.4866920204,-35627.3934961757,-12640.3875091196,-80543.3025545647,-40940.4669847006,-80474.0440242485,-80461.9128305161,-80503.8062106774,-2417.3806632075
5537136047,7104,1,0,-6719.4645581078,-80197.8981448519,-35640.7901303777,-12640.7647077212,-80542.2561326380,-40769.4378381573,-80474.1778689136,-80462.9105816555,-80504.2685831567,-2417.7335264154
5537136047,7104,1,0,-6720.2554584013,-80197.9346479423,-35660.1854391135,-12641.0567324449,-80540.2119595717,-40640.4237487437,-80474.1535335199,-80462.9470847460,-80504.7674587265,-2417.3928309044
5537136047,7104,1,0,-6719.2212041714,-80196.9490644997,-35662.4121276321,-12640.6917015402,-80538.5206497133,-40722.7868885382,-80473.9101795835,-80461.7424827605,-80504.0982354012,-2417.5753463567
5537136047,7104,1,0,-6719.7444151348,-80195.7809656047,-35642.3475955711,-12640.3023352419,-80540.3093011463,-40905.4483532442,-80473.0097700186,-80461.8398243351,-80502.7232856602,-2416.8574522441
5537136047,7104,1,0,-6719.3428811396,-80195.6471209396,-35627.3326576916,-12640.0954843959,-80541.9397725205,-40949.7022665892,-80472.5717329330,-80461.8641597288,-80502.3947578460,-2416.6992721854
5537136047,7104,1,0,-6718.9656825381,-80196.0608226316,-35638.2105786513,-12640.6308630561,-80541.2705491953,-40793.2986916271,-80472.6569068107,-80461.4626257336,-80502.5407702079,-2417.5753463567
5537136047,7104,1,0,-6719.7809182252,-80195.7079594237,-35658.7009801011,-12640.2049936673,-80538.9586867989,-40641.7865307878,-80472.4013851774,-80461.2801102813,-80501.8350437921,-2416.6384337013
5537169114,7105,1,0,-6718.2842915160,-80194.1869973209,-35663.4950526494,-12639.4627641611,-80536.6468244026,-40695.7380985008,-80471.6956587617,-80460.4648745941,-80501.6890314303,-2416.3585766744
5537169114,7105,1,0,-6719.7565828316,-80195.5741147587,-35646.1074138894,-12640.3510060292,-80540.0294441194,-40885.7853551783,-80472.4378882679,-80461.3531164622,-80503.1734904427,-2417.8917064741
5537169114,7105,1,0,-6719.9634336776,-80195.8539717856,-35630.1190602640,-12640.5578568752,-80541.0515306525,-40954.3381590788,-80473.3991363169,-80461.3166133717,-80504.0860677044,-2417.3563278139
5537169114,7105,1,0,-6719.8417567094,-80196.1094934189,-35635.4728468661,-12641.0810678386,-80541.2340461048,-40810.9905228077,-80473.7276641311,-80461.9736690002,-80503.3925089855,-2417.9282095646
5537169114,7105,1,0,-6720.6934954870,-80196.4380212331,-35656.0849252842,-12641.2149125036,-80540.1146179971,-40649.1723227594,-80473.4721424979,-80461.2192717971,-80502.1757393032,-2417.3684955107
5537169114,7105,1,0,-6717.6637389780,-80193.7976310225,-35661.8037427910,-12639.6209442198,-80536.4764766470,-40676.3671251586,-80470.5153921699,-80459.3454464864,-80501.2388266478,-2415.8962041951
5537169114,7105,1,0,-6720.2432907045,-80195.1847484603,-35647.2511773907,-12640.9107200830,-80539.2628792195,-40858.0430064220,-80472.7907514758,-80461.5599673082,-80502.9909749903,-2417.4780047821
5537169114,7105,1,0,-6719.4037196237,-80195.4524377905,-35626.8702852123,-12639.9859751245,-80540.3579719336,-40953.7784450249,-80472.6325714171,-80460.6230546528,-80502.2852485746,-2416.9669615156
5537216356,7106,1,0,-6718.6979932080,-80195.9026425729,-35630.3624142005,-12640.4726829974,-80541.9519402174,-40836.9807232215,-80471.7808326395,-80461.3531164622,-80502.8571303253,-2417.5266755694
5537216356,7106,1,0,-6718.8926763572,-80195.5497793650,-35651.9357406676,-12640.5821922688,-80538.4598112292,-40660.9993240713,-80472.7664160821,-80461.1097625258,-80502.3339193619,-2416.7114398823
5537216356,7106,1,0,-6719.7444151348,-80195.4767731841,-35662.7528231432,-12639.4627641611,-80537.2673769405,-40661.9849075139,-80471.7321618522,-80460.5013776846,-80502.5772732983,-2415.7866949237
5537216356,7106,1,0,-6718.5763162398,-80195.8053009983,-35650.8406479535,-12640.9715585672,-80537.8879294785,-40840.5093553001,-80472.2067020283,-80460.4162038068,-80501.5916898557,-2417.0034646060
5537216356,7106,1,0,-6720.0729429490,-80195.5132762746,-35632.6621089000,-12640.6917015402,-80540.9176859874,-40959.0713931429,-80473.1922854709,-80461.4991288241,-80502.9058011126,-2417.9403772614
5537216356,7106,1,0,-6719.0265210222,-80195.0874068858,-35632.1997364207,-12639.8521304594,-80541.0271952588,-40861.2066075960,-80472.5960683266,-80460.8299054988,-80503.6358629219,-2417.3563278139
5537216356,7106,1,0,-6719.2820426555,-80196.7422136537,-35653.3593611958,-12640.5335214815,-80539.8347609702,-40680.7839991054,-80472.6204037203,-80461.9615013033,-80503.1613227458,-2416.8574522441
5537216356,7106,1,0,-6719.1847010809,-80196.4623566268,-35668.4959760436,-12641.1784094131,-80538.3503019578,-40656.0957422516,-80472.6934099012,-80461.4017872495,-80503.1126519585,-2416.6262660045
5537229313,7107,1,0,-6718.9413471445,-80194.9657299175,-35657.1191795141,-12641.1297386259,-80538.0704449309,-40820.0067861535,-80472.2918759060,-80461.2192717971,-80502.7111179634,-2416.3707443712
5537229313,7107,1,0,-6719.4523904110,-80195.8904748761,-35637.2128275118,-12640.3875091196,-80541.1002014398,-40961.6874479598,-80472.4865590552,-80460.7325639242,-80502.8449626284,-2417.3198247234
5537229313,7107,1,0,-6719.9147628903,-80194.7467113747,-35634.3777541521,-12640.4605153006,-80541.7694247650,-40887.5496712176,-80472.5595652361,-80461.4991288241,-80502.8449626284,-2418.0620542296
5537229313,7107,1,0,-6719.7444151348,-80195.4767731841,-35653.1768457435,-12640.1684905768,-80540.4674812050,-40696.7115142466,-80472.7664160821,-80461.3896195527,-80503.4776828632,-2417.6240171440
5537229313,7107,1,0,-6719.4280550174,-80196.1824995998,-35669.8465903909,-12641.1419063227,-80538.6058235911,-40643.7576976732,-80472.8150868694,-80460.2823591418,-80502.0662300318,-2417.4901724789
5537229313,7107,1,0,-6719.1116949000,-80195.4402700936,-35661.8037427910,-12639.6939504007,-80538.3624696546,-40795.0386722728,-80473.0949438963,-80460.3675330196,-80501.3483359192,-2417.0643030901
5537229313,7107,1,0,-6719.3307134428,-80196.3528473554,-35640.6927888032,-12641.1054032322,-80540.0051087257,-40950.7486885160,-80473.0219377154,-80460.9029116798,-80502.8206272348,-2417.4171662980
5537229313,7107,1,0,-6719.5862350761,-80195.9269779665,-35634.2560771838,-12640.5456891783,-80542.0371140951,-40906.6894583201,-80472.6325714171,-80461.4626257336,-80503.6480306188,-2417.8795387773
5537258742,7108,1,0,-6719.9025951935,-80195.6471209396,-35650.3539400806,-12640.5091860879,-80539.6279101242,-40724.5025337902,-80472.1823666346,-80461.2801102813,-80502.7232856602,-2416.8209491537
5537258742,7108,1,0,-6720.1581168268,-80195.7687979078,-35668.8001684642,-12641.1054032322,-80538.3259665641,-40644.9622996586,-80473.1071115932,-80461.8641597288,-80503.0031426871,-2417.5145078726
5537258742,7108,1,0,-6718.8926763572,-80194.7467113747,-35663.5923942239,-12640.8255462053,-80537.6080724516,-40772.8812963582,-80473.0949438963,-80460.5013776846,-80501.8593791858,-2417.0277999997
5537258742,7108,1,0,-6718.7588316921,-80194.8197175557,-35641.7392107299,-12639.7061180976,-80539.8590963638,-40943.0343687302,-80472.2797082092,-80460.8664085893,-80501.8107083985,-2416.3829120681
5537258742,7108,1,0,-6720.0851106458,-80195.2577546413,-35632.1023948462,-12640.8620492957,-80541.0758660461,-40926.0847670559,-80472.5352298425,-80461.4626257336,-80503.4290120759,-2417.5875140535
5537258742,7108,1,0,-6718.7588316921,-80194.1748296240,-35645.6328737133,-12639.7547888849,-80539.0438606767,-40740.4543843251,-80471.5131433094,-80460.5257130782,-80500.8007895622,-2416.6627690950
5537258742,7108,1,0,-6719.7565828316,-80195.0509037953,-35665.6122318965,-12640.1076520927,-80538.4963143197,-40637.7103523522,-80472.4865590552,-80460.2823591418,-80502.5164348142,-2416.5897629140
5537258742,7108,1,0,-6719.0386887190,-80196.0973257221,-35664.0669344000,-12640.5213537847,-80537.8392586912,-40746.7572512794,-80471.8295034268,-80460.6595577433,-80501.9080499731,-2416.7357752759
5537295655,7109,1,0,-6719.0265210222,-80195.0995745826,-35642.1772478156,-12640.2536644546,-80539.5062331560,-40921.8504085615,-80472.5352298425,-80460.8542408925,-80501.8958822763,-2416.5410921267
5537295655,7109,1,0,-6719.3307134428,-80194.3330096827,-35629.3403276674,-12641.4460987432,-80539.7860901829,-40932.0469384991,-80471.5131433094,-80460.9029116798,-80502.5407702079,-2417.1129738774
5537295655,7109,1,0,-6718.6979932080,-80194.9170591302,-35641.2038320697,-12640.4970183911,-80539.7009163051,-40760.5067486893,-80472.1093604537,-80461.0245886480,-80502.2852485746,-2417.2589862393
5537295655,7109,1,0,-6720.2919614918,-80195.8053009983,-35662.5946430845,-12641.1540740195,-80538.9343514053,-40635.5445023177,-80473.2166208646,-80461.7181473669,-80503.3681735918,-2417.5388432662
5537295655,7109,1,0,-6719.0143533254,-80194.9413945239,-35662.0227613338,-12639.9251366404,-80537.2187061532,-40720.0613244498,-80471.5861494903,-80461.0245886480,-80500.9468019241,-2416.4072474617
5537295655,7109,1,0,-6718.3816330906,-80194.3208419859,-35642.1650801187,-12639.6817827039,-80539.1655376449,-40907.1518307994,-80471.5253110062,-80460.8907439829,-80502.0540623350,-2416.8209491537
5537295655,7109,1,0,-6719.9390982839,-80195.6957917269,-35629.2551537896,-12640.4970183911,-80541.8911017333,-40945.9667836646,-80473.0584408059,-80462.3995383890,-80502.5042671174,-2417.6118494472
5537295655,7109,1,0,-6719.0386887190,-80195.7566302110,-35639.4395160304,-12640.3753414228,-80540.5404873859,-40784.2215897972,-80473.0949438963,-80461.3896195527,-80503.2343289268,-2417.0764707870
5537326390,7110,1,0,-6719.1603656873,-80195.9634810570,-35659.6622281501,-12639.8034596721,-80539.2385438259,-40640.6305995897,-80472.4500559647,-80460.6108869560,-80503.0518134744,-2416.4924213395
5537326390,7110,1,0,-6719.4158873206,-80195.6106178492,-35662.8379970209,-12640.4605153006,-80538.3624696546,-40703.2942382278,-80472.4378882679,-80460.9029116798,-80502.0783977286,-2417.1251415743
5537326390,7110,1,0,-6719.9877690712,-80195.9148102697,-35645.4016874736,-12640.6308630561,-80538.7153328625,-40888.2188945429,-80473.1071115932,-80461.7789858510,-80502.3582547555,-2417.1494769679
5537326390,7110,1,0,-6720.1702845236,-80196.3771827490,-35628.6832720389,-12641.0567324449,-80541.7572570682,-40950.8581977874,-80472.8029191726,-80462.2900291176,-80502.9058011126,-2417.7456941122
5537326390,7110,1,0,-6718.9535148413,-80195.6471209396,-35633.8180400982,-12640.6430307529,-80540.2241272685,-40805.1986991200,-80471.0386031333,-80460.5622161687,-80502.1392362127,-2417.3928309044
5537326390,7110,1,0,-6719.2942103523,-80194.4303512573,-35654.0042491275,-12640.6308630561,-80538.4598112292,-40640.1438917167,-80471.9146773045,-80459.6618066038,-80501.4335097970,-2416.9912969092
5537326390,7110,1,0,-6718.5763162398,-80194.8927237366,-35660.0637621453,-12639.8764658531,-80536.2452904074,-40671.1228478280,-80470.6492368349,-80459.3089433960,-80501.5916898557,-2415.7623595301
5537326390,7110,1,0,-6718.3329623033,-80193.5056062988,-35643.0654896836,-12639.1829071342,-80536.9875199136,-40856.0840072335,-80471.3427955538,-80459.8808251466,-80500.8251249558,-2416.5045890363
5537362597,7111,1,0,-6718.8440055699,-80194.9292268271,-35624.1325534271,-12639.1950748310,-80539.9807733321,-40946.2101376010,-80472.1580312410,-80459.9659990244,-80501.7742053080,-2417.5631786599
5537362597,7111,1,0,-6719.5132288951,-80194.5641959224,-35626.3227388553,-12640.1198197895,-80539.8590963638,-40817.5124083048,-80471.9755157886,-80460.4770422909,-80500.9711373177,-2416.9182907283
5537362597,7111,1,0,-6718.8805086603,-80193.9314756876,-35644.6472902706,-12639.4384287675,-80536.9023460359,-40642.6747726559,-80469.2256163066,-80458.7127262516,-80499.5718521831,-2416.6992721854
5537362597,7111,1,0,-6719.2333718682,-80193.5542770861,-35655.0263356606,-12639.8642981563,-80535.8802595027,-40647.4445098105,-80470.5883983508,-80458.5545461929,-80500.3505847797,-2416.6140983077
5537362597,7111,1,0,-6720.1459491299,-80194.2235004113,-35641.0213166174,-12641.2879186845,-80536.8901783390,-40822.8905303005,-80471.0142677396,-80459.4427880610,-80501.3605036160,-2417.8187002932
5537362597,7111,1,0,-6719.8660921030,-80194.3695127732,-35619.6305056026,-12640.4605153006,-80539.3967238846,-40936.2447939030,-80470.8804230746,-80459.8321543593,-80500.8616280463,-2418.0255511391
5537362597,7111,1,0,-6719.4888935015,-80193.3230908464,-35618.7909345219,-12640.4726829974,-80539.5184008528,-40833.9144636221,-80470.2963736271,-80459.2846080023,-80500.2289078115,-2417.4171662980
5537362597,7111,1,0,-6719.3915519269,-80194.2843388954,-35637.7968769593,-12639.4749318579,-80537.6080724516,-40650.9244711019,-80471.6591556712,-80460.2945268386,-80501.8350437921,-2416.3342412808
5537392721,7112,1,0,-6719.0265210222,-80195.0509037953,-35649.7333875426,-12639.9616397308,-80537.1091968819,-40629.9838648696,-80471.4158017348,-80460.6108869560,-80501.8958822763,-2416.5045890363
5537392721,7112,1,0,-6719.3063780491,-80194.4668543478,-35638.7702927051,-12640.5821922688,-80538.2529603832,-40799.0661799212,-80472.2188697251,-80461.1219302226,-80501.7620376112,-2416.5289244299
5537392721,7112,1,0,-6719.6714089538,-80195.3185931254,-35617.4159847809,-12639.5479380389,-80539.9199348479,-40931.8644230468,-80471.7321618522,-80460.1363467799,-80501.6646960366,-2417.1008061806
5537392721,7112,1,0,-6720.2432907045,-80194.9292268271,-35613.2059616801,-12640.7768754180,-80540.9298536843,-40852.5797105485,-80472.6325714171,-80461.1706010099,-80502.9179688094,-2417.5753463567
5537392721,7112,1,0,-6720.2676260982,-80196.3893504458,-35631.7616993351,-12640.7890431148,-80539.5062331560,-40667.4847064779,-80472.4378882679,-80461.1219302226,-80503.1491550490,-2417.8917064741
5537392721,7112,1,0,-6720.1581168268,-80195.0265684016,-35646.8131403051,-12640.1928259705,-80538.0217741436,-40620.1036950494,-80472.8515899599,-80461.1097625258,-80502.7597887507,-2417.2103154520
5537392721,7112,1,0,-6719.0630241127,-80194.9048914334,-35636.6531134579,-12639.5966088262,-80536.9023460359,-40770.2895769349,-80471.5496463998,-80459.3941172737,-80501.5795221588,-2416.5045890363
5537392721,7112,1,0,-6719.6105704697,-80195.5132762746,-35616.5764137001,-12641.8841358289,-80540.4066427209,-40925.3060344592,-80472.8029191726,-80461.0489240416,-80502.3704224523,-2417.8430356868
5537452873,7113,1,0,-6718.8926763572,-80194.0409849590,-35611.0157762520,-12640.2658321514,-80540.0172764225,-40874.5059002234,-80471.6469879744,-80460.4040361100,-80501.3240005256,-2416.7357752759
5537452873,7113,1,0,-6719.6957443475,-80194.4060158637,-35628.0262164105,-12640.1563228800,-80538.8126744371,-40686.7461705486,-80472.0850250600,-80460.0025021149,-80501.8593791858,-2417.8552033836
5537452873,7113,1,0,-6719.8904274966,-80193.6881217511,-35645.7910537720,-12640.5578568752,-80536.5008120407,-40610.5763884370,-80471.9998511823,-80459.9659990244,-80501.7133668239,-2417.4293339948
5537452873,7113,1,0,-6719.6714089538,-80195.7201271206,-35639.4760191209,-12640.0833166991,-80537.7784202071,-40748.2173748981,-80471.6834910649,-80460.5257130782,-80501.8837145794,-2417.3928309044
5537452873,7113,1,0,-6719.7444151348,-80195.4281023968,-35618.9004437933,-12640.5456891783,-80540.1024503003,-40914.1482564726,-80473.0219377154,-80461.4869611273,-80503.4290120759,-2417.4536693885
5537452873,7113,1,0,-6719.7930859221,-80196.4136858395,-35610.7602546187,-12640.3510060292,-80541.4408969508,-40890.2874030028,-80473.2044531678,-80462.2535260271,-80502.5651056015,-2417.8187002932
5537452873,7113,1,0,-6718.6006516334,-80196.3893504458,-35625.4831677745,-12639.6574473103,-80540.4431458113,-40710.7895394708,-80473.3991363169,-80461.8519920320,-80502.7354533570,-2417.9038741709
5537452873,7113,1,0,-6719.2090364746,-80195.4402700936,-35644.9636503880,-12639.4749318579,-80538.9343514053,-40613.1681078603,-80473.0219377154,-80460.5865515624,-80502.3095839682,-2416.0543842538
5537458913,7114,1,0,-6718.9170117508,-80195.5011085778,-35643.1506635614,-12639.3167517992,-80537.5350662706,-40727.5687933896,-80471.6591556712,-80460.3675330196,-80501.8593791858,-2416.4802536426
5537458913,7114,1,0,-6719.4645581078,-80195.9269779665,-35624.1690565176,-12640.4605153006,-80540.6499966573,-40905.9715642076,-80472.6812422044,-80461.0975948289,-80502.4677640269,-2417.4536693885
5537458913,7114,1,0,-6719.2698749587,-80195.3794316095,-35613.1086201056,-12640.7647077212,-80541.1732076207,-40908.6849605991,-80472.0241865759,-80460.5257130782,-80501.8228760953,-2417.9282095646
5537458913,7114,1,0,-6719.2333718682,-80194.5033574383,-35624.1203857303,-12639.8764658531,-80539.4088915814,-40727.0577501230,-80471.9998511823,-80460.0025021149,-80500.7277833812,-2416.9426261219
5537458913,7114,1,0,-6719.9025951935,-80194.4546866510,-35644.3309301532,-12640.8742169926,-80537.6932463293,-40605.0279186857,-80471.3914663411,-80459.8686574498,-80501.6768637334,-2417.1251415743
5537458913,7114,1,0,-6720.0729429490,-80194.2965065923,-35645.9492338307,-12640.7647077212,-80537.3038800310,-40700.0089600856,-80472.1823666346,-80460.1485144767,-80500.8616280463,-2416.6506013982
5537458913,7114,1,0,-6720.5109800346,-80194.7953821620,-35628.0140487137,-12641.1054032322,-80539.3845561877,-40886.8196094083,-80472.1945343314,-80460.7934024084,-80502.0175592445,-2417.3076570266
5537458913,7114,1,0,-6719.8539244062,-80194.8075498588,-35615.2014639591,-12640.4361799069,-80541.1367045302,-40923.5782215104,-80471.0994416174,-80459.6374712102,-80500.7156156844,-2416.8696199410
5537478827,7115,1,0,-6719.3063780491,-80194.8683883429,-35626.4444158235,-12640.2049936673,-80539.7009163051,-40768.2697392623,-80471.7564972458,-80459.9781667212,-80501.6281929461,-2417.3198247234
5537478827,7115,1,0,-6719.5375642888,-80194.6250344065,-35649.4778659093,-12640.5578568752,-80537.4012216056,-40630.4462373489,-80471.4401371284,-80460.1971852640,-80501.8228760953,-2417.5631786599
5537478827,7115,1,0,-6720.4623092473,-80195.1482453699,-35652.6292993865,-12640.9107200830,-80537.7297494198,-40693.0490375029,-80472.5717329330,-80460.8177378020,-80502.5651056015,-2417.1738123615
5537478827,7115,1,0,-6718.9778502349,-80195.2090838540,-35633.9153816728,-12640.7525400243,-80539.5549039433,-40877.4869859451,-80471.5983171871,-80460.3675330196,-80502.2609131809,-2416.9547938187
5537478827,7115,1,0,-6719.7444151348,-80195.2699223381,-35618.2068850744,-12640.2414967578,-80540.8690152001,-40934.2249562304,-80472.8150868694,-80461.8033212447,-80502.4069255428,-2417.1859800584
5537478827,7115,1,0,-6718.5641485429,-80194.3086742891,-35624.8747829333,-12639.4140933738,-80538.7153328625,-40783.1021616895,-80470.9290938619,-80460.4648745941,-80501.3361682224,-2417.2224831488
5537478827,7115,1,0,-6719.8904274966,-80195.1847484603,-35647.3606866621,-12640.3266706355,-80537.8879294785,-40628.5602443413,-80471.4523048252,-80459.5522973324,-80500.7764541685,-2417.1129738774
5537478827,7115,1,0,-6720.6691600933,-80193.4447678147,-35654.5031246972,-12640.6551984498,-80537.3403831215,-40670.7456492264,-80471.1481124047,-80459.5036265451,-80501.1901558605,-2416.9304584251
5537515620,7116,1,0,-6719.5618996824,-80194.4546866510,-35638.8554665829,-12640.3631737260,-80537.5837370579,-40853.3341077515,-80470.6614045318,-80458.9195770976,-80500.8251249558,-2416.7966137600
5537515620,7116,1,0,-6719.8417567094,-80195.1604130667,-35620.8716106786,-12640.3145029387,-80540.3214688431,-40934.6994964065,-80471.6469879744,-80460.3431976259,-80501.5551867652,-2417.7821972027
5537515620,7116,1,0,-6718.6371547239,-80194.8683883429,-35623.9257025811,-12639.5479380389,-80539.4210592782,-40802.3757934570,-80471.2454539793,-80460.4527068973,-80501.3848390097,-2417.4415016916
5537515620,7116,1,0,-6719.1481979904,-80195.1847484603,-35643.8077191898,-12640.3510060292,-80539.2872146132,-40628.0978718620,-80472.1458635442,-80462.3265322080,-80502.4799317237,-2417.1616446647
5537515620,7116,1,0,-6720.4014707632,-80197.2167538298,-35653.0430010784,-12641.0323970513,-80538.3989727451,-40639.9978793549,-80473.9101795835,-80461.8884951224,-80503.5628567410,-2417.6848556281
5537515620,7116,1,0,-6719.6227381665,-80196.1703319030,-35638.0158955021,-12639.8521304594,-80538.8005067402,-40825.5309205111,-80472.6082360234,-80460.5865515624,-80501.9688884572,-2417.8917064741
5537515620,7116,1,0,-6719.0873595063,-80193.6516186607,-35619.2289716075,-12639.9251366404,-80539.0681960703,-40937.3763897076,-80472.0241865759,-80460.2823591418,-80501.7011991271,-2417.8430356868
5537515620,7116,1,0,-6719.0630241127,-80193.8097987194,-35619.9590334169,-12639.3897579802,-80538.8248421339,-40828.8283663501,-80469.2864547908,-80458.2381860755,-80500.1193985401,-2416.9061230314
5537560578,7117,1,0,-6719.5740673793,-80194.2600035018,-35641.6418691553,-12640.2414967578,-80537.6202401484,-40651.9708930287,-80471.5253110062,-80460.3553653227,-80501.6646960366,-2417.8065325963
5537560578,7117,1,0,-6719.0265210222,-80194.5520282256,-35653.9069075529,-12640.3753414228,-80536.8293398549,-40638.1483894378,-80471.1602801015,-80459.9538313276,-80501.4578451906,-2416.3585766744
5537560578,7117,1,0,-6719.3793842301,-80194.1383265336,-35641.6905399426,-12640.3875091196,-80537.8270909944,-40806.0626055944,-80470.7222430159,-80459.8321543593,-80501.6890314303,-2417.0156323028
5537560578,7117,1,0,-6718.7466639953,-80194.0166495654,-35620.5309151675,-12640.5578568752,-80538.8735129212,-40935.7945891206,-80470.5640629572,-80459.6374712102,-80501.0441434986,-2417.2103154520
5537560578,7117,1,0,-6719.6349058634,-80194.5398605287,-35618.8761083996,-12640.2414967578,-80539.9686056352,-40853.3097723579,-80471.7078264585,-80460.0390052053,-80501.2266589510,-2417.5631786599
5537560578,7117,1,0,-6719.3793842301,-80194.2356681082,-35637.7603738688,-12640.0954843959,-80537.2795446374,-40664.2237637294,-80471.2576216761,-80459.9051605403,-80501.2631620415,-2416.8331168505
5537560578,7117,1,0,-6719.4280550174,-80194.5276928319,-35652.4346162373,-12640.7525400243,-80536.8415075517,-40620.4078874699,-80470.9290938619,-80460.5622161687,-80501.8350437921,-2417.2103154520
5537560578,7117,1,0,-6719.8295890125,-80194.6737051938,-35644.6472902706,-12640.5578568752,-80537.7662525103,-40779.6587034886,-80471.4644725221,-80460.1363467799,-80501.8107083985,-2416.7357752759
5537574057,7118,1,0,-6719.2577072619,-80195.1725807635,-35623.8405287034,-12640.8133785085,-80539.9807733321,-40931.4263859612,-80471.9998511823,-80460.3553653227,-80502.3217516650,-2417.4049986012
5537574057,7118,1,0,-6718.5641485429,-80194.8197175557,-35619.1437977297,-12640.2658321514,-80539.3845561877,-40873.0336089079,-80471.3184601602,-80460.1728498704,-80501.5673544620,-2416.9182907283
5537574057,7118,1,0,-6719.1847010809,-80193.1405753941,-35635.5093499566,-12639.9738074277,-80537.6810786325,-40684.1301157317,-80471.2819570697,-80459.8686574498,-80500.4722617480,-2416.6506013982
5537574057,7118,1,0,-6719.6957443475,-80194.0288172622,-35653.2255165308,-12641.1540740195,-80536.9145137327,-40613.5818095523,-80472.0241865759,-80460.2458560513,-80501.2753297383,-2417.8552033836
5537574057,7118,1,0,-6720.3406322791,-80194.0166495654,-35646.6671279432,-12640.9958939608,-80537.3647185151,-40749.3489707027,-80471.9146773045,-80460.3066945354,-80501.5795221588,-2417.2103154520
5537574057,7118,1,0,-6718.4911423620,-80193.9923141717,-35624.0352118526,-12640.0589813054,-80538.2894634737,-40912.9558221839,-80471.4279694316,-80460.0390052053,-80500.9589696209,-2417.3928309044
5537574057,7118,1,0,-6718.5884839366,-80193.6637863575,-35616.4790721255,-12639.7791242785,-80539.0073575862,-40884.5685854960,-80472.0120188791,-80459.5766327261,-80500.3384170829,-2417.5875140535
5537574057,7118,1,0,-6718.1017760637,-80193.4447678147,-35631.0681406162,-12639.8642981563,-80537.7905879039,-40696.2369740705,-80470.5762306540,-80459.3941172737,-80500.4357586575,-2416.5167567331
5537603843,7119,1,0,-6719.3307134428,-80194.4668543478,-35650.1714246282,-12640.5821922688,-80537.5228985738,-40601.9981621768,-80473.1071115932,-80460.4892099878,-80501.9445530635,-2417.2711539361
5537603843,7119,1,0,-6720.0121044649,-80195.2699223381,-35647.0564942416,-12640.6917015402,-80538.4111404419,-40720.4993615355,-80472.9367638376,-80460.7812347115,-80501.8837145794,-2417.9038741709
5537603843,7119,1,0,-6719.1725333841,-80194.9413945239,-35624.8747829333,-12639.9616397308,-80539.1412022513,-40892.9399609102,-80472.7299129917,-80460.5013776846,-80502.3339193619,-2417.2103154520
5537603843,7119,1,0,-6720.3771353696,-80195.5984501523,-35614.2402159101,-12640.8133785085,-80541.6599154936,-40890.6280985138,-80471.8173357299,-80460.3066945354,-80503.0883165649,-2418.0498865328
5537603843,7119,1,0,-6720.3893030664,-80196.3406796585,-35627.0406329678,-12641.0567324449,-80541.0636983493,-40716.6422016426,-80473.5086455883,-80461.7668181542,-80503.6115275283,-2417.4293339948
5537603843,7119,1,0,-6719.2942103523,-80195.5619470619,-35646.5089478845,-12639.2194102246,-80539.1412022513,-40598.9319025774,-80472.0850250600,-80460.6108869560,-80502.4312609365,-2416.5045890363
5537603843,7119,1,0,-6718.8805086603,-80196.3041765681,-35647.3120158748,-12639.1950748310,-80538.2651280800,-40692.6231681141,-80471.9755157886,-80460.7447316211,-80501.8472114890,-2416.4924213395
5537603843,7119,1,0,-6719.2942103523,-80196.5110274140,-35628.0505518041,-12640.9228877799,-80540.5161519923,-40876.1607069914,-80474.1778689136,-80462.0831782716,-80503.8792168584,-2417.1738123615
5537643863,7120,1,0,-6719.2942103523,-80195.1360776731,-35614.4592344529,-12640.3996768165,-80541.4652323445,-40903.9760619286,-80472.6204037203,-80461.2436071908,-80503.1734904427,-2418.0012157455
5537643863,7120,1,0,-6719.1847010809,-80195.0265684016,-35625.1424722634,-12640.6430307529,-80540.1146179971,-40737.1204353956,-80472.7785837790,-80460.4405392005,-80502.9909749903,-2418.1715635010
5537643863,7120,1,0,-6719.7809182252,-80196.0973257221,-35646.7888049115,-12640.3875091196,-80538.4963143197,-40599.0049087584,-80472.9245961408,-80461.2679425844,-80502.9666395967,-2416.9061230314
5537643863,7120,1,0,-6719.9877690712,-80197.0220706806,-35650.1349215378,-12640.7525400243,-80538.9221837085,-40673.9214180972,-80473.3991363169,-80461.3531164622,-80504.1590738853,-2417.4901724789
5537643863,7120,1,0,-6719.5984027729,-80196.2555057808,-35631.9685501811,-12640.1684905768,-80540.3214688431,-40858.4810435076,-80472.8515899599,-80461.5721350050,-80502.5042671174,-2417.0886384838
5537643863,7120,1,0,-6719.5618996824,-80196.2190026903,-35616.3208920668,-12639.8399627626,-80541.4530646476,-40910.9846552986,-80473.0462731091,-80461.5112965209,-80503.4168443791,-2417.5145078726
5537643863,7120,1,0,-6719.3915519269,-80195.2455869445,-35623.7310194320,-12640.2293290610,-80540.8203444128,-40761.8695307335,-80473.1436146836,-80461.9980043938,-80503.4655151664,-2416.9547938187
5537643863,7120,1,0,-6719.1238625968,-80194.8440529493,-35645.1705012340,-12639.6817827039,-80537.6567432389,-40608.1915198597,-80472.4622236616,-80460.6108869560,-80501.4091744033,-2416.9912969092
5537681055,7121,1,0,-6718.7101609048,-80194.6615374970,-35652.1790946040,-12640.6917015402,-80537.2917123342,-40653.3701781633,-80471.3914663411,-80460.6960608338,-80501.0198081050,-2416.6871044886
5537681055,7121,1,0,-6718.6736578144,-80194.7102082843,-35636.5679395802,-12640.0468136086,-80538.2407926864,-40841.4341002587,-80471.0021000428,-80458.7127262516,-80500.2654109020,-2416.2977381903
5537681055,7121,1,0,-6719.2455395650,-80195.2699223381,-35619.1072946393,-12640.2536644546,-80540.0902826035,-40920.1834340968,-80471.7078264585,-80459.9416636307,-80501.9445530635,-2417.4901724789
5537681055,7121,1,0,-6719.6592412570,-80195.8418040888,-35623.4633301019,-12641.0323970513,-80541.1853753175,-40784.9881546971,-80473.6059871629,-80462.0101720907,-80503.7940429806,-2417.3198247234
5537681055,7121,1,0,-6720.0851106458,-80196.5475305045,-35644.3552655469,-12640.4483476038,-80540.1146179971,-40615.8206657677,-80473.3139624392,-80461.4261226431,-80502.8327949316,-2417.5266755694
5537681055,7121,1,0,-6719.2212041714,-80195.8053009983,-35654.5274600908,-12640.5578568752,-80537.7175817230,-40635.8000239510,-80473.2896270455,-80461.1340979194,-80502.9301365062,-2416.9426261219
5537681055,7121,1,0,-6719.5618996824,-80196.3893504458,-35639.4151806368,-12640.9958939608,-80539.3602207941,-40815.9427754146,-80473.4721424979,-80461.0854271321,-80501.7863730048,-2418.2932404693
5537681055,7121,1,0,-6719.7565828316,-80196.4136858395,-35620.1293811724,-12640.4361799069,-80542.1101202761,-40918.7841489621,-80473.4478071042,-80461.4991288241,-80503.7940429806,-2419.1328115500
5537701394,7122,1,0,-6719.2333718682,-80195.0265684016,-35620.9446168595,-12640.9837262640,-80540.1997918749,-40809.1045298001,-80472.3648820870,-80461.2801102813,-80502.1879070000,-2416.7236075791
5537701394,7122,1,0,-6719.7200797411,-80195.6106178492,-35641.5566952776,-12640.4240122101,-80539.6644132147,-40629.4119831189,-80472.9245961408,-80461.8398243351,-80503.5263536505,-2417.0886384838
5537701394,7122,1,0,-6719.8904274966,-80196.6935428664,-35653.7487274942,-12640.5335214815,-80539.6035747305,-40616.3438767311,-80474.2508750945,-80461.8276566383,-80503.5506890442,-2416.6749367918
5537701394,7122,1,0,-6718.8440055699,-80197.4722754631,-35641.5566952776,-12639.5114349484,-80540.9055182906,-40788.9669915582,-80474.1535335199,-80462.2170229366,-80503.8913845552,-2417.1251415743
5537701394,7122,1,0,-6719.6592412570,-80196.4623566268,-35620.7499337104,-12640.5213537847,-80541.3435553762,-40915.4380323358,-80473.8736764930,-80463.1904386825,-80503.9643907361,-2417.8673710805
5537701394,7122,1,0,-6718.1017760637,-80194.5276928319,-35617.3794816904,-12639.5966088262,-80540.1511210876,-40823.5840890194,-80471.4036340380,-80460.7082285306,-80502.2487454841,-2416.9061230314
5537701394,7122,1,0,-6719.3793842301,-80194.9657299175,-35637.8212123529,-12640.9107200830,-80538.9830221926,-40640.4724195310,-80472.1945343314,-80460.5378807751,-80502.7111179634,-2417.2468185425
5537701394,7122,1,0,-6719.3428811396,-80194.8683883429,-35651.5828774597,-12640.6308630561,-80536.1722842265,-40602.9959133163,-80471.5374787030,-80460.0755082958,-80502.1027331222,-2417.0886384838
5537732600,7123,1,0,-6719.6105704697,-80194.8562206461,-35642.3475955711,-12641.1905771100,-80538.7883390434,-40762.8551141761,-80472.1945343314,-80459.9659990244,-80502.3460870587,-2417.0034646060
5537732600,7123,1,0,-6719.2333718682,-80194.2721711986,-35620.1172134756,-12640.1319874864,-80539.6035747305,-40908.4781097531,-80471.7564972458,-80460.6717254401,-80501.5551867652,-2416.9304584251
5537732600,7123,1,0,-6719.5253965920,-80194.9292268271,-35616.5764137001,-12640.1076520927,-80541.6477477968,-40846.7027129830,-80472.3283789965,-80460.5500484719,-80502.2122423937,-2417.0399676965
5537732600,7123,1,0,-6719.0508564159,-80196.1338288125,-35633.7328662204,-12639.8034596721,-80539.5549039433,-40657.6653751418,-80472.5839006298,-80460.1241790831,-80500.7521187749,-2416.8939553346
5537732600,7123,1,0,-6719.3550488364,-80195.0752391889,-35650.3904431710,-12640.0346459118,-80537.8027556008,-40591.8746384201,-80472.5839006298,-80460.8299054988,-80502.2122423937,-2416.7722783664
5537732600,7123,1,0,-6719.5497319856,-80196.5231951109,-35644.5012779087,-12640.4483476038,-80538.8126744371,-40736.3051997085,-80473.0706085027,-80461.1706010099,-80503.0274780808,-2416.2003966157
5537732600,7123,1,0,-6718.6493224207,-80196.1338288125,-35622.0153741799,-12640.1684905768,-80540.6134935669,-40896.8822946808,-80472.9367638376,-80462.0101720907,-80503.2829997141,-2417.1738123615
5537732600,7123,1,0,-6720.1337814331,-80197.0220706806,-35615.6760041352,-12640.8012108116,-80543.1078714156,-40860.9997567500,-80474.2143720041,-80463.1296001984,-80505.4853528390,-2417.7578618090
5537765061,7124,1,0,-6718.3086269097,-80196.8152198346,-35630.9829667385,-12639.2072425278,-80541.8059278555,-40677.7055718092,-80474.1291981263,-80462.8010723841,-80503.5628567410,-2416.3585766744
5537765061,7124,1,0,-6719.0386887190,-80196.8395552283,-35649.8550645108,-12639.3167517992,-80539.3358854004,-40589.1125712413,-80472.9976023218,-80461.7668181542,-80502.9058011126,-2415.4216640190
5537765061,7124,1,0,-6719.9390982839,-80196.2311703871,-35647.4336928431,-12640.9837262640,-80539.3237177036,-40711.6291105515,-80473.7398318280,-80462.1196813620,-80503.5871921346,-2417.1859800584
5537765061,7124,1,0,-6719.2820426555,-80196.4866920204,-35626.2010618870,-12641.3122540782,-80540.7838413224,-40883.6195051438,-80473.0584408059,-80461.8398243351,-80503.7453721933,-2417.6118494472
5537765061,7124,1,0,-6719.3793842301,-80195.5741147587,-35616.3330597636,-12640.3510060292,-80541.0880337429,-40876.3675578373,-80472.6569068107,-80461.3044456749,-80502.6502794793,-2417.1251415743
5537765061,7124,1,0,-6719.1968687777,-80195.6227855460,-35630.6301035306,-12639.4384287675,-80539.8347609702,-40695.9936201341,-80472.3892174806,-80460.2945268386,-80502.2852485746,-2416.5289244299
5537765061,7124,1,0,-6719.1847010809,-80195.5376116682,-35650.0010768727,-12640.0103105181,-80537.8514263880,-40584.1846540280,-80472.6204037203,-80460.9637501639,-80501.4821805843,-2416.7601106696
5537765061,7124,1,0,-6718.5763162398,-80195.8296363920,-35650.2200954155,-12639.5601057357,-80537.5228985738,-40689.4352315465,-80472.5230621457,-80460.5257130782,-80501.8593791858,-2416.5410921267
5537800164,7125,1,0,-6718.6371547239,-80196.1216611157,-35631.6521900637,-12640.0833166991,-80540.5283196891,-40873.7028322331,-80472.7664160821,-80461.6573088828,-80502.8571303253,-2417.1008061806
5537800164,7125,1,0,-6718.9413471445,-80195.8904748761,-35618.5597482822,-12639.4627641611,-80541.3557230731,-40892.3924145532,-80472.5352298425,-80461.0489240416,-80502.7354533570,-2417.3928309044
5537800164,7125,1,0,-6719.2090364746,-80195.5497793650,-35630.6909420147,-12639.7304534912,-80540.5039842954,-40723.8211427681,-80472.7785837790,-80460.8907439829,-80502.5286025110,-2416.6140983077
5537800164,7125,1,0,-6719.7565828316,-80196.4745243236,-35652.3129392691,-12640.3996768165,-80538.6179912879,-40589.7696268698,-80473.0706085027,-80461.5843027018,-80503.4655151664,-2417.4171662980
5537800164,7125,1,0,-6719.8052536189,-80196.0973257221,-35654.2232676703,-12640.7160369339,-80538.0704449309,-40666.0002474655,-80472.9367638376,-80461.9249982129,-80502.1514039095,-2417.7578618090
5537800164,7125,1,0,-6719.5497319856,-80195.0509037953,-35634.7062819663,-12639.7791242785,-80538.5693205006,-40852.0930026756,-80472.0728573632,-80461.0245886480,-80502.5286025110,-2416.6019306109
5537800164,7125,1,0,-6720.0121044649,-80196.6205366855,-35620.7499337104,-12640.8377139021,-80540.9663567747,-40904.1829127746,-80473.0341054122,-80461.4382903400,-80503.5993598315,-2417.8552033836
5537800164,7125,1,0,-6719.4280550174,-80194.6858728906,-35628.3912473152,-12639.5357703420,-80541.1610399239,-40746.6234066143,-80471.9998511823,-80461.1097625258,-80501.1901558605,-2416.8452845473
5537823721,7126,1,0,-6719.4158873206,-80194.7102082843,-35650.6216294107,-12640.1198197895,-80537.9487679626,-40594.1865008165,-80473.0462731091,-80460.7203962274,-80502.7111179634,-2417.3198247234
5537823721,7126,1,0,-6718.8926763572,-80195.4037670032,-35656.0970929810,-12640.0833166991,-80538.4111404419,-40648.8559626420,-80472.6934099012,-80460.8420731956,-80502.1757393032,-2416.4194151585
5537823721,7126,1,0,-6719.0873595063,-80193.7854633257,-35638.0158955021,-12640.3510060292,-80538.2651280800,-40832.0406383114,-80471.1481124047,-80459.7956512689,-80501.1658204669,-2416.2612350998
5537823721,7126,1,0,-6719.2455395650,-80194.3816804700,-35621.1027969182,-12639.9616397308,-80539.8590963638,-40903.4406832684,-80471.0872739206,-80459.7956512689,-80501.8715468826,-2416.6262660045
5537823721,7126,1,0,-6720.3406322791,-80195.9148102697,-35627.4299992662,-12640.8985523862,-80541.1367045302,-40767.9047083576,-80472.7420806885,-80460.9515824671,-80502.2852485746,-2418.2567373788
5537823721,7126,1,0,-6719.4280550174,-80194.2600035018,-35646.1804200703,-12640.3510060292,-80538.6058235911,-40599.1874242107,-80470.6979076222,-80458.8709063103,-80500.4479263543,-2416.4194151585
5537823721,7126,1,0,-6718.7466639953,-80194.8440529493,-35654.2232676703,-12640.6430307529,-80536.7685013708,-40621.3204647317,-80471.9390126982,-80459.7104773911,-80500.9224665304,-2416.5532598236
5537823721,7126,1,0,-6719.2820426555,-80194.7345436779,-35637.9185539275,-12640.4118445133,-80538.7518359529,-40804.4686373106,-80471.8051680331,-80460.4405392005,-80502.4677640269,-2417.1008061806
5537863807,7127,0,0,-6718.6371547239,-80194.2600035018,-35619.3506485757,-12639.4627641611,-80539.7252516988,-40905.9228934203,-80472.3283789965,-80460.8420731956,-80501.1658204669,-2416.8574522441
5537863807,7127,0,0,-6718.7588316921,-80195.6471209396,-35622.9279514417,-12640.2293290610,-80541.5747416159,-40787.5677064235,-80472.9489315345,-80461.1340979194,-80502.3582547555,-2416.9182907283
5537863807,7127,0,0,-6719.8660921030,-80195.5862824555,-35642.1164093314,-12641.0567324449,-80540.4309781145,-40609.1527679087,-80473.5816517693,-80462.3143645112,-80502.8327949316,-2417.4780047821
5537863807,7127,0,0,-6719.8660921030,-80196.8395552283,-35653.7608951910,-12640.4848506942,-80539.0316929799,-40605.8674897665,-80472.9124284440,-80462.1318490589,-80502.9179688094,-2417.8917064741
5537863807,7127,0,0,-6719.3793842301,-80195.3064254286,-35639.5125222113,-12640.1806582737,-80538.6666620752,-40777.4685180605,-80473.0584408059,-80461.3896195527,-80502.4069255428,-2417.5266755694
5537863807,7127,0,0,-6718.8561732667,-80194.8805560398,-35618.7179283409,-12640.6551984498,-80540.8325121097,-40897.5636857029,-80472.1823666346,-80460.4770422909,-80501.7985407017,-2417.0643030901
5537863807,7127,0,0,-6720.1824522204,-80195.5984501523,-35618.9734499742,-12640.9715585672,-80541.0150275620,-40807.9851016924,-80473.6424902534,-80461.7546504574,-80503.2099935331,-2417.0156323028
5537863807,7127,0,0,-6718.9900179317,-80195.7566302110,-35637.9185539275,-12639.8521304594,-80539.0195252830,-40624.5084012993,-80472.2553728156,-80461.9006628192,-80503.1369873522,-2416.7236075791
5537888789,7128,0,0,-6719.2820426555,-80194.6615374970,-35652.2277653913,-12640.2536644546,-80537.8149232976,-40593.7119606404,-80472.5595652361,-80460.6473900465,-80502.3582547555,-2416.7966137600
5537888789,7128,0,0,-6720.0242721617,-80194.7223759811,-35642.9438127154,-12640.4483476038,-80538.2407926864,-40758.8641096182,-80471.4644725221,-80460.2458560513,-80502.6502794793,-2417.1859800584
5537888789,7128,0,0,-6719.9512659808,-80194.5033574383,-35623.4268270114,-12639.9373043372,-80539.4818977623,-40902.8566338209,-80471.9633480918,-80461.2922779781,-80502.2244100905,-2417.4049986012
5537888789,7128,0,0,-6718.9778502349,-80194.9170591302,-35620.0077042042,-12640.3631737260,-80539.9077671511,-40833.6832773825,-80472.3405466933,-80460.2093529609,-80500.9954727114,-2417.6605202345
5537888789,7128,0,0,-6720.2189553109,-80194.5033574383,-35638.9041373702,-12640.9350554767,-80539.2385438259,-40648.6612794928,-80471.5374787030,-80460.3310299291,-80501.3726713129,-2417.8187002932
5537888789,7128,0,0,-6719.9512659808,-80195.2212515508,-35656.2552730397,-12641.2635832909,-80537.7054140262,-40593.9188114864,-80471.7078264585,-80460.1363467799,-80501.4700128875,-2417.2589862393
5537888789,7128,0,0,-6720.2919614918,-80196.2311703871,-35650.4877847456,-12641.0323970513,-80539.2385438259,-40740.7464090488,-80472.9002607472,-80461.6329734891,-80503.9765584330,-2417.8795387773
5537888789,7128,0,0,-6719.2333718682,-80195.2334192476,-35628.8536197944,-12639.8399627626,-80539.5305685496,-40897.7948719425,-80472.2675405124,-80461.1584333130,-80501.8472114890,-2417.0886384838
5537936248,7129,0,0,-6719.5740673793,-80194.9170591302,-35623.0252930163,-12640.3145029387,-80541.4652323445,-40860.9145828722,-80472.7907514758,-80460.6352223497,-80502.4799317237,-2416.8939553346
5537936248,7129,0,0,-6719.6227381665,-80194.6615374970,-35640.7657949841,-12640.4848506942,-80539.3723884909,-40674.7853245717,-80472.8029191726,-80461.2557748876,-80502.5286025110,-2417.3076570266
5537936248,7129,0,0,-6718.7344962985,-80195.3064254286,-35658.6523093138,-12640.3145029387,-80538.5814881974,-40587.7619568940,-80471.6348202776,-80460.3431976259,-80501.6646960366,-2416.3950797649
5537936248,7129,0,0,-6719.2820426555,-80195.4889408809,-35654.7221432400,-12640.3875091196,-80538.1921218991,-40714.5736931827,-80472.5595652361,-80461.5477996114,-80501.5916898557,-2417.0886384838
5537936248,7129,0,0,-6719.8174213157,-80195.5376116682,-35633.4043384062,-12640.2658321514,-80539.8590963638,-40885.3351503959,-80472.8029191726,-80461.1584333130,-80502.6502794793,-2416.6992721854
5537936248,7129,0,0,-6719.3428811396,-80195.9878164507,-35624.1082180335,-12640.8377139021,-80541.6234124032,-40872.6320749127,-80471.7078264585,-80460.3188622323,-80503.2464966236,-2417.2346508457
5537936248,7129,0,0,-6718.9778502349,-80195.5984501523,-35638.9163050670,-12640.6308630561,-80540.9420213811,-40695.2148875374,-80472.9732669281,-80460.7812347115,-80502.2244100905,-2417.4049986012
5537936248,7129,0,0,-6718.8805086603,-80195.1847484603,-35658.2264399250,-12639.9616397308,-80538.4598112292,-40591.3514274567,-80470.8560876809,-80460.0390052053,-80502.0905654254,-2416.5897629140
5537958696,7130,0,0,-6718.5154777557,-80193.6881217511,-35655.4887081399,-12638.6961992613,-80537.1943707596,-40698.2689794399,-80471.2697893729,-80459.2846080023,-80500.9224665304,-2416.2003966157
5537958696,7130,0,0,-6718.7831670858,-80195.0509037953,-35635.7283684994,-12640.3875091196,-80539.6522455178,-40878.1562092703,-80471.7930003363,-80461.2071041003,-80501.4943482811,-2416.7114398823
5537958696,7130,0,0,-6719.4888935015,-80195.4889408809,-35622.7576036861,-12640.0346459118,-80541.3922261635,-40892.1368929199,-80472.6812422044,-80461.1219302226,-80502.3217516650,-2417.7943648995
5537958696,7130,0,0,-6720.0729429490,-80196.1824995998,-35635.5945238343,-12640.8012108116,-80540.7230028383,-40717.9563128995,-80471.7930003363,-80461.7303150637,-80502.8814657189,-2418.2567373788
5537958696,7130,0,0,-6720.0729429490,-80195.2820900349,-35653.6392182228,-12641.6164464988,-80537.6324078452,-40585.0607281993,-80471.9268450013,-80460.5743838655,-80502.5529379047,-2418.1228927137
5537958696,7130,0,0,-6719.4767258047,-80195.3185931254,-35654.1989322766,-12640.2779998482,-80537.4620600897,-40667.0345016955,-80472.1945343314,-80460.5865515624,-80501.7377022175,-2416.7236075791
5537958696,7130,0,0,-6719.9269305871,-80196.1216611157,-35635.2538283233,-12640.5943599656,-80539.5914070337,-40852.4823689739,-80472.4865590552,-80461.2801102813,-80502.3460870587,-2418.2080665915
5537958696,7130,0,0,-6718.8926763572,-80195.6106178492,-35619.2776423948,-12640.0346459118,-80540.7230028383,-40890.0440490663,-80472.7177452948,-80461.7181473669,-80503.2221612299,-2416.8696199410
5537982665,7131,0,0,-6718.7831670858,-80195.4646054873,-35628.2695703469,-12639.7791242785,-80541.1975430144,-40732.9469153853,-80472.9610992313,-80461.9615013033,-80503.2343289268,-2416.8939553346
5537982665,7131,0,0,-6719.0751918095,-80196.9368968029,-35649.7942260267,-12640.5821922688,-80539.9442702416,-40585.9246346737,-80473.1922854709,-80461.3409487654,-80503.5141859537,-2417.3441601171
5537982665,7131,0,0,-6720.2797937950,-80197.7034617027,-35654.2962738512,-12641.3244217750,-80540.6013258700,-40640.1073886263,-80474.7010798770,-80463.7623204331,-80504.1955769758,-2417.4049986012
5537982665,7131,0,0,-6718.9778502349,-80195.9391456634,-35634.9374682059,-12639.4870995548,-80540.2606303590,-40827.0397149171,-80472.7907514758,-80462.3508676017,-80503.1734904427,-2416.4924213395
5537982665,7131,0,0,-6719.3793842301,-80196.4501889299,-35619.2289716075,-12640.4726829974,-80541.9276048237,-40901.7372057132,-80473.9101795835,-80462.5090476604,-80503.7575398902,-2417.4658370853
5537982665,7131,0,0,-6718.5884839366,-80196.1094934189,-35626.3349065521,-12639.9008012467,-80540.8325121097,-40760.7379349289,-80473.1679500773,-80462.3143645112,-80503.8792168584,-2417.2346508457
5537982665,7131,0,0,-6719.5132288951,-80196.3285119617,-35646.7279664273,-12639.8156273690,-80540.0294441194,-40596.7295494525,-80473.3261301360,-80462.1440167557,-80503.3316705014,-2416.5167567331
5537982665,7131,0,0,-6719.4402227142,-80196.6205366855,-35654.8438202082,-12640.4361799069,-80539.4088915814,-40629.3146415443,-80473.3504655296,-80461.7181473669,-80503.1248196554,-2417.1981477552
5538032473,7132,0,0,-6718.9413471445,-80195.2455869445,-35638.5026033750,-12640.3388383324,-80539.0681960703,-40812.6331618788,-80472.3405466933,-80460.7082285306,-80501.7011991271,-2416.6992721854
5538032473,7132,0,0,-6719.4158873206,-80195.7931333015,-35620.2267227470,-12640.3753414228,-80541.5990770095,-40906.4704397773,-80472.9489315345,-80461.3531164622,-80502.2852485746,-2417.6361848408
5538032473,7132,0,0,-6719.4888935015,-80195.7931333015,-35622.6967652020,-12640.1928259705,-80541.8059278555,-40784.2337574940,-80473.3991363169,-80461.7668181542,-80503.0274780808,-2417.1981477552
5538032473,7132,0,0,-6720.0607752522,-80195.9513133602,-35643.2358374392,-12639.8521304594,-80540.3579719336,-40607.9116628328,-80473.6789933438,-80461.9371659097,-80503.8305460711,-2417.0156323028
5538032473,7132,0,0,-6719.8539244062,-80197.4479400694,-35652.6049639928,-12640.5213537847,-80539.8834317575,-40605.0400863826,-80474.4212228500,-80462.3386999049,-80503.4533474696,-2416.3707443712
5538032473,7132,0,0,-6719.4158873206,-80196.9368968029,-35638.9649758543,-12640.3145029387,-80541.6477477968,-40781.8367212199,-80473.7276641311,-80462.7402339000,-80504.0495646139,-2417.1251415743
5538032473,7132,0,0,-6718.7101609048,-80196.1216611157,-35618.0608727125,-12639.8521304594,-80541.7937601587,-40898.4397598742,-80474.0683596422,-80462.9835878365,-80504.1225707948,-2416.5167567331
5538032473,7132,0,0,-6719.0143533254,-80196.7300459569,-35617.8296864729,-12640.0954843959,-80542.0736171856,-40798.0197579944,-80473.1436146836,-80462.3873706922,-80504.1225707948,-2417.8308679900
5538037648,7133,0,0,-6719.5010611983,-80197.0585737711,-35635.2538283233,-12640.1928259705,-80540.9055182906,-40613.5209710682,-80473.0341054122,-80461.7668181542,-80504.2320800663,-2417.1859800584
5538037648,7133,0,0,-6719.0508564159,-80196.8760583187,-35647.5188667208,-12640.4848506942,-80539.1655376449,-40588.1148201019,-80474.2873781850,-80463.1174325015,-80504.2320800663,-2416.9791292124
5538037648,7133,0,0,-6719.7200797411,-80197.7521324900,-35636.4462626120,-12640.2658321514,-80541.3192199826,-40749.4341445804,-80474.4820613342,-80463.1417678952,-80504.3172539440,-2416.6019306109
5538037648,7133,0,0,-6719.1968687777,-80197.5452816440,-35613.3763094357,-12640.1198197895,-80542.1466233665,-40882.6095863075,-80473.9831857644,-80463.1174325015,-80504.5849432741,-2417.0034646060
5538037648,7133,0,0,-6720.1824522204,-80197.7886355805,-35609.3609694841,-12640.9837262640,-80544.0812871614,-40809.0680267097,-80475.7231664101,-80464.3950406679,-80505.1203219343,-2418.3054081661
5538037648,7133,0,0,-6719.9512659808,-80197.9103125487,-35626.3592419457,-12640.6551984498,-80541.6355801000,-40621.6368248491,-80475.0296076912,-80463.5554695872,-80505.4975205358,-2416.8696199410
5538037648,7133,0,0,-6718.5884839366,-80198.1171633947,-35640.2060809302,-12639.9008012467,-80540.1997918749,-40564.8623514732,-80474.5550675151,-80463.5919726776,-80504.5484401837,-2416.5045890363
5538037648,7133,0,0,-6717.9679313986,-80196.1703319030,-35630.4962588655,-12639.3167517992,-80539.4940654591,-40715.6809535936,-80473.7885026153,-80461.8884951224,-80502.8206272348,-2416.0787196475
5538075038,7134,0,0,-6719.2090364746,-80196.6448720791,-35609.1419509413,-12640.2779998482,-80541.9884433078,-40872.8997642428,-80473.9953534612,-80462.1683521493,-80503.7818752838,-2416.3585766744
5538075038,7134,0,0,-6719.3428811396,-80197.5696170376,-35602.7782455029,-12640.5578568752,-80542.5968281490,-40823.7057659877,-80473.9953534612,-80463.5433018903,-80505.3636758708,-2418.2080665915
5538075038,7134,0,0,-6719.6957443475,-80196.9733998933,-35618.4259036172,-12640.5821922688,-80542.4873188776,-40635.2889806844,-80474.5063967278,-80462.8497431714,-80504.2442477631,-2417.5753463567
5538075038,7134,0,0,-6719.1725333841,-80197.7277970963,-35635.8257100740,-12640.4240122101,-80539.9077671511,-40558.2917951888,-80475.0174399944,-80462.7402339000,-80503.8913845552,-2417.5996817503
5538075038,7134,0,0,-6718.8075024794,-80198.2023372724,-35630.1677310513,-12639.5966088262,-80540.8325121097,-40689.1310391259,-80473.9345149771,-80463.7014819490,-80504.6579494551,-2416.9669615156
5538075038,7134,0,0,-6719.4888935015,-80197.3992692821,-35608.6065722811,-12639.3289194961,-80542.3778096062,-40857.4467892777,-80474.6645767865,-80462.8862462619,-80504.3780924281,-2417.2711539361
5538075038,7134,0,0,-6719.5740673793,-80197.0829091647,-35600.4420477129,-12639.9251366404,-80542.4873188776,-40840.0591505177,-80473.6059871629,-80461.3287810686,-80503.8427137679,-2417.5510109631
5538075038,7134,0,0,-6718.8926763572,-80194.1504942304,-35615.2014639591,-12639.4992672516,-80539.4818977623,-40656.1687484326,-80471.8295034268,-80459.8078189657,-80501.7133668239,-2416.3829120681
5538108834,7135,0,0,-6719.3185457460,-80194.1869973209,-35635.1929898392,-12640.4118445133,-80536.5859859185,-40553.6437350024,-80471.0386031333,-80460.0633405990,-80501.0684788923,-2417.2103154520
5538108834,7135,0,0,-6719.0143533254,-80193.8828049003,-35632.3214133890,-12640.5943599656,-80537.1822030628,-40666.6694707908,-80471.9998511823,-80460.0755082958,-80501.5916898557,-2416.9061230314
5538108834,7135,0,0,-6718.5398131493,-80194.2600035018,-35612.1838751470,-12640.3266706355,-80539.0560283735,-40847.5787871543,-80471.8903419109,-80460.8664085893,-80501.3848390097,-2417.9525449582
5538108834,7135,0,0,-6719.0021856286,-80194.1748296240,-35600.6002277716,-12640.8620492957,-80540.5283196891,-40853.9911633800,-80472.3283789965,-80460.8177378020,-80501.4456774938,-2418.1593958042
5538108834,7135,0,0,-6719.0995272032,-80194.4546866510,-35613.0234462278,-12640.4240122101,-80540.3701396304,-40679.4333847580,-80472.4622236616,-80460.3188622323,-80502.2122423937,-2417.6726879313
5538108834,7135,0,0,-6719.4888935015,-80195.5984501523,-35633.9275493696,-12639.6331119166,-80538.2529603832,-40556.4058021813,-80472.7785837790,-80460.3310299291,-80501.6525283398,-2416.3464089776
5538108834,7135,0,0,-6719.3672165333,-80195.5741147587,-35635.9960578295,-12640.1076520927,-80538.9586867989,-40643.9523808223,-80472.9489315345,-80461.9128305161,-80503.4411797728,-2416.9669615156
5538108834,7135,0,0,-6718.7101609048,-80195.5132762746,-35615.0432839004,-12640.2779998482,-80539.6644132147,-40828.8770371374,-80472.3405466933,-80461.0854271321,-80501.8837145794,-2417.1738123615
5538159987,7136,0,0,-6719.2698749587,-80195.2212515508,-35601.8048297570,-12640.1441551832,-80541.0150275620,-40868.1421947850,-80472.2797082092,-80461.9736690002,-80502.3947578460,-2417.9282095646
5538159987,7136,0,0,-6719.9756013744,-80195.0387360985,-35611.2347947948,-12639.5479380389,-80540.4553135082,-40705.3870820814,-80471.2941247665,-80459.3454464864,-80501.3726713129,-2416.7236075791
5538159987,7136,0,0,-6720.5596508219,-80195.2212515508,-35632.3700841763,-12641.2757509877,-80538.4598112292,-40559.7640865044,-80472.1458635442,-80460.6352223497,-80502.8936334157,-2417.7335264154
5538159987,7136,0,0,-6719.8904274966,-80195.4281023968,-35636.6409457611,-12640.0833166991,-80538.7518359529,-40620.9432661301,-80472.5473975393,-80461.8884951224,-80501.7863730048,-2416.8452845473
5538159987,7136,0,0,-6719.4523904110,-80195.6227855460,-35618.6814252505,-12640.5213537847,-80540.4918165986,-40804.7606620343,-80472.5595652361,-80461.2801102813,-80502.0540623350,-2417.4415016916
5538159987,7136,0,0,-6718.5276454525,-80194.9170591302,-35601.3789603682,-12640.0346459118,-80540.6621643541,-40864.4432149509,-80471.6834910649,-80460.6473900465,-80501.7498699144,-2417.4658370853
5538159987,7136,0,0,-6719.8295890125,-80195.7201271206,-35609.4583110587,-12640.5578568752,-80540.0659472098,-40722.7503854477,-80472.8637576567,-80461.8276566383,-80502.8936334157,-2418.0133834423
5538159987,7136,0,0,-6719.4523904110,-80196.1581642062,-35631.2019852813,-12640.6065276625,-80538.3137988673,-40567.1742138696,-80472.5473975393,-80461.8398243351,-80502.8084595380,-2417.2224831488
5538167411,7137,0,0,-6719.1116949000,-80195.3307608222,-35639.6220314827,-12640.6795338434,-80537.1578676691,-40607.3397810821,-80472.3527143901,-80460.9515824671,-80502.1514039095,-2417.2346508457
5538167411,7137,0,0,-6719.2942103523,-80195.9878164507,-35624.4124104541,-12640.6551984498,-80540.5404873859,-40797.4113731533,-80474.1413658231,-80462.5820538413,-80503.7575398902,-2417.7821972027
5538167411,7137,0,0,-6719.5010611983,-80196.9003937124,-35607.7548335035,-12640.0711490023,-80542.3048034252,-40890.5550923329,-80474.5550675151,-80462.1318490589,-80503.5385213473,-2418.1958988947
5538167411,7137,0,0,-6719.1725333841,-80197.6304555218,-35612.6827507167,-12640.6673661466,-80542.9740267505,-40761.2124751050,-80475.0904461753,-80463.2026063793,-80504.9621418756,-2417.5023401758
5538167411,7137,0,0,-6719.0386887190,-80196.9368968029,-35632.3092456922,-12639.8399627626,-80539.6522455178,-40584.5618526296,-80473.8493410994,-80462.0710105748,-80503.8670491616,-2416.5532598236
5538167411,7137,0,0,-6719.0386887190,-80196.8760583187,-35643.5035267693,-12640.5943599656,-80539.0681960703,-40591.3757628504,-80474.2995458818,-80462.4482091763,-80503.8305460711,-2416.1517258284
5538167411,7137,0,0,-6720.0607752522,-80197.1194122552,-35630.7274451052,-12641.2392478973,-80541.5504062222,-40771.7375328569,-80475.3094647181,-80463.3851218316,-80504.9986449661,-2418.1593958042
5538167411,7137,0,0,-6718.3694653938,-80195.8783071793,-35611.6606641836,-12639.5114349484,-80541.3557230731,-40883.1206295741,-80473.8371734025,-80461.7059796701,-80503.2221612299,-2416.7722783664
5538211491,7138,0,0,-6718.4668069684,-80197.0585737711,-35613.2059616801,-12639.6939504007,-80542.8280143886,-40781.3865164375,-80473.5694840724,-80462.7889046873,-80503.7575398902,-2417.7821972027
5538211491,7138,0,0,-6718.8805086603,-80196.7422136537,-35633.7693693109,-12640.8012108116,-80540.1997918749,-40598.3965239172,-80473.9101795835,-80462.6550600223,-80504.1469061885,-2416.9182907283
5538211491,7138,0,0,-6719.0508564159,-80195.9513133602,-35647.0199911511,-12639.9494720340,-80538.7153328625,-40571.3720692735,-80473.2652916519,-80461.4626257336,-80502.4799317237,-2417.2589862393
5538211491,7138,0,0,-6719.4767258047,-80195.9756487538,-35634.3169156679,-12640.7768754180,-80538.9465191021,-40734.9545853611,-80473.8128380089,-80461.9858366970,-80503.4533474696,-2417.1616446647
5538211491,7138,0,0,-6720.5474831251,-80196.4015181427,-35612.6705830199,-12641.3000863814,-80541.5260708286,-40868.6045672643,-80473.2287885614,-80463.0565940174,-80503.1369873522,-2418.2810727724
5538211491,7138,0,0,-6718.9778502349,-80195.5497793650,-35607.8278396844,-12640.2779998482,-80541.1853753175,-40788.2125943551,-80472.8515899599,-80461.3652841590,-80502.3095839682,-2417.2833216329
5538211491,7138,0,0,-6718.6979932080,-80195.0874068858,-35626.3349065521,-12639.6209442198,-80538.4841466228,-40603.0080810131,-80471.6104848839,-80460.7690670147,-80502.6746148729,-2415.9813780729
5538211491,7138,0,0,-6718.4303038779,-80195.3550962159,-35642.4936079330,-12640.1198197895,-80538.0339418404,-40558.9731862109,-80472.3040436029,-80461.0489240416,-80502.1879070000,-2415.7015210460
5538233677,7139,0,0,-6718.9291794476,-80195.0387360985,-35634.2317417902,-12639.8886335499,-80538.0461095372,-40713.6367805273,-80472.0485219696,-80461.0732594353,-80502.2974162714,-2416.5410921267
