steady_timestamp,sequence,battery,flags,EEG-ch1,EEG-ch2,EEG-ch3,EEG-ch4,EEG-ch5,EEG-ch6,EEG-ch7,EEG-ch8,EEG-ch9,EEG-ch10
9358819816,18523,-2,0,20009.3393882425,47162.5160966866,50112.5985268025,60013.7941271415,70796.7827162390,57278.4715459505,58874.8612014236,59735.0321929279,65019.3047430729,11287.7533241005
9358819816,18523,-2,0,20240.6838079371,47217.4289124485,50165.5888464664,60039.1881104109,70838.3840716767,57269.0294132158,58893.7454668928,59770.4888614699,65022.1033133421,11283.7136487553
9358819816,18523,-2,0,20366.0110852134,47228.8057089780,50184.9719875054,60042.6924070959,70839.1993073638,57270.0880028394,58893.2709267167,59764.5875285108,65014.2916519818,11286.5973929023
9358819816,18523,-2,0,20181.1350996856,47177.3120160233,50135.3399521646,60013.1127361194,70792.8038793779,57285.9911825870,58871.5515878878,59711.7067181183,65006.7963507389,11295.0417744974
9358819816,18523,-2,0,19952.1025423874,47141.4538134861,50096.2573099693,60006.0798073557,70773.1895520993,57289.1426160642,58872.3911589686,59699.7702075350,65017.4674208526,11298.3878911237
9358819816,18523,-2,0,20010.8725180422,47166.4462627604,50121.9311502657,60026.2660163850,70805.1784270468,57262.6413723838,58890.4236856602,59746.1291324304,65026.7270381349,11293.0827753089
9358819816,18523,-2,0,20234.7338041907,47205.4193956843,50161.3909910625,60036.0123415402,70835.5976691042,57251.6417744559,58891.9689831567,59768.9192285797,65015.4597508768,11285.4657970978
9358819816,18523,-2,0,20316.9874347138,47206.3198052492,50161.2328110038,60024.8910666440,70823.7585000955,57256.8860517866,58876.7228590375,59745.7519338289,65001.1383717162,11286.6582313864
9358829359,18524,-2,0,20180.4415409667,47169.3421746043,50129.8158178070,60006.1649812335,70788.8007071232,57269.9176550839,58862.2798029087,59716.2331013364,65002.5376568509,11287.6803179195
9358829359,18524,-2,0,19976.9489792998,47132.1211900229,50095.4299065853,59993.5105765376,70763.7474193647,57276.9870869381,58855.2955449323,59700.1960769238,65010.8360260841,11285.1494369804
9358829359,18524,-2,0,19949.2796367245,47141.9648567526,50097.5105827421,59998.5236676287,70780.0886361979,57268.7860592794,58862.2067967278,59716.0019150968,65018.7571967158,11277.6663034343
9358829359,18524,-2,0,20167.5072792439,47190.5869732571,50140.8519188254,60015.6436170585,70820.4123834692,57242.3821571736,58873.2672331398,59751.6897698785,65016.8103652242,11261.5684405375
9358829359,18524,-2,0,20343.3548337291,47207.4392333569,50161.1354694292,60012.3583389164,70823.6246554304,57242.8688650465,58867.0373723665,59750.9718757659,65002.2821352176,11255.1560643118
9358829359,18524,-2,0,20207.6485110628,47166.7626228778,50116.9667299619,59988.8746840481,70780.7213564327,57273.2516040134,58849.5767274255,59703.1528272517,64993.1198595099,11265.6446189732
9358829359,18524,-2,0,19972.3495899008,47130.7584079787,50077.9084231603,59988.6313301116,70759.8294209877,57288.5220635262,58853.0566887169,59691.4109998176,65011.7607710426,11283.0322577332
9358829359,18524,-2,0,19970.8407954947,47150.6647599810,50100.9905440334,60011.8837987403,70785.5154289810,57270.5382076219,58871.1013831053,59730.7613313430,65024.7923743400,11291.2454530887
9358918274,18525,-2,0,20175.0999220614,47197.8754236540,50154.2242176338,60029.2592698034,70822.3470472640,57261.3880996110,58880.9815529256,59758.4915124025,65023.0037229070,11296.2707118765
9358918274,18525,-2,0,20318.5692353007,47213.1580508637,50175.2621654407,60022.1655025556,70827.5304861106,57257.0077287548,58874.2893196729,59749.1588889393,65008.6701760496,11296.3923888448
9358918274,18525,-2,0,20242.5089624605,47181.3760267621,50144.2832093294,60001.4317471694,70796.6367038771,57259.5994481781,58858.8850154951,59717.2551878695,65000.0919497894,11296.0030225464
9358918274,18525,-2,0,20021.1542218576,47134.7737479303,50099.0558802386,59985.6624120868,70763.3458853696,57280.0046757501,58851.5235589172,59690.0238823798,65003.5354079903,11295.5163146735
9358918274,18525,-2,0,19923.5571256408,47131.4397990008,50090.2708031324,59993.9242782296,70767.7505916195,57278.3863720727,58859.9314374219,59699.3930089335,65015.1190553658,11294.1535326293
9358918274,18525,-2,0,20119.0676781918,47186.2552731881,50144.6969110214,60022.7617197000,70816.2631988525,57261.9843167554,58879.2902430672,59750.8988695850,65020.7648666916,11295.3216315243
9358918274,18525,-2,0,20343.2939952450,47224.4618412122,50185.7142170116,60032.8730757598,70837.8973638037,57262.2641737823,58879.1198953116,59764.1251560315,65009.7287656732,11298.5582388793
9358918274,18525,-2,0,20262.9141900326,47191.8402460299,50149.4544804792,60004.6318514338,70798.5348645815,57274.9915846591,58857.2180410304,59712.6436307736,64996.1496160188,11300.6024119455
9358925606,18526,-2,0,20014.6810071478,47140.1153668355,50091.6457528734,59981.0265195973,70757.1646953835,57269.8203135093,58847.7759082957,59680.8494389753,64997.8165904836,11295.2242899498
9358925606,18526,-2,0,19940.8230874325,47134.5547293875,50087.0220280807,59988.5096531434,70763.6987485774,57257.8472998356,58858.5443199841,59701.8265482980,65005.2267178487,11285.6118094596
9358925606,18526,-2,0,20097.6768671771,47170.7292920421,50127.9906632835,60007.5764340649,70801.0170747334,57259.6359512685,58868.8990299804,59732.0511072062,65008.1834681767,11280.8542400019
9358925606,18526,-2,0,20295.2072574007,47209.6780895723,50168.3509136452,60026.9474074071,70829.8423485070,57264.9532347802,58877.4285854533,59750.4608324993,65009.8991134287,11288.8970876018
9358925606,18526,-2,0,20301.0599195725,47198.2161191651,50157.2053033554,60017.8459701835,70811.5908032725,57259.8549698113,58866.1491304984,59732.4648088982,65004.5574945235,11294.1291972357
9358925606,18526,-2,0,20075.3369758101,47138.0103552852,50096.4763285121,59986.7331694072,70759.8172532909,57266.2916814307,58843.5537174982,59685.6678469172,64993.7282443510,11293.8006694215
9358925606,18526,-2,0,19914.4678561140,47118.7123881240,50070.6078050665,59985.4677289376,70751.6527287227,57279.4327939995,58849.8444167557,59685.1689713474,65005.9324442645,11294.9200975292
9358925606,18526,-2,0,20072.1125361520,47168.8311313377,50122.5760381973,60017.4322684915,70802.4528629585,57264.6612100564,58876.5768466757,59743.0628728310,65021.7991209216,11290.6979067316
9358927989,18527,-2,0,20322.1830412572,47213.9732865508,50173.0476446189,60031.4737906252,70831.9108569668,57249.8896261134,58881.3709192239,59765.6826212248,65013.0140438154,11289.0552676605
9358927989,18527,-2,0,20302.8485710055,47192.5216370520,50147.7388352272,60007.5642663681,70802.3311859903,57267.6301280812,58860.3694745075,59724.0082596063,64999.7147511879,11294.3360480817
9358927989,18527,-2,0,20078.1233783826,47143.7656758824,50096.9508686882,59985.5529028154,70765.3413876485,57273.8356534609,58848.5181378019,59692.4817571380,65003.1338739952,11299.9696917107
9358927989,18527,-2,0,19946.9069358440,47125.9278323400,50083.3108805497,59988.2176284196,70761.8979294476,57267.2042586924,58850.7691617142,59704.8563048070,65011.6999325585,11299.5924931092
9358927989,18527,-2,0,20038.6270344953,47153.8040257614,50113.1339054627,60004.6196837370,70788.9588871819,57263.4931111614,58861.1360394073,59730.5788158907,65012.1866404314,11295.2121222529
9358927989,18527,-2,0,20251.9632628920,47195.4905550768,50154.2363853306,60018.3205103596,70819.5363092979,57250.9847188274,58867.6335895108,59749.2562305139,65008.3538159322,11289.7488263794
9358927989,18527,-2,0,20327.4029831942,47193.5315558883,50157.3513157173,60009.6084394344,70810.5078782553,57251.0820604020,58858.2766306539,59735.6892485563,64997.8044227867,11287.9358395528
9358927989,18527,-2,0,20131.2840458020,47140.3830561656,50102.6818538918,59983.1923696318,70764.6478289296,57266.2308429466,58841.8137368525,59687.3104859883,64987.7295698173,11292.4257196805
9358944389,18528,-2,0,19927.0614223258,47112.7380489839,50067.6388870417,59981.8417552844,70748.6959783948,57277.7779872315,58849.6010628192,59681.9810347798,65000.5543222687,11298.5339034856
9358944389,18528,-2,0,20028.1019767435,47154.6922676294,50108.0964789780,60012.4556804909,70788.3383346439,57262.4831923251,58872.0261280639,59736.7478381799,65018.3556627207,11296.7087489622
9358944389,18528,-2,0,20276.9678798631,47202.9493532292,50160.4540784071,60024.5625388298,70822.7364135624,57252.3718362652,58874.5448413062,59762.1053183589,65012.2109758251,11292.6812413138
9358944389,18528,-2,0,20323.0591154284,47197.1331941478,50152.5329077754,60007.6129371554,70806.0666689149,57263.3957695868,58851.9250929124,59724.2516135427,64997.2203733392,11292.4013842868
9358944389,18528,-2,0,20144.3278167962,47154.1690566660,50109.5809379904,59985.7110828741,70771.1818821235,57270.6355491965,58835.8880684997,59687.6511814993,64996.3686345616,11290.2355342524
9358944389,18528,-2,0,19972.6172792309,47127.1811051128,50085.2090412541,59985.3095488789,70758.8560052419,57277.6441425665,58836.7641426710,59685.2663129220,65004.0099481664,11288.1670257925
9358944389,18528,-2,0,19999.1671936985,47150.9446170080,50106.3808337260,60002.9405415754,70784.5541809320,57282.3043704497,58852.9350117487,59716.4521198792,65016.1776449894,11294.2143711135
9358944389,18528,-2,0,20220.6314435729,47209.9336112056,50159.0669609693,60029.4904560431,70829.6598330546,57277.7171487474,58876.4308343138,59759.1120649405,65025.3764237875,11299.3613068696
9358990583,18529,-2,0,20358.6496286355,47224.6565243613,50171.8187072398,60031.2912751729,70829.8910192942,57261.2299195523,58877.7692809643,59757.0313887837,65012.3934912774,11298.9232697839
9358990583,18529,-2,0,20192.5727346992,47173.1019929225,50118.0009841919,59998.2073075113,70780.4049963153,57269.1145870936,58856.9990224875,59700.9139710363,64993.7769151383,11297.6821647080
9358990583,18529,-2,0,19949.7298415069,47126.6822295430,50066.1665957262,59977.6073967900,70751.6405610259,57275.4052863511,58849.0413487653,59677.9900302219,64995.7845851141,11290.0895218905
9358990583,18529,-2,0,19986.0260811297,47151.2244740349,50090.2708031324,59993.1090425425,70783.7754483353,57259.0884049115,58867.6822602981,59724.0325949999,65007.8427726657,11282.9835869459
9358990583,18529,-2,0,20224.4399326785,47201.4527265200,50143.2246197059,60011.0928984468,70826.4597287902,57256.6913686374,58874.8490337268,59756.2526561871,65009.4124055558,11280.7934015178
9358990583,18529,-2,0,20338.9136243887,47218.9742099450,50155.2706395606,60009.7057810089,70829.7815100228,57272.9960823801,58870.3348182055,59741.9556124201,65005.0685377900,11290.4910558856
9358990583,18529,-2,0,20223.1866599057,47191.4995505188,50126.7860612981,60001.9914612232,70804.9229054136,57281.5864763371,58866.1978012857,59716.6589707252,65008.6701760496,11298.7407543316
9358990583,18529,-2,0,20021.3975757940,47152.2587282648,50087.7642575869,59993.9729490169,70774.7713526863,57280.6860667722,58861.4767349184,59701.2181634569,65011.5174171062,11296.8790967177
9359032141,18530,-2,0,19966.9349648145,47149.8738596875,50084.5033148383,59997.8422766066,70778.6771833665,57275.2471062924,58864.5551622146,59712.1690905975,65012.5638390330,11287.8993364624
9359032141,18530,-2,0,20163.9178086811,47199.3355472728,50134.3178656315,60018.9045598071,70818.9279244568,57258.4800200704,58880.0324725734,59751.5802606071,65015.8612848720,11283.5067979093
9359032141,18530,-2,0,20351.8357184147,47223.5735993441,50162.5834253512,60016.9577283154,70827.8103431375,57248.9283780643,58877.5867655120,59755.5469297713,65000.7125023274,11284.4923813519
9359032141,18530,-2,0,20235.0014935208,47180.9501573733,50118.0739903728,59986.2829646248,70782.7533618022,57269.4309472110,58856.1107806195,59702.2159145964,64987.3645389126,11290.6857390348
9359032141,18530,-2,0,19983.1545046795,47131.0747680961,50060.5207844003,59972.0710947356,70749.1705185708,57277.8144903220,58850.5379754746,59673.7313363339,64997.3785533979,11295.9421840623
9359032141,18530,-2,0,19951.0074496733,47138.1441999502,50068.6731412717,59989.5439073733,70766.7163373895,57261.2420872492,58863.9954481607,59707.5331981080,65009.1690516194,11291.8660056266
9359032141,18530,-2,0,20145.1308847865,47181.1813436130,50114.1681596927,60009.3772531947,70801.5281180000,57252.9923888032,58872.9265376288,59740.9213581902,65007.7819341815,11286.0011757580
9359032141,18530,-2,0,20303.5177943308,47207.9989474107,50142.3363778378,60011.9446372244,70816.4213789112,57259.4169327257,58870.4443274769,59741.1890475203,65003.2798863571,11289.7609940763
9359051244,18531,-2,0,20253.2652064520,47185.4278698042,50126.5305396648,60000.1176359125,70794.0328167570,57261.2542549460,58862.4744860579,59717.2430201727,65002.0631166748,11292.9489306439
9359051244,18531,-2,0,20039.2110839428,47134.7615802334,50078.9913481775,59976.1472731713,70754.8528329871,57265.1479179293,58847.1918588483,59683.6845123350,65000.6273284497,11295.4068054021
9359051244,18531,-2,0,19914.7233777473,47120.5010395570,50061.0561630605,59969.3090275568,70749.7180649279,57264.7342162373,58845.1111826915,59683.0517921002,65005.6647549344,11291.2089499982
9359051244,18531,-2,0,20078.7560986174,47167.8333801982,50108.2181559463,59989.4830688892,70789.2630796024,57250.8022033751,58862.0972874564,59730.5788158907,65014.6566828865,11285.6239771565
9359051244,18531,-2,0,20310.6237292754,47206.3806437333,50154.4310684798,59999.3389033158,70812.1748527200,57242.5403372323,58865.3947332954,59752.0913038736,65009.5584179177,11285.4779647946
9359051244,18531,-2,0,20255.5405657579,47173.1628314067,50120.2155050137,59974.8209942176,70775.8542777035,57251.6782775463,58844.7461517868,59702.9216410121,64990.4916369961,11286.7799083546
9359051244,18531,-2,0,20009.4975683012,47118.7123881240,50061.1291692415,59959.6235408857,70734.1434129945,57260.7067085890,58835.9610746807,59667.4893078637,64990.3091215438,11287.1449392593
9359051244,18531,-2,0,19923.6057964280,47115.7556377960,50059.9367349528,59981.5740659543,70745.8852404286,57252.9437180159,58852.8255024773,59697.4218420481,65003.4867372030,11288.1183550052
9359101207,18532,-2,0,20069.5451521224,47154.5219198739,50099.8832836225,60004.0356342895,70781.5244244230,57246.5191740934,58867.4875771489,59733.9736033043,65006.1636305041,11286.1593558167
9359101207,18532,-2,0,20261.1377062965,47190.2219423524,50132.5413818953,60007.1140615857,70801.1509193985,57240.8246919803,58867.4875771489,59743.0628728310,64998.2789629628,11284.9669215280
9359101207,18532,-2,0,20277.3085753741,47174.8054704777,50118.9743999377,59986.2586292311,70779.1030527553,57232.8183474708,58850.0877706921,59720.6013044958,64981.9864169169,11281.6694756890
9359101207,18532,-2,0,20070.2143754477,47118.8827358795,50065.1810122835,59958.9664852573,70735.8590582465,57251.1672342798,58830.5221142008,59676.1527080016,64972.2279240649,11281.5112956303
9359101207,18532,-2,0,19895.4132428893,47095.6424349477,50038.1930607302,59960.3901057856,70726.5507701770,57264.3935207263,58831.9944055164,59670.9692691551,64984.8214902766,11280.6838922464
9359101207,18532,-2,0,20027.6031011737,47144.2037129680,50084.6493272002,59996.1509667482,70776.2558116987,57245.8499507681,58856.5244823114,59725.3953770441,65001.6859180732,11280.1485135861
9359101207,18532,-2,0,20284.0738148077,47192.7406555948,50135.0114243504,60012.6016928528,70811.0797600060,57229.4600631476,58863.3140571386,59752.8822041671,64992.6088162433,11281.0124200606
9359101207,18532,-2,0,20297.3366043447,47183.2498520729,50121.7729702070,59992.5128253981,70790.3946754070,57252.2014885097,58850.2459507508,59716.5129583633,64981.5118767408,11290.2233665555
9359114533,18533,-2,0,20079.2671418839,47137.7670013487,50074.5014680499,59970.7691511755,70754.0375973000,57262.4345215378,58843.8092391315,59685.0959651665,64986.2329431081,11293.5086446977
9359114533,18533,-2,0,19935.8343317351,47120.6470519188,50062.1390880778,59972.6794795767,70748.9149969376,57257.4335981436,58849.0900195526,59697.5070159259,64998.1329506009,11290.6492359443
9359114533,18533,-2,0,20017.4795774170,47147.5376618975,50092.1689638368,59987.5119020039,70776.6451779970,57261.8018013030,58858.1671213825,59727.0258484184,65004.5453268266,11288.3982120321
9359114533,18533,-2,0,20232.7869726990,47198.2526222556,50141.6063160284,60007.6251048522,70815.0707645639,57267.7761404431,58868.1324650805,59755.9849668570,65013.5129193851,11291.4523039347
9359114533,18533,-2,0,20328.5589143924,47209.2522201835,50153.7861805482,60006.1893166271,70815.8373294637,57260.3538453811,58864.2874728845,59750.4973355898,65007.5750833356,11295.1147806784
9359114533,18533,-2,0,20146.3476544688,47155.4831679229,50101.0027117302,59976.2202793522,70769.2350506319,57258.1271568625,58841.7650660652,59699.5633566890,64993.2658718718,11296.9642705954
9359114533,18533,-2,0,19915.8306381582,47110.8520559764,50048.7911246630,59962.6046266073,70739.2051748729,57256.0464807058,58831.7023807926,59677.7223408918,64993.8620890161,11295.0052714070
9359114533,18533,-2,0,19977.8493888647,47136.5745670601,50072.1896056535,59986.7453371041,70768.7970135463,57235.5804146496,58848.3964608337,59719.7495657182,65001.8806012224,11288.1791934893
9359160892,18534,-2,0,20224.3790941943,47183.2863551633,50122.1988395958,60003.2569016928,70803.6939680344,57235.8237685860,58856.5488177051,59749.7672737804,64997.5123980630,11281.6451402954
9359160892,18534,-2,0,20300.7922302424,47189.5283836335,50129.6333023546,59995.6277557848,70794.7872139601,57261.9234782713,58851.3167080712,59724.6774829315,64991.0026802627,11291.7686640521
9359160892,18534,-2,0,20132.5251508780,47150.7742692524,50092.2663054114,59975.4172113619,70759.8415886846,57265.3426010785,58839.0638373705,59688.1743924627,64993.4970581114,11296.6114073876
9359160892,18534,-2,0,19950.7154249496,47117.5564569258,50061.6037094176,59965.4518676639,70739.1321686919,57251.3619174289,58837.7497261136,59678.2577195520,64995.7724174173,11295.5771531576
9359160892,18534,-2,0,19956.6045902119,47130.9409234310,50070.2062710714,59975.8430807507,70756.1304411536,57245.0712181715,58846.8633310340,59695.0248057740,64993.8499213193,11291.6834901743
9359160892,18534,-2,0,20165.9254786569,47181.3516913685,50117.1735808079,60001.0423808710,70796.6975423612,57240.0581270804,58861.9634427913,59730.7248282525,64997.4880626693,11286.6582313864
9359160892,18534,-2,0,20323.8986865092,47200.5401492583,50138.7104041845,60003.8044480498,70807.6606371987,57238.9143635791,58861.6592503707,59736.5166519403,64990.6984878421,11282.1926866524
9359160892,18534,-2,0,20185.5641413292,47154.6557645390,50094.7120124728,59975.1008512445,70762.8835128903,57259.2952557575,58838.0782539279,59688.8192803943,64983.5073790198,11287.0719330784
9359174609,18535,-2,0,19932.8532460135,47106.2891696678,50047.2823302570,59958.8934790763,70726.8306272039,57269.7716427221,58831.1183313451,59666.2725381814,64993.9107598034,11293.7763340278
9359174609,18535,-2,0,19935.7004870700,47121.4987906964,50067.5780485576,59974.2612801637,70748.3066120964,57250.0113030816,58847.6542313275,59703.9802306357,65009.7287656732,11297.2927984097
9359174609,18535,-2,0,20164.9885660016,47168.9284729123,50120.0086541677,59991.0648694762,70788.5573531867,57235.5804146496,58855.9282651671,59740.5684949823,65004.9103577313,11298.6677481507
9359174609,18535,-2,0,20288.3446763926,47180.3661079258,50126.0925025792,59980.0166007610,70788.3383346439,57238.6345065521,58844.2716116107,59721.0758446719,64989.9440906391,11297.6334939207
9359174609,18535,-2,0,20175.3311083011,47145.6881719805,50090.7210079149,59961.2418445632,70754.6094790507,57240.6543442247,58829.4026860931,59686.1788901837,64983.8845776213,11299.3734745664
9359174609,18535,-2,0,19966.9471325114,47096.9808815982,50043.4981765450,59948.0520612071,70721.7810330224,57234.2541356959,58817.5148462971,59665.9440103672,64980.3802809363,11298.6555804538
9359174609,18535,-2,0,19899.0878873298,47090.3129837392,50033.6180067248,59954.0750711345,70725.5408513407,57238.0017863173,58819.7050317252,59674.5830751115,64983.3370312643,11295.9786871528
9359174609,18535,-2,0,20085.6065119287,47139.5313173880,50078.2977894586,59980.1261100324,70765.9984432770,57227.5497347464,58839.2950236102,59717.6567218647,64990.2117799692,11292.3527134996
9359201202,18536,-2,0,20294.3676863199,47173.1749991035,50117.0154007492,59991.6854220142,70788.1679868884,57225.0188538073,58845.5735551708,59735.8109255245,64985.8435768098,11291.2697884823
9359201202,18536,-2,0,20210.7026029654,47138.4848954613,50081.4735583294,59964.8556505196,70750.7158160674,57241.6277599706,58825.5576938971,59691.4353352113,64974.1625878598,11292.9489306439
9359201202,18536,-2,0,19953.8790261235,47089.9236174409,50025.9888608168,59948.0520612071,70716.4515818139,57247.0423850568,58818.5977713143,59657.2319394420,64982.0715907947,11296.8182582336
9359201202,18536,-2,0,19901.6309359658,47097.8691234663,50029.8460207097,59962.6898004851,70732.0262337473,57234.0837879404,58831.3981883721,59684.7917727459,64995.6629081459,11299.4829838378
9359201202,18536,-2,0,20095.5110171426,47144.9094393838,50084.6736625939,59981.0021842036,70771.9971178107,57236.1036256130,58841.8624076398,59722.9983407700,64997.6462427280,11299.9088532266
9359201202,18536,-2,0,20265.0070338862,47173.9537317001,50115.9933142161,59987.2198772802,70784.2986592987,57245.2659013206,58842.7628172047,59723.8744149412,64993.6309027765,11299.1422883268
9359201202,18536,-2,0,20223.7342062627,47152.5507529886,50096.9995394755,59972.7524857577,70760.5473151003,57240.1067978677,58836.0340808616,59700.5611078285,64986.5371355287,11296.0638610305
9359201202,18536,-2,0,20012.8436849275,47097.1633970506,50044.0457229021,59950.3639236035,70721.4160021177,57240.6300088311,58825.3143399606,59670.7502506123,64980.9764980806,11292.9489306439
9359236309,18537,-2,0,19879.1571999338,47081.3818942712,50019.5643168943,59950.0110603956,70719.2379843864,57252.8098733509,58831.0818282547,59672.6970821039,64990.1631091819,11293.1557814899
9359236309,18537,-2,0,20030.9005470127,47135.0414372604,50064.5726274424,59980.7709979640,70766.3026356975,57244.2681501812,58857.7777550842,59720.5039629213,65005.3483948170,11296.4045565416
9359236309,18537,-2,0,20278.1116433645,47185.4522051978,50117.5872824999,59998.1464690272,70799.2527586941,57233.9134401848,58866.2586397698,59744.3039779069,65000.8585146893,11296.1490349083
9359236309,18537,-2,0,20252.3039584030,47163.1974877087,50092.2663054114,59972.7889888481,70766.7771758736,57246.7260249394,58840.8524888035,59697.5435190164,64985.6975644479,11301.7705108405
9359236309,18537,-2,0,20003.4502229802,47108.9417275752,50031.8171875950,59947.4558440628,70723.0829765825,57255.0243941726,58821.4328446741,59658.1201813100,64988.2527807807,11305.5424968556
9359236309,18537,-2,0,19890.8016857934,47098.3314959456,50021.8640115938,59959.3315161620,70727.9135522212,57242.7228526846,58830.7533004405,59680.5574142515,65001.0775332321,11304.7637642590
9359236309,18537,-2,0,20023.8067797650,47131.3302897294,50057.9655680675,59977.5222229123,70758.5153097309,57238.0991278919,58844.8069902710,59713.3371894926,65000.7733408115,11299.9940271044
9359236309,18537,-2,0,20221.3980084727,47169.3786776947,50099.3114018719,59989.5804104638,70786.2089876999,57250.7413648910,58856.8651778225,59728.4251335530,65000.0067759117,11306.2238878777
9359283269,18538,-2,0,20258.2539621494,47164.7184498115,50101.9152889920,59984.1414499840,70775.9151161877,57244.5115041176,58854.2856260960,59712.3881091404,64994.5313123414,11307.5988376187
9359283269,18538,-2,0,20063.3882975300,47106.3743435455,50050.2512482818,59951.7023702540,70726.4169255119,57244.2559824843,58831.8240577609,59668.6817421524,64981.3415289853,11301.5393246009
9359283269,18538,-2,0,19872.0390972924,47069.1898620546,50013.3831269082,59938.7437731376,70705.9995302430,57250.7170294973,58824.3287565179,59653.8006489379,64983.1423481151,11298.9111020871
9359283269,18538,-2,0,19971.4978511231,47106.7758775407,50049.7523727120,59963.0183282993,70747.4183702283,57236.9675320874,58840.8159857130,59699.4538474176,64992.8034993925,11296.5505689035
9359283269,18538,-2,0,20232.7261342149,47160.3259112584,50100.0171282876,59984.5794870696,70785.0165534112,57228.5718212796,58853.1418625947,59733.5477339155,64988.1676069030,11296.1246995147
9359283269,18538,-2,0,20267.6595917936,47151.1758032476,50082.3131294102,59966.1819294733,70764.2949657218,57233.9986140626,58838.7231418595,59696.3267493341,64969.5023599766,11297.8646801603
9359283269,18538,-2,0,20051.3544453721,47098.3923344297,50024.5530725917,59939.9362074262,70719.6395183816,57236.3713149431,58820.6906151679,59654.8227354710,64964.3554242205,11297.8160093731
9359283269,18538,-2,0,19895.4497459798,47072.6941587396,49999.9986604030,59942.0168835829,70710.8179381849,57232.1491241455,58824.1340733688,59663.3157878534,64972.2400917617,11295.0296068006
9359294545,18539,-2,0,19969.5753550251,47101.5194325132,50026.1348731787,59963.3590238104,70740.0325782568,57233.0495337104,58839.3558620943,59696.8134572070,64980.9521626870,11293.0219368248
9359294545,18539,-2,0,20176.8277350103,47148.5962515211,50070.0480910127,59983.6790775047,70773.6032537913,57230.5308204681,58851.2802049808,59720.2606089848,64983.4343728388,11294.1900357198
9359294545,18539,-2,0,20285.0837336440,47159.6201848427,50086.3649724522,59982.6083201843,70776.3774886669,57231.5529070012,58845.9994245596,59716.1235920650,64978.2022632050,11299.4951515346
9359294545,18539,-2,0,20132.0019399146,47117.6659661972,50046.9781378364,59960.3536026951,70739.3025164474,57244.4871687240,58829.3296799122,59677.0409498697,64970.5974526906,11306.0170370317
9359294545,18539,-2,0,19900.4019985867,47076.3688031802,49996.4943637180,59945.1561493632,70711.6453415689,57245.8012799808,58822.2845834517,59656.0638405470,64972.6172903632,11302.3667279848
9359294545,18539,-2,0,19939.0101006059,47100.7772030070,50016.6197342631,59963.6145454436,70741.5778757533,57226.9535176021,58840.1224269941,59701.4736850902,64982.4609570930,11290.5518943698
9359294545,18539,-2,0,20188.3748792953,47150.9689524016,50072.9561705534,59981.5010597734,70783.3252435528,57216.3189505789,58851.9250929124,59738.1957941018,64978.2874370827,11286.3540389658
9359294545,18539,-2,0,20283.4897653602,47155.4223294388,50080.2081178598,59968.9926674394,70778.6528479728,57235.4709053782,58841.3391966764,59714.8094808081,64970.0620740304,11294.1900357198
9359322416,18540,-2,0,20124.3849617034,47119.5397915079,50045.0799771320,59949.4026755544,70745.8365696414,57250.3519985926,58829.9258970565,59681.9445316894,64978.0805862367,11307.9882039170
9359322416,18540,-2,0,19936.8077474809,47089.2543941156,50017.1551129234,59945.0344723950,70726.9766395658,57242.7836911688,58826.3607618874,59678.5619119726,64986.6466448001,11310.5920910371
9359322416,18540,-2,0,19928.4850428540,47099.4874271437,50025.7211714867,59956.0584057166,70738.7914731809,57239.2063883028,58830.6924619563,59696.2659108500,64990.2969538470,11303.8511869972
9359322416,18540,-2,0,20118.4836287443,47144.3983961172,50070.9119974871,59975.2833666968,70772.9461981629,57228.0607780130,58842.7263141142,59719.8590749896,64986.4154585605,11294.8835944387
9359322416,18540,-2,0,20287.0670682261,47167.3223369316,50094.6025032014,59976.7799934061,70778.5068356110,57215.6983980409,58839.9399115418,59718.9343300311,64974.3694387057,11294.8957621355
9359322416,18540,-2,0,20175.7448099930,47128.8845826680,50054.1692466587,59952.3594258824,70738.1952560365,57228.6083243700,58822.2237449676,59674.3275534782,64958.3080788995,11301.2959706644
9359322416,18540,-2,0,19921.5494556650,47081.0533664570,49998.0761643050,59936.4805815285,70705.2816361305,57243.2460636480,58815.0204684484,59645.6604597633,64964.5501073696,11307.3433159854
9359322416,18540,-2,0,19905.0743941667,47097.1268939601,50013.3831269082,59958.6622928367,70730.9189733364,57240.2528102296,58833.3936906510,59689.8170315338,64985.6975644479,11307.7935207679
9359356244,18541,-2,0,20141.0790417445,47154.4854167834,50078.4681372142,59987.2685480674,70782.0963061737,57237.3568983857,58853.6650735581,59739.2178806349,64995.4073865126,11311.0909666069
9359356244,18541,-2,0,20286.8602173802,47172.7612974115,50094.8945279251,59982.3284631573,70785.9412983698,57236.6876750605,58842.6898110238,59724.1542719681,64980.6236348727,11310.4339109784
9359356244,18541,-2,0,20185.3329550895,47139.2879634516,50059.8028902878,59960.8646459617,70750.2291081944,57235.2518868354,58823.1363222293,59683.2221398558,64970.2689248764,11304.6299195939
9359356244,18541,-2,0,19978.7497984296,47093.7686096370,50018.0920255787,59947.2976640041,70718.4470840929,57236.3834826399,58812.0150473331,59662.8290799805,64968.2247518102,11299.2031268109
9359356244,18541,-2,0,19899.9152907138,47088.4634938221,50012.6895681893,59950.4490974812,70722.2920762890,57241.2627290659,58815.1299777198,59675.6781678255,64976.4987856498,11296.6357427812
9359356244,18541,-2,0,20069.9466861176,47136.6232378474,50060.3869397353,59974.8088265208,70764.5139842646,57236.0671225225,58831.7145484895,59719.0803423930,64987.4010420031,11294.8957621355
9359356244,18541,-2,0,20290.8998927254,47174.8054704777,50102.9860463124,59984.7863379156,70784.2378208146,57217.9615896500,58837.0926704852,59736.3341364879,64978.6646356842,11293.8250048151
9359356244,18541,-2,0,20232.9938235450,47142.5245708065,50071.6177239028,59962.9209867247,70744.7414769273,57227.1116976608,58819.8145409966,59689.2086466927,64959.6708609436,11297.1346183510
9359397236,18542,-2,0,19971.4005095486,47088.1349660079,50008.5890543600,59939.3034871914,70700.4267250981,57239.2915621806,58804.6292553616,59648.3251853676,64960.7902890513,11301.5758276913
9359397236,18542,-2,0,19893.2352251580,47090.8240270058,50008.1510172744,59955.1579961517,70716.2568986648,57236.9066936033,58820.8122921361,59677.7101731950,64978.5672941097,11302.8534358578
9359397236,18542,-2,0,20080.3013961139,47142.1717075986,50065.2418507676,59980.8440041449,70763.8082578488,57235.7994331924,58838.9421604023,59723.0956823446,64986.9630049175,11303.9728639655
9359397236,18542,-2,0,20260.5779922426,47172.8221358956,50095.3569004044,59984.8715117933,70781.4027474548,57232.3681426883,58838.6379679817,59726.7094883010,64981.8160691614,11304.2405532956
9359397236,18542,-2,0,20231.8013892563,47152.5264175949,50067.7605640100,59970.5866357232,70757.3228754422,57227.0265237831,58824.6329489385,59696.1198984881,64971.4856945587,11303.3766468211
9359397236,18542,-2,0,20032.2024905728,47099.5604333247,50012.9937606099,59950.0232280924,70720.1140585577,57227.8295917734,58812.1975627855,59664.9584269245,64962.6519466653,11302.3423925912
9359397236,18542,-2,0,19882.7345027998,47071.7815814779,49982.0513075892,59941.4084987418,70705.3546423114,57229.8372617492,58808.1092166530,59651.0994202432,64960.8876306259,11296.1490349083
9359397236,18542,-2,0,20007.5142337191,47110.3410127098,50022.8130919460,59963.6875516246,70741.3953603010,57225.0796922914,58825.6428677748,59688.6002618515,64968.9913167100,11292.4378873773
9359423081,18543,-2,0,20262.4518175533,47160.1555635029,50080.4879748868,59983.8250898666,70776.6938487843,57218.5578067943,58839.3801974879,59720.9906707942,64967.4946900008,11293.7398309374
9359423081,18543,-2,0,20268.1584673633,47148.1703821323,50067.5902162545,59966.8998235858,70753.4900509430,57235.0693713830,58827.5775315697,59689.2816528736,64959.3179977358,11300.5415734614
9359423081,18543,-2,0,20029.6351065432,47100.9353830657,50014.2226979890,59945.6793603266,70713.0689620972,57247.6264345043,58818.0988957446,59650.5397061893,64963.6253624111,11305.4208198874
9359423081,18543,-2,0,19901.2780727579,47088.6460092745,50001.3736101440,59955.3648469977,70714.8819489238,57235.1058744735,58832.1160824846,59669.3631331744,64978.4821202319,11305.1409628605
9359423081,18543,-2,0,20024.2204814570,47119.3329406620,50036.5260862655,59976.9381734648,70747.9659165854,57225.8584248881,58847.8367467799,59703.3110073104,64981.2441874107,11299.9940271044
9359423081,18543,-2,0,20222.4809334900,47153.8161934582,50071.9219163234,59985.4068904535,70772.0579562948,57225.8219217976,58851.1341926189,59713.8117296686,64977.2653505496,11301.8800201119
9359423081,18543,-2,0,20271.1395530849,47149.7886858098,50070.8754943966,59973.4217090829,70759.8050855941,57222.3419605062,58837.2021797566,59693.4065020966,64968.6749565926,11303.3401437307
9359423081,18543,-2,0,20095.6205264140,47101.2760785767,50027.5098229197,59948.9281353784,70718.2280655501,57230.9810252505,58816.7361137004,59657.9863366450,64962.1530710955,11304.2648886892
9359448294,18544,-2,0,19893.7827715150,47067.3525398343,49990.5200245779,59939.5833442183,70699.4898124428,57240.0581270804,58811.5405071570,59644.7965532889,64964.3797596141,11303.5834976671
9359448294,18544,-2,0,19962.9196248630,47099.0615577549,50020.3308817941,59961.9475709789,70736.2484245449,57227.7930886829,58829.2566737312,59688.5880941547,64978.3969463541,11298.1080340968
9359448294,18544,-2,0,20225.2916714561,47153.3173178884,50078.2004478841,59981.2090350496,70776.2436440019,57211.9994182067,58839.7817314831,59729.8122509908,64976.3041025006,11292.3162104091
9359448294,18544,-2,0,20289.9508123732,47145.7611781614,50066.6776389927,59964.4176134340,70759.9510979560,57216.3919567598,58821.9925587279,59697.4340097450,64957.2616569727,11290.6979067316
9359448294,18544,-2,0,20081.8223582168,47091.1403871232,50006.8369060175,59938.2448975678,70711.2073044833,57222.3541282030,58803.0839578651,59646.9015648393,64950.0097096662,11287.2422808339
9359448294,18544,-2,0,19908.4570138835,47064.8946650761,49984.4118407728,59941.9925481893,70702.8602644627,57224.0819411519,58809.2043093670,59652.6933885270,64962.5059343034,11285.3684555232
9359448294,18544,-2,0,19959.8411975668,47091.3107348787,50013.7846609034,59958.5527835653,70732.6711216789,57227.3063808100,58826.1295756477,59690.8269503701,64971.3761852873,11288.9092552987
9359448294,18544,-2,0,20159.8903010328,47143.1086202540,50063.5748763029,59976.5001363791,70773.1287136152,57236.5903334859,58843.7362329505,59724.5801413569,64978.4699525351,11297.9133509476
9359542119,18545,-2,0,20284.4753488029,47162.9541337722,50084.9170165303,59980.1869485165,70781.6339336945,57231.5042362139,58843.9795868870,59726.1619419439,64975.8417300213,11304.0823732369
9359542119,18545,-2,0,20144.8388600628,47117.1062521434,50039.1421410824,59953.6005309584,70736.9663186574,57231.1392053092,58824.3895950021,59680.9832836404,64960.5347674181,11302.1355417452
9359542119,18545,-2,0,19898.4795024887,47067.8027446168,49983.4749281175,59935.3611534208,70702.6655813136,57236.3834826399,58814.1687296708,59648.0818314311,64960.6199412958,11298.1932079746
9359542119,18545,-2,0,19909.2114110865,47086.2003022131,49998.0883320018,59952.0308980682,70727.4146766514,57224.1306119392,58830.7411327436,59681.1536313959,64972.5321164855,11290.1016895873
9359542119,18545,-2,0,20158.0529788125,47138.9959387278,50055.3981840379,59971.4627098944,70768.5779950034,57209.6267173262,58843.8944130092,59721.6233910290,64971.7655515856,11288.6415659686
9359542119,18545,-2,0,20275.0088806746,47148.3285621910,50063.2463484887,59962.4099434582,70764.3558042059,57220.2247812590,58832.6392934480,59701.8265482980,64958.8921283470,11294.0075202675
9359542119,18545,-2,0,20121.1605220453,47108.8443860006,50021.2069559654,59940.1308905754,70725.3218327979,57225.7367479198,58813.3778293773,59659.6289757161,64954.4387513098,11298.7650897252
9359542119,18545,-2,0,19921.8536480855,47072.7549972237,49986.6993677755,59936.9307863109,70702.2275442279,57226.4911451228,58806.4544098850,59651.5617927225,64960.5104320244,11296.7695874463
9359551288,18546,-2,0,19904.4295062351,47084.8131847753,49998.9400707794,59954.3305927677,70719.0067981468,57229.7764232650,58819.6685286348,59676.0188633366,64970.3662664510,11296.4775627225
9359551288,18546,-2,0,20088.5997653471,47132.6322332894,50043.4373380609,59976.1107700808,70757.4202170168,57226.2112880959,58836.8249811551,59708.2267568269,64976.1337547451,11297.3049661065
9359551288,18546,-2,0,20270.8718637548,47161.4088362757,50073.3090337612,59980.7344948735,70776.5113333320,57222.3541282030,58845.1476857820,59722.7549868335,64974.8196434882,11299.3491391727
9359551288,18546,-2,0,20189.7011582490,47129.7971599297,50042.3787484373,59960.5117827538,70744.7049738368,57244.1221378193,58835.8515654093,59685.5948407362,64969.3076768274,11303.2428021561
9359551288,18546,-2,0,19935.5788101018,47082.0146145060,49987.2225787389,59946.0200558377,70709.4794915344,57257.2875857817,58828.8916428265,59651.4887865415,64972.3252656395,11302.6587527086
9359551288,18546,-2,0,19894.6831810799,47094.4500006590,49996.3605190529,59969.7227292488,70731.8193829013,57243.1973928607,58842.9818357475,59684.8161081396,64988.2162776903,11296.6722458717
9359551288,18546,-2,0,20120.4791310232,47147.9270281959,50052.0520674116,59996.8931962544,70776.6938487843,57225.1283630787,58857.3518856954,59729.0456860910,64984.4929624624,11290.7709129126
9359551288,18546,-2,0,20287.0062297420,47171.3011737927,50072.3356180154,59993.1090425425,70784.4933424478,57226.6614928784,58847.1310203641,59718.5692991264,64967.9448947832,11289.0796030542
9359558519,18547,-2,0,20205.3366486664,47144.6660854473,50044.4837599877,59971.7669023150,70755.4490501315,57233.2928876469,58831.3616852816,59684.4389095381,64962.7979590271,11289.2986215970
9359558519,18547,-2,0,20003.0243535914,47101.9453019020,50004.2816896847,59957.0439891593,70723.6670260300,57234.0107817594,58823.0389806547,59662.6343968314,64962.1774064892,11284.4802136551
9359558519,18547,-2,0,19912.6427015906,47094.4865037495,49993.4767749059,59963.7483901087,70724.5674355949,57233.3172230405,58828.7821335551,59671.4924801185,64964.9881444553,11277.7271419184
9359558519,18547,-2,0,20061.2711182828,47138.4118892803,50030.0772069493,59985.1392011234,70759.9510979560,57219.1783593323,58843.5415498014,59705.6837081909,64969.6727077321,11271.5216165387
9359558519,18547,-2,0,20283.1855729396,47177.5432022629,50066.3734465722,59994.0216198042,70782.0598030832,57200.7321309487,58842.6776433269,59724.2637812396,64959.8290410023,11267.3845996189
9359558519,18547,-2,0,20252.6081508236,47150.1050459272,50035.3093165832,59969.9417477916,70745.7270603699,57206.2684330031,58816.6509398227,59680.5695819484,64937.6108266036,11264.8780540733
9359558519,18547,-2,0,19995.4803815612,47092.5883430451,49971.2828959009,59947.2368255200,70699.2464585063,57223.8264195186,58801.9401943637,59634.6486941386,64935.5544858406,11264.2088307481
9359558519,18547,-2,0,19893.8436099991,47090.7753562185,49971.6600945024,59969.5767168869,70713.3731545177,57223.8385872154,58822.8077944151,59663.1332724011,64957.7970356329,11266.8735563523
9359575734,18548,-2,0,20070.6037417460,47141.7458382098,50030.4909086413,60003.4759202356,70762.1047802936,57217.1706893565,58847.1553557578,59716.6468030284,64970.6704588716,11266.8248855650
9359575734,18548,-2,0,20256.8425093180,47175.1826690793,50063.0273299458,60003.5610941134,70777.6429291365,57214.0314235761,58843.3103635617,59718.0339204662,64959.5735193690,11266.9830656237
9359575734,18548,-2,0,20237.0700019807,47157.6246825638,50044.1917352639,59980.5763148148,70750.8983315197,57209.6510527199,58828.7212950710,59684.9986235919,64945.8726927464,11267.8469720981
9359575734,18548,-2,0,20042.3746851168,47107.3234238977,49996.7985561386,59958.9786529541,70708.7250943314,57203.6280427925,58816.8334552750,59652.7420593143,64938.4138945939,11265.9001406065
9359575734,18548,-2,0,19880.2766280415,47074.4828101726,49964.2134640467,59952.2134135205,70692.1770266522,57216.6474783931,58815.0448038420,59640.2093315867,64941.5409926774,11263.1137380340
9359575734,18548,-2,0,19982.9354861367,47110.2193357416,50001.6534671709,59976.1107700808,70730.2984207985,57221.9647619047,58835.5717083823,59681.5186623006,64957.2616569727,11265.4864389145
9359575734,18548,-2,0,20244.2611108030,47164.8401267798,50066.0084156675,59998.3046490859,70776.5965072097,57213.5082126128,58847.9097529608,59723.3147008874,64962.9683067826,11266.9465625332
9359575734,18548,-2,0,20282.6866973699,47157.4056640209,50060.3382689480,59982.7543325461,70760.7785013399,57220.4316321050,58834.8659819666,59698.9671395447,64951.8713672801,11269.2340895360
9359625870,18549,-2,0,20044.0659949752,47101.9696372956,49997.4191086765,59955.9123933547,70715.2834829190,57231.1148699156,58819.0601437936,59653.9709966934,64952.8691184196,11270.1710021913
9359625870,18549,-2,0,19886.1414579102,47080.6396647650,49972.5240009768,59958.9178144700,70712.2658941069,57224.2644566042,58826.4824388556,59664.6298991103,64964.0512317999,11270.5847038833
9359625870,18549,-2,0,19994.6529781772,47113.9304832726,50007.8954956411,59980.0044330641,70747.9172457981,57217.2315278406,58841.1931843145,59704.8563048070,64968.6019504117,11272.6045415559
9359625870,18549,-2,0,20198.0968690568,47153.5606718249,50046.6982808095,59989.5074042829,70774.8686942609,57221.2712031858,58847.1796911514,59721.5382171512,64966.2900880153,11276.1210059377
9359625870,18549,-2,0,20266.6010021700,47158.1357258303,50049.4603479883,59987.7795913340,70769.5027399620,57223.2180346775,58845.1720211756,59712.7531400451,64962.8831329049,11278.4572037278
9359625870,18549,-2,0,20107.4596954227,47117.3861091703,50010.9739229373,59970.0634247598,70731.7098736299,57227.7444178956,58834.5739572429,59680.0707063786,64959.9385502737,11279.5401287450
9359625870,18549,-2,0,19892.8580265565,47079.7392552001,49970.4798279105,59952.2864197015,70703.2374630642,57228.6326597637,58827.8208855061,59657.1345978674,64960.0480595451,11279.6739734100
9359625870,18549,-2,0,19930.6873959790,47104.8533814427,49993.8661412042,59964.9043213069,70729.0086449352,57213.9949204857,58838.7839803436,59685.3514867998,64966.8498020692,11275.1354224951
9359637270,18550,-2,0,20186.1725261703,47152.3439021426,50049.9348881644,59978.7998310787,70765.6820831596,57185.1331436217,58843.6632267696,59719.7252303246,64957.6875263615,11270.0493252231
9359637270,18550,-2,0,20274.5221728017,47147.4889911102,50048.1219013377,59963.0304959961,70749.1948539645,57196.8263002685,58823.6838685863,59691.3623290303,64934.3863869456,11272.8113924019
9359637270,18550,-2,0,20082.8444447499,47100.7772030070,49997.2365932242,59944.0975597396,70711.0247890309,57224.3374627852,58808.2187259244,59646.2931799981,64935.1164487549,11278.9195762070
9359637270,18550,-2,0,19904.4538416287,47077.6585790434,49976.7461917744,59952.5176059411,70702.2397119247,57223.8385872154,58816.3102443116,59648.3981915485,64951.7010195246,11277.5081233756
9359637270,18550,-2,0,19946.7487557853,47096.3359936666,49993.4281041186,59966.1332586860,70721.8783745970,57203.7862228512,58826.8353020635,59675.8241801874,64953.9520434368,11270.7915547293
9359637270,18550,-2,0,20142.5878361505,47136.3190454268,50024.9667742837,59974.6506464621,70752.3219520480,57199.2963427236,58833.6248768907,59698.1275684639,64947.7343503603,11268.7595493599
9359637270,18550,-2,0,20271.7479379261,47151.3218156095,50040.4319169456,59971.2680267453,70758.5639805182,57205.0881664113,58832.7001319321,59701.0843187919,64942.2345513964,11270.7428839420
9359637270,18550,-2,0,20153.8916264990,47114.6362096883,50010.8887490595,59948.6361106546,70725.3096651011,57216.1607705202,58815.9208780133,59665.4451347975,64935.9925229262,11274.6122115317
9359665958,18551,-2,0,19908.4570138835,47068.0704339469,49963.0697005454,59931.7716828580,70691.9823435030,57227.3672192941,58805.2011371123,59631.6311053265,64937.6351619973,11274.3688575952
9359665958,18551,-2,0,19889.0252020572,47084.9226940467,49973.1445535148,59949.4635140386,70711.9982047768,57210.4297853166,58816.9064614559,59657.1224301706,64948.5130829570,11267.5549473744
9359665958,18551,-2,0,20133.6202435920,47137.5114797154,50027.0717858341,59971.8885792832,70752.9790076764,57188.8564588495,58824.4260980925,59698.5777732463,64946.7731023113,11258.5386840286
9359665958,18551,-2,0,20280.9223813306,47150.1172136240,50040.2250660997,59968.1774317523,70750.9956730943,57203.1656703133,58812.0150473331,59687.1644736264,64933.2547911410,11259.1349011729
9359665958,18551,-2,0,20152.5653475453,47115.2324268326,50002.4078643739,59951.7023702540,70715.9283708506,57219.9814273226,58797.1339541187,59644.9182302571,64933.2426234442,11261.6414467184
9359665958,18551,-2,0,19950.3382263480,47079.5080689605,49971.5140821405,59947.8817134516,70695.4988078848,57219.4582163592,58799.3606426373,59638.1773262172,64941.5409926774,11261.9699745327
9359665958,18551,-2,0,19916.9257308722,47088.5851707904,49981.4307550512,59960.3779380887,70715.6363461268,57227.9269333480,58813.9618788248,59666.9539292035,64953.2584847179,11267.3845996189
9359665958,18551,-2,0,20092.7976207511,47140.5899070116,50025.9401900295,59984.2752946490,70760.3282965575,57226.3694681546,58835.3526898395,59706.9248132669,64964.8177966997,11275.3179379474
9359700455,18552,-2,0,20286.2640002358,47177.9812393485,50058.2454250944,59995.6155880880,70783.4590882179,57218.8498315180,58840.8281534098,59727.0258484184,64963.3333376873,11277.3134402264
9359700455,18552,-2,0,20223.5881939009,47146.8684385723,50029.7486791351,59972.3631194593,70748.8541584534,57221.5023894254,58822.4914342977,59689.3303236609,64952.6987706641,11278.3233590627
9359700455,18552,-2,0,19962.2869046282,47090.6658469471,49972.9255349720,59952.4811028507,70707.8368524633,57240.0337916868,58812.8302830203,59647.4734465900,64955.1323100287,11278.8830731166
9359700455,18552,-2,0,19883.3063845505,47094.3526590845,49970.6015048788,59969.6253876742,70723.1681504602,57224.4226366629,58829.9380647533,59674.2058765100,64968.6141181085,11273.7118019668
9359700455,18552,-2,0,20087.1883125157,47140.9306025227,50018.8342550849,59991.0892048699,70764.9033505629,57195.7555429481,58844.8678287551,59719.1168454834,64962.0313941273,11262.9190548849
9359700455,18552,-2,0,20264.3621459545,47160.6422713758,50032.2065538933,59982.7665002430,70767.8844362845,57186.7757826928,58832.0309086069,59708.0077382841,64936.6860816451,11255.5210952165
9359700455,18552,-2,0,20186.5375570750,47126.1590185796,49993.8174704170,59951.5928609826,70732.6224508916,57192.6284448646,58809.3138186384,59662.1355212616,64919.9433308167,11248.7193526925
9359700455,18552,-2,0,19981.3050147624,47081.3697265744,49954.2724557424,59935.3124826335,70703.0549476119,57204.1147506655,58802.8527716254,59644.3098454160,64924.0316769492,11246.8090242913
9359760126,18553,-2,0,19879.4127215671,47074.2881270234,49949.7095694338,59945.6185218425,70708.7737651187,57215.4672118013,58812.8181153234,59660.2981990413,64939.5089873080,11247.6485953721
9359760126,18553,-2,0,20015.4232366540,47121.7664800265,49996.6890468672,59973.0566781782,70748.5621337297,57210.4419530134,58833.0043243527,59698.4195931876,64955.7893656571,11248.1109678513
9359760126,18553,-2,0,20248.7996617180,47168.4661004330,50048.2679136996,59988.7165039894,70781.1837289120,57201.2675096089,58842.6776433269,59723.3512039778,64954.7551114272,11250.2646501890
9359760126,18553,-2,0,20251.8902567110,47153.1226347393,50039.6775197426,59969.9417477916,70756.6414844201,57214.1774359380,58826.8231343666,59689.9143731084,64942.0033651567,11261.4345958725
9359760126,18553,-2,0,20009.5705744821,47103.2229100684,49987.6119450372,59954.1602450122,70717.3398236820,57237.0527059652,58817.3444985416,59651.6713019939,64945.6658419004,11273.4806157272
9359760126,18553,-2,0,19881.4812300270,47095.1557270748,49970.0539585217,59969.5523814932,70721.0753066067,57225.7489156166,58832.9313181718,59668.3532143381,64959.2084884644,11275.2327640697
9359760126,18553,-2,0,20038.8217176445,47139.4218081166,50011.9473386831,59994.2284706502,70761.0340229732,57208.1787614043,58844.4906301536,59710.9279855216,64962.7979590271,11271.7771381720
9359760126,18553,-2,0,20237.1916789489,47170.0600687168,50044.7514493178,59991.4664034714,70776.6816810875,57212.6686415320,58838.2486016834,59712.8139785292,64948.9511200426,11266.5815316286
9359769622,18554,2,0,20244.2732784999,47159.2673216348,50039.5436750776,59977.7412414551,70761.7275816921,57223.0476869219,58828.5387796187,59689.8048638370,64949.7541880329,11271.1200825435
9359769622,18554,2,0,20065.7001599264,47114.5510358105,50002.5417090390,59964.5514580990,70725.5408513407,57226.2112880959,58821.7127017010,59668.9250960888,64949.4499956124,11275.7924781235
9359769622,18554,2,0,19897.6764344984,47085.3972342228,49973.2905658766,59961.1079998981,70707.7638462824,57226.5154805165,58822.6496143564,59663.2671170661,64953.4896709576,11273.9064851160
9359769622,18554,2,0,19969.5631873283,47117.3252706862,49998.6237106620,59975.5875591174,70737.6720450732,57219.7259056893,58834.9633235412,59695.4628428596,64959.4518424008,11270.9375670912
9359769622,18554,2,0,20217.9545502718,47169.6950378121,50053.0498185510,59989.5074042829,70776.3166501828,57210.8191516149,58840.9741657717,59730.3963004383,64959.3788362199,11270.2440083723
9359769622,18554,2,0,20280.3383318831,47165.1808222908,50053.0133154606,59973.8719138654,70763.6135746997,57221.3198739731,58825.6793708653,59703.0068148899,64945.1669663307,11273.7604727541
9359769622,18554,2,0,20053.7028108589,47110.3896834971,49993.1969178790,59947.7235333929,70717.0843020487,57239.4132391488,58809.9100357828,59651.0750848496,64943.8406873770,11278.1895143976
9359769622,18554,2,0,19880.0089387114,47087.0155379002,49967.3527298270,59955.0484868803,70713.2271421559,57238.7683512172,58819.6198578475,59660.0061743176,64961.4473446798,11280.1485135861
9359793336,18555,2,0,19972.3130868103,47120.6835550093,50003.3691124230,59979.3352097389,70751.2025239403,57230.5064850744,58838.4797879230,59707.9347321032,64973.6637122900,11277.9339927644
9359793336,18555,2,0,20177.9836662085,47166.3245857922,50047.3796718315,59992.1477944934,70784.9678826239,57233.9742786690,58844.4662947599,59731.5887347270,64974.5762895517,11281.2314386034
9359793336,18555,2,0,20255.4675595770,47174.2700918175,50055.8362211235,59988.9720256227,70781.9746292055,57237.4420722635,58837.8592353851,59721.7815710877,64967.5798638785,11285.7334864279
9359793336,18555,2,0,20112.3511095455,47135.8323375539,50021.6449930510,59971.6208899531,70743.0745024626,57233.5240738865,58827.2368360586,59688.0283801008,64958.4662589582,11293.5573154850
9359793336,18555,2,0,19894.3546532657,47092.2598152309,49973.6312613877,59955.1093253644,70709.7350131677,57233.8039309134,58814.5824313628,59657.4509579848,64953.7451925909,11291.0386022427
9359793336,18555,2,0,19907.1307349298,47108.6375351546,49983.1829033937,59969.6618907646,70731.3570104221,57227.6835794115,58826.4946065524,59681.5064946037,64961.5690216480,11275.8654843045
9359793336,18555,2,0,20161.8979710085,47163.4408416451,50040.1277245251,59994.3744830120,70775.4892467989,57214.8709946569,58843.5658851950,59726.7338236946,64963.2481638096,11264.9875633448
9359793336,18555,2,0,20280.7885366655,47168.5634420076,50047.2093240760,59985.1635365171,70767.7870947099,57219.4338809655,58834.8538142698,59710.3074329836,64948.5860891379,11265.9123083033
9359826248,18556,2,0,20095.4988494457,47116.9237366910,49995.2289232484,59958.9178144700,70723.9955538442,57235.8846070702,58816.3224120084,59662.7195707091,64940.9204401395,11270.0371575263
9359826248,18556,2,0,19887.6259169226,47080.0434476207,49959.7722547064,59955.3648469977,70705.6588347320,57229.9467710206,58816.5414305513,59658.6920630607,64950.5694237201,11272.6653800400
9359826248,18556,2,0,19909.6494481721,47095.8736211873,49976.1378069332,59971.5722191658,70728.5949432432,57225.0188538073,58827.4193515110,59691.5935152700,64957.5050109091,11272.4098584068
9359826248,18556,2,0,20105.9265656230,47142.6340800779,50018.0311870946,59989.4343981019,70762.8956805871,57223.2058669807,58838.2851047739,59718.7274791851,64960.4739289339,11274.9894101332
9359826248,18556,2,0,20248.6658170529,47164.3412512100,50038.8866194491,59992.1599621903,70771.5834161187,57219.6528995083,58839.8425699672,59721.5625525449,64956.3247443173,11274.4661991698
9359826248,18556,2,0,20153.3562478388,47131.9021714801,50008.5282158759,59974.1882739828,70740.5314538266,57228.2311257685,58827.5045253887,59687.9675416167,64946.8582761891,11272.0083244116
9359826248,18556,2,0,19909.7832928372,47083.7667628485,49954.7348282217,59954.4157666455,70704.1257049323,57242.8810327433,58818.7681190699,59654.2630214172,64949.4134925219,11273.3346033653
9359826248,18556,2,0,19862.0007474135,47092.1624736563,49959.1395344716,59966.7051404367,70721.0631389098,57230.8715159791,58830.9601512864,59676.9436082951,64963.5888593206,11274.8920685586
9359871931,18557,2,0,20085.7038535033,47142.3663907478,50015.9383432411,59985.7354182678,70760.8758429145,57203.5063658243,58840.4022840210,59717.7175603488,64960.5469351149,11268.1268291251
9359871931,18557,2,0,20240.4161186070,47153.9622058200,50029.9798653747,59973.7015661099,70757.0430184153,57202.2895961420,58822.4549312072,59699.4781828112,64939.4116457334,11263.9289737212
9359871931,18557,2,0,20119.3110321282,47116.1693394880,49988.8773855068,59953.3815124156,70722.0243869589,57224.8850091422,58805.4323233519,59657.4266225911,64935.4571442660,11270.8888963039
9359871931,18557,2,0,19913.1780802508,47081.0290310633,49956.0611071754,59952.5054382443,70701.2176253916,57235.6412531337,58808.2552290148,59653.2165994904,64950.8127776565,11279.5887995323
9359871931,18557,2,0,19868.4982975169,47088.6581769713,49964.5298241641,59965.1841783338,70717.8630346454,57242.6133434132,58822.6982851437,59678.2455518552,64964.6717843379,11285.1494369804
9359871931,18557,2,0,20034.1249866708,47140.9184348259,50012.4462142529,59987.2807157643,70760.6324889781,57245.8742861618,58839.5140421530,59713.1911771307,64971.9480670380,11288.5198890003
9359871931,18557,2,0,20235.8167292079,47184.2962739996,50056.0309042727,59998.1708044208,70787.4379250790,57238.1356309824,58848.5789762861,59732.2336226586,64971.6925454047,11291.2576207855
9359871931,18557,2,0,20195.3834726653,47156.6390991211,50033.4354912725,59973.0323427846,70755.4247147378,57231.4677331234,58827.7600470220,59694.1974023901,64956.6897752220,11288.3252058512
9359898298,18558,2,0,19935.7613255542,47095.7397765223,49968.8006857490,59947.8573780579,70705.7926793971,57246.2758201569,58813.7428602820,59647.4856142868,64950.9831254121,11284.2976982028
9359898298,18558,2,0,19828.8072704805,47087.2102210494,49953.2868722997,59960.9863229299,70709.9296963169,57235.3978991972,58824.7667936036,59663.1211047043,64964.2824180395,11272.5802061623
9359898298,18558,2,0,20027.2624056627,47140.2005407133,50006.9829183794,59991.5637450459,70761.3503830906,57223.3883824330,58843.9552514933,59715.0163316541,64970.9138128080,11267.9321459759
9359898298,18558,2,0,20230.0492409138,47173.8807255192,50043.9970521148,59992.6953408505,70780.4536671026,57235.4222345909,58838.3824463484,59722.2439435669,64964.0999025872,11276.7780615662
9359898298,18558,2,0,20177.5577968197,47150.3240644700,50024.0176939315,59967.3256929746,70754.0375973000,57251.8486253019,58822.9781421706,59688.3082371278,64960.7537859609,11285.9646726675
9359898298,18558,2,0,19977.2653394172,47106.8123806311,49985.2635795504,59951.7145379508,70723.8738768760,57253.6129413412,58819.0479760968,59672.3442188961,64967.8232178150,11292.8272536756
9359898298,18558,2,0,19859.5672080489,47088.9380339982,49968.3504809665,59955.6325363278,70722.3164116826,57249.2569058786,58828.9403136138,59678.5254088821,64972.3130979427,11291.7321609616
9359898298,18558,2,0,19971.0111432502,47124.5893856895,49995.7034634245,59978.5199740517,70756.9943476280,57242.3943248704,58848.3842931369,59711.0618301867,64979.6988899142,11283.1661023982
9359919538,18559,2,0,20202.0513705242,47168.8311313377,50040.7239416694,59996.1266313545,70787.1824034457,57225.7489156166,58859.8340958473,59739.3395576032,64976.8881519481,11275.7438073362
9359919538,18559,2,0,20224.2087464388,47150.8229400397,50029.1646296876,59975.4172113619,70759.5860670513,57231.9666086932,58838.0417508374,59705.7688820687,64957.4320047282,11279.7591472878
9359919538,18559,2,0,19975.9268927667,47094.1214728448,49975.8457822095,59946.3485836519,70712.2902295005,57257.8594675324,58817.8677095050,59656.5262130262,64955.9475457158,11289.8340002572
9359919538,18559,2,0,19816.4327228116,47077.7680883148,49958.5189819336,59950.4856005717,70711.1221306055,57250.7291971941,58823.5013531340,59666.6132336925,64972.2522594586,11291.3549623601
9359919538,18559,2,0,19955.7771868279,47116.2301779721,49996.4335252339,59973.0445104814,70749.7058972310,57223.3397116457,58839.3193590038,59712.7288046514,64974.0165754979,11283.7379841489
9359919538,18559,2,0,20169.2837629801,47149.1194624845,50024.4313956235,59974.1031001050,70769.2593860255,57216.8178261486,58835.5717083823,59717.9852496789,64959.0989791930,11275.9384904854
9359919538,18559,2,0,20191.4289711978,47138.6917463073,50017.8000008550,59958.6744605335,70751.3120332117,57230.0927833824,58824.5842781512,59690.7296087955,64953.4775032608,11281.3896186621
9359919538,18559,2,0,20020.0226260530,47096.5185091189,49982.6596924303,59943.0146347224,70718.2280655501,57235.5925823464,58817.5270139939,59665.5181409784,64956.0935580777,11294.6159051086
9359948348,18560,2,0,19847.9592252798,47069.3967129006,49955.8299209357,59940.8731200816,70706.7174243556,57247.3952482647,58821.9682233343,59661.0890993348,64968.6992919863,11305.2261367382
9359948348,18560,2,0,19900.1951477407,47096.0561366397,49978.6565201756,59956.3747658340,70734.9829840753,57239.4010714520,58834.6712988174,59691.1189750939,64980.2707716649,11305.5546645524
9359948348,18560,2,0,20148.7568584398,47146.0410351883,50031.2331381475,59974.5654725843,70774.7835203831,57220.0909365940,58845.0625119042,59727.8289164087,64980.3072747553,11297.6334939207
9359948348,18560,2,0,20239.9050753404,47142.1717075986,50032.2795600743,59963.8700670769,70759.7564148068,57225.5298970738,58828.8186366456,59704.3574292372,64961.2648292274,11294.9809360133
9359948348,18560,2,0,20026.1551452518,47083.5964150930,49971.6114237151,59934.5702531273,70707.9585294315,57237.9409478332,58805.7851865598,59646.9259002329,64951.9443734611,11298.3270526396
9359948348,18560,2,0,19827.5783331014,47051.6440432359,49939.7928965231,59935.1786379684,70693.1139393075,57236.2861410653,58808.2430613180,59645.7212982475,64962.4694312129,11302.4519018626
9359948348,18560,2,0,19905.4515927682,47082.3431423202,49975.4564159111,59956.5451135895,70725.2731620106,57222.5488113522,58822.3819250263,59689.0504666340,64970.0012355463,11304.6055842003
9359948348,18560,2,0,20118.0699270523,47128.1180177681,50017.7878331581,59967.3256929746,70755.0840192268,57221.3563770636,58825.7767124399,59709.1515017855,64962.9196359954,11302.3910633785
9359983906,18561,2,0,20209.1938085593,47136.9517656616,50024.3340540489,59959.1855038001,70751.9569211433,57219.8475826575,58816.0790580720,59696.4484263023,64954.5482605812,11295.7718363068
9359983906,18561,2,0,20074.2905538834,47098.6600237598,49990.5808630621,59941.4328341354,70717.4249975598,57225.5177293770,58801.3074741289,59665.2017808610,64950.4964175391,11297.4144753779
9359983906,18561,2,0,19853.4590242438,47057.8252332220,49951.0115129938,59930.5305777821,70690.4005429160,57244.6940195700,58797.0731156346,59643.7501313621,64957.4076693346,11307.0147881712
9359983906,18561,2,0,19842.6541094650,47073.6797421823,49963.9944455039,59945.6185218425,70710.3555657057,57238.5493326744,58809.8978680859,59670.7867537027,64973.7732215614,11312.6240964066
9359983906,18561,2,0,20086.3000706476,47127.8503284380,50021.0852789972,59963.7970608960,70751.9447534465,57216.8056584518,58820.4959320187,59712.5584568959,64974.6979665200,11311.9670407781
9359983906,18561,2,0,20229.9640670361,47136.7692502092,50034.4210747151,59952.9313076331,70746.2016005460,57216.5988076058,58805.0186216599,59694.7936195344,64954.7672791240,11305.5789999461
9359983906,18561,2,0,20065.2499551439,47086.3949853623,49988.7435408418,59924.7995925785,70702.3978919834,57239.1212144251,58783.5426367674,59639.5157728678,64946.1647174702,11300.0913686789
9359983906,18561,2,0,19848.3607592750,47051.6197078423,49957.6429077623,59924.6292448229,70684.8399054679,57241.7251015452,58788.0446845919,59629.6964415316,64959.0503084057,11301.5879953882
9360010146,18562,2,0,19855.8682282147,47070.3944640401,49977.4762535837,59948.4049244150,70710.1973856470,57231.5650746980,58809.1678062766,59666.2482027878,64968.1882487197,11308.3654025185
9360010146,18562,2,0,20045.7329694399,47117.3617737766,50014.6729027715,59965.3301906957,70745.1065078320,57222.7069914109,58818.3179142874,59694.9031288058,64965.3166722695,11310.8354449736
9360010146,18562,2,0,20198.0847013600,47141.8675151780,50029.4323190177,59964.6366319768,70755.6315655838,57213.0336724367,58815.2394869912,59697.7625375592,64958.5757682296,11305.2869752223
9360010146,18562,2,0,20122.9370057815,47113.3342661282,50002.1158396502,59951.6293640731,70725.9423853358,57223.6439040663,58800.2367168085,59670.0445241965,64950.4599144487,11305.4816583715
9360010146,18562,2,0,19884.1337879344,47067.2917013502,49956.5478150483,59939.1209717391,70694.1603612343,57249.6706075705,58793.9460175511,59641.2070827261,64957.9917187821,11318.2334046419
9360010146,18562,2,0,19812.8432522488,47073.0348542507,49964.4446502864,59950.7532899018,70708.8224359060,57254.8540464171,58809.1556385797,59668.0976927049,64982.1202615820,11327.7363758607
9360010146,18562,2,0,20038.2985066811,47126.8525772985,50026.9014380785,59975.4293790587,70756.6901552074,57232.2342980233,58830.0597417215,59720.9541677037,64991.7449097689,11324.9256378946
9360010146,18562,2,0,20227.8468877889,47144.3253899363,50051.3706763895,59967.8854070285,70761.0461906700,57222.1107742666,58821.1529876472,59713.7995619718,64975.6105437817,11316.3109085439
9360043556,18563,2,0,20114.3344441277,47097.5527633489,50003.6611371467,59935.0934640907,70713.5069991828,57230.5673235585,58795.5643212285,59657.0494239896,64958.0282218725,11310.1905570420
9360043556,18563,2,0,19890.7651827029,47049.7702179252,49958.5433173272,59922.6945810281,70681.7249750813,57234.5583281165,58790.8067517707,59638.0678169458,64961.8732140686,11314.6439340792
9360043556,18563,2,0,19822.3583911643,47046.1807473624,49959.1395344716,59935.6410104477,70689.6826488035,57232.7210058962,58803.5098272539,59658.6920630607,64970.0255709400,11319.5231805052
9360043556,18563,2,0,19971.4978511231,47087.4292395922,50001.2397654789,59958.1877526606,70726.7941241135,57233.8039309134,58818.6707774953,59691.8003661159,64976.0972516546,11322.7719555569
9360043556,18563,2,0,20180.8309072650,47128.3248686141,50045.4571757335,59973.7624045940,70755.5585594029,57232.6114966248,58828.1372456235,59715.9654120063,64981.3780320758,11323.4411788822
9360043556,18563,2,0,20176.6208841643,47113.2734276441,50038.3147376984,59963.4198622945,70738.5602869412,57236.2009671875,58819.1696530650,59696.1564015786,64975.6105437817,11323.4046757917
9360043556,18563,2,0,19924.9320753817,47055.3065199796,49977.8899552757,59934.8257747606,70691.5321387206,57242.0414616626,58800.2853875958,59645.7212982475,64967.8232178150,11320.2289069209
9360043556,18563,2,0,19785.8187976050,47041.4475132983,49958.2999633908,59935.4219919049,70688.3563698498,57235.2762222290,58807.4886641150,59650.9412401845,64975.4888668135,11311.7723576290
9360104644,18564,2,0,19968.8209578221,47090.0452944091,50006.4353720223,59957.9687341178,70732.0749045346,57218.3144528578,58823.0998191388,59698.4195931876,64980.5262932982,11306.6010864792
9360104644,18564,2,0,20193.5218150514,47125.7574845845,50039.9938798600,59960.3292673015,70751.5432194513,57221.7092402714,58819.8875471776,59703.5421935501,64968.2734225974,11311.0909666069
9360104644,18564,2,0,20167.4829438503,47110.1584972575,50022.8739304301,59946.5067637106,70729.3128373558,57256.0464807058,58806.8316084866,59668.0368542207,64966.8741374628,11327.0793202322
9360104644,18564,2,0,19973.6150303703,47075.0546919233,49992.8075515806,59941.7491942528,70705.6466670352,57265.6711288927,58808.0118750784,59651.7443081748,64982.1689323692,11337.3731917444
9360104644,18564,2,0,19842.1430661984,47053.1163345515,49975.7241052412,59938.6707669566,70695.8151680022,57244.4141625430,58808.0605458657,59648.7267193627,64980.5627963886,11327.7485435575
9360104644,18564,2,0,19934.3255373291,47078.8875164225,49998.9400707794,59945.5941864489,70717.1694759265,57228.4988150986,58811.1511408587,59666.9660969003,64977.5938783638,11317.1383119279
9360104644,18564,2,0,20165.8889755665,47118.5542080653,50040.3102399774,59953.4058478092,70742.3079375627,57211.2206856101,58811.3701594015,59689.6953545656,64968.2369195070,11310.8354449736
9360104644,18564,2,0,20225.0726529133,47117.8728170432,50043.1088102467,59946.9813038867,70731.2231657570,57230.1049510793,58802.5729145985,59676.5177389063,64962.2504126701,11318.1238953705
9360121751,18565,2,0,19998.4736349796,47074.4098039917,49992.6493715219,59926.0528653512,70692.9800946425,57256.4601823978,58789.7238267535,59636.7293702953,64964.7326228220,11327.0184817481
9360121751,18565,2,0,19820.9347706361,47058.5796304250,49972.5118332800,59929.8735221536,70689.3297855956,57262.0573229363,58800.9911140115,59647.7046328296,64982.8016526040,11333.0901624628
9360121751,18565,2,0,19956.7140994833,47105.7172879171,50022.9956073984,59959.8182240349,70737.0149894447,57251.3254143385,58826.8353020635,59703.2380011295,64999.2037079214,11334.4772799006
9360121751,18565,2,0,20189.4821397061,47143.2181295254,50070.0115879222,59970.0755924566,70762.4454758047,57245.0103796874,58830.1084125088,59718.7153114883,64990.8810032945,11335.6940495829
9360121751,18565,2,0,20223.9532248055,47127.8746638317,50058.0629096421,59955.5716978437,70745.2525201939,57244.4993364208,58816.6266044290,59687.0671320518,64977.0219966131,11334.9883231671
9360121751,18565,2,0,20041.7176294883,47076.3079646960,50009.9396687073,59935.8600289905,70705.4033130987,57236.6390042732,58800.1028721435,59655.0052509234,64968.8696397418,11329.6102011714
9360121751,18565,2,0,19845.8298783358,47038.3934213957,49967.8881084873,59923.5463198057,70680.4108638244,57245.8986215554,58793.2767942258,59642.2291692593,64970.6704588716,11318.9878018450
9360121751,18565,2,0,19879.0476906624,47068.2529493992,49988.7800439323,59941.3841633481,70709.8201870455,57257.6282812928,58811.7230226094,59672.9161006467,64987.9120852697,11314.0720523285
9360141203,18566,2,0,20134.4841500665,47132.0481838419,50055.6658733680,59970.9029958406,70763.2485437950,57247.9427946217,58837.1900120598,59721.8667449654,64998.6561615643,11316.0675546075
9360141203,18566,2,0,20263.1575439691,47145.4083149535,50074.6109773213,59968.0435870872,70765.1223691057,57251.9581345733,58835.9245715902,59712.7896431355,64989.7494074899,11324.6336131708
9360141203,18566,2,0,20066.2963770707,47092.7343554070,50017.0456036519,59935.3976565112,70713.1663036718,57264.5030299977,58812.4652521156,59653.1679287031,64978.2752693859,11328.5516115478
9360141203,18566,2,0,19847.4238466196,47054.3209365370,49976.9773780140,59927.1601257621,70689.5609718352,57261.8869751808,58807.3548194499,59641.9614799292,64987.4740481841,11332.7494669517
9360141203,18566,2,0,19905.6706113110,47079.7270875033,50006.6300551715,59949.3418370703,70716.4394141171,57250.1938185339,58820.8731306202,59684.0860463302,64995.2005356666,11332.5791191962
9360141203,18566,2,0,20123.8252476496,47127.3271174746,50055.2278362823,59969.6862261583,70751.5553871481,57256.3993439136,58829.9380647533,59711.9987428420,64992.1829468545,11334.5624537783
9360141203,18566,2,0,20218.2830780861,47137.5844858964,50065.0471676185,59963.6023777468,70746.9681654459,57253.1140657714,58822.0533972121,59699.4903505080,64982.4974601835,11333.6012057293
9360141203,18566,2,0,20078.2937261381,47095.8006150064,50028.7265926020,59936.3345691666,70706.3523934509,57246.3974971252,58805.1889694155,59663.9971788755,64974.2112586470,11330.2915921935
9360181130,18567,2,0,19843.8830468441,47045.9860642133,49980.1288114911,59917.0244343086,70673.0250718529,57254.5255186029,58796.3552215220,59637.0457304127,64971.8872285539,11328.9166424525
9360181130,18567,2,0,19810.3245390065,47052.4592789231,49983.9494682935,59929.7761805790,70690.6073937620,57256.2289961581,58811.9542088490,59656.5140453294,64982.7286464231,11328.9409778461
9360181130,18567,2,0,20064.0210177648,47112.9448998299,50045.3233310685,59962.7506389692,70744.1817628734,57242.2726479022,58836.2530994044,59708.4457753697,64989.0071779837,11325.3393395865
9360181130,18567,2,0,20248.3616246324,47135.9783499157,50068.5392966066,59964.1742594975,70753.4535478525,57244.1586409098,58835.7177207442,59706.8153039955,64976.0485808673,11322.2730799872
9360181130,18567,2,0,20101.1933315589,47096.0318012460,50024.2975509584,59939.6806857929,70713.5921730606,57270.1001705363,58817.7703679304,59658.4973799116,64969.7578816098,11327.4565188337
9360181130,18567,2,0,19868.8389930280,47061.4025360879,49988.0986529102,59937.4905003648,70694.0751873566,57275.4661248352,58817.3688339352,59650.1260044974,64985.3325335432,11336.3876083018
9360181130,18567,2,0,19859.2508479315,47070.1146070132,50001.6291317773,59948.6969491387,70710.9152797595,57256.5575239723,58826.3850972810,59677.6858378013,64990.6254816612,11335.9130681257
9360181130,18567,2,0,20048.8478998266,47111.3144284556,50040.3467430679,59958.1147464797,70743.0136639784,57255.3529219869,58829.7190462105,59700.7922940681,64985.8557445066,11336.7404715096
9360223316,18568,2,0,20220.9113005998,47140.4195592561,50068.8069859367,59963.2130114485,70762.7009974379,57256.1803253708,58830.4247726262,59706.9978194478,64982.8138203009,11338.2249305220
9360223316,18568,2,0,20166.3878511362,47116.0963333071,50049.5941926533,59946.6041052852,70735.8103874592,57256.2411638549,58817.2836600575,59679.6083338994,64976.3649409847,11335.5115341305
9360223316,18568,2,0,19921.1235862762,47057.7278916474,49992.1018251649,59922.5242332726,70691.2157786032,57265.4034395626,58799.8716859038,59641.7302936895,64972.0332409157,11328.5637792446
9360223316,18568,2,0,19823.6968378149,47053.0676637642,49980.4938423958,59934.7284331860,70698.2000365795,57266.1578367656,58810.9807931032,59654.8714062583,64987.7904083015,11321.4213412096
9360223316,18568,2,0,20053.6054692844,47110.1828326511,50041.9163759580,59970.3797848772,70752.4436290162,57260.9135594349,58834.1359201572,59712.4002768372,64999.5444034324,11320.1924038304
9360223316,18568,2,0,20291.2284205396,47147.5011588071,50087.9102699488,59981.5375628638,70777.2535628382,57270.5017045314,58835.4256960205,59726.7703267851,64994.9571817302,11331.1068278806
9360223316,18568,2,0,20219.3538354065,47120.1481763491,50060.8858153050,59959.1976714969,70750.5211329182,57293.0971175316,58817.3566662384,59687.4443306533,64991.5258912261,11342.7634814370
9360223316,18568,2,0,19992.8886621379,47075.6630767644,50018.9072612659,59946.7379499502,70720.2114001322,57293.2309621967,58812.1123889077,59670.0566918933,65002.0752843716,11346.8518275695
9360228717,18569,2,0,19914.5165269013,47067.9000861914,50011.7161524435,59957.8470571496,70726.3195839374,57278.6662290996,58822.3940927231,59688.5272556706,65010.9698707492,11340.6097990993
9360228717,18569,2,0,20061.2102797987,47100.9110476720,50040.7361093662,59976.1959439586,70755.8749195203,57274.7360630258,58836.1314224362,59716.3669460015,65010.8360260841,11332.5182807121
9360228717,18569,2,0,20276.8218675012,47139.3122988452,50079.2103667204,59990.9553602048,70785.1260626826,57273.1420947420,58847.9584237481,59737.9037693781,65010.1181319715,11331.7638835091
9360228717,18569,2,0,20293.4672767550,47132.6078978958,50076.7524919621,59984.1536176808,70771.5104099378,57285.2732884745,58848.3964608337,59725.3467062568,65004.6183330076,11340.1839297105
9360228717,18569,2,0,20046.1831742224,47078.5833240019,50025.8915192422,59955.7785486897,70726.2222423628,57296.1025386469,58834.6712988174,59681.9445316894,65001.9049366161,11346.9248337504
9360228717,18569,2,0,19874.2901212047,47060.8184866404,50005.9729995431,59952.4445997602,70718.1672270660,57295.4819861089,58837.3968629058,59686.3127348488,65014.4985028278,11347.9590879804
9360228717,18569,2,0,20034.9767254484,47107.6762871056,50057.8195557056,59979.5298928881,70763.6744131838,57280.0898496279,58854.1517814310,59738.4878188256,65025.8996347509,11343.1406800385
9360228717,18569,2,0,20270.4094912755,47146.0775382788,50100.2726499209,59987.8647652118,70790.1269860769,57281.9636749386,58850.6109816555,59751.4950867293,65017.5525947304,11340.1352589232
9360258621,18570,2,0,20253.6545727503,47124.6867272641,50076.0832686369,59968.1287609650,70764.3193011154,57287.7189955359,58833.2111751987,59709.9789051694,65004.9346931250,11342.7999845275
9360258621,18570,2,0,20046.6698820953,47071.7815814779,50027.3029720737,59950.5829421463,70724.5065971107,57285.8695056188,58823.0024775642,59677.9900302219,65004.2654697997,11343.7734002733
9360258621,18570,2,0,19906.3520023331,47043.6498664233,50003.2961062420,59949.3661724640,70711.6331738721,57278.1551858331,58824.0975702783,59678.0143656155,65004.9346931250,11338.7116383950
9360258621,18570,2,0,19991.7083955461,47065.0771805285,50025.1006189487,59961.6555462552,70733.5958666375,57271.0614185853,58830.5221142008,59700.5489401316,65006.6868414675,11328.6367854256
9360258621,18570,2,0,20234.5269533447,47110.0733233797,50071.1796868172,59981.3550474115,70766.9231882355,57261.1204102809,58842.1422646667,59732.4039704141,65005.0320346996,11319.4501743242
9360258621,18570,2,0,20317.9243473691,47108.5766966705,50077.4825537715,59972.9715043005,70757.4688878041,57263.1767510440,58832.7122996289,59716.7684799966,64991.2947049865,11317.3329950771
9360258621,18570,2,0,20096.0463958028,47056.9734944444,50029.3958159272,59947.6991979992,70713.1663036718,57291.1624537368,58816.1885673434,59668.6087359714,64986.8534956461,11324.1712406915
9360258621,18570,2,0,19891.6290891774,47030.4114122799,50002.6755537041,59950.8993022637,70706.5714119937,57293.5108192236,58822.9294713833,59667.5379786510,65003.5840787776,11334.2825967514
9360302563,18571,2,0,20000.4082987745,47062.7774858289,50037.4751666177,59976.2202793522,70745.4715387367,57270.9519093139,58842.2396062413,59715.3448594683,65012.1744727346,11335.8035588543
9360302563,18571,2,0,20241.9735838003,47100.8745445816,50077.7259077080,59982.7178294557,70773.2382228866,57264.0284898216,58844.0769284616,59734.3508019058,64997.4515595789,11335.8643973384
9360302563,18571,2,0,20296.6308779290,47097.7231111044,50073.5888907882,59968.8588227743,70764.5991581423,57280.3210358675,58834.8659819666,59712.0474136293,64989.6398982185,11338.8089799695
9360302563,18571,2,0,20131.8437598559,47060.4047849484,50037.1953095907,59955.1701638485,70732.8414694345,57286.1006918584,58825.7037062589,59691.8733722969,64992.6939901211,11343.5908848210
9360302563,18571,2,0,19940.3607149532,47029.3528226563,50004.0383357482,59953.4423508997,70713.5556699701,57295.9078554977,58828.1250779267,59684.4024064476,65000.7611731147,11344.9536668651
9360302563,18571,2,0,19960.4130793174,47051.9725710502,50020.3187140973,59971.5357160754,70739.2416779633,57299.6555061192,58846.4617970389,59711.9500720547,65014.0239626517,11339.9527434709
9360302563,18571,2,0,20215.4601724231,47110.9372298541,50082.5078125594,60000.6530145727,70788.6668624581,57285.0177668412,58869.7020979707,59759.4040896642,65025.8387962668,11338.4074459744
9360302563,18571,2,0,20363.5045396679,47123.1779328580,50099.9441221067,59995.2627248801,70788.3505023407,57279.2016077598,58859.8340958473,59750.8745341913,65009.4732440399,11337.6773841650
9360343341,18572,2,0,20173.8953200760,47068.5449741230,50050.2025774945,59960.7794720839,70737.2218402907,57292.5982419619,58832.2620948465,59690.4254163750,64994.5313123414,11336.6552976319
9360343341,18572,2,0,19925.3336093769,47025.7998551840,50005.9851672399,59946.9691361899,70708.1288771871,57290.5053981083,58824.4504334862,59666.7714137512,64999.5200680388,11331.8368896900
9360343341,18572,2,0,19956.6897640896,47048.7602990889,50026.5485748707,59964.6366319768,70737.8180574350,57273.4219517689,58840.1832654782,59705.8418882496,65006.7841830421,11324.8161286232
9360343341,18572,2,0,20186.5983955591,47101.0813954275,50073.6497292723,59983.1071957540,70777.2657305350,57276.7924037889,58852.7159932059,59735.7135839499,65004.5088237362,11327.5538604083
9360343341,18572,2,0,20317.4011364057,47117.7024692877,50087.9954438265,59980.7344948735,70783.2644050687,57283.2412831050,58852.4239684821,59727.6707363500,64998.9846893786,11333.5160318516
9360343341,18572,2,0,20215.4236693327,47086.8451901447,50064.7673105915,59964.9529920942,70753.1250200383,57294.5937442408,58844.3081147012,59700.9991449141,64999.0698632563,11339.9892465614
9360343341,18572,2,0,19988.2527696483,47041.7517057189,50027.4368167387,59951.7023702540,70724.9811372868,57304.2548955183,58837.0561673947,59682.2365564131,65005.3118917265,11345.7932379459
9360343341,18572,2,0,19922.3768590489,47041.5691902665,50027.0231150468,59959.2098391937,70735.5548658260,57299.4121521827,58840.2806070528,59701.4615173934,65014.3646581628,11346.6084736331
9360354646,18573,2,0,20151.1052239266,47097.9177942536,50082.3374648039,59990.1157891240,70786.2819938808,57278.5688875250,58856.0499421354,59753.0525519226,65021.8477917089,11345.7689025523
9360354646,18573,2,0,20345.1921559493,47118.6272142462,50101.0513825175,59987.3780573389,70790.4433461943,57262.1424968141,58844.7948225741,59749.3049013012,65002.5741599413,11340.9626623072
9360354646,18573,2,0,20212.1140557968,47075.4805613121,50049.9592235580,59958.5892866558,70743.8410673624,57278.8244091583,58820.3864227473,59692.4452540476,64985.4785459051,11341.8995749626
9360354646,18573,2,0,19956.1057146421,47027.8561959471,49998.1856735764,59943.2458209620,70706.5835796905,57284.1416926699,58816.7361137004,59668.4505559127,64991.6354004975,11341.0235007913
9360354646,18573,2,0,19917.3637679579,47034.6579384711,50006.9585829857,59952.9556430267,70720.1748970418,57275.8676588303,58827.1273267872,59694.6476071725,65002.0509489779,11335.7670557638
9360354646,18573,2,0,20102.7507967522,47075.6387413708,50050.3485898563,59965.4275322703,70752.4679644099,57269.1024193968,58834.7686403920,59720.8811615228,64999.6174096133,11328.6246177287
9360354646,18573,2,0,20281.6889462304,47100.1688181658,50073.6862323627,59968.8831581680,70762.8348421030,57256.0343130089,58830.9236481960,59717.9244111948,64986.9508372207,11327.3470095623
9360354646,18573,2,0,20243.6527259619,47074.6288225345,50048.9006339344,59954.0020649535,70733.7053759089,57250.6440233164,58816.5170951576,59686.8846165995,64972.2279240649,11324.2442468725
9360385219,18574,2,0,20004.1924524864,47017.4406474666,49988.4515161180,59930.8226025058,70688.5875560894,57264.6003715723,58802.6580884763,59648.0331606438,64964.8177966997,11321.9810552634
9360385219,18574,2,0,19877.0521883835,47005.7961616071,49971.4045728691,59934.5945885209,70688.5510529989,57268.7738915826,58810.8591161349,59654.0683382680,64975.0264943342,11322.7354524664
9360385219,18574,2,0,20073.9741937660,47059.4678722931,50028.7752633893,59961.1323352918,70738.2925976111,57254.3186677569,58833.8803985240,59709.7233835361,64987.1576880667,11323.9522221487
9360385219,18574,2,0,20313.6656534811,47100.2296566499,50073.7227354532,59969.0048351362,70761.6059047239,57251.8364576050,58835.8028946220,59723.8135764571,64981.4875413472,11325.8260474595
9360385219,18574,2,0,20256.3923045355,47074.3124624171,50047.2214917728,59948.3562536277,70730.6999547936,57268.9807424286,58819.7537025125,59680.3262280119,64972.9336504806,11332.2749267756
9360385219,18574,2,0,20024.1353075792,47027.5520035265,50001.0937531171,59937.3201526093,70700.6214082473,57273.4949579499,58815.3368285658,59657.5604672562,64982.6191371517,11336.6066268446
9360385219,18574,2,0,19930.0911788347,47014.7637541656,49992.3573467982,59945.2291555442,70703.8701832990,57269.5526241792,58826.1052402541,59674.7047520797,64994.0567721653,11333.8810627563
9360385219,18574,2,0,20069.3504689732,47048.2735912160,50023.0807812761,59958.7718021081,70731.4908550871,57264.2231729708,58834.6956342111,59700.3299215888,64996.4538084394,11329.4398534159
9360419678,18575,2,0,20290.6322033953,47087.7212643160,50064.6699690169,59967.8245685444,70755.6924040679,57255.8883006471,58838.9786634928,59715.1136732287,64992.2437853386,11326.9576432640
9360419678,18575,2,0,20326.5877475071,47076.7703371753,50066.3004403912,59953.6735371393,70738.5724546381,57255.6814498011,58826.6041158238,59696.2537431531,64980.6601379632,11329.6345365650
9360419678,18575,2,0,20093.4303409858,47023.8895267828,50017.6539884931,59931.3579811660,70694.2942058994,57281.1241038579,58812.3679105410,59653.9101582093,64975.5618729944,11331.9463989614
9360419678,18575,2,0,19915.3439302853,47008.8380858128,49999.9499896157,59940.9704616562,70695.6569879435,57297.4166499038,58821.4450123709,59660.1765220731,64996.9283486155,11335.5967080083
9360419678,18575,2,0,20067.8051714767,47059.9789155596,50048.8032923598,59978.5199740517,70746.7004761158,57268.6522146143,58849.1995288240,59715.6977226762,65014.0482980454,11335.2316771036
9360419678,18575,2,0,20318.4962291198,47099.0980608454,50084.8926811367,59986.6966663168,70768.7240073653,57245.9107892523,58847.0580141832,59729.5688970544,64997.9017643613,11329.9630643793
9360419678,18575,2,0,20317.3402979216,47077.4638958942,50059.4500270799,59960.4509442697,70738.9131501491,57263.8459743693,58826.2877557064,59688.6245972452,64979.9909146379,11331.9950697487
9360419678,18575,2,0,20107.6178754814,47030.3019030085,50015.7193246982,59944.2557397983,70702.4222273771,57276.8654099698,58818.3544173779,59660.5415529778,64980.8304857187,11337.0689993239
9360461261,18576,2,0,19957.1156334784,47006.4167141451,49999.4754494396,59949.8163772464,70697.7133287066,57278.0700119553,58826.1052402541,59667.6839910129,64991.6597358911,11339.6850541408
9360461261,18576,2,0,20033.3340863773,47033.2464856396,50025.3074697947,59970.8299896597,70724.6647771694,57277.0844285126,58844.8799964519,59694.5137625075,64998.1694536914,11337.3488563508
9360461261,18576,2,0,20275.5199239412,47084.3021415087,50074.0512632674,59993.4740734471,70763.4067238537,57266.9730724528,58859.3960587617,59726.5148051518,64999.4227264642,11334.9518200767
9360461261,18576,2,0,20385.6254124920,47091.6879334802,50084.7710041684,59989.5317396765,70763.1877053109,57266.9852401496,58851.8277513378,59719.4088702072,64991.7205743753,11337.1663408984
9360461261,18576,2,0,20181.8043230109,47036.1910682708,50032.8149387345,59958.5771189590,70714.3222348699,57282.2800350560,58828.4901088314,59665.8466687926,64984.2861116164,11341.4858732706
9360461261,18576,2,0,19952.6379210476,46998.9579159926,49991.7489619570,59948.2467443563,70690.4857167938,57283.1439415305,58826.1539110414,59652.4987053778,64996.8918455250,11345.9270826110
9360461261,18576,2,0,20035.2687501722,47029.7421889546,50022.0465270462,59968.6398042315,70723.7643676045,57266.3038491275,58844.1986054298,59698.6629471241,65007.3438970959,11343.6273879114
9360461261,18576,2,0,20290.9728989063,47078.6684978797,50072.7493197074,59982.9125126048,70756.4589689678,57259.4899389067,58852.9228440519,59726.9163391470,64998.2546275692,11337.6530487714
9360481352,18577,2,0,20373.7984111801,47083.7180920612,50073.6132261818,59972.3631194593,70747.7103949521,57267.2164263892,58843.2251896840,59703.6151997310,64987.8999175729,11336.5701237541
9360481352,18577,2,0,20211.4083293811,47039.3911725352,50029.7365114383,59948.0033904198,70708.5547465759,57257.0929026325,58824.1584087624,59664.1918620247,64977.5695429702,11332.2627590788
9360481352,18577,2,0,19999.3132060604,46993.8474833270,49989.6561181035,59934.2782284035,70680.2283483721,57258.4678523735,58817.1741507860,59645.6482920665,64974.1990909502,11326.6899539339
9360481352,18577,2,0,19992.9616683188,47009.6046507127,49998.1248350923,59953.3571770219,70703.2374630642,57269.7959781157,58833.5275353161,59664.9097561372,64984.7849871862,11332.8711439199
9360481352,18577,2,0,20233.2615128751,47068.9586758150,50048.5356030297,59986.3073000184,70752.5288028940,57256.7157040310,58856.7921716416,59709.6138742647,64993.1441949035,11334.7693046243
9360481352,18577,2,0,20404.2176532374,47086.8208547511,50065.9840802738,59983.2653758127,70756.8483352661,57247.1032235409,58849.6984043938,59707.5575335017,64982.1689323692,11332.8346408295
9360481352,18577,2,0,20238.6152994772,47032.8449516445,50014.4173811382,59945.0953108791,70701.6191593868,57263.7973035820,58818.1597342287,59647.8871482819,64966.3995972867,11329.0383194207
9360481352,18577,2,0,19978.0440720139,46988.6397090867,49974.8358633732,59929.6423359140,70669.7762968011,57275.9163296176,58812.5869290838,59630.6576895807,64976.1459224419,11331.5205295726
9360503353,18578,2,0,19990.5646320447,47011.4541406298,50006.7882352302,59950.0110603956,70702.7994259786,57268.6400469175,58831.8118900640,59679.2067999042,64994.2027845271,11331.8977281741
9360503353,18578,2,0,20220.1569033968,47063.7752369684,50062.8083114030,59970.1485986376,70744.9361600765,57266.0848305847,58844.1377669457,59715.3326917715,64995.5412311777,11331.4353556948
9360503353,18578,2,0,20364.5509615946,47085.7622651275,50077.2513675319,59971.6817284373,70753.6847340922,57275.5999695002,58843.0670096253,59708.1172475555,64988.3501223553,11333.9662366340
9360503353,18578,2,0,20276.5906812616,47060.5629650071,50049.5090187756,59961.5217015901,70730.3470915857,57280.3088681707,58838.2120985929,59684.5605865063,64988.9341718028,11338.6629676077
9360503353,18578,2,0,20048.4828689219,47013.3888044246,50003.4056155134,59945.9227142631,70697.3482978019,57290.7730874384,58829.9624001470,59665.0070977118,64991.8665867371,11341.5345440579
9360503353,18578,2,0,19966.3752507607,47012.7195810993,49999.3781078650,59954.0750711345,70706.7782628397,57289.3981376975,58836.4234471599,59679.3528122661,65004.1437928315,11342.2402704736
9360503353,18578,2,0,20176.7060580421,47062.6071380734,50048.6694476948,59979.5663959785,70749.4382079010,57261.1447456746,58854.2734583992,59724.0447626967,65006.7598476484,11335.0126585608
9360503353,18578,2,0,20399.6547669288,47092.5153368642,50082.0941108674,59985.3582196662,70766.0592817611,57255.6571144074,58859.7489219695,59731.3210453969,64990.2117799692,11331.1433309711
9360539643,18579,2,0,20301.4249504772,47055.1726753146,50042.7437793420,59957.2995107925,70724.9446341964,57278.7514029774,58841.1688489209,59680.5452465547,64976.0850839578,11333.6985473039
9360539643,18579,2,0,20043.0925792293,47007.0007635926,49992.3451791014,59944.1949013142,70690.4857167938,57285.4071331395,58833.5883738002,59654.4455368695,64983.4587082325,11334.7449692307
9360539643,18579,2,0,19990.8931598589,47014.6907479847,50000.3636913077,59967.1796806128,70713.3974899114,57278.1186827426,58854.1152783405,59689.5006714164,64997.3663857011,11336.0469127907
9360539643,18579,2,0,20176.2071824723,47060.2952756770,50041.4661711756,59988.4974854466,70750.8861638229,57274.5535475735,58868.2054712615,59724.5679736601,64998.0842798137,11334.3190998419
9360539643,18579,2,0,20368.6028046367,47093.1480570990,50072.2747795313,59990.6390000874,70770.2449694682,57274.0060012164,58863.7155911338,59729.2525369370,64996.6241561949,11331.5813680567
9360539643,18579,2,0,20349.9253900135,47076.8433433562,50062.0660818968,59973.9570877431,70750.2291081944,57279.6639802391,58847.3622066038,59706.3772669098,64992.0856052799,11326.7264570244
9360539643,18579,2,0,20115.1740152084,47023.0864587925,50014.1131887176,59949.5851910068,70707.5934985269,57290.8825967099,58825.9227248017,59665.0557684991,64988.3622900521,11326.0694013959
9360539643,18579,2,0,19964.4649223595,47013.3644690310,49993.5011102996,59956.9831506751,70707.9341940379,57295.8226816200,58832.0795793942,59668.4018851254,64999.4105587674,11329.6953750492
9360577515,18580,2,0,20141.7239296761,47069.3237067197,50041.4783388724,59992.0626206157,70757.5297262882,57278.6905644933,58856.6704946733,59724.7261537188,65010.1789704557,11330.5714492204
9360577515,18580,2,0,20399.9346239558,47114.7213835661,50087.4965682568,60000.2149774871,70783.6416036702,57268.5548730398,58858.8606801014,59746.1047970367,65000.2744652418,11330.8756416410
9360577515,18580,2,0,20369.8074066221,47090.6780146439,50063.2950192760,59972.0832624324,70752.1394365956,57282.3165381465,58839.1125081578,59702.8486348312,64986.2086077145,11333.3335163992
9360577515,18580,2,0,20132.3061323351,47043.5768602423,50017.6053177058,59953.8682202885,70715.8431969728,57294.2652164266,58830.2300894771,59676.7610928428,64994.2757907081,11338.9793277251
9360577515,18580,2,0,20015.8734414364,47033.1856471555,50008.1996880617,59959.8668948222,70717.5223391344,57287.8041694136,58838.2607693802,59694.9639672899,65005.4335686947,11340.4881221311
9360577515,18580,2,0,20138.8766886195,47065.2231928903,50038.9109548428,59975.3928759683,70745.5932157049,57285.0907730221,58850.0877706921,59722.0857635083,65006.1271274136,11338.3831105807
9360577515,18580,2,0,20360.4261123717,47104.7073690808,50077.2513675319,59985.2852134853,70775.1850543783,57276.4030374905,58854.1152783405,59740.1182901998,65002.9026877555,11335.4385279496
9360577515,18580,2,0,20411.9563084168,47096.0561366397,50074.7569896832,59970.8421573565,70760.5473151003,57270.7207230742,58841.4608736446,59721.1001800656,64991.1121895341,11332.0194051423
9360604718,18581,2,0,20190.6867416916,47039.7683711367,50021.6206576574,59942.4427529717,70710.2460564342,57284.1660280636,58823.7203716768,59674.3640565687,64982.8016526040,11333.4551933675
9360604718,18581,2,0,19984.0062434571,47013.0116058231,49987.6362804309,59942.8564546637,70696.4478882370,57296.6500850039,58829.9380647533,59665.8953395799,64996.8796778282,11339.4417002043
9360604718,18581,2,0,20101.9112256714,47057.6792208601,50030.4787409445,59975.4293790587,70743.2813533085,57282.7059044448,58856.3176314655,59721.3557016989,65015.3867446959,11341.2790224246
9360604718,18581,2,0,20366.1692652721,47109.3432615703,50081.4248875421,59992.6466700632,70779.1395558457,57270.0149966585,58865.3825655985,59749.1223858488,65008.2321389640,11340.0987558328
9360604718,18581,2,0,20396.8318612659,47095.4355841017,50065.9597448802,59971.5722191658,70754.1836096619,57271.7671450010,58844.9408349360,59709.3948557219,64989.4208796757,11338.5534583363
9360604718,18581,2,0,20187.6569851827,47041.5326871761,50013.2979530305,59945.0953108791,70709.3334791725,57269.7716427221,58826.5676127334,59669.4361393554,64984.6754779148,11337.2393470794
9360604718,18581,2,0,20010.2154624137,47006.1246894213,49982.8908786699,59937.6000096362,70691.4713002364,57260.4025161684,58823.4648500435,59663.1697754916,64984.2009377387,11332.8103054358
9360604718,18581,2,0,20055.4184561110,47023.5366635749,49996.0684943292,59948.5631044737,70713.4096576082,57255.7301205884,58831.1913375261,59681.4456561196,64984.9188318512,11329.3790149318
9360634896,18582,2,0,20282.1148156192,47067.9122538882,50032.7906033408,59965.6708862067,70749.9127480770,57243.1487220734,58837.2751859375,59706.5841177558,64982.8746587850,11321.2753288477
9360634896,18582,2,0,20416.4826916350,47079.1552057526,50047.0876471078,59970.0269216693,70752.5896413781,57244.4628333303,58835.6690499569,59705.3795157703,64975.2333451802,11324.7066193518
9360634896,18582,2,0,20243.7622352333,47033.4898395761,50000.8138960901,59950.0718988797,70710.1122117692,57272.3755298422,58824.1097379751,59661.2594470904,64968.5289442307,11331.8368896900
9360634896,18582,2,0,20008.6458295236,47003.5451376948,49964.4446502864,59952.0552334618,70694.3185412930,57288.7897528563,58833.7343861621,59653.5329596078,64987.2063588539,11339.6607187472
9360634896,18582,2,0,20063.7046576474,47036.1302297867,49998.4290275128,59975.7700745698,70729.0086449352,57260.9865656159,58854.0909429469,59699.4416797208,65000.2014590609,11334.7814723212
9360634896,18582,2,0,20313.3127902732,47080.4571493127,50048.8884662376,59982.8151710302,70760.1214457115,57240.8125242834,58850.5258077777,59723.8014087603,64988.2406130839,11325.8747182468
9360634896,18582,2,0,20405.9454661863,47081.4305650585,50050.5432730055,59963.8213962896,70748.5012952456,57249.3785828468,58830.2300894771,59696.3510847277,64969.6362046416,11322.0297260507
9360634896,18582,2,0,20257.4630618559,47047.4948586193,50019.2114536864,59946.4459252265,70716.3907433298,57262.6292046870,58818.1719019255,59667.2702893209,64970.0985771209,11324.5971100803
9360662736,18583,2,0,20053.7393139494,47014.6907479847,49990.1306582796,59946.9204654026,70698.9057629953,57272.9717469865,58824.3774273052,59663.2671170661,64981.6578891027,11330.3645983744
9360662736,18583,2,0,20029.7081127241,47026.1648860887,49996.1171651165,59962.8236451502,70716.3177371489,57276.7802360921,58841.4973767351,59684.7309342618,64993.0590210258,11328.7949654843
9360662736,18583,2,0,20251.9997659824,47075.2128719820,50042.9019594007,59986.8426786786,70757.9677633738,57255.7787913757,58859.8949343314,59724.7383214157,64998.3032983565,11324.1712406915
9360662736,18583,2,0,20441.1831161855,47093.8902866052,50065.7528940342,59986.6236601358,70765.9862755801,57244.8643673255,58853.9692659786,59723.8865826380,64982.9354972691,11322.0783968380
9360662736,18583,2,0,20310.5628907912,47050.3664350695,50021.6693284447,59957.3238461862,70720.6494372179,57271.9983312406,58830.9844866801,59672.3685542897,64969.6362046416,11327.5538604083
9360662736,18583,2,0,20049.6753032105,47008.5947318764,49974.1179692606,59947.1394839454,70691.2401139968,57291.7100000938,58825.0831537210,59652.5108730747,64984.1887700419,11335.7062172797
9360662736,18583,2,0,20041.7541325788,47032.9179578254,49996.7620530481,59973.8232430781,70724.1050631156,57283.1317738336,58851.5843974013,59700.2569154079,65005.5795810566,11339.3686940234
9360662736,18583,2,0,20268.2923120283,47083.9736136945,50053.1958309129,59997.9517858780,70767.0326975069,57268.7373884921,58869.3979055501,59739.4855699651,65005.5065748757,11340.8288176422
9360724337,18584,2,0,20421.4592796355,47099.7551164738,50073.3820399422,59986.2342938375,70770.9506958839,57267.2285940861,58861.6592503707,59726.2106127312,64993.5335612019,11336.4119436954
9360724337,18584,2,0,20341.7973685357,47067.6080614676,50047.3918395284,59960.7551366903,70741.7968942961,57271.3169402186,58841.2296874050,59696.7769541165,64988.0459299347,11335.4628633432
9360724337,18584,2,0,20117.4858776048,47021.2978073595,50002.6877214009,59941.2381509863,70707.1189583508,57280.6008928945,58828.3684318632,59675.5199877668,64992.0612698863,11338.4439490649
9360724337,18584,2,0,20011.6390829420,47016.4307286303,49985.9693059662,59946.3607513487,70712.8377758575,57282.0488488164,58834.0385785827,59687.2496475042,65000.0676143958,11339.9892465614
9360724337,18584,2,0,20203.0734570574,47069.6887376244,50030.0163684652,59980.0774392451,70759.7077440195,57272.6553868691,58858.3983076222,59733.4138892504,65010.5196659667,11334.1852551768
9360724337,18584,2,0,20444.7604190515,47112.4581919570,50069.2936938097,59999.7404373110,70784.9192118366,57264.4543592104,58868.6921791344,59751.1300558246,65001.3087194717,11329.8413874110
9360724337,18584,2,0,20379.8335888043,47086.5166623305,50039.1178056888,59979.7975822182,70749.6207233533,57279.3111170312,58851.8399190346,59702.7756286502,64986.8778310397,11334.4286091133
9360724337,18584,2,0,20114.9306612720,47033.7331935126,49983.2194064842,59957.3968523671,70707.0094490793,57277.5346332951,58834.7686403920,59663.0724339170,64987.9850914506,11330.9486478219
9360735838,18585,2,0,20025.4129157456,47024.4735762303,49980.0436376134,59959.6600439762,70710.7814350945,57259.0397341242,58838.0904216247,59679.4136507502,64990.7593263262,11322.4920985300
9360735838,18585,2,0,20190.8692571440,47060.2831079802,50020.1727017354,59971.3775360167,70743.9992474211,57258.3096723148,58847.5812251466,59707.4480242302,64984.6024717338,11318.2820754292
9360735838,18585,2,0,20382.6929975576,47090.9457039740,50051.2489994212,59972.2292747943,70762.3116311396,57259.2709203639,58849.1021872495,59711.8283950865,64979.1513435572,11321.9202167793
9360735838,18585,2,0,20379.1278623885,47075.8942630041,50041.4296680851,59960.2927642110,70743.9627443306,57258.7233740068,58838.9178250086,59692.8711234364,64973.5542030186,11325.7895443690
9360735838,18585,2,0,20156.0939796240,47022.5267447386,49991.6516203825,59940.2282321500,70702.0571964724,57266.3525199148,58824.8763028750,59659.1179324495,64970.0985771209,11322.7476201633
9360735838,18585,2,0,19983.2153431636,46998.7023943593,49959.7114162222,59940.0457166976,70690.4005429160,57264.9897378706,58826.5919481270,59657.5848026498,64975.3306867548,11316.3352439376
9360735838,18585,2,0,20126.4291347697,47043.6376987264,49999.6944679824,59969.3090275568,70732.6346185885,57247.7967822598,58846.3279523738,59706.9369809637,64983.3005281738,11310.1905570420
9360735838,18585,2,0,20390.4073173434,47091.2255610010,50051.5166887513,59981.0021842036,70763.3337176728,57241.5425860928,58848.2626161687,59732.0511072062,64975.5983760849,11308.9129488756
9360771715,18586,2,0,20392.7191797397,47079.5445720509,50041.6851897184,59961.9597386757,70740.9816586090,57265.5616196213,58832.6514611448,59698.6507794273,64966.2535849248,11315.3861635854
9360771715,18586,2,0,20157.3229170031,47034.7066092584,49992.7467130965,59945.7645342044,70705.1842945559,57271.4264494900,58825.8862217113,59663.8998373009,64971.3396821968,11321.0563103049
9360771715,18586,2,0,20015.3502304730,47018.2802185474,49976.2473162046,59950.9236376573,70702.0571964724,57259.5994481781,58832.5419518734,59672.8187590722,64979.9665792443,11321.1049810922
9360771715,18586,2,0,20113.2758545041,47048.1640819446,50000.6678837283,59965.2328491211,70729.0816511162,57256.7400394247,58841.2783581923,59697.2879973831,64980.3072747553,11315.6538529155
9360771715,18586,2,0,20332.0023725933,47095.7154411286,50043.8875428434,59980.5398117244,70763.2728791886,57265.9144828292,58849.9782614207,59719.7982365055,64983.9210807118,11313.5488413651
9360771715,18586,2,0,20414.8400525639,47103.3689224303,50057.7465495247,59980.6493209958,70760.4986443130,57266.0969982815,58845.4518782026,59717.3768648378,64982.4001186089,11322.6989493760
9360771715,18586,2,0,20221.7752070742,47053.9437379355,50013.0424313972,59955.9367287484,70716.5245879949,57271.6819711233,58828.2467548949,59677.8075147696,64976.8759842513,11334.3921060228
9360771715,18586,2,0,19998.1937779527,47018.6939202394,49970.7718526343,59948.6847814419,70697.1414469559,57282.8275814131,58828.5509473155,59665.4938055847,64985.9165829907,11338.3466074903
9360798309,18587,2,0,20082.1265506373,47052.9581544928,50005.3889500956,59974.9548388826,70738.9618209364,57266.9974078464,58851.1463603157,59712.4732830181,64999.5930742197,11330.8391385505
9360798309,18587,2,0,20345.3016652207,47097.1755647474,50052.8794707955,59988.5826593243,70771.0237020648,57247.3100743869,58856.7921716416,59738.1714587082,64987.8877498760,11314.7899464411
9360798309,18587,2,0,20402.5020079854,47087.7942704969,50042.1475621977,59968.9196612584,70752.4192936226,57255.7544559820,58839.8060668767,59698.7359533050,64967.5068576976,11305.2139690414
9360798309,18587,2,0,20209.2181439530,47037.9675520069,49990.8242169985,59943.7203611381,70710.0027024978,57255.1339034440,58825.1074891146,59654.1535121458,64960.5834382054,11297.2562953192
9360798309,18587,2,0,20027.9437966848,47005.6501492452,49959.3950561048,59941.0191324434,70692.9557592488,57253.5764382507,58827.0421529095,59651.2454326051,64967.1904975802,11293.1922845803
9360798309,18587,2,0,20055.8078224093,47025.6903459126,49973.2662304830,59956.6546228609,70716.2690663616,57253.6251090380,58840.3901163242,59676.1162049112,64972.5564518791,11287.4612993767
9360798309,18587,2,0,20271.2490623563,47079.4228950827,50018.4448887866,59981.7565814067,70755.9114226107,57247.4195836583,58854.1517814310,59709.9302343821,64974.6127926422,11285.7943249120
9360798309,18587,2,0,20416.5800332095,47098.1489804932,50038.4850854540,59984.7133317346,70760.2796257702,57240.7516857993,58851.8520867314,59710.7941408566,64964.5866104601,11291.8173348393
9360848389,18588,2,0,20263.0480346977,47052.0334095343,49994.6205384073,59957.8470571496,70715.5268368554,57251.7391160304,58832.6514611448,59667.0756061717,64951.9443734611,11304.5690811098
9360848389,18588,2,0,20008.1469539538,47006.9034220180,49946.5338005630,59941.4328341354,70686.4095383581,57263.8338066725,58828.0520717458,59644.4680254747,64960.3522519657,11313.0134627049
9360848389,18588,2,0,20029.7202804209,47029.7786920451,49965.8439354210,59963.2860176294,70714.7237688651,57243.2217282544,58846.8876664277,59685.0594620760,64975.4645314198,11309.2414766898
9360848389,18588,2,0,20278.6591897215,47080.0069445302,50014.2713687763,59983.8494252602,70752.9546722828,57229.1193676366,58854.3099614897,59717.1456785981,64967.4946900008,11300.7240889137
9360848389,18588,2,0,20395.0797129234,47088.8650278173,50016.8022497155,59974.6384787652,70746.3719483016,57230.8106774950,58842.7263141142,59692.6034341063,64948.7199338030,11295.7596686100
9360848389,18588,2,0,20257.9376020320,47049.6728763506,49974.6168448304,59950.9479730510,70708.3357280331,57234.0229494562,58825.1318245083,59658.7650692417,64941.7721789171,11296.0151902433
9360848389,18588,2,0,20048.5802104965,47009.6898245904,49936.2277613540,59935.6896812350,70681.7493104749,57240.1433009582,58815.8965426196,59646.3175153918,64946.5784191621,11300.2373810408
9360848389,18588,2,0,20007.3560536604,47018.3532247284,49942.0560881322,59943.2093178716,70697.6768256161,57246.1784785824,58821.7735401851,59665.3112901324,64959.8898794864,11305.4816583715
9360869761,18589,2,0,20213.2091485109,47075.4197228280,49997.2730963147,59972.0954301292,70746.1529297588,57243.3799083131,58839.6965576053,59707.8008874381,64974.1869232534,11310.4460786753
9360869761,18589,2,0,20420.2546776501,47112.0931610523,50037.7063528573,59986.1856230502,70765.4752323136,57237.9409478332,58843.8579099188,59725.2371969854,64966.1319079566,11310.6894326117
9360869761,18589,2,0,20313.3127902732,47074.2394562361,50001.5074548090,59959.5261993111,70723.3750013062,57243.0027097116,58822.6617820532,59677.9656948283,64950.0462127567,11309.7038491691
9360869761,18589,2,0,20035.3904271404,47017.6840014031,49942.6888083669,59933.9740359830,70678.8655663279,57256.2411638549,58810.6766006826,59641.4139335721,64951.2143116517,11304.1310440242
9360869761,18589,2,0,19994.7016489645,47030.9711263338,49959.2490437430,59953.5153570806,70702.3735565898,57261.5341119729,58830.4977788072,59677.7831793759,64974.3329356153,11302.5005726499
9360869761,18589,2,0,20219.5241831620,47089.4125741743,50021.6693284447,59983.2532081159,70753.6117279112,57263.0429063790,58850.6109816555,59727.1353576898,64985.3568689369,11310.6894326117
9360869761,18589,2,0,20389.1418768738,47122.8250696501,50052.2589182575,59987.5605727912,70771.0723728521,57266.9000662718,58850.2946215381,59728.9361768196,64981.1955166234,11316.8827902946
9360869761,18589,2,0,20326.0767042405,47103.6487794572,50030.3448962794,59973.0445104814,70746.7126438126,57263.5052788582,58839.8669053608,59700.9139710363,64977.5087044861,11319.5110128084
9360886329,18590,2,0,20107.8490617210,47054.8928182877,49981.6741089877,59954.9268099121,70710.2947272215,57264.8072224183,58829.5243630613,59672.0278587787,64973.6758799868,11317.4546720453
9360886329,18590,2,0,19989.1531792132,47043.7958787851,49965.3328921544,59957.2873430957,70707.8368524633,57273.2881071039,58834.0872493699,59672.8917652531,64979.1513435572,11315.7390267932
9360886329,18590,2,0,20157.4202585777,47095.7154411286,50011.6674816562,59984.7863379156,70754.2931189333,57263.7242974010,58856.7556685511,59716.5251260602,64991.5867297102,11313.9990461476
9360886329,18590,2,0,20404.8868765627,47141.4903165765,50058.3062635785,59998.4506614477,70782.6195171371,57250.3885016831,58863.2167155641,59740.9091904933,64985.8679122034,11311.7236868417
9360886329,18590,2,0,20360.7181370954,47114.2468433900,50024.8694327091,59974.0422616209,70745.1795140129,57254.0388107300,58841.7772337620,59697.3366681704,64965.5235231155,11310.3730724943
9360886329,18590,2,0,20102.4952751189,47061.9014116577,49962.9480235771,59958.2972619320,70702.1545380470,57269.1875932745,58832.9556535654,59663.8633342105,64964.9273059711,11308.8764457851
9360886329,18590,2,0,20000.7368265887,47056.3894449969,49960.9525212982,59971.6208899531,70711.4749938134,57256.4115116105,58847.5690574498,59689.0626343308,64976.5109533466,11306.2117201809
9360886329,18590,2,0,20160.6203628421,47095.2043978621,50006.0460057240,59991.9774467379,70748.2457736123,57253.1018980746,58865.3947332954,59725.8942526138,64975.9755746864,11305.8466892762
9360948811,18591,2,0,20360.4382800685,47131.6223144531,50042.1353945009,59999.4240771936,70771.6807576933,57257.4944366277,58869.2153900978,59734.4238080867,64973.8097246519,11310.7016003085
9360948811,18591,2,0,20376.0007643050,47120.2333502269,50032.1578831060,59987.1225357056,70754.1592742682,57249.8652907197,58857.2667118176,59714.1402574829,64968.0544040546,11313.9017045730
9360948811,18591,2,0,20172.0093270684,47066.8171611741,49976.7705271680,59962.7749743629,70712.3510679846,57258.7477094005,58837.7132230232,59674.6317458988,64963.0778160541,11315.5808467345
9360948811,18591,2,0,19990.8566567684,47040.7296191858,49941.0705046895,59958.0904110860,70698.2122042764,57272.3998652358,58835.7542238347,59662.8777507678,64973.5176999281,11318.2820754292
9360948811,18591,2,0,20105.3790192660,47082.1362914742,49976.0161299650,59980.9900165068,70737.3678526526,57252.3961716589,58851.1220249221,59702.5322747138,64985.0161734258,11313.5001705778
9360948811,18591,2,0,20368.7366493017,47128.2883655236,50024.6990849536,59991.5272419555,70767.5315730767,57231.6745839694,58855.7214143211,59726.3566250931,64973.9922401042,11305.7858507921
9360948811,18591,2,0,20390.5776650989,47113.1152475854,50008.9297498710,59968.9926674394,70742.7216392547,57243.2460636480,58837.6645522359,59685.9477039441,64952.8204476323,11305.2018013446
9360948811,18591,2,0,20156.8727122207,47063.9942555112,49957.3752184322,59947.8330426643,70701.3149669662,57260.1226591415,58826.5311096429,59648.5807070009,64953.0272984783,11309.1197997216
9360956205,18592,2,0,20008.0131092888,47048.0424049763,49943.6743918096,59961.0106583235,70703.0792830055,57256.4480147009,58839.8060668767,59668.3167112477,64967.0809883088,11312.3685747733
9360956205,18592,2,0,20101.2054992557,47075.5048967057,49972.9863734561,59983.6547421110,70731.9167244759,57242.8688650465,58852.9715148391,59705.7323789782,64968.8331366513,11310.3365694039
9360956205,18592,2,0,20306.1460168445,47110.3288450130,50003.3082739388,59990.3348076668,70752.6991506495,57224.2522889074,58853.2027010788,59718.3624482804,64959.5856870659,11305.8831923667
9360956205,18592,2,0,20389.1297091770,47109.9638141083,50005.4619562765,59977.0963535235,70744.3886137194,57220.3707936209,58841.8015691557,59706.1947514575,64949.0119585267,11302.5979142245
9360956205,18592,2,0,20219.0496429859,47065.2231928903,49961.5487384425,59954.3062573741,70705.2816361305,57240.5813380438,58827.9668978680,59668.2558727636,64944.8141031228,11303.9606962686
9360956205,18592,2,0,19996.4537973070,47034.0982244172,49923.5490212645,59947.6870303024,70685.9715012725,57260.7553793762,58830.8993128023,59653.2409348840,64959.4275070072,11306.1143786063
9360956205,18592,2,0,20056.5865550060,47069.5427252625,49961.9867755281,59976.9381734648,70726.6481117516,57253.9536368522,58856.7556685511,59701.8265482980,64979.4190328873,11306.4307387237
9360956205,18592,2,0,20318.2772105770,47125.6236399194,50025.0397804646,59993.7539304741,70768.8943551208,57233.7674278230,58869.7751041516,59737.0763659941,64976.7178041926,11305.7128446111
9360983424,18593,2,0,20397.9999601609,47121.5352937869,50018.2137025469,59970.9273312342,70750.8009899451,57236.1644640971,58848.5059701051,59704.5886154769,64953.6113479258,11304.2770563860
9360983424,18593,2,0,20216.8837929514,47075.1033627106,49963.5929115088,59944.5355968253,70706.7539274461,57251.9946376637,58829.4391891836,59663.3036201566,64948.9876231331,11307.6961791933
9360983424,18593,2,0,20040.0993258109,47046.7282937195,49937.2498478871,59949.1349862243,70694.0751873566,57251.7634514241,58832.1525855751,59666.0656873354,64960.2305749975,11310.7137680054
9360983424,18593,2,0,20060.4193795052,47059.6382200486,49951.6198978350,59965.0259982751,70714.3709056572,57247.0910558441,58839.4410359720,59690.2794040131,64967.1418267929,11305.3234783128
9360983424,18593,2,0,20267.7691010650,47107.1409084454,49995.3262648230,59989.3370565273,70753.7577402731,57244.5115041176,58852.8620055677,59720.7351491609,64973.3595198694,11303.5226591830
9360983424,18593,2,0,20425.9248243696,47129.1401043012,50020.3308817941,59995.1045448214,70766.3634741817,57234.2419679991,58853.4703904089,59725.0790169267,64966.1927464407,11304.8854412272
9360983424,18593,2,0,20288.3203409989,47083.8762721199,49979.0458864739,59958.8326405922,70718.4714194866,57244.0004608511,58831.5807038244,59674.8750998352,64953.8912049527,11305.4329875842
9360983424,18593,2,0,20024.0501337014,47034.2807398696,49925.4228465752,59932.2340553373,70678.3423553645,57259.9401436891,58823.1849930166,59643.8961437240,64958.6731098041,11307.4284898632
9361045048,18594,2,0,20017.5525835980,47054.1140856910,49946.4729620789,59955.5716978437,70707.1554614412,57251.8121222114,58845.6708967454,59688.0040447072,64978.7741449556,11304.8246027431
9361045048,18594,2,0,20259.6289118904,47105.7294556139,50001.6047963836,59980.0531038514,70752.5531382876,57234.4244834514,58860.0166112996,59731.5035608492,64976.0729162610,11299.5316546251
9361045048,18594,2,0,20392.1959687764,47117.0089105688,50011.2416122674,59969.1265121044,70751.2511947276,57237.4907430508,58848.5546408924,59713.8117296686,64960.5104320244,11297.4874815588
9361045048,18594,2,0,20269.6550940725,47084.8010170784,49976.7583594712,59949.6581971877,70718.8607857849,57251.9337991796,58833.7952246462,59681.4091530292,64960.4009227530,11300.4563995836
9361045048,18594,2,0,20064.9092596329,47046.3267597243,49935.6680473001,59947.0421423708,70691.9701758062,57252.0189730574,58830.7776358341,59672.6605790135,64965.9615602011,11299.5194869283
9361045048,18594,2,0,20002.6958257772,47044.6476175627,49928.6472862333,59954.5617790074,70694.6349014104,57245.6309322253,58834.0507462795,59682.6502581051,64968.3829318689,11293.8858432992
9361045048,18594,2,0,20175.1364251519,47089.0475432697,49970.8326911184,59971.5965545595,70731.9775629600,57239.0603759409,58844.0404253711,59714.5782945685,64971.2423406223,11285.7943249120
9361045048,18594,2,0,20388.5456597295,47127.6434775920,50013.8454993875,59984.0562761062,70758.6978251832,57238.5493326744,58847.9462560513,59731.4670577587,64971.0233220794,11286.0863496357
9361050108,18595,2,0,20322.1465381667,47097.9542973440,49985.7016166360,59960.0980810618,70724.7012802599,57246.2636524601,58827.2855068459,59687.2496475042,64957.8457064202,11293.4478062136
9361050108,18595,2,0,20063.1449435935,47047.8963926145,49932.8451416372,59940.4229152991,70688.3076990625,57264.9775701738,58816.6996106100,59652.5230407715,64963.2116607191,11299.2883006886
9361050108,18595,2,0,20004.3384648483,47056.5962958429,49943.1390131494,59963.8092285928,70712.7891050702,57258.9667279433,58842.4221216937,59687.6146784088,64983.3857020515,11303.9241931782
9361050108,18595,2,0,20214.6206013423,47106.5081882106,49996.2023389942,59991.9531113443,70757.1646953835,57242.7106849878,58867.3415647870,59734.4603111772,64986.1477692304,11301.8070139310
9361050108,18595,2,0,20390.6871743703,47128.9575888489,50016.2425356616,59993.9607813201,70765.7550893405,57246.4948386998,58866.3316459507,59727.8897548928,64973.0553274489,11295.3094638275
9361050108,18595,2,0,20344.5472680177,47104.4396797507,49988.7800439323,59980.5884825117,70736.7351324178,57241.9076169975,58853.3365457438,59697.3853389577,64965.5113554186,11287.7654917973
9361050108,18595,2,0,20139.8014335781,47057.0221652317,49942.9321623034,59954.9146422152,70698.3095458509,57242.9297035306,58834.2819325191,59670.1905365584,64960.0845626356,11286.1350204230
9361050108,18595,2,0,20010.0329469614,47043.3335063059,49928.5012738714,59948.4900982927,70694.7322429850,57255.1947419282,58828.1250779267,59672.8674298594,64970.1107448177,11291.8660056266
9361076610,18596,2,0,20151.9204596137,47089.0475432697,49970.3094801550,59973.1296843592,70737.5503681049,57247.7481114725,58843.8457422219,59716.9631631458,64982.6921433326,11294.1413649325
9361076610,18596,2,0,20403.9621316041,47134.9075925953,50017.2646221948,59990.8945217207,70769.9042739571,57236.3956503367,58851.7182420664,59743.4522391293,64980.2099331808,11293.9345140865
9361076610,18596,2,0,20391.1860499401,47110.7547144018,49993.1969178790,59968.1165932681,70738.7671377872,57241.5912568801,58831.5076976435,59699.9405552905,64960.4130904498,11293.7763340278
9361076610,18596,2,0,20130.8460087164,47054.8441475004,49932.6747938817,59941.6396849814,70691.3374555714,57247.6629375948,58814.7892822088,59651.6347989034,64955.7893656571,11293.3139615486
9361076610,18596,2,0,20009.8382638122,47046.2050827561,49918.9252964717,59954.2089157995,70697.2631239242,57249.0987258199,58828.2102518045,59672.3685542897,64969.8308877908,11292.2675396218
9361076610,18596,2,0,20162.5185235465,47092.6005107420,49967.1093758906,59982.1824507955,70743.9749120275,57253.0167241969,58852.0832729711,59720.5526337086,64981.1103427457,11295.3216315243
9361076610,18596,2,0,20365.4392034627,47132.7295748640,50007.3844523745,59991.5394096523,70769.2228829350,57251.0820604020,58857.2180410304,59731.4183869714,64976.6326303148,11295.0052714070
9361076610,18596,2,0,20390.8696898227,47124.3947025403,49999.2442632000,59977.7777445456,70752.9303368891,57248.9283780643,58845.1841888725,59708.7743031839,64965.8885540202,11296.4288919352
9361107585,18597,2,0,20209.5831748576,47080.4084785254,49956.8155043784,59960.5361181474,70715.9283708506,57252.3961716589,58832.7731381131,59676.6150804809,64964.3554242205,11301.9773616865
9361107585,18597,2,0,20019.9131167816,47050.8288075488,49918.1587315719,59950.5099359653,70696.3262112688,57250.4980109545,58827.7478793252,59660.8335777016,64967.0323175215,11300.9674428502
9361107585,18597,2,0,20102.3614304539,47081.5644097235,49944.2949443476,59967.5568792143,70728.4367631846,57233.4875707960,58841.5947183097,59698.0180591925,64973.8340600455,11295.2486253434
9361107585,18597,2,0,20369.8925804999,47131.6953206341,49998.5507044811,59987.7187528499,70767.3247222307,57221.6727371810,58851.0125156507,59732.9028459838,64967.4825223040,11292.4987258614
9361107585,18597,2,0,20427.2876064137,47122.9589143152,49991.7854650475,59973.9692554400,70750.2534435881,57244.2194793939,58838.2120985929,59706.3285961225,64954.0858881019,11297.2076245319
9361107585,18597,2,0,20217.9058794845,47078.6198270924,49944.6964783427,59957.9565664210,70712.8742789480,57266.8635631814,58831.4833622498,59668.6209036682,64962.1530710955,11306.5280802983
9361107585,18597,2,0,20057.0002566980,47055.1726753146,49925.6175297244,59963.5172038691,70706.2672195731,57263.1402479535,58840.9863334686,59679.1824645106,64975.5983760849,11309.2658120834
9361107585,18597,2,0,20133.7784236507,47081.1628757284,49956.9006782561,59980.9535134163,70734.8004686229,57256.2289961581,58854.2612907024,59715.3570271652,64982.1324292788,11305.7736830953
9361168494,18598,2,0,20333.6571793612,47123.4334544913,49993.4524395123,59987.4753989134,70763.7960901520,57249.2204027881,58857.4857303605,59733.8397586392,64977.8859030876,11297.4631461652
9361168494,18598,2,0,20432.2885298080,47128.8115764870,49998.0274935177,59978.6538187168,70759.7442471100,57243.0878835893,58846.9485049118,59720.8081553418,64967.4460192135,11293.6668247564
9361168494,18598,2,0,20284.0981502013,47085.4459050101,49954.8321697962,59958.2364234479,70720.9901327289,57245.9107892523,58833.6248768907,59679.8395201390,64958.4540912613,11299.5194869283
9361168494,18598,2,0,20051.2084330102,47036.7751177183,49903.5574953844,59941.5910141941,70685.9715012725,57246.2028139760,58827.2733391491,59648.8240609373,64957.4441724250,11300.9309397597
9361168494,18598,2,0,20075.3369758101,47053.9924087228,49920.1907369413,59957.9443987242,70709.9905348010,57229.2897153921,58840.6456379575,59680.7520974007,64966.6794543136,11297.0251090796
9361168494,18598,2,0,20334.6062597134,47102.6388606209,49976.2594839014,59974.1396031955,70750.1439343167,57213.1310140113,58846.3157846770,59721.5260494544,64963.5766916238,11294.3725511722
9361168494,18598,2,0,20443.5558170660,47106.1188219122,49977.9872968503,59960.1224164555,70738.9253178459,57227.0143560862,58827.8452208998,59699.5998597795,64946.9921208541,11295.4311407958
9361168494,18598,2,0,20276.7245259266,47067.5958937708,49938.0650835742,59941.6153495878,70699.9765203157,57244.5966779954,58812.8059476266,59656.6843930849,64945.8240219591,11303.7051746354
9361174454,18599,2,0,20084.3532391559,47035.8503727597,49908.5097479913,59939.4616672501,70678.1841753058,57240.5083318629,58810.5549237144,59651.7321404780,64954.8159499113,11300.1522071631
9361174454,18599,2,0,20086.5555922809,47046.3875982084,49921.4075066236,59950.9358053541,70693.0165977330,57235.9941163416,58818.7802867667,59675.1306214685,64958.1255634471,11292.4135519837
9361174454,18599,2,0,20272.1251365276,47092.1138028690,49964.6393334355,59964.8313151259,70728.7531233019,57226.7710021498,58829.8163877851,59702.8242994375,64957.4685078187,11287.1936100466
9361174454,18599,2,0,20435.2209447423,47115.5487869500,49990.8485523922,59967.6663884857,70740.9573232153,57217.7304034103,58830.2544248707,59707.6548750762,64948.0750458714,11285.3927909168
9361174454,18599,2,0,20334.1195518405,47079.7149198065,49954.9660144613,59946.8717946153,70704.8557667417,57232.3194719010,58810.3724082620,59664.5690606262,64937.4039757576,11288.7510752400
9361174454,18599,2,0,20087.5411757235,47037.5295149213,49904.0077001668,59937.3079849124,70674.7772201954,57254.9148849012,58805.0794601440,59635.2692466766,64948.4522444729,11297.8281770699
9361174454,18599,2,0,20065.8218368946,47058.5674627282,49919.2781596796,59964.9894951846,70701.6921655677,57249.4394213309,58827.0299852126,59674.0841995417,64970.6339557811,11302.8412681609
9361174454,18599,2,0,20301.1815965408,47112.3486826856,49979.3379111977,59989.6899197352,70747.8442396171,57233.1103721945,58842.7628172047,59721.4773786671,64974.6979665200,11302.4762372562
9361192278,18600,2,0,20453.4481545831,47127.2297759000,50000.0838342808,59977.0111796457,70751.8109087814,57236.7728489382,58830.3274310516,59709.4800295997,64962.7127851494,11301.2959706644
9361192278,18600,2,0,20342.6491073133,47088.0132890397,49967.9732823650,59949.5365202195,70717.0964697456,57243.4894175845,58810.2872343843,59670.4460581917,64953.1854785370,11303.5469945767
9361192278,18600,2,0,20133.3160511714,47042.6399475870,49930.9104778423,59935.5071657826,70688.5997237862,57238.7318481267,58801.8428527891,59654.2143506299,64954.7307760335,11301.4663184199
9361192278,18600,2,0,20058.9470881896,47043.0658169758,49929.2556710744,59940.6662692356,70696.3870497529,57247.9549623185,58807.9875396847,59668.1706988858,64960.8876306259,11303.1332928847
9361192278,18600,2,0,20217.6381901544,47092.6735169229,49973.3270689671,59963.9917440452,70738.4629453667,57248.3078255264,58822.9173036865,59706.7422978145,64971.5587007396,11302.9751128260
9361192278,18600,2,0,20431.2421078812,47135.1144434413,50012.6408974020,59978.3861293867,70765.3170522549,57235.1058744735,58832.2985979370,59729.1430276656,64968.2855902943,11302.5857465276
9361192278,18600,2,0,20388.5578274263,47107.5789455310,49984.8133747680,59960.6212920252,70735.7860520656,57250.4006693799,58817.6973617494,59692.2019001111,64954.5117574907,11308.6209241518
