steady_timestamp,sequence,battery,flags,EEG-ch1,EEG-ch2,EEG-ch3,EEG-ch4,EEG-ch5,EEG-ch6,EEG-ch7,EEG-ch8,EEG-ch9,EEG-ch10
9348716695,18292,-2,0,20217.0784761006,47393.5441562638,50797.9683857484,60080.3027579757,71007.8679207234,57263.8824774597,58964.5736300992,59924.3737231897,65310.0883617475,11260.4490124298
9348716695,18292,-2,0,20285.2905844900,47391.3296354420,50803.8940541011,60071.2986623267,70999.8980793044,57265.7806381641,58954.8273049440,59913.3497898681,65304.2113641821,11259.2687458380
9348716695,18292,-2,0,20105.8535594421,47345.8467847178,50763.5581391331,60053.1079555764,70960.2557230552,57282.9492583813,58941.7348631625,59880.8012008667,65303.7368240060,11262.7487071293
9348716695,18292,-2,0,19891.3492321504,47316.2549460444,50727.1037194516,60050.2972176103,70943.1966121095,57292.6104096587,58943.2923283558,59870.3734846894,65316.3547256114,11266.3868484794
9348716695,18292,-2,0,19963.1143080121,47352.3808379118,50754.5540434841,60076.5794427478,70980.3689259036,57271.6454680328,58965.5713812387,59913.2402805967,65328.4615839502,11264.5373585623
9348716695,18292,-2,0,20229.6477069187,47404.6897665536,50807.6173693290,60089.8787353753,71016.7381717073,57248.5025086755,58970.0855967600,59947.0421423708,65318.3988986776,11261.1182357551
9348716695,18292,-2,0,20299.4659512887,47397.9366948169,50801.2414961937,60066.0787203896,70998.1337632651,57263.5052788582,58945.9935570505,59911.8044923716,65300.5488874384,11261.3372542979
9348716695,18292,-2,0,20106.7174659165,47350.7016957502,50755.2841052935,60047.4621442505,70957.0434510940,57283.8861710367,58929.4819924618,59871.1887203766,65302.9337560156,11267.5184442839
9348770842,18293,-2,0,19930.0060049569,47317.6298957854,50728.4421661021,60050.8812670578,70942.0771840018,57274.9794169623,58932.1588857629,59872.6123409049,65311.1226159775,11266.3260099953
9348770842,18293,-2,0,19957.6875152291,47330.7831760510,50745.7811340748,60059.6420087703,70960.5112446885,57265.5616196213,58937.5491754554,59894.7453814258,65310.8670943442,11257.4435913145
9348770842,18293,-2,0,20159.4644316440,47378.5048829906,50792.0670527892,60071.1283145712,70996.8926581891,57264.4300238168,58949.1449905277,59925.1767911800,65312.6800811708,11254.7788657103
9348770842,18293,-2,0,20303.4326204530,47399.8591909149,50815.6115461416,60070.8241221506,71009.4497213104,57265.0870794452,58945.4460106935,59930.0317022123,65310.5142311363,11259.4025905030
9348770842,18293,-2,0,20168.4441918993,47359.7057913992,50770.0191861461,60047.3404672823,70969.3328248851,57276.9749192412,58925.3206401484,59885.5587703245,65301.5953093651,11268.6987108758
9348770842,18293,-2,0,19918.3736867942,47315.4883811446,50717.1140403599,60034.6860625865,70939.7774893022,57296.8082650626,58918.7622515608,59859.1061974314,65308.0320209845,11278.6762222706
9348770842,18293,-2,0,19929.2272723602,47340.8093582331,50741.8266326073,60062.3189020714,70967.3008195157,57285.1516115062,58940.2139010596,59899.5029508836,65325.0059580525,11279.0534208721
9348770842,18293,-2,0,20180.9404165364,47396.6469189536,50799.7083663940,60085.6443768809,71007.9287592075,57264.1501667898,58953.9755661664,59940.7879462038,65322.3899032355,11273.9673236001
9348778358,18294,-2,0,20310.6602323658,47407.2449828864,50807.4348538766,60075.1071514323,71001.8327430992,57272.0348343311,58942.3189126100,59921.0154388665,65305.2821215025,11273.0547463384
9348778358,18294,-2,0,20180.4415409667,47373.4187857186,50774.0831968849,60059.7636857385,70972.4477552718,57290.0916964164,58933.2174753864,59884.4515099136,65306.2433695515,11276.8145646567
9348778358,18294,-2,0,19980.3681021071,47336.0517887754,50740.4395151695,60054.0570359286,70950.2173731763,57276.3178636128,58931.2463085011,59873.2693965333,65310.1005294444,11272.2760137417
9348778358,18294,-2,0,19936.7469089968,47338.0472910543,50740.2083289299,60062.9029515189,70960.7667663218,57273.2151009229,58938.3887465362,59885.2667456007,65309.6259892683,11268.6013693012
9348778358,18294,-2,0,20120.2601124804,47387.8983449379,50783.6470065878,60086.3014325094,71002.1734386103,57271.0492508885,58957.3338504895,59922.0010223092,65316.4642348828,11266.4355192667
9348778358,18294,-2,0,20323.3633078490,47424.8516401892,50821.2086866802,60100.1361037971,71024.4281560994,57267.7274696558,58964.9508287007,59941.3719956513,65311.7066654250,11269.4044372915
9348778358,18294,-2,0,20246.5973085930,47395.7951801760,50791.6046803100,60080.8624720295,70990.5897912348,57282.7180721417,58950.4834371782,59901.2916023165,65298.9670868514,11276.3886952679
9348778358,18294,-2,0,19985.9530749488,47346.2239833194,50737.6166095066,60068.3662473924,70953.1862912011,57292.5374034778,58943.7303654415,59867.6357529043,65300.8165767685,11279.2116009308
9348805752,18295,-2,0,19933.3886246737,47353.5976075941,50741.9483095755,60087.2991836489,70971.7298611593,57279.0920984884,58961.0449980205,59901.1699253483,65315.2352975036,11275.5856272775
9348805752,18295,-2,0,20148.0024612367,47403.6190092332,50790.4244137181,60108.8725101159,71017.5655750913,57261.7166274253,58977.0820224332,59945.1074785759,65316.0383654940,11268.8203878440
9348805752,18295,-2,0,20315.5151433982,47422.2964238564,50808.6151204684,60101.9734260173,71023.3208956886,57270.3435244727,58969.1730194982,59936.9307863109,65303.1162714680,11265.0362341320
9348805752,18295,-2,0,20250.5518100605,47395.5396585427,50781.2499703136,60082.2860925578,70994.3252741595,57285.2854561713,58954.9976526995,59907.3267799407,65304.1870287884,11262.1646576818
9348805752,18295,-2,0,20049.7604770883,47352.8188749974,50740.8410491647,60075.6181946988,70966.0840498334,57296.9177743340,58952.5641133349,59892.8837238119,65313.8603477627,11266.8492209587
9348805752,18295,-2,0,19937.6959893490,47340.0914641206,50726.2154775835,60079.4388515012,70966.5464223127,57299.0957920653,58955.1680004550,59900.3790250548,65323.2173066195,11270.8280578198
9348805752,18295,-2,0,20085.8742012588,47383.7734957150,50772.8055887185,60102.6426493426,71006.9066726744,57290.5053981083,58969.7570689457,59938.2570652646,65335.2146556869,11270.9253993944
9348805752,18295,-2,0,20330.2015534635,47428.2342599060,50822.9243319322,60118.6675060584,71035.0870585163,57273.3367778912,58975.2203648192,59961.0471614140,65326.5755909426,11270.5482007928
9348835976,18296,-2,0,20304.9657502527,47399.7740170371,50797.1774854549,60093.7115598745,71001.1513520771,57278.7879060678,58952.9778150269,59914.5300564599,65303.3231223140,11270.4021884310
9348835976,18296,-2,0,20037.3615940257,47341.5272523457,50738.7968760984,60067.3806639497,70955.2304642674,57296.0417001628,58935.6510147510,59868.7308456183,65304.7224074486,11270.6698777611
9348835976,18296,-2,0,19918.4345252783,47330.8196791415,50731.3502456428,60074.2189095642,70958.9416117984,57287.4513062058,58945.7988739014,59885.7899565641,65319.9685315678,11267.0925748951
9348835976,18296,-2,0,20076.6997578543,47371.5936311952,50773.5478182247,60094.7701494981,70999.8615762139,57271.6576357296,58956.6281240738,59925.1524557863,65321.5624998516,11260.1691554029
9348835976,18296,-2,0,20275.3252407920,47408.3157402068,50804.2347496122,60100.2456130685,71020.6074992970,57276.3178636128,58956.8349749198,59934.2173899194,65312.4975657185,11261.1425711487
9348835976,18296,-2,0,20291.9098115617,47403.2539783285,50795.8998772885,60094.0400876888,71009.5713982786,57282.2313642687,58955.6303729343,59917.7423284212,65307.7399962607,11266.4598546603
9348835976,18296,-2,0,20104.1865849773,47357.9658107535,50752.7288889607,60079.7065408313,70970.1723959659,57284.0930218826,58949.5951953101,59886.8728815814,65307.8495055321,11269.2827603233
9348835976,18296,-2,0,19921.3547725158,47324.1152781921,50722.3096469033,60073.6713632072,70949.7306653034,57285.9546794966,58948.4879348992,59871.5780866749,65308.5673996447,11268.0538229441
9348890443,18297,-2,0,20012.1866292991,47355.2159112715,50753.8726524620,60090.4262817323,70982.0480680651,57258.1879953466,58963.6732205343,59906.2195195298,65310.2465418062,11264.3913462004
9348890443,18297,-2,0,20267.9394488205,47398.6545889294,50799.2581616116,60099.4790481686,71011.5425651639,57236.3104764590,58967.4330388526,59936.1642214111,65296.2780258535,11257.9546345811
9348890443,18297,-2,0,20305.4889612161,47386.0123519304,50784.7907700891,60075.8737163321,70988.5699535622,57261.7044597284,58949.1936613150,59901.4862854657,65279.3284241791,11258.6846963905
9348890443,18297,-2,0,20072.2585485139,47334.5794974598,50731.4475872173,60049.8956836151,70944.9244250583,57276.9870869381,58933.5095001102,59854.3729633673,65283.4289380085,11263.1015703372
9348890443,18297,-2,0,19906.1086483967,47309.6600543664,50710.5069809851,60052.2927198893,70933.4502869543,57274.6265537544,58940.5910996611,59859.1913713092,65294.1486789095,11261.7509559899
9348890443,18297,-2,0,20003.2677075278,47343.8512824389,50751.6946347307,60076.5186042637,70969.6126819121,57283.3386246796,58960.1324207588,59900.4763666294,65305.9513448277,11262.5296885865
9348890443,18297,-2,0,20212.6737698507,47388.9082637742,50796.6299390978,60088.4551148470,70999.2531913728,57267.4111095384,58966.6786416495,59918.7887503479,65303.1162714680,11261.9943099263
9348890443,18297,-2,0,20298.5655417238,47394.0186964399,50799.4163416703,60083.9774024162,70992.4392811519,57256.5088531850,58959.9012345192,59908.6530588944,65289.6587987818,11262.1889930755
9348905467,18298,-2,0,20138.3169745657,47343.0360467517,50750.3926911707,60063.4870009664,70949.6454914256,57259.3804296353,58941.2116521991,59868.8646902834,65279.0850702427,11265.2795880685
9348905467,18298,-2,0,19907.1429026266,47299.6217044875,50703.3645429500,60052.0128628623,70922.7913845374,57272.6675545659,58935.0426299099,59846.0624264372,65282.3216775976,11267.7861336140
9348905467,18298,-2,0,19943.5973223081,47326.1716189551,50724.8161924488,60070.2644080967,70959.4648227617,57264.7220485405,58950.6659526305,59886.8485461877,65298.5533851594,11264.3426754131
9348905467,18298,-2,0,20211.1528077478,47381.9240057979,50784.6690931209,60090.5479587006,71008.0382684789,57254.1726553950,58962.4807862456,59934.3390668876,65299.2469438783,11259.0497272952
9348905467,18298,-2,0,20315.8436712124,47385.8176687812,50790.7042707451,60078.6479512077,70999.2775267664,57267.7518050494,58948.0133947231,59915.5278075994,65289.6953018723,11260.4125093393
9348905467,18298,-2,0,20135.3602242377,47341.1257183505,50744.7590475416,60057.6586741882,70958.2967238667,57282.3530412370,58928.5572475033,59873.5005827729,65290.4618667721,11261.9578068358
9348905467,18298,-2,0,19943.0497759511,47312.0935937310,50714.9603580223,60059.5933379830,70942.6003949651,57281.1362715547,58928.6180859874,59874.4374954283,65304.0045133361,11261.9456391390
9348905467,18298,-2,0,19962.7857801979,47335.1635469073,50730.7905315889,60080.4000995502,70968.6514338631,57284.2633696382,58941.9782170990,59908.0568417501,65311.7796716059,11264.0749860830
9348939609,18299,-2,0,20160.8028782945,47385.1849485464,50773.7911721612,60099.6128928337,71006.0305985031,57277.8753288061,58954.4379386457,59935.7140166286,65311.8405100900,11264.8780540733
9348939609,18299,-2,0,20312.4610514956,47405.5536730280,50792.1278912734,60098.2622784863,71016.3609731058,57260.2078330192,58953.0386535110,59935.1421348780,65301.6439801524,11260.9722233932
9348939609,18299,-2,0,20197.1721240982,47365.2664288473,50753.4467830732,60072.8074567327,70978.1787404754,57273.9816658228,58936.5635920128,59892.9932330833,65291.5082886989,11260.9722233932
9348939609,18299,-2,0,19941.8816770561,47320.0390997564,50709.1563666377,60058.5955868435,70950.8379257143,57296.9056066372,58938.6807712599,59864.5451579112,65304.3938796344,11268.9055617217
9348939609,18299,-2,0,19915.4047687694,47335.6380870834,50726.4101607326,60079.4145161076,70980.9286399574,57289.0087713991,58959.7308867636,59900.2816834802,65324.6774302382,11271.4121072673
9348939609,18299,-2,0,20161.6546170721,47393.4954854765,50790.2418982658,60107.8017527955,71029.7089365206,57276.1718512509,58978.7733322915,59952.3715935792,65329.3619935151,11272.5437030718
9348939609,18299,-2,0,20318.7152476626,47409.5933483732,50808.3230957447,60102.3627923157,71028.5651730192,57286.9402629392,58969.7327335521,59941.3111571672,65313.9211862468,11273.5292865145
9348939609,18299,-2,0,20196.8679316777,47370.4255323002,50770.1530308111,60077.8935540047,70988.0832456893,57290.9677705876,58952.7466287873,59899.1014168884,65303.7611593996,11274.4296960794
9348968708,18300,-2,0,19980.5262821658,47322.4483037273,50725.4245772900,60060.6275922130,70950.3998886287,57282.4868859020,58941.9660494021,59877.2482333944,65300.7192351939,11268.9785679027
9348968708,18300,-2,0,19916.2321721533,47319.0291809201,50721.3727342479,60065.3851616707,70955.7171721403,57282.4503828116,58944.2900794953,59889.7444580316,65303.2014453458,11269.9519836485
9348968708,18300,-2,0,20088.7336100122,47367.7243036055,50764.4828840916,60090.0004123435,70995.7123915973,57276.9992546349,58959.3050173748,59924.9212695467,65310.5629019236,11273.9794912969
9348968708,18300,-2,0,20302.5078754945,47405.7483561772,50802.8476321744,60105.0518533135,71021.0333686858,57263.6999620074,58965.6078843291,59942.5887653336,65304.8684198105,11276.6563845980
9348968708,18300,-2,0,20249.7487420702,47372.6887239093,50771.7469990949,60080.1445779170,70982.4617697571,57267.5206188098,58947.0643143710,59899.0040753138,65285.1810863510,11273.1520879129
9348968708,18300,-2,0,19984.8093114474,47313.2860280197,50709.4240559678,60057.4396556454,70937.2952791503,57277.4981302046,58934.7627728830,59850.1872756602,65283.9156458814,11272.9330693701
9348968708,18300,-2,0,19899.4164151440,47310.5361285377,50705.4817221972,60073.9755556277,70948.1610324132,57268.2993514065,58951.6393683764,59873.0990487778,65299.2591115751,11269.5139465629
9348968708,18300,-2,0,20110.4042780538,47364.5728701284,50759.8348239053,60101.9977614110,70997.1116767319,57257.6282812928,58974.3199552543,59922.3782209107,65303.9923456392,11271.4729457514
9349003557,18301,-2,0,20301.9238260470,47395.0164475793,50786.1048813460,60098.9558372052,71009.2307027676,57261.8626397871,58963.6732205343,59918.8495888320,65290.7660591927,11272.3611876195
9349003557,18301,-2,0,20252.2066168284,47372.4088668823,50757.9488308977,60077.2486660731,70981.1598261971,57269.6864688443,58945.1661536666,59885.2789132975,65283.4654410989,11271.1809210276
9349003557,18301,-2,0,20042.7275483246,47321.2923725291,50709.4118882710,60055.5171595473,70941.1037682559,57264.0649929121,58928.8614399238,59856.0764409225,65277.5397727462,11264.2331661417
9349003557,18301,-2,0,19905.7801205824,47301.3495174363,50687.4126924151,60051.9763597718,70934.0465040986,57264.1501667898,58926.5982483148,59857.6704092063,65278.4766854015,11263.9898122053
9349003557,18301,-2,0,20027.8099520197,47345.0680521212,50727.1645579357,60073.1724876374,70971.0241347435,57259.9158082955,58941.4793415292,59896.2055050445,65286.8358931189,11263.5031043324
9349003557,18301,-2,0,20277.0287183472,47395.6126647237,50781.2864734041,60089.8787353753,71005.0085119700,57246.0568016141,58950.5077725719,59926.3692254686,65286.0206574318,11262.3836762246
9349003557,18301,-2,0,20288.8435519623,47376.4972130148,50768.0601869576,60071.7975378964,70979.5171871260,57259.3682619384,58932.1345503692,59890.2555012981,65271.8574583299,11260.1326523124
9349003557,18301,-2,0,20036.6680353068,47319.6984042453,50708.8886773076,60047.5108150378,70932.1848464847,57282.5963951734,58919.7965057907,59843.7383963440,65277.6127789271,11266.1799976334
9349049622,18302,-2,0,19894.4519948403,47304.9389879991,50695.2365214723,60052.7185892780,70933.6693054971,57277.7414841411,58931.7573517677,59859.6780791821,65297.1054292375,11265.5594450954
9349049622,18302,-2,0,20037.0695693020,47343.3645745660,50738.3345036191,60074.1459033833,70974.7961207586,57269.4552826046,58950.1305739703,59907.7039785422,65304.9414259914,11263.8803029339
9349049622,18302,-2,0,20245.9159175710,47383.2502847516,50777.7335059318,60082.9066450958,70999.2531913728,57274.5778829671,58954.5717833107,59920.5287309936,65299.7944902353,11261.2764158138
9349049622,18302,-2,0,20277.6006000979,47379.9771743062,50774.5577370610,60075.1801576132,70983.2283346570,57270.3070213823,58944.4969303413,59899.9896587565,65291.8368165131,11262.0794838041
9349049622,18302,-2,0,20092.4934283305,47330.1261204226,50728.6855200385,60052.6090800066,70938.6945642850,57268.2141775287,58925.7586772340,59862.0994508498,65281.1535787026,11257.6504421605
9349049622,18302,-2,0,19898.2726516427,47294.1340732203,50694.5307950565,60047.0484425586,70918.7395414954,57279.7248187232,58923.9335227105,59851.3918776456,65284.4266891479,11253.3552451820
9349049622,18302,-2,0,19967.1174802669,47326.2811282266,50724.4389938473,60071.0066376029,70957.2624696368,57269.4796179983,58945.4216752999,59891.7277926137,65298.5412174626,11252.0289662283
9349049622,18302,-2,0,20238.3111070566,47387.4359724587,50782.7709324165,60096.2302731169,71007.1865297013,57253.7102829158,58967.2991941875,59936.0425444429,65295.0004176871,11255.7279460625
9349065754,18303,-2,0,20317.6931611295,47384.1871974069,50780.5199085043,60082.4686080101,70993.8507339834,57260.6458701048,58959.2806819812,59910.2591948750,65278.0508160127,11257.6139390701
9349065754,18303,-2,0,20098.3460905023,47331.6835856159,50725.5705896519,60058.8511084768,70946.5670641294,57278.1795212267,58947.0521466741,59860.2256255391,65275.6416120418,11260.5463540044
9349065754,18303,-2,0,19913.3849310968,47302.8948149329,50700.3712895315,60061.1508031764,70934.1438456732,57267.0217432401,58949.8872200339,59863.8881022828,65284.7917200526,11257.8451253097
9349065754,18303,-2,0,19985.4663670759,47323.4338871700,50727.2132287230,60079.0129821124,70960.2192199648,57247.7237760789,58956.5429501960,59896.2785112255,65286.5925391824,11251.8221153823
9349065754,18303,-2,0,20194.5925723718,47368.4300300212,50764.1543562774,60092.0689208034,70989.9084002127,57245.3024044111,58956.0319069295,59917.5476452720,65279.7056227807,11252.7346926441
9349065754,18303,-2,0,20302.2036830739,47383.7978311086,50774.8010909975,60093.8089014491,70993.6560508342,57250.7535325878,58950.0454000926,59913.5323053204,65278.1603252841,11259.8041244982
9349065754,18303,-2,0,20168.1156640851,47346.5403434368,50738.0668142890,60074.9368036767,70960.1340460870,57257.1415734198,58936.1012195335,59878.5501769545,65269.9836330191,11264.4765200782
9349065754,18303,-2,0,19931.5269670598,47301.4955297982,50692.3771127189,60059.0336239292,70931.2479338293,57271.1222570694,58927.2796393369,59846.2571095864,65270.6528563444,11263.3692596673
9349119400,18304,-2,0,19939.2291191487,47324.3342967349,50719.3285611817,60082.8336389148,70960.4869092949,57270.8910708298,58947.2589975201,59880.1076421478,65290.8755684641,11262.7365394325
9349119400,18304,-2,0,20200.9441101134,47387.0222707667,50788.7939423439,60108.4466407271,71011.1653665624,57250.8265387687,58965.7782320846,59928.1943799921,65294.7570637506,11261.0573972709
9349119400,18304,-2,0,20327.8653556735,47394.5784104937,50794.3180767015,60091.0590019671,71002.6601464832,57246.9937142695,58950.1549093640,59903.6278001065,65271.5654336061,11258.9280503269
9349119400,18304,-2,0,20154.7555329735,47346.6863557986,50738.1763235604,60061.9173680762,70953.8311791327,57261.5949504570,58930.1390480902,59851.2945360711,65260.0912955021,11261.5441051439
9349119400,18304,-2,0,19946.7365880885,47312.8844940245,50703.2550336786,60059.5324994989,70936.6868943092,57263.5417819487,58928.1800489017,59847.4008730877,65271.2004027014,11263.9654768116
9349119400,18304,-2,0,19942.2953787481,47323.4460548668,50712.4538124767,60069.2544892604,70953.2106265948,57254.0388107300,58931.3801531662,59870.9575341369,65275.0575625943,11256.3850016909
9349119400,18304,-2,0,20129.7995867896,47368.0771668134,50754.2741864572,60083.5758684210,70989.5555370049,57252.4448424462,58937.3788276999,59900.6223789913,65272.7091971075,11254.0488039009
9349119400,18304,-2,0,20299.6484667411,47397.9610302105,50779.4248157902,60086.6421280204,71006.6511510411,57248.4416701914,58937.5370077586,59910.8554120194,65270.4703408920,11258.5508517254
9349134031,18305,-2,0,20219.7066986143,47367.4201111849,50752.7288889607,60067.8673718226,70973.3846679272,57263.1159125599,58920.5874060842,59877.9661275070,65262.7925241968,11263.9898122053
9349134031,18305,-2,0,19965.2314872593,47319.6984042453,50701.0526805536,60053.3391418160,70939.1569367643,57282.3773766306,58915.1362779076,59847.0966806671,65271.0422226427,11268.6865431789
9349134031,18305,-2,0,19907.3375857758,47330.1504558162,50707.4650567793,60070.2400727031,70960.3408969330,57277.2182731777,58934.2030588291,59876.9683763675,65289.4032771485,11266.2651715112
9349134031,18305,-2,0,20138.8158501354,47387.1317800381,50766.2228647373,60093.7602306618,71010.5934848117,57260.0131498701,58954.4501063425,59928.4377339285,65293.8201510953,11258.6238579064
9349134031,18305,-2,0,20318.5935706944,47411.6740245300,50794.0260519777,60091.3510266909,71021.9459459475,57273.9451627323,58954.5231125234,59925.9798591703,65284.2441736956,11263.4544335451
9349134031,18305,-2,0,20219.7918724921,47378.7117338366,50762.3900402381,60071.0066376029,70988.7037982273,57284.7014067238,58944.9106320333,59888.2234959287,65281.4334357295,11270.5482007928
9349134031,18305,-2,0,20007.0153581493,47335.6502547802,50721.2388895829,60060.2260582178,70960.0610399061,57283.8861710367,58945.1418182729,59874.0116260395,65288.6610476423,11272.9695724606
9349134031,18305,-2,0,19926.2096835482,47326.5488175567,50711.0666950389,60066.9304591672,70963.1759702927,57281.1119361610,58950.4104309973,59887.2987509702,65295.9373303425,11269.8911451644
9349154534,18306,-2,0,20073.2197965629,47363.7941375317,50742.8852222309,60080.0837394328,70994.9336590006,57267.3137679638,58956.8836457071,59911.7801569779,65296.0711750075,11261.9578068358
9349154534,18306,-2,0,20288.9165581432,47398.6789243231,50779.9480267536,60089.6110460452,71018.2226307197,57254.6228601775,58956.0440746263,59928.5837462904,65288.8070600042,11249.7536069224
9349154534,18306,-2,0,20270.4946651533,47376.6553930735,50761.2462767367,60074.6569466498,70988.8984813764,57260.9013917381,58938.4495850203,59894.9643999686,65272.6970294106,11252.6373510695
9349154534,18306,-2,0,20012.9896972894,47321.9007573703,50700.2374448665,60056.5270783836,70944.4012140949,57280.7590729532,58924.3958951898,59851.8420824281,65272.0886445695,11260.0839815251
9349154534,18306,-2,0,19894.2451439943,47315.7682381715,50688.4956174324,60068.2810735146,70952.2980493330,57277.0114223317,58939.7393608835,59872.7705209636,65290.2185128357,11261.1060680582
9349154534,18306,-2,0,20081.8101905199,47366.5927078010,50741.9604772724,60095.0621742219,70998.6813096221,57267.5327865066,58961.8480660108,59924.2398785246,65299.4537947243,11259.9744722537
9349154534,18306,-2,0,20294.1121646866,47406.0282132041,50781.7488458834,60100.0387622225,71021.3862318937,57276.2570251287,58968.6498085349,59932.9154463594,65293.8323187921,11267.5792827680
9349154534,18306,-2,0,20265.6884249082,47386.5720659842,50760.5527180178,60076.5186042637,70994.9336590006,57273.6166349181,58953.2211689634,59895.8039710494,65285.1567509573,11270.0736606167
9349184628,18307,-2,0,20060.1516901751,47329.7610895179,50707.5137275666,60053.2418002414,70948.3192124719,57261.4367703983,58937.7803616951,59860.4568117787,65277.6736174112,11260.5098509139
9349184628,18307,-2,0,19905.3907542841,47297.8208853577,50679.7348757198,60045.4544742748,70930.1163380248,57261.2420872492,58934.9452883353,59853.5698953770,65274.6681962960,11248.8410296607
9349184628,18307,-2,0,19998.9360074589,47329.2743816450,50709.9837700217,60061.4428279001,70958.9416117984,57255.7787913757,58945.8840477791,59883.5145972582,65279.4501011474,11241.0658713909
9349184628,18307,-2,0,20249.9312575225,47380.4517144823,50762.5238849031,60077.7353739460,70994.6416342769,57242.4186602641,58953.1603304793,59916.1483601373,65277.4424311716,11235.2862154000
9349184628,18307,-2,0,20293.1630843344,47370.0239983050,50753.6292985256,60061.3089832350,70973.7740342255,57250.0478061721,58937.6343493332,59888.4546821683,65262.7925241968,11233.0960299718
9349184628,18307,-2,0,20049.4197815773,47315.0746794526,50691.6470509095,60034.9659196134,70928.4250281664,57269.5282887856,58920.5874060842,59839.4431993655,65261.0647112479,11241.1632129654
9349184628,18307,-2,0,19886.0319486388,47299.2810089764,50675.0381447462,60048.9222678693,70928.3276865918,57270.7815615584,58936.4540827414,59853.7767462229,65277.3450895970,11250.7026872746
9349184628,18307,-2,0,20020.1443030213,47344.4231641896,50720.5940016513,60081.5681984452,70973.6645249541,57261.1325779778,58959.9620730033,59902.7882290258,65284.7187138717,11253.2092328201
9349258749,18308,-2,0,20240.8176526021,47389.7843379455,50763.7649899791,60093.2005166080,71000.8471596566,57256.7887102120,58962.9553264217,59916.0510185628,65275.1305687752,11253.7932822676
9349258749,18308,-2,0,20287.0427328325,47389.4679778281,50762.1223509080,60081.9210616531,70988.6551274400,57255.0487295663,58952.0165669779,59891.6304510391,65265.4572498010,11257.1028958035
9349258749,18308,-2,0,20116.7801511891,47344.5083380673,50720.9590325560,60062.9759576998,70952.1033661839,57256.4845177914,58938.5469265949,59860.7853395930,65260.5536679813,11260.2786646743
9349258749,18308,-2,0,19914.9423962901,47307.5307074224,50682.3022597495,60054.9087747062,70931.7954801864,57265.8779797387,58936.7461074651,59847.8267424765,65265.1652250772,11262.8582164007
9349258749,18308,-2,0,19953.2341381919,47334.5551620662,50703.5957291896,60076.7741258970,70965.9988759557,57260.8527209508,58959.2685142844,59886.3496706180,65278.5375238857,11263.5152720292
9349258749,18308,-2,0,20214.8274521883,47391.1349522928,50764.6410641503,60101.7057366872,71011.7980867972,57245.8742861618,58976.7048238316,59931.3336457724,65279.6691196902,11260.1204846156
9349258749,18308,-2,0,20318.3745521516,47395.8316832665,50771.2359558284,60088.2360963042,71000.3117809964,57254.0144753363,58961.7872275267,59909.3831207038,65264.2648155123,11259.3417520189
9349258749,18308,-2,0,20111.5602092520,47345.2749029672,50719.1095426389,60058.8511084768,70951.9938569125,57276.4882113683,58938.2792372648,59855.2977083258,65260.4928294972,11263.4909366355
9349287389,18309,-2,0,19908.3475046121,47316.5591384650,50688.3252696768,60056.1498797821,70936.4678757664,57276.1961866446,58940.2139010596,59855.2125344481,65276.3473384575,11267.7131274331
9349287389,18309,-2,0,19962.5910970487,47342.0382956123,50713.4393959194,60072.1990718916,70968.2255644743,57264.2475083644,58951.6028652859,59893.4921086530,65287.9309858330,11264.0993214767
9349287389,18309,-2,0,20168.5050303834,47383.4084648103,50752.5585412051,60077.6258646746,70996.7101427368,57254.9027172044,58952.0409023715,59910.6850642638,65282.5163607467,11255.1803997055
9349287389,18309,-2,0,20285.6921184852,47392.8140944544,50762.7307357491,60067.1494777101,70995.0553359688,57251.5322651845,58939.5568454312,59897.6291255728,65272.2346569314,11250.8000288492
9349287389,18309,-2,0,20168.5537011707,47352.7093657260,50728.2474829529,60048.9709386566,70958.9051087079,57257.1294057230,58923.3373055662,59859.6537437884,65261.4054067589,11257.2489081654
9349287389,18309,-2,0,19932.5855566834,47307.2386826986,50680.6839560720,60038.8109118094,70927.9139848999,57275.1619324146,58919.0907793750,59833.4323571350,65265.6762683438,11263.9776445085
9349287389,18309,-2,0,19908.8828832723,47326.9381838550,50691.6227155158,60061.7348526238,70952.6022417536,57276.1110127668,58938.6807712599,59866.7353433394,65284.7065461749,11262.2619992564
9349287389,18309,-2,0,20163.6866224415,47389.6991640677,50754.7243912396,60096.5222978406,71004.3027855543,57259.6602866622,58962.8701525440,59924.0573630723,65292.1166735401,11259.1349011729
9349304477,18310,-2,0,20325.0546177074,47407.4274983388,50774.8375940879,60091.4727036591,71004.9111703954,57263.4687757678,58954.1945847092,59911.3056168018,65278.8295486094,11260.3638385520
9349304477,18310,-2,0,20177.0710889467,47365.5827889647,50732.1168105426,60063.9858765361,70963.4436596228,57277.7536518379,58935.3954931178,59860.2134578423,65271.6627751807,11266.1556622398
9349304477,18310,-2,0,19956.8479441483,47325.4050540553,50693.5208762202,60054.6654207697,70936.6503912187,57273.0082500769,58932.3170658216,59845.3810354151,65277.7587912890,11264.8780540733
9349304477,18310,-2,0,19934.2281957545,47333.4965724426,50702.0625993899,60066.5289251721,70949.3656343987,57265.2574272007,58941.0413044436,59871.3103973448,65280.5695292551,11260.5706893980
9349304477,18310,-2,0,20112.8378174184,47377.7869888781,50738.5535221619,60084.2815948368,70981.4031801335,57257.5796105055,58955.2775097264,59899.1987584630,65280.9345601598,11257.9424668843
9349304477,18310,-2,0,20293.5524506328,47406.3202379279,50764.7870765122,60090.3046047641,70995.6393854163,57246.2879878538,58956.9566518880,59907.0469229138,65274.0963145453,11257.1759019844
9349304477,18310,-2,0,20235.5125367873,47372.7738977870,50737.3732555701,60071.7975378964,70963.4923304101,57250.0721415657,58941.8808755244,59873.0747133841,65261.1620528225,11260.6315278821
9349304477,18310,-2,0,19977.5573641410,47312.1422645183,50674.4054245114,60047.9975229108,70918.8368830699,57260.5606962271,58925.2598016642,59830.7676315308,65256.5139926361,11259.2322427475
9349313449,18311,-2,0,19882.0774471713,47304.8538141214,50667.6158496842,60055.9795320266,70928.6927174965,57257.2510826912,58931.4166562567,59845.9772525594,65268.1828138893,11252.5035064044
9349313449,18311,-2,0,20101.0229838034,47364.5728701284,50732.7130276869,60087.3356867393,70984.7736321535,57245.2537336238,58953.7078768363,59904.0049987080,65277.6127789271,11250.7878611524
9349313449,18311,-2,0,20299.8066467998,47396.5374096822,50765.7969953485,60087.5060344948,71001.6502276469,57255.3772573805,58952.4059332762,59909.5169653688,65268.6573540654,11253.7081083899
9349313449,18311,-2,0,20222.7486228201,47370.6445508430,50736.3633367338,60068.1593965464,70971.9975504894,57270.1123382331,58939.4473361598,59872.4784962398,65265.9682930675,11265.1700787971
9349313449,18311,-2,0,20006.7355011224,47324.8575076983,50690.6736351637,60054.5315761047,70938.8284089500,57263.0550740758,58930.7474329314,59849.8100770587,65265.5059205883,11266.1069914525
9349313449,18311,-2,0,19910.9878948227,47314.3932884305,50680.9638130990,60057.2084694057,70936.7964035806,57261.9356459681,58929.8348556697,59859.3252159742,65268.2679877671,11261.7752913835
9349313449,18311,-2,0,20043.6522932832,47351.9914716134,50716.7855125457,60073.7565370849,70968.3107383520,57257.7864613514,58936.0403810494,59885.4127579626,65268.7790310336,11256.7865356861
9349313449,18311,-2,0,20272.3076519799,47398.4842411739,50758.7153957976,60087.9805746709,70997.0386705510,57244.6940195700,58944.6064396127,59908.7504004690,65265.7614422216,11257.9181314906
9349357077,18312,-2,0,20279.4987608023,47381.0479316266,50740.8045460742,60069.7411971333,70969.7343588803,57248.9405457612,58931.9033641296,59878.4284999862,65251.4157276673,11257.7477837351
9349357077,18312,-2,0,20023.4052457698,47322.4604714242,50679.3698448151,60042.4490531595,70924.3610174276,57275.0767585369,58918.1538667196,59832.0695750908,65253.6180807923,11259.3660874126
9349357077,18312,-2,0,19871.4550478449,47306.3382731338,50660.6437594046,60050.2850499135,70927.0500784254,57270.0393320522,58928.6424213810,59845.6122216548,65271.5410982125,11259.9379691632
9349357077,18312,-2,0,20038.2255005002,47350.0203047281,50705.6885730432,60079.0129821124,70970.4522529929,57241.6399276674,58942.5744342433,59895.2077539051,65276.3351707607,11257.3097466495
9349357077,18312,-2,0,20256.3071306577,47382.9095892405,50739.2227454872,60082.0670740150,70987.3410161831,57241.2505613691,58937.1233060666,59900.8657329277,65263.2062258887,11254.4625055929
9349357077,18312,-2,0,20249.4688850433,47371.5327927111,50726.8968686056,60067.2711546783,70966.3882422540,57261.3029257333,58923.0209454488,59869.8867768165,65257.8037684994,11259.0497272952
9349357077,18312,-2,0,20062.1471924541,47333.4113985648,50694.9566644453,60056.1620474789,70939.2907814293,57273.5679641308,58919.8938473653,59849.7492385746,65265.4207467105,11269.2462572328
9349357077,18312,-2,0,19909.9779759863,47311.4365381026,50674.4297599050,60057.2693078898,70932.1726787879,57279.7734895105,58925.7951803245,59848.7636551319,65276.0309783401,11272.6653800400
9349366198,18313,-2,0,19990.1996011400,47345.3844122386,50703.0481828326,60077.7110385524,70966.6680992809,57266.1821721593,58942.5257634560,59880.8498716540,65285.2905956224,11269.7938035898
9349366198,18313,-2,0,20237.9947469392,47395.5274908459,50752.7045535670,60095.9990868773,71002.9521712069,57243.3312375258,58955.0584911836,59912.0965170953,65280.9710632502,11259.4147581998
9349366198,18313,-2,0,20306.1095137540,47387.9713511189,50746.7545498206,60077.9665601857,70982.6929559967,57240.9950397358,58935.9795425653,59885.8142919578,65261.5757545145,11249.4007437146
9349366198,18313,-2,0,20071.4919836141,47329.1892077672,50686.8773137549,60049.1656218058,70931.1505922548,57263.3105957091,58915.2579548758,59827.7987135060,65254.4089810858,11250.5931780032
9349366198,18313,-2,0,19878.6096535768,47305.0606649673,50660.7654363729,60056.9164446820,70926.3443520097,57270.5503753187,58923.2277962948,59833.3471832572,65270.5068439825,11256.9325480480
9349366198,18313,-2,0,19992.1342649349,47346.0536355638,50702.0017609058,60086.1432524507,70972.2409044258,57262.5318631124,58948.9624750753,59890.4015136600,65283.9886520623,11258.7942056619
9349366198,18313,-2,0,20220.1569033968,47387.5698171237,50743.4571039816,60096.9725026231,71003.1955251434,57261.8626397871,58953.4888582935,59913.6539822886,65278.8782193967,11257.5774359796
9349366198,18313,-2,0,20288.9287258401,47389.1516177107,50746.0853264953,60087.9319038836,70995.4933730545,57271.0249154948,58944.5456011286,59899.7463048200,65274.5221839341,11261.5197697502
9349396280,18314,-2,0,20136.3093045899,47346.7106911923,50709.7039129947,60069.4978431969,70958.5765808937,57274.2736905465,58929.1169615571,59868.4266531978,65273.7556190342,11267.4819411935
9349396280,18314,-2,0,19926.7085591179,47306.7033040384,50670.5482646185,60055.7118426965,70930.4935366263,57272.0470020279,58920.1006982113,59846.0989295277,65274.2179915135,11268.7595493599
9349396280,18314,-2,0,19930.9064145218,47323.2635394145,50681.8398872702,60067.2711546783,70951.0569442571,57261.4976088824,58931.6600101931,59869.5339136087,65278.2820022524,11260.3030000679
9349396280,18314,-2,0,20185.2842843022,47383.5544771721,50738.6630314333,60093.0180011556,70999.1436821014,57244.0491316383,58952.9169765428,59916.2335340151,65280.1193244726,11252.6130156758
9349396280,18314,-2,0,20324.1542081425,47392.4490635497,50750.4291942611,60084.0990793844,70997.1968506097,57249.4272536341,58944.9227997301,59902.2041795783,65264.3986601774,11251.9316246537
9349396280,18314,-2,0,20137.2218818516,47339.1667191621,50697.0616759957,60052.9984463050,70945.5571452931,57275.6729756812,58920.0276920304,59846.0259233467,65260.5049971940,11250.8973704238
9349396280,18314,-2,0,19915.0884086520,47303.3206843217,50662.9434541042,60050.6379131213,70925.4317747480,57267.4841157193,58919.5288164606,59841.2440184953,65272.2954954155,11251.2745690253
9349396280,18314,-2,0,19943.4391422494,47322.6673222701,50682.3387628400,60068.0255518813,70949.7915037875,57248.9162103675,58929.8226879728,59879.5965988812,65281.8958082088,11247.9041170053
9349433324,18315,-2,0,20142.3079791236,47360.4480209054,50719.7544305705,60073.7322016913,70977.1323185487,57239.5470838139,58929.2264708285,59897.4101070300,65271.9913029949,11242.8058520365
9349433324,18315,-2,0,20273.6947694177,47376.4363745307,50733.6256049486,60071.4325069917,70983.3500116252,57241.8467785134,58925.7830126276,59892.7012083595,65261.7461022700,11245.3610683693
9349433324,18315,-2,0,20181.5974721649,47346.0536355638,50708.6088202807,60058.1210466674,70955.5833274752,57254.2456615760,58917.8740096927,59865.2387166302,65259.6289230228,11254.5355117738
9349433324,18315,-2,0,19945.5076507093,47298.8794749813,50665.9367075226,60042.4977239468,70921.3190932218,57271.7306419105,58912.0456829145,59833.9920711888,65264.7393556884,11261.3615896915
9349433324,18315,-2,0,19887.1027059592,47305.3405219943,50669.4653396013,60052.2562167988,70936.5043788569,57265.4156072594,58922.7045853314,59857.7677507809,65278.3185053428,11262.2863346501
9349433324,18315,-2,0,20119.8220753948,47360.2290023626,50727.4809180531,60074.7786236180,70983.3500116252,57247.8332853503,58937.2936538221,59908.5070465325,65282.8813916514,11256.8352064734
9349433324,18315,-2,0,20303.4447881498,47383.6639864435,50755.1867637189,60070.8606252411,70992.2689333964,57254.1604876982,58928.5572475033,59906.3898672853,65270.0323038064,11259.4755966840
9349433324,18315,-2,0,20177.5577968197,47347.3920822144,50716.8706864235,60046.8415917126,70955.4373151133,57282.1218549973,58908.9550879215,59861.3572213436,65267.8299506815,11266.2773392080
9349479712,18316,-2,0,19948.1967117072,47306.6789686448,50679.8930557785,60041.0376003280,70932.9392436877,57285.6748224696,58908.6508955009,59850.9295051664,65283.1734163752,11268.8325555408
9349479712,18316,-2,0,19906.2668284554,47311.2418549534,50688.1305865277,60055.3346440950,70950.8379257143,57275.9528327081,58922.9357715711,59881.3122441333,65292.9927477113,11264.4035138973
9349479712,18316,-2,0,20079.0237879475,47353.7314522591,50728.0527998037,60075.5938593052,70987.9494010242,57266.0969982815,58933.7528540467,59910.9770889876,65291.5447917894,11260.4246770362
9349479712,18316,-2,0,20270.9935407230,47384.7104083703,50753.2399322272,60080.3392610661,71004.4244625225,57253.3939227984,58935.7118532352,59917.6693222402,65280.9588955534,11258.0033053684
9349479712,18316,-2,0,20242.0344222844,47360.7157102355,50731.4354195205,60062.4527467364,70976.8889646122,57260.2565038065,58924.0917027692,59888.9170546476,65270.2756577429,11261.8239621708
9349479712,18316,-2,0,19993.3388669203,47306.4599501020,50678.6397830058,60042.3030407976,70933.8274855558,57285.0177668412,58915.7324950519,59852.1584425455,65272.3928369901,11269.2340895360
9349479712,18316,-2,0,19873.5235563048,47302.6879640869,50674.0038905162,60056.1498797821,70942.1015193954,57285.6383193792,58929.1778000412,59868.7795164056,65289.7196372659,11273.1642556098
9349479712,18316,-2,0,20072.9277718392,47356.2988362887,50731.3867487332,60089.4650336833,70991.1738406823,57263.9189805502,58947.7213699994,59923.3273012629,65297.5069632326,11269.8911451644
9349502322,18317,-2,0,20292.2991778600,47387.9348480284,50762.4508787222,60091.0590019671,71007.5393929092,57260.9622302222,58937.3544923063,59925.6634990529,65279.1459087268,11270.5482007928
9349502322,18317,-2,0,20233.7968915353,47363.3074296588,50733.4187541027,60070.4347558523,70976.6334429789,57281.5864763371,58919.2124563432,59885.3884225690,65272.5875201392,11276.4130306615
9349502322,18317,-2,0,20010.1911270201,47315.5613873255,50690.8318152224,60051.4409811116,70939.7409862118,57272.8622377151,58911.1087702592,59860.4811471724,65275.8119597973,11272.0204921084
9349502322,18317,-2,0,19898.4064963077,47302.4446101504,50677.8245473186,60060.4207413670,70939.5341353658,57266.0726628879,58920.7334184461,59871.8214406114,65282.7475469864,11269.8546420739
9349502322,18317,-2,0,20013.3060574068,47336.5506643451,50701.3447052774,60077.9908955793,70973.5793510764,57262.7873847457,58934.5315866433,59897.6412932697,65284.4145214511,11265.6567866700
9349502322,18317,-2,0,20240.2457708515,47382.3255397930,50740.5003536536,60090.4141140355,71008.8413364692,57256.9347225738,58943.5113468987,59921.2344574093,65283.7696335195,11262.1403222882
9349502322,18317,-2,0,20280.3626672767,47371.5084573174,50736.0226412228,60075.4235115497,70992.7799766630,57263.3714341932,58933.3878231420,59896.1081634700,65274.7777055674,11264.1601599608
9349502322,18317,-2,0,20044.7838890877,47315.1598533304,50682.9228122874,60047.5959889156,70943.4764691364,57283.7888294621,58916.3287121962,59847.2305253322,65273.8407929120,11270.2683437659
9349531624,18318,-2,0,19866.4662921475,47293.0754835967,50660.7045978888,60047.6689950965,70935.0807583286,57279.8464956914,58920.6360768715,59851.5743930980,65285.3879371970,11268.6987108758
9349531624,18318,-2,0,20008.1469539538,47336.3559811959,50707.6597399285,60074.0120587182,70977.4365109692,57262.5805338997,58939.1188083456,59906.8035689773,65293.3456109192,11261.3129189042
9349531624,18318,-2,0,20243.2268565731,47379.7824911570,50751.5121192784,60083.6367069051,71003.3415375053,57262.3736830537,58939.8853732454,59924.7022510039,65283.6114534608,11257.4557590114
9349531624,18318,-2,0,20258.5094837827,47369.6346320067,50738.0181435017,60064.3752428344,70982.8024652681,57271.4994556709,58925.0164477278,59892.1658296993,65271.6871105743,11261.5927759312
9349531624,18318,-2,0,20077.0891241526,47330.2964681781,50702.8778350771,60051.8181797132,70952.0546953966,57278.9704215202,58919.0786116782,59865.8471014713,65278.7808778221,11271.7649704751
9349531624,18318,-2,0,19915.6967934931,47305.5108697498,50680.6231175879,60051.8425151068,70938.7675704659,57279.3841232122,58924.0308642851,59865.0805365715,65285.7408004048,11273.8699820255
9349531624,18318,-2,0,19974.6979553876,47334.8836898804,50705.6642376495,60072.2599103757,70968.5054215012,57278.0821796521,58941.4915092260,59895.9499834113,65295.1464300490,11273.2250940939
9349531624,18318,-2,0,20224.1235725611,47393.1061191781,50762.6090587809,60096.4127885692,71012.4186393352,57269.1510901841,58956.8714780102,59934.1930545258,65297.4947955358,11271.9353182307
9349586952,18319,-2,0,20328.0113680353,47398.0097009978,50770.2503723857,60086.6056249299,71002.4532956372,57267.4476126289,58942.8786266639,59914.8220811837,65279.9611444139,11269.3192634137
9349586952,18319,-2,0,20116.1839340447,47341.6245939203,50712.2226262371,60053.6555019334,70952.0790307902,57286.1006918584,58919.7965057907,59853.8375847071,65271.9182968140,11269.1854187487
9349586952,18319,-2,0,19895.7782737940,47307.2508503955,50674.8799646875,60050.4432299722,70934.8495720889,57287.7433309295,58918.4580591402,59846.7194820656,65285.2054217446,11268.0051521568
9349586952,18319,-2,0,19977.4478548696,47341.5029169521,50709.0103542758,60080.8989751200,70974.2364067048,57276.0015034954,58939.7880316708,59897.9211502966,65297.9450003182,11265.4986066113
9349586952,18319,-2,0,20216.2145696262,47395.1381245476,50755.1989314157,60102.2046122570,71014.0126076190,57276.4882113683,58950.7754619020,59926.9897780066,65294.3920328459,11263.4300981514
9349586952,18319,-2,0,20310.1126860088,47405.2981513947,50759.7496500275,60096.3276146915,71010.5569817213,57282.8397491099,58945.0079736079,59914.8099134868,65289.7683080532,11269.0880771741
9349586952,18319,-2,0,20165.3657646031,47361.5552813163,50720.3141446243,60072.0165564392,70969.9047066358,57280.0168434470,58925.6856710530,59882.1274798204,65286.0571605222,11273.1399202161
9349586952,18319,-2,0,19944.9357689587,47313.3346988069,50682.3022597495,60052.8280985495,70936.1271802553,57284.5310589683,58914.8564208806,59859.4225575488,65289.2207616962,11277.6298003438
9349595792,18320,-2,0,19920.7828907651,47316.6199769491,50689.5298716623,60057.4883264326,70950.3147147509,57279.7613218137,58919.8330088812,59877.0048794579,65297.0324230565,11275.2936025538
9349595792,18320,-2,0,20154.2566574037,47366.7752232533,50743.2259177419,60078.9764790220,70996.4546211035,57258.1393245593,58934.4342450687,59922.7189164217,65300.9382537367,11269.1367479614
9349595792,18320,-2,0,20313.7629950557,47378.8334108048,50757.4621230248,60071.9313825615,70996.9291612796,57254.6350278743,58924.7852614881,59914.6882365186,65280.2653368345,11271.5459519323
9349595792,18320,-2,0,20148.5500075938,47331.6470825255,50706.2482870970,60040.0033460981,70947.3579644229,57277.1330992999,58900.0605015439,59857.6460738126,65268.3774970385,11279.1872655371
9349595792,18320,-2,0,19908.9437217564,47292.2480802128,50661.8726967838,60030.2813563365,70920.0658204491,57274.2371874561,58897.6634652698,59837.9830757468,65275.8362951910,11281.8763265350
9349595792,18320,-2,0,19915.6481227058,47308.3581108064,50675.2206601985,60048.0583613949,70939.9113339673,57255.8883006471,58910.2326960879,59871.2130557702,65281.1657463994,11277.0457508963
9349595792,18320,-2,0,20120.9171681089,47355.1794081810,50718.0752884089,60066.7966145022,70976.2927474679,57258.4191815862,58918.1903698101,59900.0504972406,65279.5474427220,11273.0182432479
9349595792,18320,-2,0,20270.3851558819,47376.1930205943,50738.1519881668,60070.5442651237,70987.3410161831,57257.5796105055,58914.1993652522,59897.2640946681,65274.8993825356,11275.3422733411
9349622022,18321,-2,0,20195.1401187288,47344.8855366688,50716.4813201251,60057.5126618263,70957.4206496955,57266.7783893036,58902.4575378181,59868.9011933739,65271.0543903395,11280.0268366179
9349622022,18321,-2,0,19955.8501930088,47290.1674040561,50667.3238249604,60038.0078438191,70918.8612184636,57271.6698034264,58891.9933185503,59833.4810279223,65270.7623656158,11279.1994332340
9349622022,18321,-2,0,19863.1201755212,47282.5990966322,50658.4900770670,60040.2832031250,70921.0635715885,57257.7986290483,58898.0528315681,59838.6157959816,65273.0985634058,11271.7041319910
9349622022,18321,-2,0,20070.3725555064,47330.8926853224,50707.5380629603,60060.2138905210,70962.5675854516,57228.5596535827,58914.1141913744,59881.1175609841,65268.4018324321,11261.3859250852
9349622022,18321,-2,0,20271.0422115103,47355.9094699904,50730.6931900143,60054.4829053174,70969.1259740392,57226.3451327610,58909.0524294961,59881.3365795269,65251.1237029436,11259.6094413490
9349622022,18321,-2,0,20168.6632104421,47321.0003478054,50690.8439829192,60028.4318664195,70930.9315737119,57252.5421840208,58891.2267536505,59833.1281647144,65244.6626559306,11269.9884867390
9349622022,18321,-2,0,19931.0402591869,47279.1921415218,50644.9717658967,60017.0794052836,70903.4204111953,57255.4502635614,58890.1559963301,59817.4683389033,65257.2440544455,11277.1795955613
9349622022,18321,-2,0,19869.8854149548,47279.8370294534,50646.9185973884,60030.3300271238,70915.7706234706,57242.0292939657,58901.2164327421,59842.7041421141,65265.0557158058,11271.2782626022
9349665883,18322,-2,0,20026.5810146406,47315.9264182302,50681.2680055195,60043.1182764847,70944.7175742123,57234.4488188450,58907.9208336916,59868.8038517993,65256.6356696044,11263.3205888800
9349665883,18322,-2,0,20220.0960649127,47348.6088518966,50712.1617877530,60050.8569316641,70967.9335397505,57232.6723351089,58911.4616334670,59879.2194002797,65252.0971186894,11263.3570919705
9349665883,18322,-2,0,20211.5786771366,47330.4059774495,50697.0130052084,60040.1128553695,70946.8590888532,57234.6191666006,58901.0947557739,59855.0786897830,65242.1804457787,11270.0249898295
9349665883,18322,-2,0,19968.1395668000,47273.2178023817,50635.8824963700,60016.3980142616,70901.4249089163,57250.0599738689,58885.4227622659,59809.3768205160,65237.6175594701,11277.0214155026
9349665883,18322,-2,0,19821.8595155946,47261.6828257936,50619.0059008765,60022.2020056461,70903.6029266476,57259.6359512685,58893.1249143549,59822.2015729674,65256.4896572425,11279.6374703196
9349665883,18322,-2,0,20002.1361117233,47315.8777474429,50674.2229090590,60051.9276889846,70952.6022417536,57240.2528102296,58914.7104085188,59879.5844311844,65270.7380302221,11272.7748893114
9349665883,18322,-2,0,20242.2291054336,47355.7756253254,50719.9491137197,60057.9750343056,70973.6401895605,57237.6975938968,58911.6441489194,59894.4655243989,65260.2738109544,11269.5869527438
9349665883,18322,-2,0,20213.8540364425,47336.0396210786,50701.3325375806,60036.1340185084,70944.9122573615,57252.8585441382,58893.3804359881,59852.9006720517,65250.4666473151,11277.5081233756
9349713367,18323,2,0,19999.2888706667,47287.3566660900,50651.1407881859,60020.0239879148,70906.6083477629,57252.8585441382,58883.8287939821,59823.3940072561,65252.7906774083,11280.2580228575
9349713367,18323,2,0,19875.2757046473,47266.7810907624,50635.2132730447,60024.8058927662,70901.6682628528,57254.8297110235,58889.4867730048,59833.7608849492,65260.0061216243,11274.6000438349
9349713367,18323,2,0,19975.9025573730,47298.2345870497,50664.6834347499,60042.5463947341,70932.6958897513,57254.4525124220,58905.8158221412,59866.4189832220,65267.2337335371,11273.7239696636
9349713367,18323,2,0,20203.7305126858,47345.7372754464,50710.1054469899,60060.7857722717,70969.5396757311,57241.3600706405,58921.8285111602,59897.8724795093,65267.6596029259,11273.5779573018
9349713367,18323,2,0,20275.0818868555,47348.1951502047,50716.3839785505,60061.0899646922,70966.3760745572,57252.7368671699,58921.7920080697,59889.6714518506,65262.9020334682,11280.4162029162
9349713367,18323,2,0,20061.8551677303,47299.7555491525,50671.3269972152,60041.7189913501,70925.2249239020,57278.3133658918,58908.5292185327,59845.1863522659,65265.0313804122,11284.4558782615
9349713367,18323,2,0,19862.3171075309,47272.9501130516,50646.4197218186,60040.2588677314,70915.1135678421,57277.6319748697,58912.3012045478,59843.3125269552,65278.8295486094,11279.7713149846
9349713367,18323,2,0,19981.9012319068,47313.9917544354,50690.5762935891,60069.1328122922,70960.2800584489,57257.8838029260,58931.8668610391,59901.5106208593,65287.3469363855,11274.1498390524
9349722468,18324,2,0,20232.3732710070,47364.8648948521,50739.9284719029,60086.6299603236,70997.3428629716,57260.2686715033,58938.5104235044,59932.6842601197,65280.2653368345,11280.5622152781
9349722468,18324,2,0,20268.8033552949,47361.3971012576,50731.9342950903,60071.2256561457,70982.4617697571,57277.2791116618,58924.9434415468,59902.9342413876,65273.9746375770,11282.5698852539
9349722468,18324,2,0,20082.8566124467,47318.3721252916,50689.6880517210,60051.7695089259,70948.9275973131,57273.2272686198,58912.3985461224,59867.6722559947,65276.8097109368,11279.7104765005
9349722468,18324,2,0,19903.4317550956,47285.0691390873,50658.0642076782,60046.6712439570,70932.0144987292,57269.4431149078,58911.1817764401,59858.9966881600,65280.9102247661,11277.7149742216
9349722468,18324,2,0,19934.2890342386,47302.2499270012,50674.1255674845,60059.2404747751,70953.3688066535,57267.0704140274,58922.0110266125,59884.9260500897,65285.7408004048,11276.9240739281
9349722468,18324,2,0,20170.0503278799,47355.9824761714,50725.7287697106,60080.3149256725,70995.8584039592,57259.0032310337,58937.6586847268,59924.9212695467,65289.5736249041,11274.8799008618
9349722468,18324,2,0,20301.7291428978,47370.2065137574,50742.6175329008,60078.6114481173,70995.0066651816,57266.0726628879,58936.1985611081,59919.6648245192,65279.7907966584,11277.2282663486
9349722468,18324,2,0,20118.2889455951,47322.6551545733,50693.1801807092,60053.7771789016,70947.8811753863,57284.1538603668,58921.9501881284,59868.1346284740,65272.1008122663,11282.3386990143
9349744623,18325,2,0,19881.6272423889,47281.9298733069,50646.8212558138,60043.0209349102,70921.0635715885,57279.1651046694,58920.8915985048,59850.6861512299,65279.2554179982,11279.6861411069
9349744623,18325,2,0,19933.5103016419,47304.9511556959,50669.4166688140,60062.5257529173,70953.4296451376,57256.5818593660,58937.9020386633,59894.7697168194,65286.5560360920,11271.7041319910
9349744623,18325,2,0,20166.7407143441,47350.3244971487,50714.6805009953,60074.5109342879,70988.3265996258,57249.3055766659,58942.2945772164,59919.1781166463,65279.4622688442,11266.9708979269
9349744623,18325,2,0,20273.9624587478,47362.0784922797,50723.2830626491,60069.2788246541,70990.0665802715,57265.5859550150,58930.5162466918,59902.2041795783,65272.6118555329,11270.0006544358
9349744623,18325,2,0,20155.2057377559,47332.9368583887,50697.9499178638,60060.4329090638,70964.2832307036,57278.7757383710,58922.6559145441,59877.2482333944,65278.0021452254,11276.1696767250
9349744623,18325,2,0,19941.3462983959,47289.7537023641,50657.5653321084,60049.2507956835,70936.0055032871,57281.1362715547,58916.2313706216,59857.8042538713,65283.3315964339,11277.2891048327
9349744623,18325,2,0,19892.2618094121,47290.5811057480,50657.5774998053,60052.7064215812,70944.3525433077,57273.7261441895,58919.5409841575,59871.4929127972,65289.5979602977,11274.9407393459
9349744623,18325,2,0,20112.3997803328,47342.0382956123,50709.8499253566,60072.4059227376,70985.5645324470,57248.1496454677,58928.9587814984,59914.6517334281,65286.5317006983,11272.8843985828
9349773808,18326,2,0,20300.4028639441,47368.2353468721,50741.5346078836,60075.1558222196,70993.5587092596,57249.9504645975,58924.5905783390,59918.0343531449,65274.3883392690,11276.7658938694
9349773808,18326,2,0,20164.9155598206,47324.3586321285,50696.3316141863,60048.8492616884,70948.7937526480,57265.2452595039,58901.3989481945,59861.6614137642,65261.0160404606,11279.5644641386
9349773808,18326,2,0,19913.0442355857,47275.5296647781,50640.7374074023,60037.0587634669,70917.1212378179,57266.5106999735,58897.0794158223,59836.1092504360,65266.6496840896,11281.0245877574
9349773808,18326,2,0,19894.1112993292,47285.2881576301,50649.1452859070,60052.4508999479,70936.2001864363,57255.5354374392,58913.7856635602,59874.1089676141,65277.8439651667,11278.2138497913
9349773808,18326,2,0,20093.9048811619,47331.3550578017,50696.5384650323,60070.5686005173,70974.4310898540,57255.8883006471,58925.7100064467,59908.1420156279,65278.1724929810,11275.4396149157
9349773808,18326,2,0,20254.9078455231,47354.3641724939,50724.2929814855,60071.6515255346,70985.3698492978,57251.7512837273,58923.1061193266,59905.2704391776,65268.9007080019,11276.3278567837
9349773808,18326,2,0,20196.2595468365,47324.1517812825,50701.2716990964,60054.1300421095,70954.9506072404,57251.5687682749,58909.1254356770,59870.9088633497,65257.4022345042,11275.7559750331
9349773808,18326,2,0,19960.4860854984,47267.4259786940,50648.4882302785,60029.3687790748,70910.4411722621,57260.1104914446,58894.7553857291,59832.6779599320,65253.1800437066,11272.3855230131
9349838497,18327,2,0,19848.1904115194,47258.7260754656,50634.1425157243,60031.4007844443,70912.2176559983,57259.9036405986,58901.3624451040,59837.7032187198,65261.6487606954,11271.4607780546
9349838497,18327,2,0,20047.6554655379,47316.7294862205,50686.1107488551,60064.7037706486,70966.5829254032,57250.4858432577,58929.3846508872,59897.0815792158,65275.4469288926,11273.4076095462
9349838497,18327,2,0,20280.2531580053,47356.4935194379,50730.0848051732,60075.0341452513,70991.5388715870,57246.5435094870,58935.7970271129,59917.8275022989,65270.9813841586,11277.8974896739
9349838497,18327,2,0,20206.5655860456,47324.3099613412,50699.3370353016,60050.8690993610,70953.5391544090,57260.7188762858,58916.1705321375,59870.1666338435,65260.8213573114,11281.8033203541
9349838497,18327,2,0,19963.0899726185,47272.5485790564,50650.3012171051,60033.7978207184,70914.8215431184,57264.6247069659,58907.4584612123,59837.4842001770,65266.0412992485,11279.3941163831
9349838497,18327,2,0,19877.6240701341,47267.2191278480,50647.7946715596,60044.1038599274,70921.8423041852,57253.1870719524,58917.2291217611,59854.5554788196,65272.7335325011,11277.2647694391
9349838497,18327,2,0,20020.9108679211,47308.1390922635,50686.4149412756,60058.2548913325,70953.1862912011,57257.3119211754,58927.6568379384,59885.0598947547,65272.7700355916,11277.6054649501
9349838497,18327,2,0,20219.0496429859,47350.4948449042,50722.0906283605,60065.9205403309,70980.7582922019,57259.2465849702,58929.4698247650,59899.9896587565,65271.5045951220,11282.4117051952
9349863441,18328,2,0,20233.8942331099,47342.1478048837,50712.3564709021,60052.9497755177,70963.9181997990,57261.6436212443,58916.3530475899,59880.9958840159,65267.2215658403,11289.4568016557
9349863441,18328,2,0,20011.2010458564,47286.8821259139,50660.3882377714,60031.4494552315,70919.0802370064,57283.0831030463,58903.1145934465,59839.0903361577,65270.0566392001,11293.4721416073
9349863441,18328,2,0,19842.0213892302,47266.1727059212,50635.4931300716,60033.9560007771,70914.6511953629,57281.1727746451,58911.0479317751,59842.1200926666,65283.9886520623,11285.4901324914
9349863441,18328,2,0,19989.6155516925,47311.2175195598,50679.8078819008,60060.9682877240,70959.0267856761,57255.0365618695,58932.4874135771,59898.0671626585,65289.7196372659,11274.4783668666
9349863441,18328,2,0,20242.5819686415,47358.0874877217,50727.3470733880,60075.6303623956,70990.2247603302,57250.9482157370,58938.7172743504,59921.0641096538,65276.9678909955,11272.9695724606
9349863441,18328,2,0,20244.2246077126,47346.6376850113,50713.0013588338,60060.7614368780,70966.0962175303,57272.7040576564,58924.3593920993,59882.1518152140,65268.0854723147,11280.9759169701
9349863441,18328,2,0,20032.2754967537,47299.2323381892,50667.0804710240,60045.2111203383,70927.3786062397,57273.7748149768,58915.9758489883,59848.8609967065,65271.3585827601,11284.0786796600
9349863441,18328,2,0,19889.1955498128,47278.1578872918,50645.9330139457,60047.8028397616,70921.2217516472,57269.5039533919,58918.4215560498,59855.1273605703,65279.9246413235,11282.6550591317
9349872441,18329,2,0,19965.6695243450,47304.1237523120,50667.1048064176,60058.4982452690,70945.4719714154,57267.4962834162,58923.6293302900,59879.5600957908,65280.0584859885,11277.8731542803
9349872441,18329,2,0,20187.7543267573,47352.9527196624,50712.0401107848,60075.2166607037,70984.1895827060,57260.2078330192,58935.5050023892,59910.0158409386,65277.7952943795,11279.2846071117
9349872441,18329,2,0,20279.8881271006,47356.4448486506,50717.9901145312,60069.5586816810,70979.6145287005,57259.1370756988,58930.1147126966,59899.1865907662,65266.2724854881,11280.5378798845
9349872441,18329,2,0,20081.0557933169,47302.5297840282,50660.6437594046,60044.9555987050,70931.3087723135,57273.8599888546,58911.4007949829,59846.9750036989,65256.2828063965,11281.9249973223
9349872441,18329,2,0,19861.1490086359,47267.1096185766,50616.2681690914,60041.8528360152,70909.8327874210,57269.5161210888,58910.8775840195,59832.4589413892,65264.4594986615,11281.2557739970
9349872441,18329,2,0,19947.5518237756,47300.8993126539,50650.1430370464,60068.5852659352,70946.7374118850,57251.1307311893,58929.9687003347,59881.6407719475,65276.6150277876,11276.3521921774
9349872441,18329,2,0,20196.4055591984,47349.3389137060,50701.1256867346,60082.0305709245,70981.5248571017,57239.9242824154,58936.0890518367,59910.7945735353,65268.1219754052,11271.3999395704
9349872441,18329,2,0,20259.2517132889,47348.3654979602,50696.7331481815,60067.6605209766,70972.6789415115,57261.7652982126,58925.0772862119,59884.0986467057,65256.1732971251,11276.3765275710
9349894607,18330,2,0,20092.6759437828,47312.6289723912,50661.2521442458,60049.5914911946,70940.8969174099,57270.2218475045,58916.6329046168,59855.8695900765,65260.1764693798,11283.0200900364
9349894607,18330,2,0,19904.8797110175,47279.4233277614,50629.3362754792,60039.2124458046,70919.4452679111,57265.7684704673,58913.1651110222,59849.3842076699,65264.8245295662,11278.8952408134
9349894607,18330,2,0,19916.3538491216,47297.6627052990,50639.7883270501,60051.6965027449,70939.5949738499,57267.5571219003,58923.8726842264,59871.2617265575,65270.9327133713,11275.1962609792
9349894607,18330,2,0,20142.4904945759,47351.6994468897,50690.3329396526,60074.2067418674,70984.2017504028,57253.9901399427,58938.5104235044,59907.4241215153,65276.0431460369,11272.1178336830
9349894607,18330,2,0,20297.0567473178,47369.7563089749,50709.4848944519,60073.7687047817,70990.0909156651,57253.6737798253,58932.5482520612,59906.5967181313,65266.6740194833,11272.2151752576
9349894607,18330,2,0,20138.8280178322,47322.7889992384,50664.5495900848,60044.7122447686,70943.1479413222,57270.9884124043,58909.6608143372,59852.8398335676,65256.7816819662,11274.7582238936
9349894607,18330,2,0,19889.8282700476,47278.3404027442,50618.1906651894,60032.4837094615,70911.4754264921,57277.0235900285,58903.0902580528,59829.8915573595,65260.5049971940,11273.3102679716
9349894607,18330,2,0,19915.0032347742,47303.5153674708,50646.2858771536,60057.3058109803,70943.5008045300,57264.4786946041,58924.7974291850,59876.4208300104,65275.9093013719,11274.1863421429
9349970046,18331,2,0,20148.5256722001,47352.7215334228,50701.8557485439,60077.2851691636,70982.4496020603,57257.7134551705,58936.9529583111,59912.0113432175,65274.3153330881,11274.6122115317
9349970046,18331,2,0,20273.9502910510,47366.5075339232,50716.2623015823,60073.2333261215,70983.9340610727,57262.8482232298,58931.6600101931,59898.3591873822,65265.9074545834,11277.8123157961
9349970046,18331,2,0,20164.0151502557,47326.9260161582,50681.0611546735,60052.4995707352,70947.6499891467,57252.2136562065,58915.7933335360,59861.4423952214,65256.6721726948,11275.0624163142
9349970046,18331,2,0,19944.8627627777,47275.3349816289,50631.0275853376,60035.9393353592,70910.8427062573,57254.0631461236,58901.9708299451,59831.3030101910,65251.0871998531,11271.9718213211
9349970046,18331,2,0,19879.1693676307,47274.9699507242,50622.6075391361,60043.2886242403,70919.4696033047,57263.4931111614,58909.7703236086,59847.7902393861,65260.1886370767,11272.1908398639
9349970046,18331,2,0,20090.0355535722,47334.3969820075,50678.8101307613,60069.8020356175,70972.9222954479,57258.4921877672,58933.6676801689,59902.7638936321,65273.6704451565,11275.0137455269
9349970046,18331,2,0,20304.5763839544,47369.1600918306,50725.1933910504,60076.3847595987,70995.2986899053,57258.9667279433,58939.4108330693,59919.6648245192,65270.8110364031,11278.3963652436
9349970046,18331,2,0,20203.0612893606,47333.5695786235,50696.5262973355,60053.0471170923,70961.1804680138,57282.1948611783,58923.8118457423,59870.3369815990,65264.8366972630,11284.7844060757
9349982412,18332,2,0,19942.9889374670,47283.6820216494,50642.6477358035,60036.7667387432,70925.9428180145,57281.9028364545,58916.7302461914,59838.2142619864,65271.3950858506,11284.9669215280
9349982412,18332,2,0,19897.7859437698,47287.5148461487,50643.9253439699,60051.8060120163,70939.7166508181,57260.2808392002,58932.0128734010,59868.2319700486,65280.2775045313,11280.1606812830
9349982412,18332,2,0,20091.0333047117,47333.0585353569,50682.9836507716,60067.5996824925,70971.5108426165,57245.8621184650,58940.6762735389,59903.7373093779,65272.4901785646,11274.0646651747
9349982412,18332,2,0,20265.4694063654,47362.9667341477,50706.9661812096,60070.5442651237,70983.5811978648,57249.5976013896,58940.4572549961,59907.9838355692,65263.7172691553,11273.5171188176
9349982412,18332,2,0,20230.0614086107,47341.9166186440,50686.8529783613,60057.8898604278,70957.9195252652,57247.5412606265,58928.7032598651,59882.2856598791,65257.3170606264,11277.2160986518
9349982412,18332,2,0,20005.0198558703,47287.5148461487,50635.4444592843,60036.4017078385,70914.1766551868,57254.7323694489,58910.0988514229,59842.8014836887,65249.9069332613,11278.5788806960
9349982412,18332,2,0,19862.6943061324,47268.1438728065,50612.8612139809,60029.8554869477,70906.6205154597,57253.9293014586,58905.3656173587,59834.9168161474,65252.8150128019,11272.7870570083
9349982412,18332,2,0,20026.7513623961,47314.9651701812,50662.2133922948,60052.8037631558,70952.2250431521,57240.3501518042,58918.7865869544,59881.0080517127,65260.1764693798,11267.1534133792
9350003393,18333,2,0,20272.1373042244,47357.6494506361,50712.4903155672,60062.1120512254,70979.0304792530,57236.0914579161,58919.3706364019,59901.8269809767,65252.4864849877,11269.5382819565
9350003393,18333,2,0,20232.7626373054,47333.8737710441,50688.3009342832,60041.7798298342,70951.3246335872,57258.0176475911,58903.7959844686,59861.0651966199,65240.0876019252,11278.7613961483
9350003393,18333,2,0,19994.0567610329,47286.5049273124,50633.5828016704,60028.6265495686,70914.8215431184,57264.2475083644,58901.0947557739,59831.9600658194,65248.3251326743,11282.9714192491
9350003393,18333,2,0,19891.3005613631,47279.5206693360,50623.5444517915,60041.2322834772,70918.7517091922,57249.6584398737,58916.6450723136,59850.9781759537,65256.8060173599,11283.5676363934
9350003393,18333,2,0,20023.1375564397,47313.9552513449,50654.6207494773,60056.0160351171,70946.7495795818,57241.2748967627,58924.3715597962,59878.6475185290,65254.4576518730,11278.5302099087
9350003393,18333,2,0,20222.6026104582,47350.2514909677,50689.9192379606,60062.0877158317,70970.2210667532,57241.1532197945,58924.5905783390,59887.9923096891,65250.0286102295,11272.6410446464
9350003393,18333,2,0,20257.4265587655,47340.2739795729,50684.3220974221,60051.0759502070,70952.4075586044,57239.3280652710,58914.0533528903,59869.3513981563,65241.8640856613,11271.4486103577
9350003393,18333,2,0,20045.5017832003,47283.9740463732,50629.9446603204,60023.8324770204,70905.7079381980,57245.7404414967,58894.3781871276,59823.7468704639,65233.7847349709,11271.4486103577
9350022885,18334,2,0,19852.8263040090,47254.1388537633,50595.1207120131,60019.5737831324,70890.7416711058,57246.5313417902,58895.4124413576,59814.7792779054,65240.4526328298,11270.7672193357
9350022885,18334,2,0,19973.6637011576,47295.3021721153,50636.0406764287,60050.0538636738,70933.6571378003,57231.9544409963,58915.6838242646,59866.2851385569,65253.1678760098,11267.3967673157
9350022885,18334,2,0,20236.3521078681,47346.1753125321,50688.5077851292,60068.1107257591,70969.7586942740,57226.3816358514,58923.3373055662,59895.7674679589,65247.9966048601,11268.1876676092
9350022885,18334,2,0,20262.4639852502,47335.1757146041,50676.8632992696,60048.6789139328,70947.1997843642,57247.4195836583,58908.5778893200,59859.2643774901,65236.8388268734,11270.8158901229
9350022885,18334,2,0,20056.9150828202,47291.5666891907,50637.2087753237,60031.5589645030,70910.3681660812,57263.0429063790,58904.2096861606,59826.7522915792,65245.1371961067,11275.2936025538
9350022885,18334,2,0,19903.7724506066,47268.8374315254,50619.4074348717,60034.6008887087,70903.5785912540,57253.8076244903,58913.6639865920,59834.4909467586,65255.8326016140,11277.2404340455
9350022885,18334,2,0,19969.9647213235,47291.8343785208,50640.9685936419,60045.7951697858,70929.7026363328,57248.5025086755,58924.9799446373,59862.1481216371,65259.8357738688,11276.1210059377
9350022885,18334,2,0,20185.6128121165,47338.8138559542,50683.2148370112,60060.7492691812,70965.6703481414,57234.9598621116,58931.1489669266,59889.6836195475,65255.1877136824,11271.7406350815
9350069219,18335,2,0,20295.1829220070,47346.5890142240,50690.8926537065,60055.2007994299,70960.9371140773,57228.2797965558,58922.1935420649,59882.3343306664,65243.2877061896,11270.4386915214
9350069219,18335,2,0,20114.0545871007,47296.4459356167,50640.5670596468,60025.9131531771,70913.8359596757,57244.3654917557,58899.5737936710,59830.7067930467,65232.4341206235,11267.4089350125
9350069219,18335,2,0,19869.6785641088,47248.7972348581,50592.5776633771,60008.8905453218,70881.5915630949,57242.5038341418,58890.2046671173,59806.3957347944,65235.1961878023,11255.9469646053
9350069219,18335,2,0,19918.3736867942,47270.8572691981,50618.9572300892,60029.0159158670,70910.6723585017,57219.8840857480,58905.1709342096,59849.6153939095,65243.3607123705,11242.3313118604
9350069219,18335,2,0,20170.0746632736,47319.1508578883,50671.8623758754,60047.2187903141,70949.6454914256,57212.5834676542,58916.2070352280,59884.1716528867,65235.6707279784,11239.2163814738
9350069219,18335,2,0,20261.2472155679,47323.8232534683,50672.9574685895,60036.8519126209,70941.4809668574,57222.8895068633,58906.7040640093,59859.5198991234,65223.8072235761,11244.6066711663
9350069219,18335,2,0,20107.4475277259,47285.0934744809,50629.8716541394,60019.0627398658,70905.9512921344,57229.2167092112,58897.5539559984,59823.6008581021,65222.3957707446,11252.7955311282
9350069219,18335,2,0,19919.6877980511,47253.3114503794,50593.0400358564,60015.9599771759,70886.7384988510,57238.5858357648,58899.1722596759,59815.0226318419,65228.3092714005,11258.5021809381
9350090979,18336,2,0,19917.8139727403,47273.9113611006,50605.9621298823,60036.2070246893,70912.0959790300,57249.7192783578,58914.4670545823,59839.2485162164,65241.6937379058,11264.7077063178
9350090979,18336,2,0,20130.9190148973,47331.2212131367,50661.3616535172,60060.4694121543,70960.5720831726,57247.4317513551,58932.4630781834,59883.9526343438,65255.1025398047,11268.9055617217
9350090979,18336,2,0,20308.0076744584,47361.0077349592,50692.3041065379,60070.2157373094,70977.6920326025,57248.4781732819,58933.3269846579,59899.1622553725,65255.3093906507,11272.8965662797
9350090979,18336,2,0,20180.0765100620,47320.1121059373,50649.8753477163,60046.7320824412,70937.3682853313,57261.5949504570,58913.7004896825,59853.3630445310,65245.7212455542,11277.7149742216
9350090979,18336,2,0,19917.4611095325,47269.3728101857,50596.7755187810,60028.6387172655,70903.1405541683,57267.3502710543,58904.3435308256,59824.8297954812,65249.4688961756,11274.3688575952
9350090979,18336,2,0,19909.8197959277,47285.4098345983,50617.5822803483,60046.7199147443,70928.6075436188,57255.7787913757,58920.5387352969,59864.0341146447,65263.8389461235,11265.6446189732
9350090979,18336,2,0,20137.3313911230,47336.0274533817,50669.1124763934,60064.1075535043,70969.3084894915,57247.0058819663,58927.7663472098,59903.7008062875,65262.8046918936,11260.7410371535
9350090979,18336,2,0,20278.4645065723,47354.2911663130,50681.7547133924,60057.1597986184,70970.5860976579,57253.2965812238,58920.7455861429,59893.1270777483,65252.3526403227,11265.4864389145
9350122110,18337,2,0,20186.9269233733,47329.4082263100,50655.4359851644,60041.8406683183,70941.9068362462,57258.4070138894,58912.2768691542,59861.4667306150,65249.1890391487,11275.8168135172
9350122110,18337,2,0,19976.8759731189,47287.7460323883,50614.6376977171,60029.9893316128,70911.8161220031,57261.1325779778,58906.8379086743,59839.1511746418,65251.3305537896,11279.1507624467
9350122110,18337,2,0,19890.9842012457,47284.7162758794,50609.6611097165,60031.1452628110,70916.2816667371,57267.3381033575,58912.4715523033,59847.1088483640,65260.0669601084,11274.3566898984
9350122110,18337,2,0,20076.5902485829,47333.7642617727,50658.6604248225,60052.3535583734,70961.9835360041,57253.3574197079,58931.0881284424,59892.5795313913,65270.5190116793,11272.5315353750
9350122110,18337,2,0,20298.3951939683,47364.2565100110,50691.1238399461,60056.5149106868,70979.8822180306,57236.1401287034,58929.7253463983,59906.5602150409,65258.0471224358,11272.1178336830
9350122110,18337,2,0,20221.6291947124,47321.6574034338,50649.9726892909,60028.0425001211,70936.1028448617,57248.9892165485,58905.4507912365,59854.0687709467,65240.5743097981,11275.1719255856
9350122110,18337,2,0,19954.6942618107,47261.4273041603,50588.9638574207,60009.6206071312,70891.4473975215,57249.9747999911,58890.6548718998,59811.6765152156,65239.6252294459,11275.1475901919
9350122110,18337,2,0,19879.8142555623,47256.9739271231,50587.2117090782,60025.2926006391,70901.4127412195,57231.8205963313,58903.1145934465,59837.3260201183,65243.7865817593,11267.7252951299
9350153205,18338,2,0,20061.6361491875,47304.8903172118,50633.1690999784,60049.5671558009,70941.6634823098,57234.7530112656,58916.4747245581,59874.2549799760,65242.2656196565,11266.7397116873
9350153205,18338,2,0,20244.8694956442,47343.5957608056,50661.2399765490,60054.8236008284,70960.8032694123,57247.0180496631,58919.1272824655,59879.6452696685,65240.8176637345,11270.3048468564
9350153205,18338,2,0,20230.6454580582,47337.2077199736,50652.8199303475,60047.7298335806,70945.1434436011,57257.5674428086,58914.9659301520,59861.4423952214,65243.3607123705,11276.3035213901
9350153205,18338,2,0,20025.6075988948,47293.5135206824,50612.0824813843,60033.9560007771,70908.2023160467,57265.9023151323,58910.6950685672,59832.8969784748,65248.4589773393,11279.4671225641
9350153205,18338,2,0,19874.9350091363,47274.6779260005,50593.2225513087,60036.7059002591,70900.4636608673,57265.9753213133,58916.7180784945,59831.8383888512,65260.1034631989,11278.3233590627
9350153205,18338,2,0,20015.6909259841,47316.3401199222,50635.1280991669,60060.0313750686,70941.5904761288,57245.1320566556,58932.9497860563,59876.7128547342,65267.9272922560,11270.7915547293
9350153205,18338,2,0,20267.8421072459,47356.2988362887,50680.0269004436,60066.1638942674,70968.8461170122,57226.5276482133,58931.2584761980,59898.3348519886,65252.9853605575,11264.3913462004
9350153205,18338,2,0,20259.7384211618,47334.0806218901,50660.3639023777,60043.2277857562,70939.9721724514,57247.5655960202,58908.6873985914,59858.6194895585,65236.8023237830,11270.5238653992
9350198934,18339,2,0,20018.7085147962,47280.2263957517,50603.4677520336,60022.8590612746,70898.2126369551,57252.3840039621,58895.0474104529,59819.5855181505,65239.2845339348,11273.9308205096
9350198934,18339,2,0,19887.1757121402,47262.6319061457,50585.9097655181,60027.0447489816,70897.3365627838,57238.0626248015,58903.1875996274,59836.0240765583,65246.0619410652,11269.2827603233
9350198934,18339,2,0,20000.8220004664,47295.5090229613,50613.4330957316,60042.3030407976,70929.0820837949,57227.1482007513,58911.8509997654,59865.1413750556,65244.8938421702,11262.8095456134
9350198934,18339,2,0,20208.5975914150,47343.1455560231,50653.6960045187,60056.0647059044,70961.2899772852,57240.3379841073,58919.2002886464,59884.1716528867,65244.2489542386,11267.7861336140
9350198934,18339,2,0,20271.5167516864,47350.9815527771,50662.0552122361,60053.3148064224,70960.5355800822,57245.9716277364,58917.7036619372,59875.5569235360,65244.6504882338,11277.6054649501
9350198934,18339,2,0,20086.6164307650,47308.2851046254,50616.2073306073,60033.5909698724,70922.5601982978,57263.3470987995,58909.5634727626,59839.2728516100,65244.9668483511,11285.9160018802
9350198934,18339,2,0,19877.3442131072,47278.1335518982,50579.5582277766,60027.7383077006,70905.4159134742,57272.3998652358,58916.6694077072,59828.5896137995,65259.2760598149,11285.3197847359
9350198934,18339,2,0,19967.7502005017,47314.2594437655,50617.2172494436,60055.7605134838,70944.3768787013,57253.8927983681,58938.4617527171,59876.5546746755,65274.5343516309,11279.1507624467
9350215737,18340,2,0,20234.8189780684,47363.2100880842,50668.7839485792,60069.8263710111,70978.4829328960,57232.1247887519,58941.1994845023,59905.6598054760,65261.8799469350,11271.8379766561
9350215737,18340,2,0,20284.1224855950,47349.3754167965,50655.8131837659,60040.6847371202,70954.1110361597,57245.3389075016,58910.9505902005,59863.5352390749,65237.6905656510,11266.8735563523
9350215737,18340,2,0,20073.1467903820,47298.2102516560,50604.8913725619,60013.5021024177,70908.6160177387,57255.6936174979,58891.3727660123,59820.7292816518,65232.9208284964,11269.0150709931
9350215737,18340,2,0,19901.1198926992,47273.3029762595,50584.1819525693,60021.0095713575,70900.0499591753,57254.9148849012,58901.0095818961,59829.0641539756,65245.3197115590,11271.8866474434
9350215737,18340,2,0,19951.4454867589,47298.6117856512,50606.4488377553,60040.3562093059,70928.5467051346,57249.2812412722,58918.0200220546,59862.5131525418,65250.9898582785,11270.0614929199
9350215737,18340,2,0,20169.2107567991,47351.5656022246,50655.2778051057,60059.2161393815,70971.2066501959,57251.2645758544,58932.6577613326,59894.8913937877,65258.4608241278,11273.3102679716
9350215737,18340,2,0,20305.8296567271,47371.2772710778,50680.6109498911,60062.5622560078,70977.1444862455,57252.5908548081,58933.0714630246,59896.8747283698,65256.5626634234,11275.7073042458
9350215737,18340,2,0,20158.3206681426,47329.6759156402,50645.5071445569,60044.5418970130,70936.9667513361,57266.5958738513,58919.6261580352,59851.1120206187,65250.2476287723,11284.3463689901
9350249660,18341,2,0,19907.7391197709,47281.9542087006,50596.6538418128,60031.3034428697,70903.8949513714,57270.8545677393,58912.4228815160,59820.2425737789,65253.7519254573,11287.0110945943
9350249660,18341,2,0,19926.9275776607,47303.1746719598,50618.7382115464,60052.6212477035,70933.6814731939,57253.0410595905,58931.5626686185,59860.1891224486,65267.8664537719,11280.7812338209
9350249660,18341,2,0,20178.1053431767,47353.7071168655,50672.8479593181,60071.4325069917,70972.7154446019,57239.6809284789,58943.1706513876,59899.9288202724,65265.9926284612,11273.8699820255
9350249660,18341,2,0,20291.9584823490,47364.8648948521,50677.2891686584,60063.2314793331,70969.1138063423,57253.5521028571,58934.6289282179,59880.1806483287,65253.8370993351,11274.8068946809
9350249660,18341,2,0,20149.6451003078,47330.5519898114,50636.1623533969,60044.6270708908,70935.2146029936,57265.7806381641,58922.9479392679,59847.3156992100,65254.3481426016,11282.4847113761
9350249660,18341,2,0,19949.7055061133,47293.8907192839,50600.4744986152,60037.2899497066,70912.1811529078,57264.1988375771,58919.8573442749,59839.0660007640,65261.7947730573,11284.0543442663
9350249660,18341,2,0,19916.7797185104,47295.6063645359,50604.8913725619,60042.1326930421,70922.0004842439,57257.0442318452,58924.6149137326,59853.9227585848,65265.6762683438,11272.4098584068
9350249660,18341,2,0,20105.9022302294,47339.5560854604,50649.7293353545,60059.6663441639,70957.6031651478,57241.9319523912,58934.1057172545,59889.1482408872,65265.3477405296,11262.7365394325
9350311324,18342,2,0,20291.8368053807,47363.0640757223,50675.5370203159,60060.6397599098,70967.9457074473,57230.3604727125,58932.3535689120,59900.0139941501,65252.2187956576,11260.2421615838
9350311324,18342,2,0,20190.1026922441,47323.1540301431,50637.4277938665,60037.0100926796,70927.4881155110,57249.8287876292,58917.9591835705,59855.2003667512,65240.1606081061,11265.4742712177
9350311324,18342,2,0,19927.6576394701,47275.0186215115,50588.4771495478,60024.2096756219,70893.9782784607,57273.7748149768,58913.9438436189,59825.6206957747,65250.9290197944,11271.4364426609
9350311324,18342,2,0,19889.9986178031,47289.8145408482,50604.8061986842,60045.3936357906,70921.3434286155,57264.7463839342,58932.9254506627,59862.8903511433,65273.9016313961,11271.4729457514
9350311324,18342,2,0,20109.9662409682,47340.4199919348,50657.5166613211,60064.5820936804,70965.1228017844,57253.7346183094,58943.5235145955,59905.0027498475,65273.2202403740,11268.6987108758
9350311324,18342,2,0,20273.0620491829,47364.2808454046,50678.1530751329,60059.0822947164,70973.2751586558,57261.3759319142,58934.6654313084,59895.4876109320,65263.9241200013,11266.7275439904
9350311324,18342,2,0,20203.4141525684,47339.0450421938,50652.2115455063,60042.9235933356,70943.8658354347,57263.8459743693,58923.9213550137,59863.6204129527,65260.5658356782,11270.8280578198
9350311324,18342,2,0,19995.8697478595,47291.9438877922,50606.3028253934,60030.2083501556,70908.4821730736,57254.2334938792,58918.2755436879,59836.3282689788,65259.5194137514,11270.0493252231
9350315639,18343,2,0,19881.8097578412,47271.5994987043,50585.6785792785,60025.7914762089,70900.1716361436,57245.0468827778,58919.2976302210,59833.5053633159,65253.5450746113,11263.0163964594
9350315639,18343,2,0,20036.4003459767,47314.9773378780,50625.3331032245,60051.6843350481,70942.2718671509,57237.3812337794,58938.7781128345,59875.1188864504,65259.9696185338,11260.4490124298
9350315639,18343,2,0,20273.8286140828,47357.6981214234,50672.9209654990,60068.0498872750,70970.0142159072,57229.7277524777,58945.3973399062,59899.7949756073,65253.6910869732,11259.6824475300
9350315639,18343,2,0,20231.4120229580,47331.4402316795,50649.2912982688,60043.1791149689,70939.3029491261,57247.3709128710,58924.8826030627,59856.3684656462,65239.5522232649,11260.9722233932
9350315639,18343,2,0,19965.0489718070,47272.9379453548,50587.7470877384,60018.9897336849,70894.6840048764,57254.9392202949,58907.0812626108,59812.3335708440,65241.4503839693,11262.3471731342
9350315639,18343,2,0,19866.9895031109,47267.7666742050,50581.3468792095,60032.8487403662,70904.6736839680,57244.9860442937,58919.0542762845,59838.7374729498,65256.1002909441,11264.7320417115
9350315639,18343,2,0,20038.7000406763,47310.5847993250,50623.6417933661,60055.5658303346,70945.3381267503,57234.4488188450,58933.2661461737,59881.1662317714,65260.1399662894,11265.9366436969
9350315639,18343,2,0,20235.1110027922,47345.6399338719,50657.2003012037,60061.7956911080,70968.7731108313,57242.7350203815,58932.5725874548,59890.1581597235,65256.8790235408,11268.5161954234
9350341893,18344,2,0,20242.9104964557,47339.2032222525,50653.0632842839,60052.7550923685,70956.4107308592,57254.2578292728,58926.4035651656,59872.4054900589,65255.7109246458,11273.1155848225
9350341893,18344,2,0,20049.4076138804,47292.5279372397,50613.0315617365,60036.5355525035,70920.4795221410,57264.3813530295,58916.8032523723,59845.6730601389,65254.2021302398,11273.2615971844
9350341893,18344,2,0,19877.5023931659,47266.1362028307,50585.8854301245,60032.4472063710,70907.9346267166,57269.4431149078,58916.6085692231,59839.6865533020,65261.2228913066,11269.3922695947
9350341893,18344,2,0,19986.7683106359,47306.6546332511,50623.9946565739,60055.6023334251,70948.1001939291,57250.9847188274,58933.5216678070,59885.5587703245,65273.5122650978,11264.6225324401
9350341893,18344,2,0,20247.8505813658,47358.9635618930,50678.5546091280,60070.6537743951,70984.7127936694,57240.3258164105,58941.8322047371,59922.6215748472,65269.4969251462,11263.0772349436
9350341893,18344,2,0,20269.5334171043,47346.7350265859,50667.4698373223,60049.7618389501,70960.8154371091,57256.0221453121,58922.4368960013,59886.5808568576,65253.1922114035,11263.0650672467
9350341893,18344,2,0,20036.1569920403,47295.7037061105,50615.4529334042,60026.2903517786,70916.7562069132,57276.9870869381,58908.2736968994,59843.9330794932,65256.9276943281,11268.3215122742
9350341893,18344,2,0,19889.7187607761,47278.4499120156,50600.0973000137,60032.9095788503,70911.8282896999,57270.3556921695,58917.8496742991,59859.1061974314,65270.6163532539,11271.0592440594
9350373447,18345,2,0,19994.7746551454,47310.5847993250,50632.6945598023,60051.1246209942,70945.0582697234,57269.0780840031,58934.8601144575,59896.7652190984,65276.0066429465,11273.8456466319
9350373447,18345,2,0,20204.0347051064,47357.5886121520,50678.2139136170,60063.6573487219,70978.3490882310,57270.1123382331,58944.0345578620,59920.6504079618,65277.7222881985,11276.9240739281
9350373447,18345,2,0,20281.9566355605,47363.8306406222,50684.3586005126,60057.9385312151,70975.6965303235,57263.4079372836,58940.8101182040,59911.9140016430,65272.4050046869,11280.8907430923
9350373447,18345,2,0,20109.6742162445,47313.2616926260,50637.0140921745,60030.6463872412,70929.3741085186,57264.1745021835,58921.4756479523,59869.3635658531,65262.3301517175,11282.7280653126
9350373447,18345,2,0,19881.9436025063,47267.0974508798,50587.6984169511,60015.4245985157,70899.2468911850,57279.2502785471,58913.9803467094,59844.9795014200,65266.2116470040,11281.4747925398
9350373447,18345,2,0,19938.0853556473,47296.1904139834,50615.4772687979,60040.1493584600,70934.5332119715,57266.7053831227,58936.3080703795,59888.1139866573,65282.1026590548,11279.9294950433
9350373447,18345,2,0,20209.8751995814,47351.6264407087,50678.9318077295,60063.6330133282,70979.6875348815,57250.8752095560,58951.8705546160,59929.4719881585,65279.4501011474,11276.6928876884
9350373447,18345,2,0,20297.0689150146,47350.7381988407,50679.1386585755,60048.9709386566,70966.7411054619,57259.7576282368,58938.2792372648,59899.5394539740,65261.1012143384,11279.0169177816
9350422491,18346,2,0,20104.6367897598,47303.1625042630,50630.0176665013,60025.6819669375,70924.9450668751,57275.3809509574,58922.1448712776,59852.5964796311,65258.8623581230,11283.9570026917
9350422491,18346,2,0,19916.7432154199,47271.8550203375,50603.5650936082,60027.6774692164,70911.8282896999,57270.8302323456,58926.9389438258,59852.0002624868,65269.3387450875,11286.0863496357
9350422491,18346,2,0,19943.2079560098,47289.1939883102,50621.5732849062,60042.0961899516,70934.7643982112,57266.7905570004,58938.7537774409,59879.1707294924,65273.1837372836,11285.3319524327
9350422491,18346,2,0,20145.9461204737,47335.6624224770,50665.1336395323,60059.9827042813,70969.3084894915,57258.6138647354,58950.5321079655,59905.5867992950,65271.8939614203,11282.1196804715
9350422491,18346,2,0,20292.0314885299,47352.6728626355,50681.6452041210,60059.6298410735,70973.2386555653,57245.6796030126,58948.0498978136,59904.7593959111,65263.5347537030,11275.2570994633
9350422491,18346,2,0,20165.9254786569,47307.0561672463,50638.2430295536,60033.6153052660,70926.8188921858,57256.8860517866,58928.8614399238,59857.9137631428,65253.8249316383,11272.6288769496
9350422491,18346,2,0,19911.0852363972,47257.3632934214,50581.0913575762,60019.8536401593,70891.4352298247,57270.7693938615,58918.9204316195,59826.3629252809,65257.6699238343,11271.1809210276
9350422491,18346,2,0,19899.8544522297,47275.2984785384,50593.1008743405,60040.6604017265,70914.1158167026,57252.5056809303,58930.9542837774,59861.3937244341,65269.9714653223,11270.4630269151
9350433463,18347,2,0,20145.4350772071,47327.9724380849,50645.8478400679,60061.3576540223,70954.5855763358,57231.8327640281,58939.3743299789,59902.6787197544,65264.6785172043,11266.2043330270
9350433463,18347,2,0,20282.6136911889,47342.6223450598,50658.8916110621,60052.1345398305,70954.0988684628,57252.1649854193,58929.7861848824,59886.5930245544,65250.8195105230,11271.5216165387
9350433463,18347,2,0,20158.0408111157,47310.5117931440,50626.8662330242,60037.0587634669,70923.7161294959,57266.7418862131,58921.1471201381,59852.5599765407,65255.1147075015,11281.3652832684
9350433463,18347,2,0,19952.3580640207,47268.9226054032,50587.0413613227,60028.3466925417,70897.6529229012,57255.2312450186,58912.9582601763,59837.8979018690,65258.5338303087,11279.1264270530
9350433463,18347,2,0,19902.8720410418,47270.0055304204,50587.6132430733,60034.2480255008,70906.5231738851,57255.1095680504,58919.4679779765,59854.0322678562,65265.4815851946,11275.4761180061
9350433463,18347,2,0,20081.2748118597,47318.2382806266,50630.8815729757,60052.3900614638,70946.0438531660,57249.7192783578,58933.1566369023,59887.2257447892,65266.5401748182,11272.5923738591
9350433463,18347,2,0,20287.5781114927,47356.8220472521,50674.0768966972,60061.7956911080,70969.5518434280,57248.6120179470,58940.7006089326,59905.3921161459,65262.8655303777,11272.2151752576
9350433463,18347,2,0,20220.6557789665,47326.8773453709,50648.2935471294,60040.5873955456,70936.4557080696,57264.8193901151,58926.7929314639,59865.6524183221,65253.0096959511,11276.0114966663
9350486706,18348,2,0,19953.7330137616,47270.0907042982,50588.3919756700,60015.8748032982,70892.8101795657,57277.7536518379,58912.5445584843,59823.5400196179,65257.2318867487,11278.7370607547
9350486706,18348,2,0,19882.1869564427,47273.0839577166,50591.3730613916,60030.5612133635,70909.6137688782,57260.0739883542,58925.8803542022,59853.7645785261,65272.9768864376,11278.0921728231
9350486706,18348,2,0,20089.4028333375,47323.7015765001,50643.7306608208,60052.3170552829,70954.2935516120,57238.4519910998,58939.3134914947,59897.4466101205,65270.0323038064,11273.0182432479
9350486706,18348,2,0,20265.7735987860,47351.4804283469,50665.3769934688,60046.3062130524,70967.2764841221,57241.7129338483,58930.5649174790,59892.7620468437,65253.6180807923,11267.8591397950
9350486706,18348,2,0,20202.8179354241,47326.1716189551,50636.4422104238,60022.9320674555,70935.7499816538,57245.6674353158,58910.9262548068,59857.2810429080,65245.1980345908,11262.2619992564
9350486706,18348,2,0,19994.5799719963,47282.3192396053,50592.5533279835,60010.7278675421,70901.2058903735,57255.4380958646,58903.5769659258,59836.1092504360,65248.0452756474,11261.7022852026
9350486706,18348,2,0,19878.7678336355,47274.7996029687,50583.8777601487,60022.8955643650,70904.7831932394,57275.0280877496,58917.3507987293,59848.7758228287,65263.1818904951,11270.5847038833
9350486706,18348,2,0,20026.2524868264,47330.6249959923,50638.6080604583,60058.4617421785,70957.2137988495,57278.5810552219,58945.8232092950,59900.4155281453,65285.9963220381,11277.4716202851
9350497144,18349,2,0,20274.0963034129,47374.6598907946,50691.7078893936,60075.1558222196,70992.3784426678,57252.7246994731,58958.3681047195,59929.5084912489,65282.7718823800,11275.8289812140
9350497144,18349,2,0,20261.1620416901,47347.6232684540,50663.4058265834,60050.3093853071,70960.9614494710,57260.2808392002,58939.6663547026,59887.0675647305,65260.3589848322,11275.0745840110
9350497144,18349,2,0,19997.3055360846,47287.2349891217,50594.8043518957,60022.5305334603,70910.4411722621,57273.5436287372,58921.5851572237,59837.0096600009,65256.1002909441,11278.5302099087
9350497144,18349,2,0,19868.7294837566,47275.3228139321,50582.7948351315,60031.1695982046,70912.7530346585,57267.8978174113,58931.1976377138,59855.0786897830,65270.1783161683,11280.6473891559
9350497144,18349,2,0,20021.0933833735,47314.7096485479,50627.9248226478,60051.6356642608,70947.0416043055,57250.5345140450,58944.7889550651,59895.9621511081,65271.8817937235,11277.8853219771
9350497144,18349,2,0,20220.2420772745,47345.5790953877,50656.3607301230,60050.6135777277,70961.6671758867,57245.3267398048,58938.5712619885,59895.3781016606,65256.3923156679,11268.7230462694
9350497144,18349,2,0,20238.8099826264,47333.6790878949,50646.6995788456,60036.7910741368,70945.2894559630,57254.3430031506,58924.6270814295,59867.2220512123,65248.8361759409,11268.5526985139
9350497144,18349,2,0,20055.2846114459,47285.8600393807,50608.4200046406,60019.0992429563,70905.1117210537,57258.2853369212,58910.2083606943,59833.3471832572,65247.9235986791,11268.1024937314
9350540876,18350,2,0,19875.0688538013,47252.0825130003,50577.1855268961,60010.3871720310,70890.6808326217,57267.1799232988,58904.4652077938,59822.6274423562,65253.2165467971,11267.0560718047
9350540876,18350,2,0,19961.8975383298,47291.9682231859,50609.3690849928,60037.4237943716,70931.8684863673,57257.5917782023,58924.5662429453,59868.2563054422,65269.4360866621,11272.6045415559
9350540876,18350,2,0,20226.6179504098,47346.6863557986,50664.7929440213,60058.2183882420,70970.8781223817,57236.1766317939,58935.8091948097,59910.2226917846,65265.2869020455,11272.5680384654
9350540876,18350,2,0,20285.5704415169,47339.4952469763,50659.4999959033,60042.4125500690,70950.8744288047,57249.6949429642,58921.4026417714,59879.8156174240,65247.8019217109,11277.3864464073
9350540876,18350,2,0,20063.2422851681,47285.2029837523,50603.9787953002,60016.8968898313,70905.7931120758,57270.5382076219,58903.6621398035,59831.5098610370,65246.4269719699,11282.4603759825
9350540876,18350,2,0,19896.5935094811,47260.4538884144,50583.0868598552,60019.9996525212,70900.4879962609,57266.2430106434,58910.0380129387,59838.6766344657,65262.7803564999,11280.7934015178
9350540876,18350,2,0,19984.3226035745,47292.6496142079,50617.0834047785,60042.9844318197,70933.4746223479,57262.8117201393,58925.2354662706,59874.1819737950,65272.0034706917,11276.9605770185
9350540876,18350,2,0,20200.0437005485,47341.1500537442,50660.3517346809,60062.2823989809,70966.3517391635,57265.3912718658,58933.8136925308,59897.7021317538,65273.0742280121,11276.0236643632
9350589379,18351,2,0,20296.4483624766,47349.6066030361,50664.5495900848,60055.2007994299,70962.0200390946,57257.2267472976,58924.0065288915,59885.3154163880,65262.2693132334,11275.8046458204
9350589379,18351,2,0,20144.4008229771,47301.9335668838,50622.1816697473,60031.9361631045,70919.6156156666,57257.5066043245,58904.9275802731,59842.6068005395,65247.3517169284,11273.2981002748
9350589379,18351,2,0,19912.2168322018,47254.4673815776,50575.8105771551,60019.3912676800,70890.5469879566,57266.6567123354,58898.2596824141,59819.2691580331,65245.0885253194,11272.0569951989
9350589379,18351,2,0,19939.5211438725,47280.9321221674,50600.4866663120,60045.5518158493,70926.4416935843,57261.7531305157,58921.2079586222,59863.8515991923,65259.1178797562,11274.8799008618
9350589379,18351,2,0,20207.9892065738,47344.3136549182,50661.2764796394,60072.4545935249,70976.2562443774,57246.8355342108,58937.2328153380,59916.4160494675,65262.5735056539,11274.0281620842
9350589379,18351,2,0,20320.8810976971,47350.9328819898,50667.5915142905,60058.8511084768,70968.8947877995,57253.6859475221,58920.7212507493,59891.8373018851,65243.5675632165,11271.0592440594
9350589379,18351,2,0,20138.8766886195,47304.1237523120,50620.1253289842,60032.0091692854,70924.3001789434,57268.6522146143,58900.2430169963,59842.7649805982,65239.2236954507,11272.7870570083
9350589379,18351,2,0,19938.4747219457,47269.7743441808,50594.0621223895,60030.1718470651,70907.1923972104,57270.4043629568,58903.2119350211,59841.2683538890,65252.0727832957,11274.0403297810
9350600030,18352,2,0,19951.9443623287,47284.3269095810,50608.8823771198,60042.0718545580,70929.6174624551,57257.4092627499,58916.8275877659,59869.3392304595,65256.6235019075,11272.8843985828
9350600030,18352,2,0,20147.3454056083,47331.0873684716,50647.2957959899,60056.2350536599,70965.0497956035,57251.3619174289,58930.4675759045,59897.4101070300,65258.3756502500,11273.2494294875
9350600030,18352,2,0,20309.1149348693,47355.6052775698,50670.7672831613,60055.6753396060,70975.8547103822,57245.6187645285,58931.5870040122,59903.2506015050,65251.9511063275,11276.6442169011
9350600030,18352,2,0,20211.0067953859,47316.8998339761,50633.4611247022,60030.9384119650,70932.6958897513,57249.4272536341,58911.6684843130,59861.3815567373,65239.4062109031,11274.9650747396
9350600030,18352,2,0,19949.7906799910,47258.8355847370,50570.8096537609,60010.4115074247,70886.1179463131,57258.7842124909,58898.0163284777,59817.9307113826,65237.7757395288,11268.9664002059
9350600030,18352,2,0,19904.1253138145,47266.6229107037,50574.8493291061,60027.0082458912,70902.6416785986,57253.3939227984,58910.2448637847,59844.1642657328,65251.4522307578,11266.0339852715
9350600030,18352,2,0,20140.4463215097,47323.3243778986,50636.3692042429,60055.8821904520,70952.2615462426,57243.4042437067,58926.6590867989,59895.9621511081,65255.7109246458,11264.9753956479
9350600030,18352,2,0,20303.7124774799,47345.4817538132,50659.0619588177,60053.7893465985,70959.1241272507,57256.7522071215,58919.8695119717,59887.7976265399,65246.0619410652,11269.4896111692
9350619609,18353,2,0,20193.8016720783,47309.9277436965,50624.7247183833,60033.4449575105,70924.6773775450,57270.9397416170,58903.2727735052,59845.6365570484,65243.1781969182,11273.5779573018
9350619609,18353,2,0,19985.7948948901,47266.7202522783,50590.8376827314,60021.8613101351,70898.0057861091,57276.0745096763,58901.4719543754,59829.1614955501,65255.3458937411,11270.6090392770
9350619609,18353,2,0,19917.3029294738,47262.4980614807,50591.3365583012,60024.7207188885,70907.3749126627,57273.1907655293,58905.6454743857,59840.6478013510,65268.2923231607,11267.0195687142
9350619609,18353,2,0,20076.2738884655,47308.8691540729,50637.6711478029,60045.1259464605,70945.3381267503,57273.3124424975,58921.1592878349,59876.6520162501,65276.8218786336,11266.7397116873
9350619609,18353,2,0,20293.2360905154,47349.6066030361,50679.0291493041,60062.1363866190,70972.8614569638,57254.4403447251,58931.9885380073,59903.2992722923,65270.8718748872,11270.2926791596
9350619609,18353,2,0,20256.3071306577,47323.4460548668,50652.7712595602,60045.7221636049,70942.1015193954,57260.4511869557,58917.9591835705,59868.2563054422,65253.1800437066,11276.9362416249
9350619609,18353,2,0,19987.6200494135,47262.6927446299,50590.5213226140,60018.1501626041,70895.1220419620,57277.4007886300,58898.4908686538,59821.1551510406,65249.3107161169,11278.4815391214
9350619609,18353,2,0,19883.6227446679,47257.9595105657,50583.0990275520,60027.9938293338,70905.6714351075,57277.1330992999,58909.3322865230,59845.7460663198,65269.3874158748,11277.0700862899
9350699865,18354,2,0,20081.0192902264,47307.8835706303,50631.6359701788,60051.4288134148,70950.8379257143,57258.7233740068,58924.4689013708,59897.3736039396,65275.9458044624,11274.2715160207
9350699865,18354,2,0,20277.2355691932,47340.5903396903,50659.2444742700,60055.6145011219,70969.0286324646,57264.6733777532,58923.0574485393,59901.6322978276,65267.5865967450,11279.7956503783
9350699865,18354,2,0,20237.1308404648,47320.9638447149,50641.7351585418,60039.2732842887,70945.5936483836,57275.0524231432,58912.6784031493,59867.0152003663,65260.6875126464,11283.2999470633
9350699865,18354,2,0,20036.7288737909,47273.9113611006,50601.8372806594,60023.7838062331,70912.6070222966,57275.2227708987,58905.3412819651,59841.9862480015,65259.3247306022,11281.1584324224
9350699865,18354,2,0,19903.1518980687,47254.4430461839,50585.0945298310,60027.3246060086,70908.0319682912,57273.6044672213,58910.2691991784,59842.4851235713,65261.5514191208,11280.6230537622
9350699865,18354,2,0,20019.1830549723,47293.0876512936,50618.8477208178,60050.6257454245,70944.6932388187,57261.5827827602,58924.8826030627,59878.5258415608,65268.7425279432,11277.0822539868
9350699865,18354,2,0,20270.3121497010,47340.5903396903,50664.5374223880,60067.6361855830,70977.3026663042,57242.0657970562,58929.6766756110,59906.1586810457,65261.9651208128,11274.8433977713
9350699865,18354,2,0,20294.3798540167,47323.9814335270,50650.3863909829,60049.9930251897,70952.7847572060,57249.8287876292,58911.1331056528,59868.5604978628,65239.9172541696,11276.8023969598
9350728766,18355,2,0,20045.4896155035,47267.1339539702,50590.4969872204,60024.1731725314,70903.1040510779,57270.1366736267,58893.6359576214,59814.6332655435,65236.6198083306,11280.0025012243
9350728766,18355,2,0,19889.4875745365,47249.6733090293,50574.7033167442,60031.9726661949,70901.7412690337,57260.3660130779,58903.0659226592,59827.6527011441,65251.4765661514,11275.1962609792
9350728766,18355,2,0,20020.7891909529,47287.2106537281,50616.9008893262,60054.0448682318,70937.6724777519,57240.4839964692,58916.6085692231,59869.6555905769,65251.8781001466,11270.2926791596
9350728766,18355,2,0,20223.5516908104,47322.0711051258,50650.0213600782,60052.4387322511,70955.5224889911,57235.6047500432,58908.3832061708,59872.5880055112,65236.4494605751,11265.2309172812
9350728766,18355,2,0,20256.4288076260,47315.0990148463,50638.9365882725,60036.7545710464,70941.6148115225,57242.1144678435,58892.6990449661,59845.7095632293,65226.9221539627,11268.7960524503
9350728766,18355,2,0,20089.8895412104,47277.4643285729,50602.6160132560,60023.4309430252,70912.2176559983,57256.0951514931,58881.4195900112,59819.8167043901,65230.7306430683,11279.1020916594
9350728766,18355,2,0,19905.0743941667,47253.1045995334,50571.6492248416,60024.4773649520,70898.9061956740,57266.9852401496,58884.9482220898,59813.6963528882,65240.8541668250,11286.1106850294
9350728766,18355,2,0,19962.5545939583,47284.4485865493,50598.7831887568,60047.4621442505,70933.4624546511,57256.8373809993,58904.1975184637,59850.2481141443,65252.8028451051,11285.9768403643
9350734703,18356,2,0,20226.2285841114,47341.6367616171,50659.2079711795,60069.5951847715,70976.2319089838,57236.5173273049,58917.0952770961,59893.7476302863,65248.2156234029,11280.8177369114
9350734703,18356,2,0,20312.9599270654,47340.3226503602,50659.0497911208,60058.2792267261,70963.2368087769,57239.9607855058,58903.5404628353,59867.6357529043,65228.3822775815,11278.0435020358
9350734703,18356,2,0,20097.9323888103,47286.6266042806,50598.7466856663,60028.9307419892,70914.9188846930,57257.7134551705,58884.5710234883,59813.2461481057,65220.3515976783,11276.3035213901
9350734703,18356,2,0,19902.5921840148,47254.9419217536,50569.6902256531,60026.9717428007,70901.3884058258,57255.6084436201,58888.8418850732,59817.2249849668,65232.5071268045,11269.8303066803
9350734703,18356,2,0,19971.1693233089,47280.5062527786,50600.8273618231,60046.0506914191,70931.8198155800,57250.6440233164,58907.7869890265,59859.1913713092,65242.5819797739,11263.7464582688
9350734703,18356,2,0,20182.7169002726,47330.7588406574,50645.1421136522,60065.1418077343,70967.7631919950,57259.7697959336,58923.1547901139,59889.6471164570,65247.8505924982,11270.8888963039
9350734703,18356,2,0,20297.5799582812,47348.7183611681,50665.0606333514,60068.1837319400,70974.6622760936,57267.9464881986,58925.6491679626,59890.3163397822,65247.6802447427,11276.6807199916
9350734703,18356,2,0,20170.1720048481,47311.5095442835,50635.7851547954,60047.9488521235,70938.3417010771,57270.3921952600,58912.3133722446,59859.3982221551,65247.9479340728,11276.0723351505
9350768339,18357,2,0,19929.5558001745,47258.7990816465,50588.2337956113,60027.5314568546,70901.7777721242,57278.8000737647,58903.0659226592,59826.2412483126,65248.7875051536,11271.6311258101
9350768339,18357,2,0,19914.8693901092,47275.8825279859,50605.9621298823,60042.4490531595,70928.0721649586,57275.6121371971,58922.0110266125,59860.3594702042,65268.0124661338,11271.0835794531
9350768339,18357,2,0,20166.3270126521,47332.5718274840,50668.8934578506,60066.7357760181,70975.3923379030,57260.8527209508,58938.9727959837,59910.9284182003,65272.7822032884,11266.8248855650
9350768339,18357,2,0,20309.2487795344,47345.3844122386,50684.3829359062,60060.1530520369,70976.5847721916,57271.3412756122,58926.7442606766,59900.0139941501,65258.7528488515,11271.6067904164
9350768339,18357,2,0,20151.0322177457,47301.5442005855,50636.4787135143,60033.5666344787,70934.8739074826,57284.3363758191,58903.4066181702,59850.2967849316,65254.1777948461,11280.2215197671
9350768339,18357,2,0,19939.4846407820,47262.7170800235,50597.8706114951,60026.2538486882,70911.1103955874,57281.4404639752,58899.1965950695,59837.6667156294,65262.3179840207,11279.9294950433
9350768339,18357,2,0,19928.4485397636,47271.5751633106,50606.4245023616,60039.9060045235,70928.2060096236,57274.1520135783,58908.3101999899,59861.7344199452,65267.3797458990,11277.5567941629
9350768339,18357,2,0,20111.3046876187,47316.2427783476,50645.9451816425,60059.9096981004,70963.1516348991,57269.4431149078,58918.0565251451,59889.7201226379,65266.9538765102,11276.7172230821
9350811093,18358,2,0,20278.2211526359,47340.6268427808,50669.7330289314,60063.2071439394,70970.5860976579,57258.8085478846,58914.8442531838,59892.3848482421,65259.6775938101,11272.2030075608
9350811093,18358,2,0,20204.3997360111,47311.1688487725,50640.2993703167,60043.8970090814,70937.5629684804,57263.5052788582,58896.8482295827,59857.8164215682,65252.0484479021,11273.6509634827
9350811093,18358,2,0,19944.2422102398,47258.0690198371,50578.6943213021,60019.6467893133,70895.4140666858,57277.5711363856,58881.6872793413,59818.8432886443,65250.2476287723,11271.6554612037
9350811093,18358,2,0,19875.1053568918,47266.2213767085,50583.5248969408,60038.2998685429,70916.0991512848,57281.1241038579,58903.2849412020,59849.2990337921,65267.2945720213,11273.4562803335
9350811093,18358,2,0,20110.1000856333,47330.0287788480,50655.1074573502,60074.8516297990,70974.2364067048,57268.1533390446,58932.0737118851,59909.6264746403,65279.9003059298,11274.5392053508
9350811093,18358,2,0,20299.1739265650,47355.6661160540,50680.4527698324,60069.9358802825,70984.3355950678,57261.7652982126,58924.8217645786,59904.5282096714,65264.3134862996,11273.8213112382
9350811093,18358,2,0,20201.1144578689,47318.5789761376,50636.0163410350,60038.5918932666,70942.5273887842,57270.9154062234,58900.1700108153,59855.3098760226,65250.3328026501,11271.8501443529
9350811093,18358,2,0,19989.6033839957,47275.8581925923,50592.5168248930,60025.4507806978,70912.5218484188,57272.8379023214,58892.3583494550,59835.5495363822,65253.3503914622,11274.1376713556
9350818363,18359,2,0,19909.3817588420,47269.8595180586,50587.2238767750,60029.4174498621,70916.3668406149,57271.5724618518,58895.7774722623,59846.7073143688,65254.9200243523,11273.3832741526
9350818363,18359,2,0,20055.9294993775,47314.8069901225,50628.6913875476,60051.0759502070,70956.4228985560,57269.6499657538,58912.3620430319,59882.5898522997,65261.8191084509,11273.6509634827
9350818363,18359,2,0,20275.2522346111,47356.4448486506,50672.2030713864,60064.6429321645,70986.4406066182,57254.0144753363,58919.0786116782,59904.2118495540,65258.8015196388,11268.1024937314
9350818363,18359,2,0,20261.0647001155,47332.7421752395,50651.8100115112,60046.6590762602,70957.1894634559,57258.0298152879,58901.6909729182,59870.7020125037,65240.1362727124,11263.1380734277
9350818363,18359,2,0,20002.5254780216,47275.2254723575,50589.9616085602,60026.3268548691,70911.2929110397,57277.4616271141,58889.7787977285,59826.2534160095,65238.3719566731,11268.4431892425
9350818363,18359,2,0,19870.8344953069,47266.4890660386,50576.2242788471,60039.3706258633,70917.5227718131,57270.0758351426,58906.7527347966,59844.0912595519,65254.0439501811,11272.1178336830
9350818363,18359,2,0,20048.8357321298,47316.6808154333,50626.0023265497,60069.4613401064,70964.3684045814,57253.4790966761,58928.9222784079,59896.7165483111,65256.6113342107,11271.7893058688
9350818363,18359,2,0,20257.7307511860,47350.8963788994,50661.0087903093,60074.3527542292,70983.8245518013,57252.0554761478,58926.9511115226,59904.2118495540,65245.7577486446,11274.4661991698
9350841977,18360,2,0,20233.6387114766,47333.6060817140,50642.9762636177,60054.4342345301,70957.3111404241,57263.3227634059,58912.0213475209,59868.1832992613,65236.8144914798,11273.9673236001
9350841977,18360,2,0,20036.5585260354,47290.4107579925,50600.5475047961,60042.8870902451,70925.4682778384,57268.5670407366,58904.4773754907,59845.2350230532,65242.3751289279,11271.1200825435
9350841977,18360,2,0,19888.1126247955,47267.7788419018,50571.8804110813,60040.5265570615,70913.2884133187,57260.3051745938,58906.4728777696,59843.8965764027,65244.5531466592,11267.4332704062
9350841977,18360,2,0,19969.1616533331,47295.9957308342,50591.4704029662,60050.3337207007,70935.3362799618,57247.2005651155,58914.0898559808,59868.2076346550,65245.3805500431,11259.5729382585
9350841977,18360,2,0,20211.9802111318,47343.3037360818,50641.1754444879,60060.3720705797,70965.9623728652,57233.5849123706,58920.0033566367,59895.5971202034,65241.9492595391,11256.2754924195
9350841977,18360,2,0,20271.1030499944,47334.5429943693,50642.5138911385,60043.3737981180,70950.2295408731,57256.5453562755,58909.7824913055,59868.2319700486,65231.5093756650,11262.2985023469
9350841977,18360,2,0,20042.6788775374,47279.0704645535,50590.1927947998,60022.7495520031,70907.5452604183,57282.5477243861,58899.1235888886,59821.7270327913,65235.9384173085,11274.1620067493
9350841977,18360,2,0,19869.0945146613,47256.7792439739,50567.7433941615,60029.0767543511,70905.9999629217,57282.5477243861,58910.7194039608,59829.9888989341,65254.3481426016,11276.7050553852
9350916683,18361,2,0,19989.3721977560,47297.6140345117,50608.3956692469,60054.9939485839,70945.0826051170,57267.7396373526,58927.7298441193,59879.4384188225,65265.3599082264,11273.4319449399
9350916683,18361,2,0,20209.2546470434,47342.9022020867,50649.6319937799,60063.7790256901,70975.2828286316,57259.9401436891,58927.6446702415,59894.1248288878,65258.6555072770,11275.0137455269
9350916683,18361,2,0,20259.3368871667,47342.9143697835,50645.0204366840,60054.3125575619,70964.7821062734,57257.9324737133,58914.7834146997,59868.0859576867,65246.8041705714,11278.9925823880
9350916683,18361,2,0,20098.3217551087,47301.8970637934,50606.7408624790,60043.5684812672,70929.4106116091,57265.9631536165,58905.8036544444,59836.7298029740,65242.8861721944,11279.6983088037
9350916683,18361,2,0,19897.8954530412,47263.4593095297,50568.7533129978,60035.9149999656,70904.6006777871,57277.2669439650,58900.5593771137,59819.6585243314,65246.2809596080,11274.2715160207
9350916683,18361,2,0,19925.5404602229,47283.9375432827,50588.1242863399,60050.1025344611,70927.6219601761,57273.4949579499,58912.4715523033,59849.0070090684,65257.5360791693,11268.5526985139
9350916683,18361,2,0,20189.9931829727,47339.9941225460,50645.4828091633,60069.9115448889,70970.9267931690,57251.3740851258,58927.3526455178,59891.7764634010,65260.1399662894,11261.8848006549
9350916683,18361,2,0,20314.8824231634,47342.5250034852,50653.1362904649,60054.7992654348,70962.2147222437,57251.2402404607,58913.6153158047,59874.7295201521,65238.9681738174,11259.8649629823
9350923516,18362,2,0,20116.9018281573,47293.1606574745,50603.2852365813,60026.5093703214,70916.0869835880,57271.6454680328,58897.5052852111,59824.7202862098,65231.6675557237,11269.8181389835
9350923516,18362,2,0,19895.5592552512,47264.8829300580,50578.5483089403,60029.7338099795,70908.4456699831,57277.2791116618,58910.2083606943,59831.9478981226,65250.0286102295,11279.1264270530
9350923516,18362,2,0,19933.9605064244,47290.0213916942,50605.8769560046,60049.7253358596,70935.4701246269,57261.8869751808,58924.4567336739,59871.4442420099,65262.3666548080,11279.6496380164
9350923516,18362,2,0,20148.4526660192,47330.1139527258,50642.3192079893,60061.2116416605,70965.3296526304,57258.2853369212,58929.3968185840,59888.0409804764,65257.2440544455,11274.3566898984
9350923516,18362,2,0,20289.0747382019,47345.7859462337,50654.1097062107,60059.3013132593,70968.0187136283,57254.2699969696,58928.3382289604,59882.7236969647,65251.4522307578,11274.5878761381
9350923516,18362,2,0,20181.1350996856,47307.6767197843,50618.9815654829,60037.4968005526,70933.6328024066,57256.1194868867,58913.7856635602,59851.9394240027,65242.8618368008,11275.1110871014
9350923516,18362,2,0,19927.2926085654,47256.5602254311,50570.4446228562,60017.6269516407,70900.3784869895,57264.0649929121,58902.9564133878,59824.2092429432,65238.6883167905,11276.2791859964
9350923516,18362,2,0,19876.2004496059,47266.3308859799,50578.1102718546,60032.7879018821,70919.5547771825,57263.3836018900,58920.5630706906,59849.2381953080,65251.5252369387,11277.3377756200
9350936034,18363,2,0,20127.8284199043,47321.8277511894,50635.0550929860,60059.9462011909,70967.0574655793,57245.0347150810,58938.9606282869,59893.3704316848,65253.2408821908,11271.3756041768
9350936034,18363,2,0,20314.1158582635,47339.0450421938,50652.3940609587,60052.7307569749,70968.4080799266,57244.7913611445,58930.2607250585,59884.6705284564,65238.8951676365,11266.6788732031
9350936034,18363,2,0,20175.9759962327,47296.9934819737,50605.6092666745,60023.6256261744,70926.5146997652,57264.1866698803,58909.2714480389,59835.9632380742,65230.1344259240,11266.0948237556
9350936034,18363,2,0,19940.1660318041,47259.6508204241,50571.4910447829,60019.4277707705,70906.5596769756,57268.8590654603,58908.7239016819,59830.2687559610,65240.5621421012,11265.6689543668
9350936034,18363,2,0,19903.6264382448,47273.2299700785,50586.9318520513,60039.3462904696,70927.9504879903,57269.0659163063,58924.6270814295,59864.7033379699,65253.7275900637,11264.8537186797
9350936034,18363,2,0,20084.8642824225,47318.8466654677,50627.3651085939,60058.6929284181,70960.5477477790,57263.3349311027,58934.3125681005,59891.2775878313,65255.3945645284,11264.9145571638
9350936034,18363,2,0,20280.7520335750,47350.0811432122,50653.7203399124,60065.8718695436,70975.8060395950,57251.6782775463,58931.9763703105,59897.7629702379,65250.1259518041,11266.3990161762
9350936034,18363,2,0,20237.5688775504,47317.7394050568,50629.3606108729,60046.0750268127,70942.1745255764,57254.1969907887,58911.0600994719,59864.6181640922,65237.1186839004,11267.8469720981
9350965730,18364,2,0,19972.3130868103,47259.3709633972,50574.8006583188,60022.8468935777,70898.5776678597,57273.5557964340,58895.7409691718,59827.2268317553,65234.6608091421,11271.8744797465
9350965730,18364,2,0,19856.0507436671,47257.2781195436,50572.2332742891,60033.8586592025,70909.9544643892,57273.2272686198,58914.6130669442,59847.1696868481,65253.1922114035,11272.1178336830
9350965730,18364,2,0,20067.5131467530,47311.7772336136,50624.8950661388,60062.1242189222,70958.0046991430,57256.3506731263,58935.6023439637,59896.4001881937,65260.3954879226,11269.9884867390
9350965730,18364,2,0,20289.3059244416,47342.3424880328,50650.3985586797,60063.7911933869,70970.0263836041,57246.3488263379,58929.0561230730,59892.1049912152,65244.3949666005,11266.8857240491
9350965730,18364,2,0,20222.6391135487,47311.1080102883,50614.4551822648,60040.3197062155,70937.7941547201,57258.2001630434,58909.4417957944,59842.8014836887,65231.8135680855,11266.0218175747
9350965730,18364,2,0,19992.2072711158,47266.7445876719,50568.0597542789,60026.7892273484,70905.5010873520,57260.4146838652,58903.2484381115,59820.9117971042,65237.7149010447,11267.8469720981
9350965730,18364,2,0,19877.6605732246,47258.9694294020,50562.7668061609,60032.2160201314,70908.6160177387,57265.1722533230,58912.2768691542,59834.8438099664,65246.1227795493,11269.7451328025
9350965730,18364,2,0,20000.8950066474,47296.7014572500,50600.1216354073,60047.1579518300,70940.1303525101,57264.1988375771,58924.9921123341,59860.0674454804,65249.3715546011,11264.0506506894
9351019500,18365,2,0,20237.1795112521,47337.9742848734,50639.9100040183,60055.2007994299,70965.5486711732,57243.5989268559,58929.3359800999,59879.2924064607,65244.6748236274,11257.1393988940
9351019500,18365,2,0,20269.7281002535,47324.6384891555,50631.2101007899,60041.0984388121,70948.6720756798,57248.4538378882,58916.5477307390,59857.3540490889,65232.6774745600,11258.9523857206
9351019500,18365,2,0,20021.8842836669,47270.6504183521,50577.2707007738,60019.4642738609,70908.9688809465,57273.3489455880,58904.2583569478,59819.1109779744,65231.7162265110,11267.8591397950
9351019500,18365,2,0,19848.1174053385,47256.2073622232,50561.0268255152,60024.6112096171,70909.0540548243,57274.8820753877,58916.1705321375,59831.5463641274,65250.4666473151,11271.4486103577
9351019500,18365,2,0,20004.1316140023,47304.8416464245,50611.9851398097,60051.3558072339,70954.6829179103,57259.1127403052,58935.6023439637,59883.3199141091,65261.1133820352,11270.1223314040
9351019500,18365,2,0,20241.4260374433,47344.2284810404,50651.3719744256,60057.4031525549,70973.7862019224,57256.8617163929,58933.6555124721,59890.6813706869,65248.5806543076,11267.5062765871
9351019500,18365,2,0,20252.7298277918,47332.6448336650,50636.1136826096,60041.0619357217,70949.6454914256,57264.7707193278,58918.9082639227,59856.4049687367,65238.1894412208,11270.3778530373
9351019500,18365,2,0,20053.4472892257,47286.1398964077,50592.3221417438,60021.2894283844,70912.1689852110,57257.4092627499,58906.9717533394,59828.5531107090,65234.9163307754,11273.3102679716
9351028543,18366,2,0,19873.3045377620,47255.9153374995,50565.0299977700,60014.8892198555,70898.1517984709,57255.9856422217,58906.2173561363,59822.6517777499,65234.4904613866,11274.1985098397
9351028543,18366,2,0,19933.6684817006,47284.3512449747,50586.3234672101,60033.1407650899,70926.2956812224,57262.8968940171,58925.4179817229,59850.1994433570,65246.4026365763,11275.6951365489
9351028543,18366,2,0,20194.2397091639,47339.5317500667,50640.4332149817,60058.0358727897,70969.3693279756,57256.7035363342,58943.5843530796,59888.5641914397,65251.7564231784,11273.9673236001
9351028543,18366,2,0,20296.5700394449,47342.9752082676,50647.4539760486,60053.4121479970,70963.1759702927,57257.6039458991,58935.7240209320,59874.7295201521,65241.5477255439,11274.7460561968
9351028543,18366,2,0,20073.0981195947,47286.0060517426,50587.4793984083,60024.1123340473,70914.7242015438,57269.8933196903,58912.7392416334,59822.1285667865,65231.0105000952,11275.7316396394
9351028543,18366,2,0,19852.5221115884,47254.8689155727,50554.3710953531,60019.6467893133,70901.1693872830,57269.3336056364,58911.6684843130,59821.4715111580,65241.1583592456,11273.2007587002
9351028543,18366,2,0,19937.5621446840,47285.8965424712,50586.3112995133,60042.1570284357,70934.7035597271,57251.7634514241,58924.1890443438,59865.0805365715,65246.9501829333,11265.9853144842
9351028543,18366,2,0,20173.5424568681,47331.0752007748,50625.1505877721,60056.8677738947,70961.4238219502,57254.0996492141,58926.5739129211,59882.4316722410,65240.5256390108,11264.8293832861
9351059572,18367,2,0,20261.7825942281,47339.3005638271,50630.2001819536,60051.1246209942,70954.4638993675,57263.7973035820,58918.6892453799,59866.6380017648,65235.0380077436,11268.2606737901
9351059572,18367,2,0,20116.6584742208,47304.0994169183,50599.3307351138,60037.5941421271,70924.2393404593,57265.0262409611,58911.7658258876,59842.6311359331,65233.2493563107,11271.7528027783
9351059572,18367,2,0,19893.4785790944,47262.6440738426,50558.6054538474,60026.3876933532,70899.5389159088,57268.9807424286,58907.3976227282,59827.2633348458,65233.4805425503,11273.5171188176
9351059572,18367,2,0,19881.5177331175,47274.7996029687,50566.9159907775,60038.6648994476,70919.8468019062,57267.0582463305,58917.6063203626,59847.8145747797,65243.3363769769,11272.9817401574
9351059572,18367,2,0,20137.5139065754,47331.8295979778,50624.4083582659,60065.5311740326,70964.5022492464,57253.5642705539,58932.3779043057,59895.1955862082,65249.5053992661,11272.6045415559
9351059572,18367,2,0,20301.6074659296,47347.6962746349,50645.2759583173,60060.6519276066,70966.8992855206,57261.0230687064,58922.9966100552,59886.0454781974,65236.0479265799,11276.1940121187
9351059572,18367,2,0,20126.2831224078,47301.6293744633,50597.8462761014,60029.8676546446,70919.7737957253,57279.6274771486,58900.2065139058,59832.6171214479,65227.4697003198,11275.4031118252
9351059572,18367,2,0,19881.3960561493,47265.6859980483,50560.6496269137,60023.0902475142,70900.1473007499,57279.4814647868,58899.4277813091,59824.1849075496,65241.5112224534,11272.6775477369
9351098419,18368,2,0,19894.0869639356,47286.7604489456,50581.4442207841,60044.1525307147,70928.4128604696,57263.4566080709,58916.4747245581,59862.7930095687,65246.2322888207,11269.8911451644
9351098419,18368,2,0,20106.3037642245,47334.2388019488,50617.3510941086,60061.5158340810,70965.5365034764,57257.6039458991,58928.6180859874,59889.3794271269,65241.0610176710,11269.4044372915
9351098419,18368,2,0,20259.4342287412,47356.3961778633,50631.6481378756,60062.0877158317,70973.7253634382,57255.4502635614,58929.5184955523,59885.3884225690,65234.6364737485,11266.2043330270
9351098419,18368,2,0,20174.3333571616,47323.2635394145,50606.5826824203,60042.2543700103,70941.9555070335,57255.2799158059,58914.8929239711,59856.6969934605,65227.5792095912,11261.4224281756
9351098419,18368,2,0,19925.3701124674,47269.4579840634,50559.1286648108,60022.4696949762,70904.1869760951,57264.7707193278,58902.7860656323,59825.9492235889,65225.1700056202,11258.8915472365
9351098419,18368,2,0,19840.3787501591,47265.7590042292,50552.8744686438,60028.4440341163,70910.4898430494,57262.3493476601,58910.8897517163,59840.0394165098,65234.3322813279,11254.4016671088
9351098419,18368,2,0,20069.4843136383,47318.6154792281,50602.9202056766,60057.5491649168,70953.0524465361,57241.3844060341,58930.0782096061,59886.1184843783,65238.3111181890,11248.8897004480
9351098419,18368,2,0,20286.1909940549,47343.1455560231,50627.8031456795,60061.4793309906,70961.9470329136,57244.7305226604,58926.2940558942,59882.3708337569,65226.8491477818,11249.8631161938
9351129758,18369,2,0,20175.2702698170,47306.0705838036,50588.0999509463,60032.9704173344,70921.1000746790,57264.2231729708,58904.7937356081,59829.8063834818,65219.2565049643,11254.6085179548
9351129758,18369,2,0,19928.5093782477,47265.5764887769,50550.1610722523,60020.6688758464,70896.8376872141,57272.3876975390,58902.1533453975,59815.3268242625,65229.8667365939,11258.0884792461
9351129758,18369,2,0,19867.3788694092,47273.3151439563,50562.5234522244,60034.9172488261,70913.1667363505,57264.7220485405,58918.5554007148,59845.6852278357,65241.9735949327,11262.6878686452
9351129758,18369,2,0,20034.2588313359,47316.7294862205,50600.0242938327,60051.5626580799,70944.6324003346,57256.4966854882,58928.3747320509,59870.0449568752,65239.2967016317,11267.6522889490
9351129758,18369,2,0,20240.1849323673,47349.8012861853,50627.0730838701,60056.0647059044,70960.5355800822,57246.4948386998,58926.8902730385,59876.9197055802,65232.7383130441,11270.9497347880
9351129758,18369,2,0,20228.4674403269,47328.7268352880,50608.7728678484,60040.1980292472,70935.7378139570,57240.9342012517,58909.5391373690,59852.7181565994,65219.0618218151,11270.4143561278
9351129758,18369,2,0,19977.1193270553,47273.7166779514,50552.0470652599,60017.8338024867,70893.2847197418,57255.2677481091,58893.3317652008,59812.8081110201,65210.2280739217,11268.0781583378
