steady_timestamp,sequence,battery,flags,EEG-ch1,EEG-ch2,EEG-ch3,EEG-ch4,EEG-ch5,EEG-ch6,EEG-ch7,EEG-ch8,EEG-ch9,EEG-ch10
4023057714,0,-2,0,33846.5293891699,55529.4624692271,72320.0688491999,89098.4101907752,59628.5283426366,83547.1540369412,61253.9744581230,95171.4901905579,90221.7441291661,20526.7585279413
4023057714,0,-2,0,34153.4838769223,49812.9446571439,72900.3584783829,88322.5613382540,48415.8010371464,82847.2194448983,61091.8398979573,95373.8998272076,90549.2863599428,20983.3513512222
4023057714,0,-2,0,34322.9677259690,47001.2089399048,72967.9500342343,87867.4894770760,41449.9771214645,82926.5041573966,61660.0105011046,95515.8116752536,90889.8236909265,20968.7014442474
4023057714,0,-2,0,34108.7432557043,50886.6100571035,72369.7982261153,88346.2518439683,48256.1365194358,83821.5721033890,62303.9006815810,95369.7993133782,90819.7499249232,20444.5779035991
4023057714,0,-2,0,33719.6933174875,56614.5411688066,71817.2996164760,89248.6569111449,60696.2437388498,84393.5268602483,62091.3918565683,95035.6013524393,90342.2043277132,20064.9944335106
4023057714,0,-2,0,33731.7758404327,56246.2858244603,72155.4885819728,89289.0171615066,61545.3177908515,83696.9383848317,61260.8613745248,94951.3765550309,90115.3862912367,20431.2177724875
4023057714,0,-2,0,34167.9512684447,50271.3382995546,72946.4862170386,88348.4176940027,49411.3863265932,82740.7155946071,61026.0004904484,95036.1367310995,90460.1579807148,21045.9298159826
4023057714,0,-2,0,34372.2590657988,47189.7839052668,73030.0174557281,87808.8411783894,41403.2775010580,82914.1539451213,61678.1525370676,95195.5822302674,90863.4927950017,21019.0270383070
4023099185,1,-2,0,34106.1515362810,50987.0178912864,72373.6675537050,88355.8156536711,47718.2269782872,83822.5333514381,62259.3547435122,95157.1323083069,90763.2309731806,20456.6969296348
4023099185,1,-2,0,33791.3975548651,56438.7787881992,71912.3658317536,89145.0124696071,59267.0504054207,84249.5586714392,62078.0560608504,95055.7753937718,90375.2396245875,20130.4931455085
4023099185,1,-2,0,33780.9211679006,56798.7600987060,72150.9987018452,89233.8244887178,61553.3119676642,83801.7509252645,61405.9854945320,95141.2777993466,90210.2091525779,20385.0170276508
4023099185,1,-2,0,34066.7525339683,51627.4524458651,72786.1038052154,88550.2311135081,51630.2510161344,82974.9680938424,61017.3735934009,95303.6922165392,90459.1602295753,20914.8350504122
4023099185,1,-2,0,34357.6578296112,47316.4252938000,73085.5629917249,87864.9829315304,41635.8873612222,82762.7634612503,61461.9082291303,95438.2304403105,90884.4699043244,21087.0322958505
4023099185,1,-2,0,34236.6987554944,49775.5046540197,72586.5049065319,88125.9313575953,45146.0732114918,83600.9839276859,62240.3122979843,95356.2079960270,90946.7076735738,20606.9558177013
4023099185,1,-2,0,33800.0852903967,55921.6273378305,71895.1242053555,89093.9446460412,58120.9263708805,84388.0392289811,62236.1752810645,95032.8149498669,90482.7533937150,20090.3032429023
4023099185,1,-2,0,33701.3079275881,57056.2650665699,72048.3155083564,89376.2230446367,62446.2262313190,83902.8036473790,61444.7274412163,94942.6279810152,90153.3738407180,20313.1546102145
4023115303,2,-2,0,34077.1802501456,51567.2831850757,72821.7064861194,88563.0558659594,52380.5233699338,82902.9474963474,61024.0049881694,95044.9826466898,90415.9527381571,20937.1871094759
4023115303,2,-2,0,34345.3441204264,47021.7115090515,73094.1777210755,87865.8833410953,42384.1155419554,82813.0038814322,61497.2067176136,95248.7307299900,90859.6721381993,21069.5108124254
4023115303,2,-2,0,34190.1694828434,49019.4283088358,72595.9470392665,88156.3262642590,45340.0384665463,83571.6597783426,62166.5760552373,95289.3343342881,90887.7795178603,20613.4898708952
4023115303,2,-2,0,33871.3879937792,54573.3005174867,72031.6700991026,88945.4744094077,57058.6012643599,84202.2506661916,62242.3443033538,95163.0944797501,90541.3408539175,20181.5001305903
4023115303,2,-2,0,33741.0719608055,56642.0888344138,72041.5867720133,89309.8969292548,63224.8493187159,84031.3675320102,61645.7986312154,95115.8473129866,90249.3404655605,20260.1277874602
4023115303,2,-2,0,33974.8012490773,52353.4259091092,72646.9661920451,88783.2911784547,55875.6212761430,83147.9197364837,61068.1493922430,95205.4380646939,90361.3197794220,20792.3671818893
4023115303,2,-2,0,34344.4437108615,46988.8100568423,73136.8741692272,87932.6353258660,44071.6290789356,82657.8657469397,61336.7878026999,95309.1676801095,90806.4871353862,21128.2442849898
4023115303,2,-2,0,34315.3385800610,48062.0252520194,72764.7981680785,87950.5583432862,44217.7144469918,83370.3452344071,62163.0109200682,95290.3807562149,90989.3797863318,20737.3935276432
4023150299,3,-2,0,33883.9328892036,54482.2253067670,71988.3896015034,88902.4494334418,56674.2602248136,84308.9735350256,62359.7504099983,95025.1249654748,90586.4343383433,20140.0082844241
4023150299,3,-2,0,33705.8951492903,57494.4359968608,71950.1100272984,89400.1569042874,63946.6249265559,84071.0098882594,61654.1700066296,94947.1056934461,90184.1337782864,20214.3772474059
4023150299,3,-2,0,34015.2345056200,53473.2190477245,72657.5642559779,88776.5989452021,56488.3499850559,83111.4166460149,61081.4608525673,95087.8251072034,90351.2084233622,20808.7205664193
4023150299,3,-2,0,34326.0096501747,48354.0378080732,73089.5296608892,87987.4751354470,44943.9312641723,82770.1614209186,61328.3434211048,95312.4529582517,90793.4798674825,21093.8827091618
4023150299,3,-2,0,34282.8508295438,48818.6248081667,72776.6008339967,87998.5842426463,43747.3599586042,83312.3296559553,61997.9804480586,95408.8089493926,90942.8505136809,20773.5437549042
4023150299,3,-2,0,33978.2812103687,54361.1323879851,72155.2573957332,88717.1354108284,53950.6308002695,84088.5678747749,62315.5573351374,95268.6249142955,90675.3558667254,20264.8975246147
4023150299,3,-2,0,33727.8943451462,58292.0528589983,71937.4069518152,89321.9551168063,62823.0111311382,84210.2083399138,61845.5070391703,95105.7481246236,90293.6673850865,20160.0484810915
4023150299,3,-2,0,33866.4479088690,55420.1357132730,72460.7395921700,88999.5354863920,58155.7868222782,83353.7606636374,61122.0157860782,95119.6314666986,90266.5820919586,20657.7559519371
4023180231,4,-2,0,34278.4826263843,49281.2649767686,73109.3751744074,88054.6529896065,45156.2089029453,82624.0760528624,61193.1724770988,95193.6475664725,90683.1188572984,21139.3898952796
4023180231,4,-2,0,34349.8218328572,48419.1958245600,72910.7253560760,87831.1689020595,41691.6762511554,83155.2203545775,62018.3856756307,95244.0218313195,90977.5284496263,20879.2932079924
4023180231,4,-2,0,33950.1859984045,54004.2416724713,72113.4005186623,88685.8887653870,52499.8276372828,84166.1369420211,62391.5202664030,95055.5320398353,90678.1544369946,20240.1362615801
4023180231,4,-2,0,33694.6643651228,58110.9610271825,71881.0340124346,89355.9029909423,62204.6122755058,84194.7431972519,61842.1730902408,94985.3000937733,90251.7618372283,20148.3431567478
4023180231,4,-2,0,33897.2930203152,55442.2930891876,72446.4182130094,88977.2199304187,58237.8092665617,83361.4019772422,61193.4888372162,95151.1701368636,90302.2942821340,20649.9807936672
4023180231,4,-2,0,34222.2678670623,49759.9665051768,72989.3530129459,88166.1212602014,46539.1771561441,82800.3738121300,61216.8264797226,95376.1508511198,90709.4862563137,21052.0623351813
4023180231,4,-2,0,34309.8509487939,48153.4046551597,72894.6274931793,87899.8190475345,41756.8220999454,83079.1479140404,61849.5102114251,95514.1447007888,90981.6532988493,20910.6371950083
4023180231,4,-2,0,34066.8498755429,52669.7251880215,72285.3665778609,88478.0036651671,50015.2204491285,83928.6356677341,62371.6504174912,95380.0810171936,90837.5634330720,20390.9670313972
4023215630,5,-2,0,33737.7136764823,57722.2152813863,71857.1974943584,89271.1306471769,61351.2308588288,84340.0741681051,62054.5845736789,95107.4272667851,90403.7363705468,20113.1906806263
4023215630,5,-2,0,33786.7251592851,56328.8436474039,72249.7395615633,89191.1158728692,60276.1296706441,83588.4146968678,61229.0671827264,95044.2769202741,90247.1016093451,20522.4268278723
4023215630,5,-2,0,34212.5580449976,50011.3146184483,72998.1137546584,88230.0503393092,47544.1680752350,82678.5021607514,61065.5455051229,95094.3591603973,90598.9548983741,21098.0318937784
4023215630,5,-2,0,34372.2468981019,47534.6286009258,72989.8762239093,87779.0789919605,41005.3694795542,82982.6824136281,61796.8362518786,95202.2257927327,90982.1278390254,20986.0769153105
4023215630,5,-2,0,34037.0268506299,52062.0704086838,72252.5259641358,88468.0991599532,49398.5372387482,83983.8040051293,62340.0995796293,95109.7756322720,90826.5151643568,20369.1746863874
4023215630,5,-2,0,33732.4085606675,57051.6413417772,71859.7648783880,89250.5915749398,60764.3341702710,84271.2901779650,62018.8358804131,95037.0979791485,90425.7720694932,20125.9910976840
4023215630,5,-2,0,33821.7559584384,55999.9142991894,72245.4565322817,89145.6573575387,60700.4902650410,83636.5987762867,61343.3583589843,95197.1153600671,90360.5532145222,20496.1080996443
4023215630,5,-2,0,34133.1759909248,50268.4058846203,72851.7485295752,88391.6616885115,49974.1909754415,82908.4107922209,61127.9536221278,95397.8458545551,90683.8610868046,20975.2111620476
4023237815,6,-2,0,34332.6410449433,46761.0307723168,72985.0943190578,87872.0280279909,42047.6057186201,82894.4787793586,61657.4066139845,95543.6270301908,91042.2362613307,21015.9729464045
4023237815,6,-2,0,34165.7732507134,49908.7165988373,72443.0112578990,88255.6146703342,47558.3556097305,83736.4468964157,62345.9644094979,95437.6098877725,91023.7900329471,20520.2123070505
4023237815,6,-2,0,33769.0576634982,55703.4483660984,71845.6138469830,89167.0238331598,60269.6442882375,84401.8617325720,62228.2662781296,95110.0068185116,90572.7091763270,20083.4893326815
4023237815,6,-2,0,33720.8005778984,55963.9465873807,72081.4846498957,89333.5874349691,62804.6622443292,83824.1273197219,61405.3284389036,95001.7873229684,90292.4384477074,20372.6546476787
4023237815,6,-2,0,34136.8384676685,50062.2120942587,72874.4169487564,88444.0192879406,51403.3113026897,82809.4144108694,61071.8483720772,95057.1138404223,90563.3400497733,21012.0792834211
4023237815,6,-2,0,34392.9806534882,46239.9734912679,73060.8747348711,87804.5338137141,42277.0884807008,82863.0252830713,61687.4243220467,95218.0194632089,90991.2536116426,21071.7496686408
4023237815,6,-2,0,34157.8034092944,49411.4958358646,72437.8643221429,88269.0964784140,47432.6876369432,83765.2965055829,62334.8674699954,95209.5385785233,90957.3179052034,20531.5647681863
4023237815,6,-2,0,33828.4725270846,54989.2288979853,71925.5799505033,89093.5796151365,59321.7198672462,84274.1130836279,62225.6380556159,95118.8162310114,90592.1774912437,20162.5550266370
4023272801,7,-2,0,33789.6089034322,55871.1922344994,72101.2084864457,89266.8597855921,63028.5356981745,83897.9852394371,61555.1006190972,95195.8377519006,90400.0008876222,20366.5586315704
4023272801,7,-2,0,34047.4789022008,50927.5421892159,72714.0102015395,88637.1936427016,54156.0458580344,83067.3695835158,61091.5478732335,95348.8465394491,90602.1550026385,20879.3297110828
4023272801,7,-2,0,34339.6861414037,46167.4661859000,73059.8648160348,87909.3463541469,43661.4681867310,82755.7913709707,61444.6666027321,95467.8587820743,91008.7507596740,21099.8570483018
4023272801,7,-2,0,34261.3748446513,47969.8671162824,72622.0832520422,88057.6219076313,45829.3623942809,83510.1277355090,62229.3735385405,95415.2578287088,91113.5024616227,20673.8781502275
4023272801,7,-2,0,33838.0485044843,54250.5036884709,71900.3441472926,89009.8901963883,58771.1680890985,84380.1667291367,62320.5704262284,95106.5998634012,90690.9183509619,20129.2763758262
4023272801,7,-2,0,33690.9532175918,56281.4991390659,71952.8720944772,89413.9185693941,64685.3866391609,84026.1840931636,61545.4759709102,94985.9328140081,90318.4408158180,20274.4856697112
4023272801,7,-2,0,34042.9403512858,51301.5650218563,72712.0633700479,88671.4213738646,55601.4830667221,82997.6608484172,61024.5281991328,95064.3292846383,90512.0775430583,20900.4893358579
4023272801,7,-2,0,34344.8695802503,46371.5793001049,73066.9707509794,87900.5369416471,44693.8242559767,82792.8176724029,61419.8688366070,95256.0070126901,90959.1795628173,21106.0382382879
4023300572,8,-2,0,34218.9095827392,47831.1432048041,72614.7826339484,88099.0407476165,46169.7902159932,83515.4206836270,62111.7240779595,95319.0843530202,91045.0956700841,20685.5591391775
4023300572,8,-2,0,33903.8270735091,53462.1099405252,72024.5154933707,88889.2231469952,57481.0028595683,84198.4421770860,62263.5769343098,95211.6922608609,90734.3570286198,20226.3745964733
4023300572,8,-2,0,33752.0593910366,56215.4163776205,71978.7406179228,89322.5756693443,64569.2581406827,84111.4674801956,61718.0869180405,95163.7028645913,90434.3137926629,20251.7442443491
4023300572,8,-2,0,33947.2779188639,52525.6961607284,72553.5547835354,88877.7733442848,58305.0357915084,83270.0834125860,61090.9881591797,95249.8988288850,90503.0369443188,20755.5842343935
4023300572,8,-2,0,34315.1195615182,46947.7440800648,73104.8244557956,88007.2598104811,46062.9456701910,82682.7000161553,61257.5639286858,95341.5580890522,90919.0870017857,21142.4561548790
4023300572,8,-2,0,34332.3125171290,47313.0426740832,72839.6903420237,87904.4792754177,44490.8549052732,83289.4300505345,62095.6018796691,95359.5297772597,91156.8559654028,20826.2785529348
4023300572,8,-2,0,33908.6089783605,53650.1981980142,72056.7355545578,88813.4792342724,56263.0650783791,84290.0892695564,62407.2774337887,95120.2641869333,90812.8873439151,20208.5002498404
4023300572,8,-2,0,33675.2447209933,57404.9060836376,71915.1644020229,89418.2624371599,64714.5282730518,84182.3929849766,61757.4859203532,95013.3101318597,90384.4140679920,20199.4353157073
4023336533,9,-2,0,33950.4050169473,53877.1014083684,72581.0172752648,88880.1460451653,58400.3818638130,83222.7389042480,61118.0491169139,95121.9068260044,90489.2509438184,20772.8866992758
4023336533,9,-2,0,34286.2699523510,48265.7733353196,73074.1983628922,88045.6123908670,46488.3891896051,82783.3268688810,61294.0791868514,95324.8761767079,90921.6422181185,21104.3104253390
4023336533,9,-2,0,34275.2946898167,47669.3128370589,72822.2905355669,87970.1970059584,44133.9155189722,83268.1730841848,61965.0303250621,95435.9915840951,91106.4695328590,20834.5282513808
4023336533,9,-2,0,33997.3723266839,52459.8932563099,72212.9322786739,88650.7484569624,53897.8594991484,84059.1950546443,62346.4997881581,95326.1294494807,90873.9205111789,20336.4922527209
4023336533,9,-2,0,33740.8042714754,56479.8691003703,71941.7143164906,89304.9203412542,63860.3802914749,84276.1085859069,61945.0509668788,95161.0868097743,90488.9710867915,20180.9647519301
4023336533,9,-2,0,33842.4288753406,54154.0016849681,72409.9637933278,89089.5642751850,60895.7331282619,83495.3926546564,61191.4568318467,95165.2968328751,90416.4151106363,20628.1276101732
4023336533,9,-2,0,34256.2644119856,48096.9343742044,73097.7671916383,88153.1869984786,48108.6762016385,82680.2299737003,61132.6381854046,95221.9861323731,90779.2436621996,21147.2623951240
4023336533,9,-2,0,34388.8801396589,46734.0671561571,73006.0227575933,87804.3269628681,43143.1608051641,83080.6567084465,61911.1152604396,95288.7624525375,91111.6286363119,20965.2093152592
4023368185,10,-2,0,34013.4215187934,52138.5808863065,72220.8899523961,88593.8523066183,53051.3163280858,84123.9758725296,62379.4742465483,95126.8955817019,90874.9912684994,20319.9563527386
4023368185,10,-2,0,33709.8618184546,56784.3413779708,71894.8078452381,89352.1431726241,63728.8109857285,84279.6980564696,61901.3811029813,95020.6107499535,90429.8360802320,20145.1673878770
4023368185,10,-2,0,33866.4479088690,54624.2588317812,72412.3121588147,89065.5330739597,61125.0333748903,83471.3127826438,61201.6898648748,95159.1886490699,90421.3551955464,20610.3262697212
4023368185,10,-2,0,34197.1537408198,48826.4973080112,73000.0605861501,88245.3451342156,49527.0889556825,82844.1410176021,61129.8152797417,95369.9574934369,90800.5249639430,21050.0546652055
4023368185,10,-2,0,34309.9117872780,46689.8740812962,72970.4809151735,87900.7681278867,43591.6986131483,83044.1414502808,61711.3946847879,95521.9685298460,91083.4239150764,20957.7870201972
4023368185,10,-2,0,34099.6783215712,50932.4214356419,72392.9290177757,88413.1863441913,50739.2835839713,83863.8913529392,62284.0673357596,95417.6426972860,90966.3828393365,20456.2467248523
4023368185,10,-2,0,33755.1864891201,56476.7420022868,71914.1179800961,89229.9064903408,62474.5647972196,84364.4460648414,62075.0019689478,95140.2313774198,90528.4430952851,20125.7355760508
4023368185,10,-2,0,33747.6546847867,55944.4417693736,72219.8070273789,89264.5600908925,62984.2452817390,83714.9344084328,61268.7703774597,95054.3396055467,90305.9324234840,20468.3535831912
4023395113,11,-2,0,34164.6173195152,49800.6674510496,72983.9383878597,88344.2563416893,50771.3941358871,82741.8471904116,61015.6336127552,95094.7485266956,90600.8773944721,21073.7330032230
4023395113,11,-2,0,34389.9630646761,46637.4069725957,73087.7531771530,87780.6729602443,42850.4060196042,82910.8078284950,61707.8538850124,95217.3015690963,91005.8670155269,21049.2637649121
4023395113,11,-2,0,34091.3312815507,50691.1725107334,72383.5842266157,88382.8401083148,49988.9868947782,83912.6959848961,62318.4654146781,95141.3143024370,90897.5136753186,20439.2606200875
4023395113,11,-2,0,33750.1733980290,56093.2892046086,71918.5105186492,89221.7663011662,61806.4122292782,84307.3795667418,62064.8054390102,95038.4242581022,90480.8674007074,20129.8360898801
4023395113,11,-2,0,33794.0866158630,55805.0486345699,72246.6246311767,89207.4205866120,63009.4810849498,83725.0214290990,61374.8361906653,95173.8507237416,90363.8749957549,20456.4170726079
4023395113,11,-2,0,34087.3037739023,50425.5760244822,72861.5313578209,88475.7404735580,52771.3254564931,82963.2749371955,61077.6523634617,95378.9250859954,90653.6000248059,20956.3633996689
4023395113,11,-2,0,34306.6630122263,46614.3005163289,73056.6768794672,87897.2273281112,43920.1534211868,82861.2487993352,61528.4290276613,95536.8131199699,91020.8332826191,21057.9515004436
4023395113,11,-2,0,34180.2528099327,49309.5427041852,72564.5908845538,88185.0055256706,48064.5196298681,83639.4946881305,62239.0346898179,95468.1994775854,91042.5769568417,20608.1604196868
4023452443,12,-2,0,33793.5390695060,55338.5634737720,71933.1847610177,89092.7278763589,60835.2110042646,84389.5358556903,62240.9206828255,95146.3638966186,90625.3101296926,20141.3832341651
4023452443,12,-2,0,33698.0104817491,56432.0865549466,72076.5810680760,89379.5326581725,64977.2410151560,83939.9759611731,61447.0028005222,95014.4782307547,90305.7742434253,20353.9285622682
4023452443,12,-2,0,34088.9707483670,50869.5752815514,72867.9315663497,88554.1491118850,54440.2954235151,82882.8829642864,60996.9075273447,95052.1250847249,90526.9099654855,20992.7083100790
4023452443,12,-2,0,34382.7354527633,46466.8645339253,73152.6435043097,87819.1958883857,44202.2979751171,82802.9655315533,61528.5142015390,95208.6260012616,90970.9822287355,21124.0220941922
4023452443,12,-2,0,34180.3866545978,49050.5167742184,72576.7950844672,88186.4899846830,47941.5407180786,83681.5705837443,62233.3767107952,95218.8103635024,90993.0300953787,20611.8350641273
4023452443,12,-2,0,33832.8285625473,54795.2393075372,72012.0071010367,89034.8218071786,59820.2304060821,84273.9670712660,62220.1990951360,95122.0163352759,90640.1668875134,20197.7683412426
4023452443,12,-2,0,33763.0954920550,56365.7969426552,72123.4997070253,89289.9419064652,64636.3386532676,83966.5867141249,61595.2905217033,95186.7849854644,90423.1925177667,20353.5878667572
4023452443,12,-2,0,34002.5070947432,51913.5271658693,72717.7821875546,88717.3179262807,56612.3388156817,83150.0977542150,61078.4554314521,95346.2061492386,90591.8367957327,20862.1489231689
4023461359,13,-2,0,34309.4615824955,46874.9934207605,73124.8524847661,87957.8954644704,45491.2829380555,82750.4984228528,61337.9437338981,95473.2247363733,90997.3496277509,21139.8522677589
4023461359,13,-2,0,34288.0951068745,47954.6209921633,72781.9302852052,87993.9605178536,46065.6103957952,83413.6622350967,62128.5520026656,95460.3999839219,91160.8956407480,20780.7470314234
4023461359,13,-2,0,33883.1176535165,54074.3397738683,72042.7062001210,88912.1349201128,58597.4377138605,84346.1215134261,62334.8066315113,95164.2990817356,90778.8299605076,20199.3988126168
4023461359,13,-2,0,33681.0487123779,56706.2612674580,71981.8433806126,89429.5662275084,65930.8477505636,84128.4779203541,61617.2775498624,95008.8932579130,90360.9182454269,20249.9677606130
4023461359,13,-2,0,33998.6864379408,52076.8176572332,72715.1904681313,88769.7606995876,57984.0884524097,83081.1312486226,61033.4471209040,95060.8736587406,90489.6038070263,20869.2426904166
4023461359,13,-2,0,34336.9605773154,46609.2144190569,73150.0274494928,87932.2581272645,46406.7682793168,82759.5998600763,61365.0411947228,95239.0087402284,90936.6936590885,21144.1596324342
4023461359,13,-2,0,34247.4915025763,47270.7234245330,72748.1405911279,88035.4888671103,46555.0560004980,83438.5816781901,62071.8505354707,95320.4593027612,91071.7672615200,20760.6338285750
4023461359,13,-2,0,33928.3814856978,52639.0625920277,72128.1477672117,88814.5256561992,57564.4854274705,84170.9310145694,62288.5085451000,95229.4205951320,90789.5862044991,20286.2153294485
4023490466,14,-2,0,33748.8349513785,55750.0384772334,72014.8300066996,89315.2020450696,65738.7928239102,84166.7574945591,61785.2282691095,95182.3681115176,90479.8331464775,20268.7546845076
4023490466,14,-2,0,33893.8008913270,52430.5204361793,72531.0202090193,88953.5537600981,60860.3007951135,83370.6615945245,61114.7638387717,95264.1837049551,90508.5854140701,20742.3701156438
4023490466,14,-2,0,34251.7258610707,46458.7243447508,73105.8830454192,88080.4485068711,48647.6565001076,82701.7059585928,61164.4567125966,95347.6297697668,90895.3113221937,21165.6842881140
4023490466,14,-2,0,34329.8059715835,45758.9966035539,72923.5136054369,87858.7774061507,45743.1420945936,83187.5377573392,61964.1299154972,95380.9692590617,91176.7379820115,20915.2487521042
4023490466,14,-2,0,33941.5834367507,51453.3205366320,72137.9062600637,88708.2043213603,57057.2384823157,84225.6248117885,62371.8207652467,95149.1259637974,90880.7709244903,20276.6393520489
4023490466,14,-2,0,33654.2432762769,55497.8629605779,71887.9330965332,89414.2957679956,67028.7998733817,84261.7385359590,61782.2593510847,94999.7309822053,90415.8432288856,20180.5997210254
4023490466,14,-2,0,33880.7814557265,52353.9369523757,72507.5365541510,88975.5894590445,62362.1352785756,83319.2044046602,61084.6122860445,95090.8913668028,90458.2354846168,20730.7134620874
4023490466,14,-2,0,34237.2949726387,46554.8978204393,73054.1825016185,88108.3368679893,50447.3196987048,82786.6243147201,61183.5843320023,95290.2955823371,90888.6677597283,21120.1284312089
4023561421,15,-2,0,34271.4375299239,45549.5905412310,72863.2835061634,87943.1238805274,46928.5312867814,83205.8501410577,61850.3862855963,95426.0505757907,91117.6759816329,20898.5425043663
4023561421,15,-2,0,34016.5851199673,50332.3836345153,72255.1420189527,88581.0275541669,55928.4169126577,84005.1704807504,62299.7758323580,95338.1511339418,90925.2681917718,20389.3973985071
4023561421,15,-2,0,33749.6988578529,54976.6961702577,71927.4537758141,89276.9103031678,66551.7288163478,84303.2912206093,61978.0254252690,95166.9881427334,90539.9172333892,20181.7921553141
4023561421,15,-2,0,33806.7896913462,53339.5812335181,72319.3996258747,89160.2342583326,65089.8530492523,83604.9627645470,61217.8850693461,95154.3459057344,90415.5390364651,20571.3531367974
4023561421,15,-2,0,34204.4178558231,47089.3274002966,73030.5406666915,88254.6412545883,52716.9966901787,82728.3775500286,61069.4148327126,95209.7819324597,90747.8510043964,21118.5344629251
4023561421,15,-2,0,34385.9477247246,44655.3013278353,73043.2437421747,87792.8406570672,46443.7945807490,82994.5094149400,61808.5537439191,95289.2126573199,91114.7800697891,21018.9296967325
4023561421,15,-2,0,34050.2288016828,49366.0859913214,72289.1507315729,88502.3268911161,55421.9243647060,84052.6731691472,62367.5255682682,95139.2092908867,90941.0983653384,20389.6042493531
4023561421,15,-2,0,33713.2322704746,54435.6595310256,71880.8636646790,89333.3440810326,67032.6326978810,84338.4558644276,61970.8343164466,95007.1897803577,90492.2198618432,20155.3760855114
4023570467,16,-2,0,33835.4932881515,53045.8895353028,72342.9927900144,89148.2855800525,65921.7949841273,83574.7260379420,61252.1979743869,95135.5833172334,90445.3620613781,20590.0548868142
4023570467,16,-2,0,34168.2676285621,47402.9132828174,72964.7864330603,88328.7060251496,54662.8182630131,82885.8518823112,61118.7183402392,95351.8519605644,90821.1370423610,21057.3674509961
4023570467,16,-2,0,34306.0424596883,44734.8902327541,73009.0160110117,87911.0498317021,47752.3573678755,83008.7699556165,61663.0889284008,95523.5868335234,91137.7040106035,21013.9896118223
4023570467,16,-2,0,34127.5180119021,48393.4854811731,72476.2169025288,88347.5659552251,53861.0887193494,83798.8306780270,62269.3930933912,95459.3048912078,91068.7740081015,20536.7968778202
4023570467,16,-2,0,33787.7959166056,54072.9526564305,71966.8649458236,89174.8841653074,65947.4809921205,84377.8913698308,62161.0032500924,95193.1973616901,90658.3575942637,20166.2418387743
4023570467,16,-2,0,33723.7573282264,54283.2956314087,72194.8389134982,89323.2813957600,68036.4798534705,83844.9584166827,61378.8028598296,95088.9932060984,90400.9743033680,20437.8126641656
4023570467,16,-2,0,34101.4304699137,48448.2887876637,72961.3916456467,88458.0973131647,56539.4421440154,82822.9692251302,61011.6304405005,95110.6638741401,90637.6116711806,21054.4958745459
4023570467,16,-2,0,34370.3365697007,44735.5472883826,73161.2947367509,87789.9447452233,47398.7154274135,82850.2126983168,61624.7485157117,95226.3300001389,91058.3827950147,21117.6948918443
4023580398,17,-2,0,34114.9366133872,48292.5787714205,72494.0790814648,88295.5368836102,53273.7904967965,83838.3878603983,62286.2818565814,95167.0976520049,91015.2118066869,20536.0181452235
4023580398,17,-2,0,33750.0760564544,54012.6860540665,71951.8621756409,89181.5277277728,65519.4822563735,84337.6406287405,62104.5573045308,95048.0732416828,90607.3506091819,20169.8191416403
4023580398,17,-2,0,33759.9318908810,54400.3853779359,72211.2044657251,89262.9782903055,68067.9698528483,83819.3940856577,61410.9499148358,95164.7006157307,90449.3530659360,20447.4859831398
4023580398,17,-2,0,34051.4334036682,49272.6867505085,72836.5510762434,88564.1022878862,58495.3872406065,83033.8354110718,61047.9266801233,95371.5271263271,90712.6133543972,20958.3102311606
4023580398,17,-2,0,34290.0297706693,45034.6657793809,73096.6112604401,87934.7160020227,48848.0462990846,82850.0788536517,61431.3186393174,95543.7243717654,91087.1959010915,21107.2793433638
4023580398,17,-2,0,34203.1524153535,47130.0040107757,72672.4575168892,88128.3648969598,51527.1541209536,83556.6570081599,62150.6728754897,95504.8607481129,91150.5287630549,20695.9625199611
4023580398,17,-2,0,33817.8866308487,53256.1960071905,72013.8809263474,89019.0403043992,64033.6117911432,84367.5609952281,62245.2888859849,95189.8634127606,90751.9150151353,20194.4343923131
4023580398,17,-2,0,33652.0530908488,55172.6934306816,72048.0599867231,89418.5057910964,69542.2810060969,84050.7385053523,61486.5113121062,95022.1317120563,90378.4883996392,20323.8986865092
4023616236,18,-2,0,33999.1853135105,50081.6074029945,72809.4657831155,88674.0130932879,59984.7498348251,82976.1970312215,60947.6161875150,95046.7956335164,90529.7450388452,20954.7207605978
4023616236,18,-2,0,34328.2606740870,45180.4469550166,73183.0870817608,87859.0329277840,48817.4810446654,82759.3565061399,61396.5311941006,95194.9251746389,90973.0020664082,21160.6590293261
4023616236,18,-2,0,34164.8363380581,47129.5903090837,72669.8901328595,88121.4658128612,51127.6764665596,83598.1245189325,62129.0508782353,95227.2425774007,91050.0114196006,20684.7439034904
4023616236,18,-2,0,33805.7311017226,53014.3873682282,72057.6116287291,88980.4322023800,62914.5973851245,84261.9453868050,62183.6716692735,95123.9509990707,90705.3979101812,20228.7351296570
4023616236,18,-2,0,33703.3155975639,55306.0878909516,72096.2440661419,89315.2628835537,68860.3911084424,84030.7469794722,61588.0142390032,95166.3797578923,90452.6505117750,20331.3696523585
4023616236,18,-2,0,33924.0254502352,51363.9123003770,72663.4777566338,88805.4972251566,61826.3064135837,83229.5041436815,61049.5084807103,95331.6292484447,90581.6159304014,20823.7598396925
4023616236,18,-2,0,34241.0182878665,46060.0254229534,73108.1219016346,88024.2215798523,50285.6353433216,82751.9828818652,61236.7084963312,95469.0755517566,90970.1183222611,21137.8567654799
4023616236,18,-2,0,34261.5208570132,46409.2383217719,72835.6993374658,87954.9508818393,49264.1085242483,83312.7068545568,62011.2675729893,95482.6547014110,91169.1940099813,20836.3290705106
4023694224,19,-2,0,33882.9594734578,52378.4061906867,72092.7762725474,88826.2309805429,61106.5141403258,84286.4024574191,62315.6303413183,95195.0346839103,90833.9496271156,20242.3021116145
4023694224,19,-2,0,33633.3878439224,55772.1715177543,71930.1671722056,89449.1440516965,69622.8068236711,84215.1605925208,61645.6161157630,94998.0153369532,90382.6984227400,20211.1163046573
4023694224,19,-2,0,33915.8365902734,51817.4875348459,72623.3486925118,88887.3858247750,62838.9508139762,83181.9041137102,60971.9880842513,95036.2827434614,90453.6239275209,20811.6529813536
4023694224,19,-2,0,34289.0685226203,46154.3250733313,73142.7024960054,87994.5323996043,50676.2062436412,82741.2509732673,61213.2613445534,95209.9522802153,90903.3420020968,21157.6657759076
4023694224,19,-2,0,34246.0922174417,46229.7039551494,72816.9610843584,87994.8244243280,49325.8230825343,83359.9296859266,61936.9959515820,95312.2826104962,91087.6096027834,20824.2952183527
4023694224,19,-2,0,33922.8816867339,51430.6156143604,72178.9600691443,88754.2955569256,59695.0491411677,84129.3904976158,62230.1522711372,95218.9198727738,90826.2596427235,20319.4453094720
4023694224,19,-2,0,33706.5278695251,55026.7784103809,71996.5541260716,89312.3548040130,68579.4754918911,84206.5823662606,61794.5487248758,95145.9866980170,90491.3681230656,20230.9861535692
4023694224,19,-2,0,33833.6924690217,52421.0783034447,72473.2966552913,89038.2409299858,64794.8107366896,83470.6800624090,61124.8265240443,95238.8992309570,90487.1580999649,20675.6302985700
4023701342,20,-2,0,34217.4129560300,46611.6601261183,73098.7649427778,88175.3078713027,52455.3425376981,82744.3902390476,61100.4667950048,95344.2471500501,90867.5081349532,21153.6504359561
4023701342,20,-2,0,34362.3058897976,45420.1262470349,73028.0706242365,87845.7944736406,47846.0486334122,83104.5175619162,61861.3250450401,95407.3123226834,91197.0945387963,20995.3973710769
4023701342,20,-2,0,34008.9924771498,50950.8068255413,72271.6535835415,88618.9664328609,57984.4656510112,84158.0089205434,62344.3947766078,95192.4186290934,90962.1849839326,20358.5279516673
4023701342,20,-2,0,33677.0090370327,55719.2177011809,71935.2167663871,89406.5327774226,68778.2469871907,84334.0511581777,61840.0924140841,95007.1776126609,90482.5343751722,20169.1255829214
4023701342,20,-2,0,33864.2942265314,53352.3451474854,72509.5928949141,89074.6710142737,65369.4423868498,83424.6496653279,61117.3677258918,95084.7831829976,90468.6145300067,20686.7150703757
4023701342,20,-2,0,34233.3161357776,47479.7401205575,73120.1314183988,88183.4602281741,53286.1042059813,82802.1259604725,61135.0717247692,95274.8791104625,90887.5483316206,21132.6124881492
4023701342,20,-2,0,34297.2208794917,45783.7700342854,73004.6478078523,87926.5149743641,48431.5338691385,83151.1320084449,61770.3958466823,95433.3511938845,91162.3192612763,20970.9889712501
4023701342,20,-2,0,34054.7065141136,50054.5951160475,72409.3675761835,88514.0078800662,56435.7246962967,83947.9214671985,62242.4903157156,95370.9187414860,91003.4943146465,20471.5780228492
4023708657,21,-2,0,33763.7647153802,54891.8873234018,72019.5267376733,89243.2057829682,67452.3939028788,84324.2804976289,61986.1656144435,95193.8544173185,90614.3348671583,20208.6462622023
4023708657,21,-2,0,33768.8751480459,53944.5712872516,72333.7696758226,89230.7095583311,67289.8943118084,83717.1610969514,61229.7607414453,95173.0719911449,90449.6572583566,20540.3498452925
4023708657,21,-2,0,34139.1624977617,47986.1718300252,73046.3465048645,88362.2280298968,55201.3848597901,82790.9925178795,60973.3265309018,95219.6134314927,90736.4255370797,21108.8976470413
4023708657,21,-2,0,34365.3478140033,45131.6909938471,73159.7372715575,87794.2277745050,47374.1853506185,82919.7997564472,61651.5296164190,95308.8634876890,91132.3502240014,21095.5375159297
4023708657,21,-2,0,34070.0621475042,49604.6823583224,72444.6052261828,88404.7297948993,54915.0789535463,83965.8688200123,62288.6423897650,95181.3338572877,91021.3564935825,20479.7303797206
4023708657,21,-2,0,33698.7040404680,55239.6279309046,71942.2010243635,89292.2781042552,67002.2742943077,84371.8683599034,61987.3215456417,95015.8775158893,90552.9610043834,20159.2332454043
4023708657,21,-2,0,33783.9144213190,54594.6183223205,72333.3924772211,89215.5851111802,67216.2189075455,83665.6795716935,61261.9808026325,95118.8040633146,90439.6189084777,20548.3926928925
4023708657,21,-2,0,34124.5734292709,49026.6680884454,72983.8775493755,88405.4598567087,56224.2744609076,82917.2323724175,61061.2746435381,95329.7432554371,90787.6150376138,21053.1695955922
4023743832,22,-2,0,34283.0820157834,45741.6333001875,73081.1217823845,87918.4112882800,48219.0737149131,82963.2384341051,61562.7419327020,95514.4123901189,91120.1825271785,21063.4634671044
4023743832,22,-2,0,34118.1123822580,48747.0787508478,72573.0474338457,88279.5241945912,52999.2872564709,83710.6878822416,62180.9096020947,95472.9205439527,91079.2138919756,20605.8120541999
4023743832,22,-2,0,33776.2852754110,54441.4635224101,72021.2788860158,89110.0425089380,65044.8325710074,84355.1256090751,62147.2415849856,95213.4687445971,90682.6078140318,20201.4794887736
4023743832,22,-2,0,33676.0599566805,55291.1094561625,72155.2087249459,89361.5366345714,68510.3629739368,83939.8177811144,61396.1539954991,95093.7021047689,90385.4726576156,20406.8337080544
4023743832,22,-2,0,34034.5811435685,49774.1783750660,72907.2575624815,88566.7061750063,57752.2329894485,82896.4377785471,60955.0628179706,95110.3961848099,90582.1391413648,21033.3362497708
4023743832,22,-2,0,34344.5045493456,45556.2462713932,73203.4193031519,87809.8024264384,47346.6011819209,82782.4142916193,61505.4685837564,95226.5976894690,91021.5146736412,21172.9119000268
4023743832,22,-2,0,34136.9844800303,48689.3673648166,72593.6230091733,88207.8564603041,51570.6779724893,83739.3428082596,62230.2617804086,95188.0747613276,91038.2574244696,20622.7738235711
4023743832,22,-2,0,33756.8656312816,54877.3347580015,71994.0597482229,89122.5995720592,63782.6773795636,84341.0962546382,62136.4245025100,95054.4247794244,90633.8518528623,20196.0891990810
