steady_timestamp,sequence,battery,flags,EEG-ch1,EEG-ch2,EEG-ch3,EEG-ch4,EEG-ch5,EEG-ch6,EEG-ch7,EEG-ch8,EEG-ch9,EEG-ch10
9445736801,19548,-2,0,20332.6350928281,45238.9005705540,43954.5271647116,59061.7326892304,69235.2170090731,56641.8333127805,58420.9574391406,58554.1815516550,63428.9624329207,11378.4391685219
9445736801,19548,-2,0,20571.7546707925,45276.4257475560,44016.8136047482,59071.9292191680,69263.8841027880,56618.8850365724,58424.2427172828,58568.1257322141,63414.7505630315,11374.3264869957
9445736801,19548,-2,0,20626.1807786815,45275.4036610229,44030.4779282804,59053.7385124177,69250.6699840382,56601.7042486584,58409.5928103080,58542.6952458541,63393.1163980803,11370.6031717679
9445736801,19548,-2,0,20438.0195150116,45231.4052693111,43979.3857693208,59023.7086366587,69207.9370327961,56578.7803078440,58386.9487265205,58502.8825418495,63366.0797757397,11372.3431524136
9445736801,19548,-2,0,20209.3276532244,45193.5758998886,43920.4697813041,59012.8793864863,69180.4502056730,56601.7529194457,58378.0906432334,58479.4353900717,63353.7417311613,11373.4504128245
9445736801,19548,-2,0,20265.6519218178,45221.1844039798,43939.4148852575,59040.4513874870,69215.3836632517,56644.4858706879,58402.5477138475,58517.2282564037,63382.4453279666,11374.2413131180
9445736801,19548,-2,0,20570.6595780785,45283.6776948625,44024.9172908323,59072.3672562536,69272.9855400115,56619.0553843279,58424.3157234637,58573.0414817305,63400.8307178661,11379.3517457836
9445736801,19548,-2,0,20683.6244753826,45293.0589891129,44055.4825452515,59062.4992541302,69272.6691798941,56627.0860642311,58418.1223657808,58558.3794070589,63386.1686431944,11380.4833415881
9445747540,19549,-2,0,20452.5599127150,45251.0804350738,44000.2777047658,59039.2589531984,69228.6342850919,56642.2835175629,58405.4922964786,58511.3025880509,63377.2862245137,11386.6280284837
9445747540,19549,-2,0,20223.9897278960,45224.6887006648,43951.8746068042,59037.3486247972,69212.9622915839,56655.4124624349,58412.7442437851,58515.4274372739,63398.5918616506,11388.6843692468
9445747540,19549,-2,0,20281.3847538098,45247.0042566381,43978.5705336337,59063.6430176316,69241.7023914797,56637.9274821003,58432.8452789366,58553.5975022075,63412.9619115985,11385.5451034665
9445747540,19549,-2,0,20516.9878673925,45283.3491670482,44018.6265915748,59079.6800420442,69270.4911621628,56591.6658987795,58438.4424194752,58575.8643873935,63402.2543383943,11382.1138129624
9445747540,19549,-2,0,20657.6464426657,45293.5700323795,44023.7613596341,59094.6584768332,69269.9436158058,56577.6973828268,58440.1215616367,58565.8868759987,63382.9442035363,11383.3792534320
9445747540,19549,-2,0,20526.2839877652,45252.9785957782,43980.8458929396,59063.3753283015,69228.4274342459,56591.5563895081,58421.4806501040,58524.8208992212,63368.0509426251,11384.8393770507
9445747540,19549,-2,0,20255.1511994596,45208.7733532204,43928.3666165422,59030.2791929431,69191.2064496645,56626.5141824804,58401.5012919207,58491.4692422295,63373.0762014129,11383.1845702828
9445747540,19549,-2,0,20221.3006668981,45220.4421744736,43943.7709207201,59030.6198884541,69210.3462367670,56628.7773740895,58403.3142787473,58518.6640446288,63394.5035155181,11379.7167766883
9445766353,19550,-2,0,20499.7340732975,45272.5564199663,44016.6432569927,59053.2639722416,69262.2171283232,56612.6795111927,58417.1002792477,58572.2140783466,63403.1182448688,11381.1282295197
9445766353,19550,-2,0,20685.9850085663,45293.4361877145,44048.3401072164,59063.4239990888,69274.7376883540,56641.4682818758,58425.1552945445,58574.2095806255,63400.6482024137,11383.4035888256
9445766353,19550,-2,0,20549.8893196017,45267.7623474181,44009.8171790750,59065.4803398518,69246.2896131820,56674.0898770581,58422.5635751212,58537.1346084060,63408.8370623756,11390.0836543814
9445766353,19550,-2,0,20303.1405957293,45239.0952537032,43977.2564223768,59061.9882108636,69224.5216035657,56656.7995798727,58424.5590774002,58530.7465675740,63422.9637583870,11393.4176033109
9445766353,19550,-2,0,20255.6500750293,45244.4368726085,43984.8125621039,59064.4947564092,69231.7492154786,56621.7444453258,58428.2945603248,58553.3054774837,63419.9218341813,11388.7087046404
9445766353,19550,-2,0,20435.1357708645,45275.5861764752,44018.5779207875,59068.9968042337,69256.4618077260,56618.9215396629,58426.5302442855,58573.4308480289,63403.8969774654,11382.9168809527
9445766353,19550,-2,0,20638.2754693235,45301.2600167716,44058.4636309731,59073.5718582391,69270.3451498009,56632.0869876253,58423.9506925590,58582.0577450763,63401.9501459738,11384.0241413636
9445766353,19550,-2,0,20578.6537548911,45274.8196115754,44034.5419390192,59052.8381028528,69238.0399147360,56642.0766667169,58404.7135638820,58547.4041445246,63403.1547479592,11384.8272093539
9445796293,19551,-2,0,20293.7593014788,45223.3745894080,43966.4758429917,59031.8001550459,69192.6787409801,56659.9266779562,58390.7693833229,58500.7896979959,63401.9014751865,11383.9146320922
9445796293,19551,-2,0,20191.9886852517,45221.0748947084,43941.0453566317,59046.7177513509,69204.5909161698,56655.3637916476,58406.7090661609,58517.7027965798,63407.1822556076,11381.0673910356
9445796293,19551,-2,0,20422.7733908924,45260.5469032020,44000.9834311816,59067.5853514022,69244.9024957442,56611.5965861755,58421.3468054389,58564.9742987369,63401.6946243405,11369.3012282078
9445796293,19551,-2,0,20641.0740395928,45285.8435448969,44052.3189440776,59063.1198066682,69259.1021979365,56644.2668521451,58417.5261486365,58567.8458751871,63389.9771323000,11362.8401811949
9445796293,19551,-2,0,20559.4409616077,45261.3986419796,44023.8830366023,59039.1007731397,69227.6608693461,56603.1400368835,58404.2755267963,58525.4414517592,63379.2330560053,11364.3733109945
9445796293,19551,-2,0,20321.4894825382,45216.7675300331,43966.1959859648,59026.0083313582,69188.2010285493,56586.7866523535,58398.9582432847,58495.9347869636,63376.0937902250,11358.9830213020
9445796293,19551,-2,0,20212.0410496159,45202.8720202613,43950.0616199775,59035.8398303911,69183.7111484216,56587.0543416836,58406.9645877942,58501.8361199227,63381.3258998589,11352.6436512572
9445796293,19551,-2,0,20372.5208030137,45238.9005705540,43984.3988604119,59063.3509929078,69221.7838717806,56617.1450559267,58423.8776863781,58536.3558758094,63389.0523873415,11359.1533690575
9445829317,19552,-2,0,20623.8445808915,45283.2153223832,44029.7235310773,59073.2554981217,69256.0846091244,56600.4996466729,58427.6253369996,58567.6268566443,63393.4692612882,11368.9361973032
9445829317,19552,-2,0,20635.4525636606,45278.1170574144,44030.6117729454,59068.8264564781,69244.8781603505,56606.0116133337,58424.8267667303,58549.0467835957,63382.5305018444,11384.2066568159
9445829317,19552,-2,0,20354.0015684491,45231.9528156681,43967.4492587375,59045.0751122798,69199.9185205898,56620.7345264895,58409.9821766063,58501.0938904165,63372.7233382051,11392.7970507729
9445829317,19552,-2,0,20187.3649604590,45215.9157912555,43937.3585444944,59040.7555799076,69196.2195407556,56618.3983286995,58408.2908667479,58508.8325455959,63386.6066802800,11389.2197479070
9445829317,19552,-2,0,20370.8538285489,45250.5328887168,43981.7097994140,59061.4406645066,69234.7181335034,56597.9687657338,58419.1687877076,58554.7534334057,63394.8320433324,11379.2544042090
9445829317,19552,-2,0,20608.1847550804,45276.2310644068,44020.7802739125,59052.2540534053,69249.5748913242,56640.6652138855,58404.7135638820,58558.7079348731,63389.5877660017,11370.4814947997
9445829317,19552,-2,0,20608.0265750217,45265.8276836232,44016.5824185086,59043.1891192722,69234.1705871463,56639.4362765064,58397.6076289374,58532.4378774324,63387.4219159672,11371.6374259978
9445829317,19552,-2,0,20402.1978155648,45224.9077192076,43962.2293168005,59039.1251085333,69196.3777208143,56594.7686614693,58393.1785872938,58503.3084112383,63373.5385738922,11375.6284305558
9445873749,19553,-2,0,20209.9603734592,45193.7584153409,43920.8834829961,59032.1773536474,69175.6926362153,56578.2205937901,58392.7283825114,58497.1758920395,63366.5421482190,11376.9182064190
9445873749,19553,-2,0,20284.7795412234,45219.7851188452,43949.4654028332,59044.5640690132,69207.3408156517,56610.4163195836,58405.4679610850,58530.7587352708,63377.7729323866,11376.9303741158
9445873749,19553,-2,0,20569.5401499707,45275.4523318101,44032.8871322513,59062.9129558222,69254.8070009580,56601.5339009029,58429.0246221342,58576.5944492028,63390.2813247206,11380.5563477691
9445873749,19553,-2,0,20659.4229264018,45272.4225753012,44032.5829398307,59052.7529289750,69241.3495282719,56600.6456590348,58421.1521222898,58555.1427997040,63379.8779439370,11379.7532797787
9445873749,19553,-2,0,20410.4961847981,45222.2916643907,43949.5627444078,59029.8533235543,69190.2938724028,56647.8928257983,58399.0677525561,58499.4025805581,63377.6147523279,11377.5630943506
9445873749,19553,-2,0,20189.6889905521,45195.9364330722,43908.0222274543,59020.1800045800,69174.6097111980,56624.7620341379,58390.0028184230,58495.7766069049,63395.0023910879,11373.3044004626
9445873749,19553,-2,0,20297.5434551907,45220.2474913245,43949.1612104126,59048.5064027838,69209.7621873195,56585.5577149744,58404.4458745519,58536.1003541761,63389.1862320065,11375.3972443161
9445873749,19553,-2,0,20549.9014872985,45260.6077416862,44013.1389603077,59067.5366806149,69246.5329671184,56603.3225523359,58418.7064152283,58562.9179579739,63377.8946093548,11380.4103354072
9445894500,19554,-2,0,20638.4336493822,45268.9182786162,44031.7312010531,59053.9940340510,69248.8326618180,56645.3741125560,58412.3913805772,58553.2081359091,63379.2330560053,11381.4080865467
9445894500,19554,-2,0,20478.4527715542,45240.4702034442,43997.2601159537,59032.5302168553,69220.6522759760,56645.4227833432,58401.3309441652,58530.5762198185,63389.4782567303,11380.3251615294
9445894500,19554,-2,0,20244.8451602505,45207.2645588144,43941.1426982063,59025.5216234853,69193.9685168433,56624.2388231745,58396.9992440962,58509.3557565593,63389.6364367890,11380.7753663119
9445894500,19554,-2,0,20247.2543642215,45220.0771435689,43939.8285869495,59042.9822684262,69208.7279330896,56602.5073166487,58408.3638729288,58529.5663009822,63391.8509576107,11377.5509266538
9445894500,19554,-2,0,20524.5805102100,45269.2468064304,43999.6814876215,59069.5078475002,69253.6997405471,56632.0261491412,58423.7438417130,58574.7206238921,63399.1880787950,11373.3774066435
9445894500,19554,-2,0,20697.6416621227,45291.7813809465,44045.5050338567,59079.6557066506,69265.7822634923,56647.6008010746,58431.4824968924,58573.4795188162,63400.9402271375,11379.4977581455
9445894500,19554,-2,0,20503.4330531317,45257.2981281503,44003.7941691477,59058.3865726041,69225.2029945878,56640.8112262474,58417.9033472380,58523.2512663311,63389.6242690921,11386.8713824202
9445894500,19554,-2,0,20243.8109060206,45220.0284727816,43949.9277753125,59043.4446409055,69197.8621798267,56640.4826984331,58411.2111139854,58509.4896012243,63393.1163980803,11386.1899913981
9445937884,19555,-2,0,20255.6014042420,45224.8103776331,43955.8291082716,59040.5487290616,69214.6049306550,56599.4045539589,58406.9645877942,58535.7474909682,63388.7360272241,11377.2345665364
9445937884,19555,-2,0,20470.4099239542,45253.8911730399,43991.4196214787,59038.3707113303,69242.2377701399,56586.3607829647,58401.8541551286,58554.5100794692,63376.3493118583,11368.3399801588
9445937884,19555,-2,0,20632.1307824280,45273.5785064994,44027.3629978937,59039.1007731397,69252.4099646839,56611.4140707231,58395.6242943552,58553.8165207503,63370.8981836816,11367.6464214399
9445937884,19555,-2,0,20542.6252045984,45253.6843221939,44012.7617617062,59030.5225468795,69231.3355137866,56627.7309521627,58389.1145765550,58529.9921703710,63383.7837746171,11372.7690218024
9445937884,19555,-2,0,20277.2720722837,45209.8319428440,43944.4644794390,59021.4211096560,69193.9928522370,56648.2943597935,58386.5350248285,58498.8915372915,63384.5868426074,11378.3661623409
9445937884,19555,-2,0,20206.7359338011,45215.3560772016,43932.0777640732,59042.6902437025,69211.8428634762,56641.2127602425,58408.8140777113,58523.6041295389,63397.7157874794,11380.6050185564
9445937884,19555,-2,0,20477.9660636813,45270.3662345382,43999.9248415580,59087.0293309253,69263.8232643038,56602.3856396805,58437.2986559738,58582.0699127732,63405.9168151381,11380.8727078865
9445937884,19555,-2,0,20683.4297922335,45291.9638963989,44040.5892843402,59071.7710391093,69273.0342107988,56593.0043454300,58420.9452714438,58577.8720573692,63394.8807141196,11372.1971400517
9445950417,19556,-2,0,20542.2966767842,45255.6919921697,43997.7954946139,59027.8943243658,69227.6730370429,56605.4397315831,58390.5625324769,58519.2967648636,63371.4213946450,11369.8122714744
9445950417,19556,-2,0,20279.6812762546,45212.9347055339,43935.2170298536,59016.4445216554,69195.2096219193,56614.0422932369,58388.6522040757,58495.2168928510,63367.2722100284,11370.2503085600
9445950417,19556,-2,0,20221.3250022918,45212.0464636658,43923.3900285417,59040.5973998489,69206.5255799646,56622.9733827049,58409.1912763128,58519.6861311619,63379.3182298831,11371.4549105455
9445950417,19556,-2,0,20412.3335070183,45253.1854466242,43965.9526320283,59064.8719550107,69244.8416572601,56607.2648861065,58428.4284049899,58557.4424944035,63390.4638401729,11377.7699451966
9445950417,19556,-2,0,20631.6927453423,45281.3901678597,44006.9699380184,59067.9503823069,69265.7822634923,56594.6348168043,58430.2778949070,58571.9828921069,63385.3777429009,11375.7501075240
9445950417,19556,-2,0,20610.1802573594,45265.7546774423,44010.8270979113,59048.7254213266,69243.6248875778,56627.7674552532,58414.5937337022,58548.3167217863,63378.5760003769,11375.4215797098
9445950417,19556,-2,0,20335.6648493370,45220.3083298086,43961.1707271769,59023.1854256953,69203.3254757002,56635.9684829118,58396.9384056121,58507.6887820945,63376.9211936090,11379.4855904486
9445950417,19556,-2,0,20189.8958413981,45213.0320471085,43919.2895147123,59033.8321604154,69205.9536982139,56640.6408784918,58406.6117245863,58520.1120005507,63398.1659922618,11380.7023601309
9445985981,19557,-2,0,20405.9454661863,45262.8222625079,43970.2599967036,59074.7642925277,69259.5645704158,56652.9180845862,58435.5951784186,58579.5755349245,63416.8312391882,11375.6892690399
9445985981,19557,-2,0,20671.5541201343,45296.4294411329,44017.0082878974,59088.0757528520,69282.8900452254,56605.9629425464,58438.9656304385,58591.8649087156,63402.9235617196,11372.8055248928
9445985981,19557,-2,0,20610.6182944450,45264.9272740583,43981.4907808712,59048.5794089648,69240.7168080371,56587.1760186518,58405.0907624835,58536.8669190759,63369.5354016375,11369.6054206284
9445985981,19557,-2,0,20355.5712013393,45214.7720277541,43925.4098662143,59020.3260169419,69194.0050199338,56569.7153737109,58384.0528146766,58500.7410272086,63356.1996059195,11369.0943773618
9445985981,19557,-2,0,20214.9247937629,45196.2406254928,43910.0785682174,59021.6279605019,69184.3803717469,56586.2512736933,58386.0118138651,58501.1668965974,63361.3952124629,11368.7171787603
9445985981,19557,-2,0,20342.4544241642,45233.3886038932,43946.3383047497,59062.1707263160,69224.1322372674,56612.8985297355,58412.7199083915,58535.7718263619,63378.7828512229,11370.0677931077
9445985981,19557,-2,0,20617.5538816341,45286.8656314301,44007.8825152802,59097.4570471025,69272.1338012339,56634.8368871073,58438.5032579593,58575.7913812125,63401.4147673136,11371.5765875137
9445985981,19557,-2,0,20673.9998271957,45279.8327026664,44006.5805717201,59071.6736975347,69257.3013788067,56635.4574396453,58420.4707312677,58554.7169303152,63385.8522830770,11371.2723950932
9446020339,19558,-2,0,20411.9319730232,45226.4651844010,43935.0466820980,59031.7514842586,69205.3453133728,56633.3645957917,58394.6752140030,58502.6148525194,63384.0149608568,11371.9051153279
9446020339,19558,-2,0,20203.9616989255,45199.5989098159,43898.7626101720,59026.2760206883,69188.2131962461,56597.0196853816,58397.1209210644,58498.1858108758,63385.6819353215,11368.7415141540
9446020339,19558,-2,0,20336.5652589019,45235.4449446563,43958.9197032646,59052.8989413369,69231.0799921533,56601.4608947220,58420.6532467200,58550.8354350287,63399.7234574552,11369.2647251174
9446020339,19558,-2,0,20596.0170582575,45280.0517212092,44027.6550226174,59066.6241033532,69266.0377851256,56608.3964819110,58429.6938454595,58574.5989469239,63403.5197788639,11371.9416184184
9446020339,19558,-2,0,20642.3029769719,45282.5947698452,44018.6387592716,59073.1824919408,69259.6740796872,56629.5196035957,58434.9137873965,58555.9215323007,63401.3295934358,11379.5220935391
9446020339,19558,-2,0,20450.4305657710,45243.5121276499,43966.0256382092,59058.0215416994,69221.8447102647,56620.8075326704,58423.9628602559,58522.6063783994,63387.5922637227,11377.0885541745
9446020339,19558,-2,0,20245.3440358203,45210.0387936900,43927.5148777646,59045.0629445829,69197.6431612839,56625.7962883678,58412.1236912471,58510.3291723051,63381.4840799176,11368.4373217334
9446020339,19558,-2,0,20286.3613418104,45225.8933026503,43944.7808395564,59052.6069166132,69222.3070827440,56615.7336030953,58419.7528371551,58533.8736656575,63390.9748834395,11360.4674803144
9446041360,19559,-2,0,20561.9718425469,45274.0530466755,44006.3128823900,59074.3262554421,69269.1162124218,56603.9066017834,58440.0850585463,58578.7359638437,63400.1614945408,11355.7220785534
9446041360,19559,-2,0,20694.1495331345,45284.9431353320,44031.6460271754,59065.9062092406,69271.7687703292,56631.8192982952,58436.1670601693,58571.1311533293,63400.9280594406,11355.0163521377
9446041360,19559,-2,0,20471.9430537539,45241.0785882853,43966.5488491726,59031.2769440825,69222.7451198296,56632.0261491412,58409.5684749143,58514.8798909169,63392.4350070582,11365.4805714054
9446041360,19559,-2,0,20224.3547588007,45211.7909420325,43913.4976910246,59021.5184512305,69204.8099347126,56622.6083518002,58403.6306388647,58506.4720124122,63401.0010656216,11371.0047057630
9446041360,19559,-2,0,20299.3077712300,45239.7644770285,43944.6226594977,59055.4176545793,69236.7014680855,56630.8823856398,58426.8344367061,58555.7390168483,63410.4310306594,11368.8510234254
9446041360,19559,-2,0,20558.6378936174,45281.0616400455,44000.4723879150,59075.8837206354,69269.6150879916,56642.3078529566,58432.9791236017,58585.2213462503,63410.8569000482,11363.4120629455
9446041360,19559,-2,0,20658.8875477416,45287.4131777871,44013.5161589092,59065.6506876073,69266.3906483335,56623.3870843969,58422.1985442165,58571.5813581118,63406.4886968887,11364.2272986327
9446041360,19559,-2,0,20510.0157771129,45253.1611112305,43986.9905798352,59046.8150929254,69235.1561705890,56642.0279959296,58406.7090661609,58541.6123208369,63409.1899255834,11362.1587901728
9446108443,19560,-2,0,20267.1728839206,45221.5737702782,43950.7673463933,59038.9425930810,69211.9523727476,56655.4246301317,58407.1592709434,58523.2999371184,63411.0029124100,11365.0181989262
9446108443,19560,-2,0,20240.0997584896,45236.1020002848,43951.4365697185,59062.6209310984,69232.4062711070,56623.9954692380,58426.8831074934,58545.0436113410,63414.0083335253,11369.8731099585
9446108443,19560,-2,0,20505.1486983837,45281.5118448280,44001.5188098418,59085.0459963431,69274.5308375080,56624.2388231745,58437.9678792991,58587.3628608911,63414.2638551586,11363.4972368233
9446108443,19560,-2,0,20699.5398228271,45292.5966166337,44021.7901927488,59070.4569278524,69274.7863591413,56587.2246894391,58425.8853563539,58576.5944492028,63391.6076036743,11358.2042887053
9446108443,19560,-2,0,20541.5422795812,45253.5869806193,43974.7255414376,59044.6614105878,69230.8001351264,56612.7403496768,58407.3417863957,58521.5842918663,63371.1172022244,11362.4629825933
9446108443,19560,-2,0,20280.5695181227,45219.6756095738,43930.4959634863,59034.3188682883,69205.7711827616,56611.6939277500,58402.9249124490,58503.6612744461,63377.4444045724,11368.7536818508
9446108443,19560,-2,0,20259.7870919491,45229.1177423084,43940.3761333065,59046.8637637127,69224.6554482308,56599.2220385065,58414.6180690958,58535.2729507921,63387.8112822655,11370.7005133425
9446108443,19560,-2,0,20464.8857895966,45266.3752299802,43988.8157343586,59058.8854481738,69257.5934035305,56606.8511844145,58423.3909785052,58567.1401487714,63399.8207990298,11366.8555211464
9446111163,19561,-2,0,20641.3782320134,45288.3135873520,44020.1597213745,59059.7736900419,69266.3663129398,56612.4239895594,58418.3657197173,58566.4587577493,63396.4503470098,11370.4328240124
9446111163,19561,-2,0,20581.9268653365,45269.5144957606,44007.7365029183,59060.8931181496,69242.9799996461,56641.3466049076,58416.2120373796,58543.8633447491,63388.3831640162,11375.5797597685
9446111163,19561,-2,0,20319.1897878387,45227.6089479023,43950.6335017282,59053.6290031463,69206.4160706932,56642.5025361057,58412.5738960296,58512.7748793665,63385.9861277421,11382.2233222338
9446111163,19561,-2,0,20205.7990211457,45223.0947323810,43923.7428917495,59050.9764452389,69212.5242544983,56649.3164463266,58418.1101980840,58526.0133335099,63396.5720239780,11382.4423407766
9446111163,19561,-2,0,20439.6499863858,45270.2688929636,43981.1987561475,59070.7246171825,69261.2193771837,56616.3298202396,58427.8321878456,58579.2713425039,63408.1313359598,11375.4580828002
9446111163,19561,-2,0,20685.6808161457,45298.9968251625,44032.1083996546,59074.9711433737,69277.6457678947,56581.8952382307,58422.0160287642,58585.7932280010,63389.8067845445,11371.8077737534
9446111163,19561,-2,0,20588.6799370732,45267.1052917896,43991.8211554739,59050.2828865200,69235.9470708825,56588.4292914246,58404.1538498281,58533.2652808163,63363.5367271037,11371.3819043646
9446111163,19561,-2,0,20324.8721022550,45228.8378852815,43935.5577253646,59038.4802206017,69204.3232268397,56623.8616245730,58404.6162223074,58512.5923639142,63378.0041186262,11377.5874297443
9446152696,19562,-2,0,20257.1101986481,45233.1452499568,43934.7424896775,59072.9999764884,69220.2385742841,56628.8382125736,58432.1395525209,58544.9097666759,63404.9312316954,11379.4369196613
9446152696,19562,-2,0,20423.4304465209,45273.6150095899,43976.1734973596,59102.8230014014,69260.2459614379,56633.7782974837,58458.6042931108,58582.8851484603,63417.5247979071,11377.1372249618
9446152696,19562,-2,0,20636.4989855874,45306.3826171341,44018.2980637606,59091.2150186323,69285.2262430154,56646.4570375732,58450.5492778140,58595.3692054006,63418.5712198339,11372.9272018611
9446152696,19562,-2,0,20641.7310952213,45293.7282124382,44020.8411123966,59055.8435239681,69268.4469890966,56659.2209515405,58417.2341239128,58572.7737924004,63425.1661115119,11372.3674878072
9446152696,19562,-2,0,20376.0372673955,45237.6351300844,43951.6799236550,59019.3647688929,69215.1038062248,56668.1763764022,58384.9167211510,58517.4472749465,63408.7397208010,11375.6405982526
9446152696,19562,-2,0,20190.8205863567,45216.0131328301,43919.3503531964,59025.4607850012,69205.7955181552,56635.3600980707,58392.8378917828,58514.0403198361,63404.1890021892,11372.0511276898
9446152696,19562,-2,0,20373.7132373023,45260.0236922387,43975.9666465136,59076.2122484497,69254.0891068455,56602.1057826536,58427.3211445790,58571.7395381705,63407.2065910013,11373.7667729419
9446152696,19562,-2,0,20647.0483787329,45299.4957007323,44022.5324222550,59103.2975415775,69282.7196974699,56602.3978073773,58440.6812756906,58594.5539697135,63398.2876692301,11378.7311932456
9446180425,19563,-2,0,20644.6391747619,45284.8336260606,44000.7765803356,59082.1987552865,69257.5203973496,56613.2635606402,58428.0755417820,58555.9458676943,63385.2195628422,11383.7199489430
9446180425,19563,-2,0,20401.7111076919,45236.0533294975,43944.0386100502,59040.4270520934,69213.0109623712,56618.8241980883,58405.0420916962,58517.3255979783,63382.1776386365,11379.3639134804
9446180425,19563,-2,0,20227.8712231825,45211.9369543944,43913.9478958071,59019.9366506436,69201.0257810006,56633.9243098456,58392.8013886923,58517.4959457338,63397.4724335429,11376.2733184874
9446180425,19563,-2,0,20309.7719904978,45240.4580357474,43941.3738844460,59032.6518938235,69233.5743700020,56660.7297459465,58401.0754225319,58548.9859451116,63425.3242915706,11374.7280209909
9446180425,19563,-2,0,20570.9150997117,45290.8688036848,44005.8383422139,59061.8543661986,69277.2320662027,56645.2889386782,58414.5085598244,58582.0334096827,63426.8087505830,11375.8231137049
9446180425,19563,-2,0,20667.6969602414,45291.9395610052,44023.7491919373,59057.4009891614,69266.7678469350,56600.2562927365,58405.5287995691,58563.5750136023,63396.0001422274,11377.6969390157
9446180425,19563,-2,0,20435.7684910993,45240.1173402363,43966.1473151775,59029.9871682193,69215.3836632517,56609.3698976569,58390.3678493277,58511.0957372049,63374.9378590268,11382.5761854417
9446180425,19563,-2,0,20208.6827652927,45213.4214134068,43921.6135448055,59039.5388102253,69203.7756804826,56634.6665393518,58407.8406619655,58509.4774335275,63395.2822481148,11383.6712781557
9446217650,19564,-2,0,20321.6963333842,45248.4522125600,43951.2297188725,59094.9748369506,69249.8304129575,56625.5651021282,58447.3978443368,58566.9698010159,63415.5901341123,11381.7974528450
9446217650,19564,-2,0,20595.1409840862,45291.9273933084,43998.0388485504,59094.4516259873,69285.2019076218,56619.4934214136,58445.6456959943,58593.5927216645,63409.3967764294,11379.5585966296
9446217650,19564,-2,0,20658.4495106560,45289.8223817580,43996.8950850491,59055.4176545793,69267.0720393556,56611.7912693246,58416.4918944066,58560.8981203012,63392.2281562122,11379.2179011185
9446217650,19564,-2,0,20470.1787377146,45252.1025216069,43952.8480225500,59022.1390037685,69227.8920555857,56627.7796229500,58394.5900401253,58526.5730475637,63386.0834693167,11378.1349761013
9446217650,19564,-2,0,20263.0115316072,45227.7062894769,43918.2917635728,59026.5802131089,69214.5197567773,56638.3776868828,58403.3872849283,58522.8497323359,63402.4125184530,11382.0043036910
9446217650,19564,-2,0,20276.4081658092,45245.3494498702,43930.2891126403,59048.9322721726,69237.9790762519,56654.7310714128,58419.0227753457,58548.0612001530,63417.9263319023,11380.5806831627
9446217650,19564,-2,0,20541.9681489700,45292.1950826385,43998.5620595138,59077.9400613985,69280.5781828290,56646.5787145414,58433.5388376555,58588.7621460258,63424.1075218883,11371.6495936947
9446217650,19564,-2,0,20719.1663178025,45305.2631890264,44028.2877428522,59077.4533535256,69284.4961812060,56632.8413848283,58428.0633740852,58586.2190973898,63410.4310306594,11369.7027622030
9446230440,19565,-2,0,20518.5088294953,45259.1597857642,43971.9513065620,59041.7046602598,69234.8641458652,56634.5326946867,58404.5432161264,58532.4013743419,63390.5490140507,11369.6662591125
9446230440,19565,-2,0,20233.2371774814,45217.5949334171,43910.5531083935,59028.7582308402,69203.7756804826,56613.5434176671,58403.2656079600,58512.2881714936,63389.9041261191,11376.3828277588
9446230440,19565,-2,0,20259.3368871667,45233.7658024948,43927.2350207377,59051.0129483293,69225.6045285830,56592.5541406476,58419.2539615854,58548.5114049355,63390.2326539333,11378.8772056075
9446230440,19565,-2,0,20518.1681339843,45278.8836223142,43981.7341348077,59072.4889332218,69269.0310385441,56622.3893332574,58431.4581614988,58583.0311608222,63393.7612860119,11378.5243423996
9446230440,19565,-2,0,20668.7920529555,45301.1140044097,44005.8018391234,59070.6029402143,69278.1568111613,56621.4280852084,58426.5059088918,58577.5678649487,63394.5643540023,11379.9722983216
9446230440,19565,-2,0,20554.9875845705,45271.4734949490,43980.4078558540,59043.8461749006,69250.4996362827,56614.6263426844,58404.4215391582,58547.9760262753,63391.3885851315,11380.1426460771
9446230440,19565,-2,0,20306.9369171380,45229.1299100052,43935.3143714281,59023.7451397491,69217.6103517703,56614.7845227431,58390.5016939928,58524.7722284339,63394.1384846134,11378.8650379107
9446230440,19565,-2,0,20234.4539471637,45230.9672322255,43926.1034249332,59037.4094632813,69228.0624033412,56641.0667478806,58402.3043599110,58541.2351222354,63405.3205979937,11378.2566530695
9446263749,19566,-2,0,20478.2945914955,45279.7475287886,43977.3902670419,59079.0716572031,69273.6425956400,56635.7129612785,58428.8664420755,58589.9180772240,63414.5923829728,11373.8884499101
9446263749,19566,-2,0,20714.5790961002,45304.3749471583,44018.6387592716,59098.3696243642,69286.4551803945,56597.6159025259,58434.4149118268,58592.2056042267,63395.7932913814,11370.8830287948
9446263749,19566,-2,0,20597.2216602429,45263.8565167379,43972.4501821318,59063.7525269030,69236.1660894253,56604.5514897150,58411.5153064060,58531.6834802294,63366.9923530015,11367.6950922272
9446263749,19566,-2,0,20318.1920366992,45223.7031172222,43923.4873701162,59034.4040421660,69203.4349849716,56632.5250247109,58402.8032354808,58505.9974722361,63376.3371441615,11364.7991803833
9446263749,19566,-2,0,20263.1453762722,45233.1695853504,43940.9601827540,59039.7456610713,69223.6333616977,56621.8417869004,58418.3048812332,58541.2351222354,63399.3827619441,11363.4485660360
9446263749,19566,-2,0,20462.5739272003,45275.0873009055,43987.7206416445,59059.1774728975,69261.9981097804,56611.6939277500,58431.3608199242,58575.0978224936,63399.0055633426,11363.5459076106
9446263749,19566,-2,0,20667.9889849652,45311.0550127141,44015.9862013642,59076.5286085671,69286.3456711231,56623.2775751255,58440.3405801795,58583.5422040887,63391.2182373759,11368.2791416747
9446263749,19566,-2,0,20646.5738385568,45303.4502021997,44003.3561320620,59077.0396518336,69272.3771551704,56639.3145995381,58438.0287177832,58562.5164239787,63392.9460503248,11371.5400844233
9446295060,19567,-2,0,20391.5510808447,45253.2219497146,43943.9291007788,59053.8480216891,69226.5779443288,56636.3456815133,58416.6744098589,58517.4837780370,63383.1388866855,11366.9893658115
9446295060,19567,-2,0,20242.8253225779,45242.3440287549,43930.7879882100,59062.2437324969,69224.5946097467,56655.4489655253,58424.4374004320,58520.8663977538,63399.8938052107,11363.5945783979
9446295060,19567,-2,0,20444.0181895453,45291.2216668927,43999.5111398660,59092.7116453416,69274.3604897525,56651.1902716373,58442.3482501553,58578.4561068168,63425.2999561770,11359.9442693510
9446295060,19567,-2,0,20713.0094632101,45331.2533894402,44060.9945119123,59103.6990755727,69302.9910803769,56641.0910832743,58442.6159394854,58601.5503953867,63420.7127344747,11362.6698334393
9446295060,19567,-2,0,20669.3152639189,45311.7485714330,44030.5631021581,59094.8166568919,69269.7367649598,56650.9834207913,58429.1584667993,58558.2333946970,63405.3571010842,11368.8875265159
9446295060,19567,-2,0,20400.1779778922,45268.6992600734,43971.9999773493,59082.3812707389,69228.2084157031,56671.7415115713,58426.0800395030,58521.2314286585,63404.9677347859,11364.2394663295
9446295060,19567,-2,0,20275.4225823666,45255.5459798078,43956.4374931128,59074.6547832563,69226.6509505097,56644.3763614165,58431.2269752592,58530.4910459407,63415.2981093885,11358.5693196100
9446295060,19567,-2,0,20408.4641794286,45277.4843371796,43983.8026432676,59071.7832068061,69249.1125188449,56601.8502610203,58430.5334165402,58551.7480122904,63408.9344039501,11354.2862903283
9446341291,19568,-2,0,20652.9618793888,45307.0883435498,44021.6320126901,59091.0446708768,69273.5695894590,56614.3099825670,58433.8186946824,58567.0793102873,63390.0623061778,11355.2110352869
9446341291,19568,-2,0,20708.7872724125,45306.5407971928,44025.0754708910,59087.6985542505,69269.1892186028,56632.2086645935,58429.2436406770,58556.2013893276,63384.1123024313,11359.7495862018
9446341291,19568,-2,0,20462.7686103494,45269.4171541860,43979.0694092034,59062.7061049762,69233.2336744910,56652.7599045275,58422.5757428180,58521.2435963553,63393.0798949898,11363.7527584566
9446341291,19568,-2,0,20244.1394338348,45249.8636653915,43933.3432045428,59057.4618276455,69220.7009467633,56629.1424049941,58421.9916933705,58514.6000338900,63405.7586350794,11361.8180946617
9446341291,19568,-2,0,20378.1057758554,45279.4798394585,43958.1166352743,59076.3582608115,69253.1035234028,56611.5844184786,58429.7668516404,58559.1581396556,63402.8140524482,11356.5738173310
9446341291,19568,-2,0,20661.8929688569,45316.1411099861,44010.6202470653,59086.9198216538,69283.8391255776,56621.6592714480,58430.9227828386,58584.8928184361,63391.3520820410,11356.9753513262
9446341291,19568,-2,0,20682.9795874510,45300.6637996273,44002.4313871035,59062.5357572207,69259.8930982300,56630.4321808574,58408.4612145034,58546.3577225978,63370.9103513785,11360.6378280699
9446341291,19568,-2,0,20463.0241319827,45264.5987462441,43954.5636678020,59057.8998647311,69229.8875578647,56645.6052987956,58405.6991473246,58518.6518769320,63379.1357144308,11372.8663633770
9446356196,19569,-2,0,20284.0738148077,45247.1259336063,43938.6969911449,59067.5245129181,69226.1155718495,56663.1754530079,58415.8226710813,58526.1106750845,63401.2930903453,11376.1151384287
9446356196,19569,-2,0,20347.5161860425,45274.2964006120,43981.8558117759,59090.2172674929,69259.2238749048,56653.6116433051,58437.8340346340,58560.2410646728,63423.8885033455,11371.4792459391
9446356196,19569,-2,0,20595.9562197734,45315.0703526657,44025.9758804559,59105.4390562184,69295.0455743515,56609.9904501948,58450.9994825964,58587.6062148276,63415.5171279314,11365.5170744959
9446356196,19569,-2,0,20730.3240957891,45320.5458162360,44032.9114676450,59099.9757603449,69289.3389245415,56617.5952607092,58441.4356728936,58577.7990511883,63388.3831640162,11366.6851733909
9446356196,19569,-2,0,20525.8581183764,45277.4600017859,43976.9400622594,59077.9765644890,69242.9799996461,56639.0225748144,58428.5622496549,58530.8195737549,63376.9090259122,11377.3684112014
9446356196,19569,-2,0,20260.1156197633,45240.6527188965,43910.4435991220,59069.3861705320,69214.8969553788,56637.2095879878,58432.5045834256,58512.6775377919,63390.0744738746,11382.5153469576
9446356196,19569,-2,0,20318.4718937262,45255.8623399252,43936.8353335310,59078.1347445477,69237.5045360758,56618.6660180296,58439.8782077003,58550.9206089064,63406.5617030697,11376.1394738223
9446356196,19569,-2,0,20588.0593845353,45290.5646112642,43996.6152280221,59089.6575534390,69267.8751073459,56626.7818718105,58436.9092896755,58576.7161261711,63410.6378815054,11367.0137012051
9446387346,19570,-2,0,20680.5217126928,45286.3910912540,43988.6575542999,59070.3474185810,69253.1765295838,56610.9760336375,58416.1633665924,58545.6641638789,63386.3146555563,11366.4539871513
9446387346,19570,-2,0,20504.7228289949,45245.8604931368,43936.4946380200,59034.6717314961,69210.5409199162,56589.5243841387,58392.2416746384,58506.6058570773,63371.4457300387,11374.6306794163
9446387346,19570,-2,0,20270.6163421215,45206.2424722813,43891.5228305624,59021.1412526290,69178.3330264259,56578.0137429441,58383.0915666276,58486.7846789527,63358.9981761888,11371.2237243059
9446387346,19570,-2,0,20240.5499632720,45210.9148678613,43897.6553497611,59023.1124195143,69190.5858971266,56596.4843067214,58381.2177413169,58503.3449143287,63363.0743546245,11361.0028589746
9446387346,19570,-2,0,20493.2243554972,45268.1273783227,43963.8111173875,59061.2216459638,69248.7718233339,56637.8666436162,58403.4237880187,58560.8737849076,63390.1961508428,11364.2151309358
9446387346,19570,-2,0,20718.6917776264,45302.6958049967,44009.8901852560,59093.9649181143,69278.4245004914,56622.9977180986,58422.2107119134,58584.7589737710,63399.2489172791,11377.4292496856
9446387346,19570,-2,0,20569.0899451883,45265.9858636819,43963.2149002431,59066.9769665611,69240.1935970737,56633.8513036646,58410.0308473936,58539.4586384992,63397.4480981493,11385.3260849237
9446387346,19570,-2,0,20261.0403647219,45215.3074064143,43897.5945112770,59031.7028134713,69201.0622840911,56612.9472005228,58399.3841126735,58507.9564714246,63390.3908339920,11388.5383568849
9446454113,19571,-2,0,20239.1263427438,45221.9266334860,43917.3913540079,59041.7898341376,69218.2795750956,56597.7619148878,58412.0141819757,58540.4807250324,63390.9018772585,11379.8262859597
9446454113,19571,-2,0,20482.1760867820,45262.9682748698,43970.7588722734,59067.8652084291,69256.1089445181,56598.5649828781,58422.1133703388,58573.5768603907,63387.0812204561,11372.0389599930
9446454113,19571,-2,0,20658.4130075655,45286.9386376110,43997.0654328046,59075.8350498482,69266.9625300842,56621.8296192036,58415.6158202353,58563.6966905705,63379.7197638783,11372.4891647754
9446454113,19571,-2,0,20575.6970045631,45268.4924092274,43979.2762600494,59064.4825887123,69244.0629246634,56655.4489655253,58403.3994526251,58535.6501493936,63386.8500342165,11370.6640102520
9446454113,19571,-2,0,20337.4291653763,45237.3309376639,43931.7005654717,59065.5898491232,69215.9433773056,56647.1384285953,58407.1592709434,58517.2647594942,63396.9492225795,11372.8298602865
9446454113,19571,-2,0,20230.1100793980,45232.1961696046,43901.0988079620,59067.7313637641,69217.6955256481,56632.5128570141,58418.0006888126,58528.7997360823,63402.2665060912,11376.5288401207
9446454113,19571,-2,0,20436.8027453293,45274.9899593309,43950.8038494837,59086.1167536635,69261.9007682058,56611.7425985373,58432.1517202177,58578.5656160882,63417.2084377897,11379.0232179694
9446454113,19571,-2,0,20688.5767279896,45302.0509170651,43998.7080718757,59086.6399646269,69282.6101881985,56598.1147780957,58424.0602018304,58591.6337224760,63404.2741760670,11375.6771013431
9446462535,19572,-2,0,20598.4384299252,45268.3950676528,43970.5641891242,59053.4099846035,69242.1525962622,56616.6826834475,58397.4494488787,58537.1346084060,63377.1767152423,11372.3431524136
9446462535,19572,-2,0,20322.8887676729,45226.0149796185,43911.6725365012,59054.7240958604,69210.8572800336,56638.3290160955,58403.9591666789,58510.4630169701,63380.7783535019,11376.5288401207
9446462535,19572,-2,0,20258.2904652399,45226.8545506993,43901.7436958936,59089.4628702898,69221.6135240251,56615.4172429779,58430.6672612053,58537.6456516726,63391.2304050728,11377.4414173824
9446462535,19572,-2,0,20434.6125599011,45257.1156126980,43947.3603912829,59088.1000882457,69249.5627236274,56592.9070038554,58430.7280996894,58566.0207206637,63389.2714058843,11373.6450959736
9446462535,19572,-2,0,20632.4958133326,45284.8336260606,43996.2015263301,59084.0969159909,69266.3541452430,56605.9021040623,58426.0800395030,58570.1942406740,63378.9653666752,11373.9857914847
9446462535,19572,-2,0,20614.9864976044,45262.7735917206,43983.9243202358,59053.4951584812,69236.4581141490,56586.5189630234,58403.1804340823,58536.6722359268,63363.2081992895,11368.8023526381
9446462535,19572,-2,0,20363.5167073647,45205.7800998020,43908.8252954446,59011.8207968627,69185.3659551895,56592.5906437380,58379.8427915759,58487.7945977890,63353.3645325598,11369.9217807458
9446462535,19572,-2,0,20181.9138322823,45181.5177123370,43857.3681055804,59002.9505458787,69172.0666625620,56603.3347200327,58377.4214199081,58478.1942849957,63359.2293624284,11374.3386546925
9446484931,19573,-2,0,20349.7307068643,45221.6102733686,43904.3232476201,59036.4603829291,69216.3692466944,56583.2945233653,58397.1330887613,58529.0187546251,63370.7643390166,11374.1683069370
9446484931,19573,-2,0,20637.8982707220,45262.5424054810,43977.7674656434,59060.5524226385,69252.9940141314,56579.8267297708,58408.8019100145,58558.8782826286,63369.3407184883,11370.5058301933
9446484931,19573,-2,0,20630.5368141442,45245.9456670145,43963.4460864828,59045.2332923385,69229.2791730235,56586.7623169598,58396.4760331328,58522.4603660376,63359.7282379982,11368.8510234254
9446484931,19573,-2,0,20370.3671206760,45201.2780519775,43900.4782554241,59036.6672337751,69192.0095176548,56600.9255160617,58393.4584443207,58485.3123876371,63355.8102396212,11370.2503085600
9446484931,19573,-2,0,20226.2894225955,45187.7110700199,43880.8517604486,59051.1467929944,69191.2794558455,56605.0260298911,58404.4337068550,58500.0474684897,63372.7963443860,11370.4328240124
9446484931,19573,-2,0,20340.7022758217,45211.7787743357,43914.3129267117,59050.6479174247,69214.9942969534,56586.0079197568,58401.0997579255,58528.0088357888,63375.4854053839,11364.6653357183
9446484931,19573,-2,0,20569.0047713105,45249.1092681885,43952.8966933373,59049.4554831360,69243.1381797048,56576.5049485381,58399.2137649180,58548.2072125149,63367.1261976665,11364.5436587501
9446484931,19573,-2,0,20652.9740470857,45253.5261421352,43956.5348346874,59045.6956648177,69237.2733498362,56587.3463664073,58391.6819605846,58536.5992297458,63356.5646368242,11371.3575689709
9446534713,19574,-2,0,20427.8838235581,45207.5200804477,43908.3264198749,59011.4679336548,69186.9234203829,56598.5163120908,58361.7859294906,58484.2416303167,63347.8403982021,11371.7956060565
9446534713,19574,-2,0,20177.6551383942,45177.6240493537,43867.5159647307,59000.2249817904,69165.3865970062,56625.4677605536,58359.7052533339,58466.2942775029,63361.7967464581,11369.5324144475
9446534713,19574,-2,0,20274.8507006159,45208.0067883206,43899.5048396782,59030.8267393001,69203.4958234557,56601.3513854506,58384.0528146766,58515.5977850294,63388.3831640162,11364.6896711119
9446534713,19574,-2,0,20571.5234845529,45251.6401491276,43948.2851362414,59061.2946521447,69242.6028010446,56601.0715284236,58399.4571188545,58550.9571119969,63386.8622019133,11360.4674803144
9446534713,19574,-2,0,20646.8415278869,45251.6766522181,43938.6239849640,59061.5015029907,69231.1286629406,56583.9029082065,58396.0988345313,58522.7888938518,63358.9130023110,11365.3467267404
9446534713,19574,-2,0,20448.9339390617,45215.6359342286,43894.7959410077,59052.1445441339,69198.0690306727,56570.8591372123,58394.8577294554,58488.9870320777,63351.3203594935,11375.7379398272
9446534713,19574,-2,0,20248.8361648085,45190.7164911352,43878.5764011428,59047.0949499524,69187.5318052240,56602.1179503504,58394.1885061301,58494.6450111003,63369.4137246692,11379.6194351137
9446534713,19574,-2,0,20277.2842399805,45208.5299992840,43903.0334717569,59049.8691848280,69210.9667893050,56609.7592639552,58399.9681621210,58522.1805090106,63389.3200766716,11383.0628933146
9446594865,19575,-2,0,20506.4019711565,45244.2665248529,43938.1129416974,59050.8791036643,69240.3639448292,56581.8587351402,58398.5688769864,58547.7205046420,63381.4597445239,11376.7600263603
9446594865,19575,-2,0,20663.4017632629,45257.6144882677,43961.3289072356,59043.7123302356,69243.2598566731,56581.3841949641,58390.3921847214,58544.7759220108,63360.9206722868,11372.9515372547
9446594865,19575,-2,0,20501.6565693955,45219.9432989039,43926.2129342046,59022.9177363652,69199.6264958660,56602.7750059788,58374.7688620007,58494.4868310416,63339.8097182990,11373.2313942816
9446594865,19575,-2,0,20223.8923863214,45186.8349958487,43873.4903038708,59021.3724388687,69173.3442707284,56619.2987382644,58372.7125212376,58475.2497023646,63356.8444938511,11374.5090024481
9446594865,19575,-2,0,20245.8429113900,45209.9414521154,43884.9766096716,59054.0183694446,69206.4160706932,56583.1850140939,58398.1430075976,58519.5279511032,63379.2087206117,11372.4283262913
9446594865,19575,-2,0,20506.6818281834,45251.9321738514,43929.6442247086,59058.7637712056,69241.2765220909,56562.4512587076,58402.0488382777,58554.8994457675,63368.6593274662,11370.8343580075
9446594865,19575,-2,0,20633.5300675626,45261.3743065860,43939.5852330130,59038.2733697557,69235.7523877333,56565.6878660625,58388.9563964963,58535.6136463032,63347.4266965102,11374.3629900862
9446594865,19575,-2,0,20498.8458314294,45231.0159030128,43906.6594454101,59019.6811290103,69202.8022647368,56588.3319498500,58375.6814392624,58499.6702698882,63344.6281262409,11378.7676963361
9446603699,19576,-2,0,20274.2544834716,45194.0747754583,43870.2536965159,59019.6446259198,69178.4790387877,56616.0864663031,58375.1095575117,58484.3268041945,63362.1496096659,11376.3463246683
9446603699,19576,-2,0,20236.5467910173,45203.7480944326,43882.9324366054,59061.9517077732,69202.2668860766,56622.5961841034,58405.0177563025,58508.4066762071,63380.6201734432,11379.5220935391
9446603699,19576,-2,0,20467.9033784087,45252.8812542036,43944.9268519183,59097.9072518850,69250.7064871287,56612.6308404054,58428.7204297136,58554.1815516550,63386.2903201626,11380.4955092849
9446603699,19576,-2,0,20688.3455417499,45280.3194105393,43990.8720751217,59087.1875109840,69265.5510772527,56620.4059986753,58418.7915891061,58566.3735838716,63385.1952274486,11375.2147288638
9446603699,19576,-2,0,20563.5901462243,45244.5220464862,43963.0323847908,59042.1061942550,69219.4355062938,56603.6510801501,58386.5350248285,58510.2805015178,63366.6516574904,11373.8397791228
9446603699,19576,-2,0,20252.3282937966,45185.0585121125,43877.6638238810,59000.9672112966,69165.2284169475,56587.4680433756,58357.4785648153,58457.2415110666,63346.3437714929,11367.5855829558
9446603699,19576,-2,0,20201.7958488910,45184.4014564841,43869.0490945304,59018.9267318073,69177.0554182594,56575.3611850367,58367.7481009339,58483.3047176613,63352.0017505156,11363.8866031216
9446603699,19576,-2,0,20442.8622583471,45230.1154934479,43923.2075130893,59056.7804366234,69220.3480835555,56560.2124024922,58394.2006738269,58526.7798984097,63354.6543084230,11368.7050110635
9446612118,19577,-2,0,20644.5540008842,45257.9795191724,43951.4000666281,59076.3947639020,69235.6672138556,56562.8406250059,58407.9866743273,58529.7366487377,63347.1955102705,11373.6450959736
9446612118,19577,-2,0,20582.5595855713,45238.4260303779,43935.5455576678,59060.2847333084,69214.7266076233,56612.6186727086,58403.0830925077,58507.2264096153,63348.7529754639,11373.2070588880
9446612118,19577,-2,0,20335.2754830386,45196.2527931896,43883.3096352069,59029.7924850701,69181.1802674824,56602.4464781646,58385.5372736890,58482.1244510695,63358.2802820762,11367.8411045891
9446612118,19577,-2,0,20186.5983955591,45179.3761976962,43852.0629897656,59013.2930881782,69176.4470334183,56599.3193800811,58377.7742831160,58481.4430600474,63358.3776236508,11365.0790374103
9446612118,19577,-2,0,20360.9128202446,45217.9964674122,43906.5012653514,59028.6852246593,69218.4012520638,56571.4431866598,58385.5129382954,58525.7578118766,63360.9450076805,11361.5625730284
9446612118,19577,-2,0,20631.8387577042,45254.0371854018,43969.4934318038,59046.3892235366,69248.5649724879,56574.1687507481,58392.1565007607,58551.4194844762,63356.2726121004,11359.4697291749
9446612118,19577,-2,0,20593.9363821007,45233.5346162551,43946.2531308720,59032.6518938235,69219.7153633207,56582.2237660449,58377.5309291795,58511.2174141732,63346.4289453707,11354.0794394823
9446612118,19577,-2,0,20303.6151359053,45181.7610662735,43867.6619770926,59013.4999390242,69173.1860906697,56589.3418686863,58367.6872624497,58468.8129907452,63347.8647335958,11349.2975346309
9446642323,19578,-2,0,20186.0021784148,45175.3730254414,43859.1810924070,59028.0646721213,69178.1383432767,56597.6402379196,58385.2817520557,58489.7901000680,63365.1063599939,11345.7932379459
9446642323,19578,-2,0,20356.3986047233,45213.2875687417,43915.9190626924,59053.4099846035,69215.8947065183,56575.2638434622,58407.6094757258,58529.5906363758,63364.1816150354,11351.4877200591
9446642323,19578,-2,0,20585.9422052881,45250.4233794454,43960.3189883993,59062.2315648001,69241.7632299638,56571.6013667185,58413.2309516580,58544.0701955951,63354.9828362372,11363.8987708185
9446642323,19578,-2,0,20622.6034758156,45251.6158137340,43963.9084589621,59053.6533385399,69230.5811165836,56586.8718262313,58402.6937262094,58527.3761155540,63350.4807884127,11375.0565488051
9446642323,19578,-2,0,20414.5845309306,45215.1613940525,43918.4377759347,59034.1850236232,69193.7494983005,56613.7624362100,58383.7364545592,58490.1186278822,63355.3113640514,11379.6437705073
9446642323,19578,-2,0,20202.1243767052,45193.5393967981,43874.2933718611,59022.8812332747,69176.0089963327,56620.0409677706,58379.2100713411,58477.4155523990,63378.2961433500,11378.2566530695
9446642323,19578,-2,0,20319.4696448656,45226.5381905819,43906.8906316497,59053.4099846035,69214.1182227821,56616.6340126602,58399.6396343068,58521.4626148981,63393.2867458358,11372.8541956801
9446642323,19578,-2,0,20612.1270888510,45267.4946580879,43970.8318784543,59075.2144973102,69251.1323565175,56585.7889012140,58411.6369833742,58554.7290980120,63383.3457375315,11368.8388557286
9446686322,19579,2,0,20633.0555273865,45244.6923942417,43950.1102907648,59040.6460706362,69220.7131144602,56572.8303040976,58385.5859444763,58512.7262085792,63348.9354909162,11369.8122714744
9446686322,19579,2,0,20376.9376769604,45191.2031990081,43877.9558486048,59007.6229414587,69175.0355805868,56581.9317413211,58368.2713118973,58469.0685123785,63336.8408002742,11373.8519468196
9446686322,19579,2,0,20215.6183524818,45171.3211823994,43860.8967376590,59022.9907425461,69172.4316934667,56585.7037273363,58380.4755118107,58484.3998103754,63353.2428555915,11376.0056291573
9446686322,19579,2,0,20302.7999002182,45197.1288673609,43894.2605623475,59053.2031337575,69202.8387678273,56591.7632403541,58404.3120298868,58519.5036157096,63361.8940880326,11375.2999027415
9446686322,19579,2,0,20534.9717232968,45244.1691832784,43944.1237839279,59067.7800345514,69239.2566844183,56605.3910607958,58417.8790118444,58550.0810378257,63371.4335623418,11372.0876307803
9446686322,19579,2,0,20649.5914273689,45255.8501722284,43964.3464960477,59063.1928128491,69239.5000383548,56588.0885959135,58413.9488457706,58541.9773517416,63363.3907147419,11368.3034770684
9446686322,19579,2,0,20459.2156428771,45211.2433956755,43910.1272390047,59027.2129333437,69193.2992935181,56570.7131248504,58384.9410565447,58491.5909191978,63341.9512329398,11366.0646208529
9446686322,19579,2,0,20193.9720198338,45170.5059467123,43851.7344619514,59004.3376633165,69157.1977370444,56573.8158875402,58364.0856241902,58457.1320017952,63331.2071566452,11366.8433534496
9446701336,19580,2,0,20259.8600981300,45201.3632258553,43878.0410224826,59042.3252127978,69195.2582927066,56597.2143685308,58389.7837998802,58501.3737474434,63353.0968432297,11367.4030675035
9446701336,19580,2,0,20560.3292034758,45251.3724597975,43945.5230690626,59069.7998722240,69239.9502431372,56570.0073984347,58408.7775746208,58542.4762273113,63362.2347835437,11367.2083843543
9446701336,19580,2,0,20656.3688344993,45248.8537465552,43952.2274700120,59040.5608967584,69225.7748763385,56565.5418537006,58388.7738810439,58516.4616915039,63349.8845712684,11367.0015335083
9446701336,19580,2,0,20463.6811876111,45215.9644620428,43911.4291825647,59017.4057697044,69190.0018476791,56592.9435069459,58377.6526061477,58483.2925499645,63348.8016462512,11373.6815990641
9446701336,19580,2,0,20258.8501792937,45199.6962513905,43887.4831552172,59024.0614998665,69183.4069560010,56612.6430081022,58390.8667248975,58489.8387708553,63366.0432726493,11381.9312975101
9446701336,19580,2,0,20269.0588769282,45220.6368576228,43907.1096501926,59044.3207150767,69208.3750698817,56611.5965861755,58406.8550785228,58520.0633297635,63377.3227276041,11380.5806831627
9446701336,19580,2,0,20487.0309978144,45257.5779851772,43946.8615157131,59059.0679636261,69239.1715105406,56597.0561884721,58411.4788033155,58545.1409529155,63374.2808033984,11370.6761779488
9446701336,19580,2,0,20672.4910327897,45272.1183828807,43969.7002826498,59060.8079442718,69245.1945204679,56585.4482057030,58405.4557933882,58547.2946352532,63366.2622911921,11366.3079747894
9446746372,19581,2,0,20536.1884929791,45232.1353311205,43924.8258167668,59029.6708081019,69202.6805877686,56613.0202067038,58384.1136531607,58501.5562628958,63346.9521563341,11370.6396748584
9446746372,19581,2,0,20246.8649979231,45192.9066765633,43866.6398905595,59015.1912488826,69174.0256617505,56682.6437679246,58384.4665163686,58476.6854905897,63362.8066652944,11376.4314985461
9446746372,19581,2,0,20228.2484217840,45206.5710000955,43882.9567719990,59044.1747027149,69202.0722029274,56634.4353531121,58412.3670451836,58518.3476845114,63392.1186469408,11377.3684112014
9446746372,19581,2,0,20494.4532928764,45250.4842179295,43957.4352442523,59074.0829015056,69248.5771401847,56590.3882906131,58432.0665463399,58566.4587577493,63403.0817417783,11381.3959188498
9446746372,19581,2,0,20656.0524743819,45261.5811574320,43973.6426164204,59066.8674572896,69247.1900227469,56566.8681326543,58420.7019175073,58549.6430007400,63378.5516649833,11379.2909072995
9446746372,19581,2,0,20543.1849186522,45233.8509763725,43940.1206116732,59045.0872799766,69214.3980798090,56606.3766442384,58401.2457702874,58509.1124026228,63362.1617773628,11372.4648293818
9446746372,19581,2,0,20312.2055298623,45193.6489060695,43891.3038120196,59030.2183544589,69184.5020487151,56580.3742761278,58387.1312419728,58484.1807918326,63354.4961283643,11368.0601231319
9446746372,19581,2,0,20226.2650872019,45187.9544239564,43870.8499136602,59035.7668242102,69185.1956074340,56587.1030124709,58392.8500594796,58491.9559501025,63361.6385663994,11366.9528627210
9446751155,19582,2,0,20411.2992527884,45228.6432021323,43911.0276485696,59065.9183769375,69228.2084157031,56579.2426803233,58412.1358589440,58532.6933990657,63369.1582030359,11365.9186084911
9446751155,19582,2,0,20646.9388694615,45262.4815669969,43954.5271647116,59075.4700189435,69254.5879824152,56615.8066092762,58415.9443480495,58556.0675446625,63372.1027856671,11367.0502042956
9446751155,19582,2,0,20576.5244079471,45238.5842104366,43929.8510755546,59055.6488408189,69223.5360201231,56610.6840089137,58401.4282857398,58515.7681327850,63363.3177085609,11368.4251540366
9446751155,19582,2,0,20282.4676788271,45192.5659810523,43860.6412160257,59028.2106844832,69178.7223927242,56586.4216214488,58387.0947388823,58470.1636050926,63351.8192350633,11374.4359962671
9446751155,19582,2,0,20191.2342880487,45190.4488018051,43851.8926420100,59018.0141545455,69183.3339498201,56566.9168034416,58389.2119181295,58490.5079941805,63352.8899923837,11373.4139097340
9446751155,19582,2,0,20410.5326878885,45234.6053735755,43904.6761108280,59039.5631456190,69226.7361243875,56560.6869426683,58403.2169371727,58531.7564864103,63352.4397876012,11371.2237243059
9446751155,19582,2,0,20623.3213699281,45263.1751257158,43932.7713227921,59044.8804291306,69245.7055637345,56580.9339901817,58401.4647888302,58539.9331786753,63355.2748609610,11372.4648293818
9446751155,19582,2,0,20600.3974291137,45254.0250177049,43923.9375748987,59048.0196949109,69235.6063753714,56614.0422932369,58404.3850360677,58525.3806132751,63366.6029867031,11377.9159575585
9446830246,19583,2,0,20373.0196785834,45211.0852156168,43882.2023747960,59035.9250042689,69195.7693359731,56617.1815590172,58397.3399396073,58495.5454206652,63357.2338601495,11377.2102311427
9446830246,19583,2,0,20201.8445196783,45184.4622949682,43848.9967301662,59034.0268435645,69179.4037837463,56594.4766367456,58396.7315547661,58486.7116727718,63350.1400929017,11375.2755673479
9446830246,19583,2,0,20338.9622951760,45211.6570973675,43885.9986962048,59050.6965882120,69211.9767081413,56581.8830705338,58409.2764501906,58521.3774410203,63352.9508308678,11370.4814947997
9446830246,19583,2,0,20621.2650291651,45248.6712311029,43946.2166277815,59062.7791111571,69244.6104710204,56575.6775451541,58415.8956772622,58548.7304234783,63356.2482767068,11365.2980559531
9446830246,19583,2,0,20622.6521466029,45226.7572091247,43928.7559828406,59033.2846140583,69215.3228247676,56566.9046357448,58392.9960718415,58506.9952233756,63334.7357887238,11364.5193233564
9446830246,19583,2,0,20339.3029906870,45175.3121869573,43858.3536890230,59004.6540234339,69167.4672731630,56571.0173172710,58387.1434096696,58460.5754599961,63328.1530647426,11368.7050110635
9446830246,19583,2,0,20192.3050453691,45167.6343702621,43843.6672789577,59021.7861405606,69173.5997923617,56602.1787888345,58404.0443405567,58485.3367230308,63353.7660665549,11373.9127853037
9446830246,19583,2,0,20345.3138329176,45210.9878740422,43899.7116905242,59055.3081453078,69221.7108655996,56615.8309446699,58425.9096917475,58539.1422783818,63385.4872521723,11377.6604359252
9446852635,19584,2,0,20581.0629588621,45251.6523168245,43941.0088535413,59067.1959851039,69253.9065913931,56597.7862502814,58426.3598965300,58561.3118219932,63389.6486044858,11379.1813980281
9446852635,19584,2,0,20636.1461223795,45248.2331940172,43936.9935135897,59052.9476121242,69240.8993234894,56580.6297977611,58405.8208242929,58543.1697860302,63370.4601465960,11383.2454087669
9446852635,19584,2,0,20440.7815821904,45204.8431871466,43893.9076991397,59032.1043474665,69198.2637138218,56595.3040401296,58385.0140627256,58502.0673061623,63353.0360047455,11386.5185192123
9446852635,19584,2,0,20218.1614011178,45179.6560547231,43860.4100297861,59035.0976008849,69180.6813919127,56624.8837111061,58394.7968909713,58489.8996093394,63365.2767077494,11385.3504203173
9446852635,19584,2,0,20298.4438647556,45216.3416606443,43902.3520807348,59061.0512982083,69220.8104560347,56621.8782899909,58417.0394407636,58535.2486153985,63393.4570935914,11380.1426460771
9446852635,19584,2,0,20585.7596898357,45262.0556976081,43965.5632657300,59064.2514024727,69257.8245897701,56594.8173322566,58417.8303410571,58568.4907631188,63393.3110812295,11373.0488788293
9446852635,19584,2,0,20654.4341707044,45250.9100873183,43965.4172533681,59035.1584393691,69236.2877663935,56625.7841206710,58393.6166243794,58534.0075103225,63378.4543234087,11373.9492883942
9446852635,19584,2,0,20428.5165437928,45203.8576037040,43903.7026950821,59010.1416547011,69190.9752634249,56627.9256353119,58375.8031162307,58483.6454131724,63378.3204787436,11375.3972443161
9446862858,19585,2,0,20216.6161036213,45170.6641267710,43851.0895740197,59014.5706963446,69172.0301594716,56587.9182481580,58382.2641632436,58479.9951041255,63374.9743621173,11371.6009229074
9446862858,19585,2,0,20263.6442518420,45186.0927663425,43858.3780244167,59032.8222415791,69196.2438761492,56588.9525023880,58397.1087533676,58509.9033029163,63372.5408227527,11367.9871169510
9446862858,19585,2,0,20498.5781420993,45235.7734724705,43918.0240742427,59057.8390262470,69239.8894046531,56612.2658095007,58414.6180690958,58541.7948362892,63377.4444045724,11370.9803703694
9446862858,19585,2,0,20652.1588113985,45263.8565167379,43960.9517086341,59066.8309541992,69258.3478007335,56632.5371924078,58422.6974197863,58551.3464782952,63386.2294816785,11377.2832373237
9446862858,19585,2,0,20503.4573885253,45230.8820583477,43930.6906466354,59032.2625275252,69221.7473686901,56613.0080390069,58404.1660175249,58511.8866374984,63381.1068813161,11383.0142225273
9446862858,19585,2,0,20229.0758251680,45189.2685352132,43879.3916368299,59013.8893053226,69186.4610479036,56611.6087538723,58402.1218444587,58477.5372293673,63376.6170011884,11383.8416259113
9446862858,19585,2,0,20230.2195886694,45198.4064755273,43880.2920463948,59026.8722378326,69201.8288489909,56579.3156865042,58409.6779841857,58503.8437898985,63377.6512554184,11376.3341569715
9446862858,19585,2,0,20507.4848961737,45238.6693843144,43924.6311336176,59042.0696911645,69239.1228397533,56571.9177268359,58409.7509903667,58540.8214205434,63367.5520670553,11367.1597135670
9446887531,19586,2,0,20648.5815085326,45247.9898400808,43935.5698930614,59035.5721410610,69237.4558652885,56585.3630318252,58401.6716396762,58524.4437006197,63351.3081917967,11368.3278124620
9446887531,19586,2,0,20486.5564576383,45215.7819465904,43889.2109681660,59026.7870639549,69202.5954138908,56592.9800100364,58399.5666281259,58483.7427547470,63350.1765959922,11374.0222945751
9446887531,19586,2,0,20256.9641862862,45177.5632108696,43842.0003044930,59021.0317433576,69174.4150280489,56580.2160960691,58394.5170339443,58469.3727047991,63354.3136129120,11372.4526616850
9446887531,19586,2,0,20229.0879928648,45179.5708808454,43845.8331289922,59035.4261286992,69184.7940734388,56583.9272436001,58399.1042556466,58486.7603435591,63356.7714876702,11369.8609422617
9446887531,19586,2,0,20432.4953806539,45220.8680438624,43902.4372546126,59042.2278712232,69221.5040147536,56593.0895193078,58400.6617208399,58520.2580129126,63363.1595285022,11367.1718812638
9446887531,19586,2,0,20636.9005195825,45249.9853423597,43945.7055845149,59038.3950467240,69240.9236588831,56587.9425835517,58398.4593677150,58535.2729507921,63362.4294666929,11367.8167691954
9446887531,19586,2,0,20540.2525037179,45221.9509688797,43911.0398162664,59007.2579105540,69205.4791580378,56613.8597777845,58378.5895188031,58497.4314136728,63358.5723068000,11370.7126810393
9446887531,19586,2,0,20242.6428071256,45176.6993043952,43842.6938632119,58988.6900052022,69167.6619563121,56615.7457707921,58374.1726448564,58462.5344591846,63356.3456182814,11372.6716802278
9446936429,19587,2,0,20187.5961466986,45182.5154634765,43845.4437626939,59015.0817396112,69185.0009242848,56582.6374677369,58397.2425980327,58491.7856023469,63353.4010356502,11371.6009229074
9446936429,19587,2,0,20466.7961179978,45235.7856401674,43915.5418640909,59062.5600926143,69241.5077083306,56586.4581245393,58425.2769715127,58551.7601799872,63362.6484852357,11375.0565488051
9446936429,19587,2,0,20658.0236412672,45259.3544689134,43952.9088610341,59062.6452664921,69254.8800071390,56574.3147631100,58423.4274815956,58554.3884025010,63353.5957187994,11375.1903934701
9446936429,19587,2,0,20550.5585429270,45234.2160072772,43929.8389078578,59032.5910553394,69224.4485973848,56586.5067953266,58401.2214348938,58519.0412432303,63341.5375312479,11377.0642187809
9446936429,19587,2,0,20318.6544091785,45196.7516687594,43883.6624984147,59024.1345060475,69195.4286404621,56614.3221502638,58392.7527179050,58498.7820280201,63348.9111555226,11379.8749567470
9446936429,19587,2,0,20205.9572012044,45187.8692500786,43861.7728118303,59027.8213181848,69194.4552247163,56613.9449516623,58396.1231699250,58507.8469621532,63371.4822331291,11379.9357952311
9446936429,19587,2,0,20361.3995281175,45221.9753042733,43899.9915475511,59036.3752090514,69228.1110741285,56602.3004658027,58402.0731736714,58540.6024020006,63375.6435854426,11371.8686122375
9446936429,19587,2,0,20621.1798552873,45257.2981281503,43959.9782928882,59043.7610010229,69255.8412551880,56592.6758176158,58406.2588613785,58564.0130506879,63365.9824341652,11369.7757683839
9446957543,19588,2,0,20594.1919037340,45230.4196858684,43936.0809363280,59018.2088376947,69218.3404135797,56572.1124099850,58382.4223433023,58519.2237586827,63340.6127862893,11374.6793502036
9446957543,19588,2,0,20301.6318013232,45178.3784465567,43864.1333450139,59004.3376633165,69170.8985636670,56595.9367603643,58377.5917676636,58473.4367155379,63340.6127862893,11382.5761854417
9446957543,19588,2,0,20181.9503353727,45178.4879558281,43856.4676960155,59034.4770483470,69182.2388571060,56609.1265437204,58404.1660175249,58498.9402080788,63369.6327432120,11381.5054281212
9446957543,19588,2,0,20373.4090448817,45218.8360384930,43907.4260103100,59053.2639722416,69227.3445092287,56601.5704039934,58418.0006888126,58545.3113006711,63389.1132258256,11375.2390642574
9446957543,19588,2,0,20592.2329045455,45248.9632558266,43946.1314539037,59040.6582383330,69243.3206951572,56596.3139589659,58409.5076364302,58547.1851259818,63375.0230329046,11373.2192265848
9446957543,19588,2,0,20588.2905707749,45239.7158062412,43931.9317517114,59022.1390037685,69225.9938948813,56609.0900406299,58393.6044566826,58521.0124101156,63366.0554403461,11377.2102311427
9446957543,19588,2,0,20379.4320548091,45200.5358224713,43887.4831552172,59013.5242744179,69192.1190269262,56609.0778729331,58384.8802180606,58492.0654593739,63361.0788523455,11380.0696398961
9446957543,19588,2,0,20202.1730474925,45180.6416381658,43854.9223985190,59025.9596605709,69184.7210672579,56618.8485334819,58400.5765469622,58493.9392846846,63367.6129055394,11379.7289443851
9446979972,19589,2,0,20312.5827284639,45214.3826614558,43880.9247666296,59058.1188832739,69219.7640341080,56585.3873672188,58425.7150085984,58534.8957521906,63379.5980869100,11373.0975496166
9446979972,19589,2,0,20593.4983450151,45253.6721544971,43941.2035366904,59058.0580447898,69251.1810273048,56557.7423600371,58423.6708355321,58563.0883057294,63370.7886744102,11365.9186084911
9446979972,19589,2,0,20636.8275134016,45240.8960728330,43933.7934093253,59023.4166119349,69230.5932842804,56579.8145620739,58394.7847232744,58526.9624138621,63352.6588061440,11370.2746439537
9446979972,19589,2,0,20374.4311314149,45196.7395010625,43869.1951068923,58995.9541202055,69186.9842588670,56626.9400518692,58377.2145690621,58480.3601350302,63358.1342697144,11379.3395780868
9446979972,19589,2,0,20212.8927883935,45188.3681256484,43848.7290408361,59024.0128290792,69188.5538917571,56646.5787145414,58395.8554805949,58493.3674029339,63385.0857181772,11383.0993964051
9446979972,19589,2,0,20335.3728246132,45219.6877772706,43896.2438969297,59053.7506801145,69221.7960394774,56602.3126334996,58413.4256348072,58530.4910459407,63387.1055558498,11381.1282295197
9446979972,19589,2,0,20558.4432104682,45259.3301335198,43947.2630497083,59067.9868853974,69252.7993309823,56601.6069070838,58417.5991548175,58546.1022009645,63377.4930753597,11381.9312975101
9446979972,19589,2,0,20631.4372237090,45261.3134681019,43954.0647922323,59056.9872874694,69244.2211047221,56600.3779697047,58404.7013961851,58529.2864439552,63371.6769162783,11380.0209691088
9447010308,19590,2,0,20445.8676794624,45222.5715214176,43910.3097544570,59040.1715304601,69206.6837600233,56609.9174440139,58394.2615123111,58497.2732336141,63366.4448066444,11383.5982719748
9447010308,19590,2,0,20202.5867491845,45188.0274301373,43866.3600335325,59033.0047570314,69183.5408006661,56610.4528226741,58389.1024088581,58479.6422409176,63374.1834618238,11385.5816065569
9447010308,19590,2,0,20252.0362690729,45209.9657875091,43874.1595271960,59049.6258308915,69214.5319244741,56587.4437079819,58405.0785947867,58518.3233491178,63387.6409345100,11386.0439790362
9447010308,19590,2,0,20559.9155017838,45259.6586613340,43927.9285794566,59066.0278862089,69259.5767381126,56576.3224330858,58410.3350398142,58561.8958714407,63384.9153704217,11383.5130980970
9447010308,19590,2,0,20663.9249742263,45260.3035492656,43932.6861489144,59029.4639572559,69246.9466688104,56605.4762346735,58378.4191710476,58532.2675296769,63351.3933656744,11378.6703547615
9447010308,19590,2,0,20434.2353612996,45215.0518847811,43878.0288547857,58987.6922540628,69198.4583969710,56613.7381008163,58349.4965556995,58477.5859001546,63333.5433544352,11376.3706600620
9447010308,19590,2,0,20206.0910458695,45185.3748722299,43838.2891569620,58993.5205808410,69181.7521492331,56600.3292989174,58355.4587271427,58477.1356953721,63343.7398843728,11369.4229051761
9447010308,19590,2,0,20244.3827877713,45200.1221207793,43857.4532794581,59026.6167161994,69204.2015498714,56553.5688400269,58380.8162073217,58512.3611776745,63353.8634081295,11365.5049067991
9447042236,19591,2,0,20480.8133047379,45238.1461733510,43906.7567869847,59051.9985317720,69238.6969703645,56540.2330443089,58400.1750129670,58541.8191716829,63356.6984814892,11367.7680984081
9447042236,19591,2,0,20645.7099320824,45253.2706205019,43938.6361526608,59049.5893278011,69246.6303086930,56553.0456290635,58400.9050747764,58543.3157983921,63347.3293549356,11373.4139097340
9447042236,19591,2,0,20520.5043317743,45216.2078159792,43902.9117947886,59023.4166119349,69207.4503249231,56586.1295967250,58384.9897273320,58503.3935851160,63335.3928443523,11374.8740333527
9447042236,19591,2,0,20245.1128495806,45175.0688330209,43844.3973407671,59020.8005571180,69173.3321030316,56621.8174515067,58385.7441245350,58475.8459195089,63344.8714801774,11375.3729089225
9447042236,19591,2,0,20209.7778580068,45185.6182261664,43845.4559303907,59044.2112058053,69193.7129952101,56607.8367678572,58400.7225593240,58511.1809110827,63372.2366303321,11369.1187127555
9447042236,19591,2,0,20478.9273117303,45230.7238782890,43909.6283634349,59070.7367848793,69236.3607725745,56571.2120004201,58412.5130575455,58559.7908598904,63372.2122949385,11363.5459076106
9447042236,19591,2,0,20661.9294719473,45244.4247049116,43942.9556850329,59056.3423995378,69237.8087284964,56579.6563820152,58402.9249124490,58547.4284799182,63354.9950039340,11366.5026579386
9447042236,19591,2,0,20508.7138335529,45212.2533145118,43914.0209019880,59010.4215117280,69197.9716890981,56601.1567023014,58376.0343024703,58496.6526810761,63346.9764917277,11371.8564445407
9447073763,19592,2,0,20259.2760486825,45180.3739488357,43866.0436734151,58994.5791704645,69173.9039847823,56596.7641637483,58369.7071001224,58478.9365145019,63351.5758811268,11374.9348718369
9447073763,19592,2,0,20204.0590405000,45185.4843815013,43851.8318035259,59015.6536213619,69185.3051167054,56598.7840014209,58380.2808286615,58498.9523757756,63359.0590146729,11376.5531755143
9447073763,19592,2,0,20399.5574253542,45228.1078234721,43881.5574868644,59046.6569128667,69228.5126081237,56610.9151951534,58396.7315547661,58536.3802112030,63371.2145437990,11377.1493926586
9447073763,19592,2,0,20637.4115628491,45264.5987462441,43930.9705036623,59066.2590724485,69256.0116029435,56604.0891172357,58406.2831967721,58557.0287927115,63371.8472640338,11377.0277156904
9447073763,19592,2,0,20585.2729819628,45239.0465829159,43917.3670186143,59050.6844205151,69224.4242619912,56597.4942255577,58390.7693833229,58517.6419580957,63360.2149458711,11373.0610465261
9447073763,19592,2,0,20287.2617513753,45189.9134231449,43857.2099255217,59027.6874735198,69181.0829259078,56616.9747081712,58386.9608942173,58471.0396792638,63361.2126970106,11374.8131948686
9447073763,19592,2,0,20180.0886777588,45189.4632183624,43843.2657449626,59029.6708081019,69192.0095176548,56595.3892140073,58396.9384056121,58492.2966456135,63382.6521788126,11377.5630943506
9447073763,19592,2,0,20405.9576338831,45230.6387044113,43889.3691482247,59044.5640690132,69234.9979905303,56568.8149641460,58404.3972037646,58542.8777613065,63382.7860234776,11379.7654474756
9447123698,19593,2,0,20626.0347663197,45256.7262463996,43929.9849202197,59043.8705102943,69248.7596556370,56584.5112930476,58397.7049705119,58542.0016871352,63362.1131065755,11381.0065525515
9447123698,19593,2,0,20568.3477156821,45237.1727576052,43910.4922699093,59028.8555724148,69222.0880642011,56600.4509758857,58378.8450404364,58500.6436856340,63344.6889647250,11382.0043036910
9447123698,19593,2,0,20331.0654599379,45192.7363288078,43856.5772052869,59009.1439035616,69185.2199428276,56615.8431123667,58362.6133328746,58471.2343624130,63347.3536903292,11374.1683069370
9447123698,19593,2,0,20191.4168035010,45178.2932726790,43840.3333300283,59011.3705920802,69180.6692242159,56613.8719454814,58367.8211071148,58475.4200501201,63357.9030834747,11371.4670782423
9447123698,19593,2,0,20333.1339683978,45215.4290833826,43877.2379544922,59042.7510821866,69216.9167930514,56582.0899213798,58393.4827797144,58514.1863321980,63359.9715919346,11371.1872212154
9447123698,19593,2,0,20605.6538741412,45252.4553848148,43923.7915625368,59055.3324807015,69248.0904323118,56541.9243541673,58402.2435214269,58541.6731593210,63344.3361015171,11369.9461161395
9447123698,19593,2,0,20625.9252570483,45238.8884028572,43910.6382822712,59032.2381921316,69227.2471676541,56564.7266180135,58390.3191785404,58513.4927734791,63325.5856807130,11381.4689250308
9447123698,19593,2,0,20347.2606644092,45194.7439987836,43849.9579782152,59004.0943093801,69184.5993902897,56605.5370731576,58380.1104809060,58469.4092078895,63336.1594092521,11387.6744504105
9447166416,19594,2,0,20175.9029900517,45182.4059542051,43819.6969162165,59012.3075047356,69185.5606383387,56607.7759293731,58394.1641707365,58483.6819162629,63365.6295709573,11384.4500107524
9447166416,19594,2,0,20343.7685354211,45220.1501497499,43871.3487892299,59048.6889182362,69230.8244705200,56618.7998626947,58417.3558008810,58535.0904353398,63379.9266147242,11372.7446864087
9447166416,19594,2,0,20581.0021203780,45249.3039513376,43915.1038270052,59055.8800270585,69251.2296980921,56612.4726603467,58406.5508861022,58541.4176376877,63372.3339719067,11363.1565413123
9447166416,19594,2,0,20611.9080703082,45240.0199986617,43922.6964698227,59045.5496524558,69231.2016691215,56582.9903309447,58391.9618176115,58513.1764133617,63352.0017505156,11363.1443736154
9447166416,19594,2,0,20425.8639858854,45200.5114870776,43880.0730278520,59034.9272531294,69193.9806845402,56564.8117918913,58383.9554731020,58478.7418313527,63332.2657462688,11368.3034770684
9447166416,19594,2,0,20216.9811345260,45169.4473570887,43823.2133805984,59009.4480959822,69170.2780111291,56576.9916564110,58371.8364470664,58461.9990805244,63329.1751512758,11372.8663633770
9447166416,19594,2,0,20257.4873972496,45189.8525846608,43838.3499954461,59003.6927753849,69195.3191311907,56574.0714091735,58373.3209060788,58493.7202661418,63349.9089066621,11369.4350728729
9447166416,19594,2,0,20528.8635394916,45233.2547592282,43909.9203881587,59022.1390037685,69236.9691574156,56548.7869351754,58388.3601793519,58537.9011733059,63354.3744513961,11362.1222870823
9447176331,19595,2,0,20622.4939665442,45233.8753117662,43930.3012803371,59023.1002518175,69225.9330563972,56555.6251807899,58388.4088501392,58521.4991179886,63341.4036865828,11364.0082800899
9447176331,19595,2,0,20388.0346164629,45190.6069818638,43870.3267026968,59023.9641582920,69184.2100239913,56588.6969807547,58384.7950441828,58476.1622796263,63345.5407035026,11369.8366068680
9447176331,19595,2,0,20185.6371475101,45170.7371329519,43838.3743308398,59041.0841077218,69178.1748463672,56617.4857514378,58406.7942400387,58485.5557415736,63372.3096365131,11371.2237243059
9447176331,19595,2,0,20276.8462028949,45197.2748797227,43868.1608526623,59054.6267542858,69212.3052359555,56608.4086496079,58420.2638804217,58529.5906363758,63393.9924722516,11370.7370164329
9447176331,19595,2,0,20508.0689456212,45231.2227538588,43910.5774437871,59035.4747994865,69239.9989139245,56583.7812312382,58398.3741938372,58545.5303192139,63376.9211936090,11371.5765875137
9447176331,19595,2,0,20626.8378343100,45243.5364630436,43924.4972889525,59031.0214224493,69243.4667075191,56596.5329775087,58383.2254112926,58535.4554662445,63356.1996059195,11373.8641145164
9447176331,19595,2,0,20481.8232235742,45211.2433956755,43891.1456319609,59027.6753058229,69212.4147452269,56594.4888044424,58373.1992291105,58503.5395974779,63343.6303751014,11370.3963209219
9447176331,19595,2,0,20218.3804196606,45171.6862133041,43842.3288323072,59007.5012644905,69179.7323115605,56593.6979041489,58362.1022896080,58477.2087015530,63346.9643240309,11369.6540914157
9447214958,19596,2,0,20203.2803079034,45185.3262014426,43856.1148328076,59011.0420642660,69198.8842663598,56611.4992446009,58367.4804116038,58504.8902118252,63372.9423567479,11366.8311857528
9447214958,19596,2,0,20492.5794675656,45238.8275643731,43924.3269411970,59044.8317583433,69251.8745860237,56617.9359562202,58391.0979111371,58559.0242949905,63392.7148640852,11371.1750535186
9447214958,19596,2,0,20665.4946071165,45254.6820733334,43943.2598774535,59050.7087559088,69257.2162049290,56606.5956627812,58394.4926985507,58551.2856398111,63380.2186394480,11382.9047132559
9447214958,19596,2,0,20485.8994020098,45215.4412510794,43886.7409257110,59025.2417664584,69213.8627011488,56602.6533290106,58379.3925867934,58498.7455249297,63361.0058461646,11391.1544117018
9447214958,19596,2,0,20237.5810452472,45173.5843740085,43838.9218771968,59015.7022921492,69181.1315966951,56591.0940170288,58374.0509678881,58485.7504247228,63361.4803863407,11390.4000144988
9447214958,19596,2,0,20230.4751103026,45173.9129018227,43858.0251612088,59021.9808237098,69190.6467356107,56566.3692570846,58373.7832785580,58507.3724219771,63360.1297719933,11382.2354899306
9447214958,19596,2,0,20440.3800481952,45208.0676268047,43895.9518722059,59033.6861480535,69219.1069784795,56554.3475726235,58376.5210103432,58529.5541332853,63348.1932614100,11374.7401886877
9447214958,19596,2,0,20620.6323089303,45226.1853273741,43918.3160989665,59037.6893203082,69228.0867387349,56567.2940020431,58376.0586378639,58532.0850142245,63339.4568550911,11367.4152352003
9447236173,19597,2,0,20534.6188600889,45199.4407297572,43889.9410299754,59023.3679411476,69198.0933660663,56583.6473865732,58373.9049555263,58499.4877544359,63341.4280219765,11365.0912051071
9447236173,19597,2,0,20240.8054849053,45152.5829292921,43820.6703319624,58992.6323389729,69154.4113344720,56603.9309371770,58359.4132286102,58458.7016346854,63342.6326239619,11365.4075652245
9447236173,19597,2,0,20155.3030793305,45154.7974501139,43807.4075424254,58998.1199702400,69163.0747346099,56580.8001455166,58365.8864433200,58477.3668816117,63353.5835511026,11368.5468310048
9447236173,19597,2,0,20428.7112269420,45217.1933994219,43887.0329504347,59040.4270520934,69224.3755912039,56578.3666061520,58395.1740895728,58542.1111964066,63367.0288560919,11379.7897828692
9447236173,19597,2,0,20675.5937954795,45257.1034450012,43940.6316549398,59070.0432261604,69254.8678394422,56600.3171312206,58412.2210328217,58554.3640671073,63363.3420439546,11388.7573754277
9447236173,19597,2,0,20567.9096785965,45236.4305280990,43914.6049514355,59072.3794239504,69228.0745710380,56635.6642904913,58414.7397460641,58516.9849024673,63370.8981836816,11385.8371281902
9447236173,19597,2,0,20296.5700394449,45186.2996171885,43854.8128892476,59041.2422877805,69186.9964265638,56604.7948436514,58401.6473042826,58488.8775228063,63376.2398025869,11371.7834383597
9447236173,19597,2,0,20186.8660848892,45166.1499112497,43830.0637939097,59014.9235595525,69175.3154376138,56570.6401186694,58388.8468872248,58490.9460312662,63361.9914296072,11362.3656410188
9447286348,19598,2,0,20348.6599495439,45199.4042266668,43873.6849870199,59016.0916584475,69204.6760900475,56615.0522120732,58384.8558826669,58520.0633297635,63355.8954134989,11359.3115491162
9447286348,19598,2,0,20604.5587814272,45246.1768532541,43939.3175436829,59040.7799153013,69244.6104710204,56637.8544759194,58390.9153956847,58550.7502611509,63365.4227201113,11359.2507106321
9447286348,19598,2,0,20599.9837274217,45230.5170274430,43920.9321537834,59036.8740846211,69220.8226237316,56588.8794962070,58378.4191710476,58519.5644541937,63352.5857999631,11364.2394663295
9447286348,19598,2,0,20319.4331417752,45177.1860122681,43840.7591994171,59013.3052558750,69169.4506077451,56576.6144578095,58369.7557709097,58470.8936669019,63347.6213796593,11371.0168734599
9447286348,19598,2,0,20166.9110620996,45165.9065573132,43825.7929323248,59012.4048463102,69168.7083782389,56576.4562777508,58382.1303185786,58479.4353900717,63354.1676005501,11371.5765875137
9447286348,19598,2,0,20362.9813287045,45207.5322481445,43882.4578964293,59033.1872724837,69214.3859121122,56568.5959456032,58403.0952602045,58531.5253001707,63357.1730216653,11370.6761779488
9447286348,19598,2,0,20606.9679853981,45243.3782829849,43931.6883977749,59043.2986285436,69241.2886897877,56584.5356284412,58407.3904571830,58542.5248980986,63348.2297645005,11373.6694313673
9447286348,19598,2,0,20576.0498677710,45228.0834880784,43906.7324515911,59026.9817471040,69219.8005371984,56593.3572086379,58392.5458670590,58505.2187396395,63338.7024578881,11375.9812937636
9447292882,19599,2,0,20348.9884773581,45186.0197601615,43851.0165678388,59007.3187490382,69180.5232118540,56598.3459643353,58374.8783712721,58472.9256722714,63340.2112522942,11373.4139097340
9447292882,19599,2,0,20183.6781483216,45164.2882536358,43824.6978396108,58997.2195606751,69167.0170683805,56593.9412580854,58363.3068915935,58471.1005177479,63346.6236285199,11364.6531680215
9447292882,19599,2,0,20289.0017320210,45190.7894973161,43851.2720894721,59015.5684474841,69194.7350817432,56580.7393070325,58376.2776564067,58502.8217033653,63354.0337558850,11358.9708536052
9447292882,19599,2,0,20572.4725649051,45241.4436191900,43917.1236646778,59047.7520055808,69239.0741689660,56573.8645583275,58395.5269527806,58543.2306245143,63357.2460278463,11359.8590954732
9447292882,19599,2,0,20644.3228146445,45238.2678503192,43920.9808245707,59035.9128365721,69228.5977820014,56588.8308254197,58384.3935101876,58523.5919618421,63340.8926433162,11362.4143118061
9447292882,19599,2,0,20374.9543423783,45187.3947099025,43863.1112584808,58988.4223158721,69179.1117590225,56601.8259256266,58362.4916559064,58468.3749536596,63332.4360940243,11364.6166649310
9447292882,19599,2,0,20163.4311008082,45166.9894823304,43823.2255482952,58980.5376483309,69168.9638998722,56608.7128420284,58367.8941132957,58471.1856916257,63354.5204637579,11368.2669739779
9447292882,19599,2,0,20300.1351746140,45205.8166028925,43865.0580899725,59021.1169172354,69214.5440921709,56590.4004583099,58401.7203104635,58528.9335807474,63370.8981836816,11369.4594082665
9447324963,19600,2,0,20571.1949567387,45249.8758330883,43923.0371653338,59053.5438292685,69248.6988171529,56584.5964669254,58416.7595837367,58553.9625331122,63359.9107534505,11373.5234190054
9447324963,19600,2,0,20634.3574709466,45249.6568145455,43928.8289890215,59051.8525194101,69237.5167037726,56619.5055891104,58404.9812532121,58529.3107793489,63349.3856956987,11375.7379398272
9447324963,19600,2,0,20439.6621540827,45207.4227388731,43885.5849945128,59042.9457653357,69198.9694402376,56607.0823706542,58395.2592634505,58494.9005327336,63352.1355951806,11372.4404939882
9447324963,19600,2,0,20212.6981052443,45172.4284428103,43832.1809731569,59039.0034315651,69173.9526555696,56596.9223438070,58397.6928028151,58481.6620785902,63358.3897913476,11373.6085928832
9447324963,19600,2,0,20242.6184717319,45193.5880675854,43848.5465253837,59050.5505758501,69202.3642276512,56631.7827952047,58409.9213381222,58512.4098484618,63380.8756950764,11372.9880403452
9447324963,19600,2,0,20530.5548493500,45250.7032364723,43936.4703026263,59068.0477238815,69252.1544430506,56611.6817600532,58425.3134746032,58563.6236843896,63401.1714133771,11369.1795512396
9447324963,19600,2,0,20669.7411333077,45253.7329929812,43942.3594678886,59046.9976083778,69242.1039254749,56582.0169151989,58402.2800245174,58545.7493377567,63370.9833575594,11372.1849723549
9447324963,19600,2,0,20461.8073623004,45210.2456445360,43868.8544113812,59026.7992316517,69194.8689264082,56600.6699944285,58383.6877837719,58489.8509385521,63350.6268007746,11379.1083918471
9447364084,19601,2,0,20230.8644766010,45182.2721095401,43818.3706372628,59035.6451472420,69179.5011253209,56605.4518992799,58389.3944335819,58481.5769047125,63353.5835511026,11379.5342612359
9447364084,19601,2,0,20276.8340351980,45202.6773371121,43840.2846592410,59053.5438292685,69210.9059508209,56615.3685721906,58404.1781852218,58524.3950298324,63367.6980794172,11377.8794544680
9447364084,19601,2,0,20500.5371412878,45240.3120233855,43887.8846892123,59055.1986360364,69244.4644586585,56633.6809559091,58405.1150978771,58548.9859451116,63370.3019665373,11378.5000070060
9447364084,19601,2,0,20627.9572624177,45251.1169381643,43913.8505542325,59040.3783813061,69245.0606758029,56588.5631360896,58395.3931081156,58540.8214205434,63359.3267040030,11378.1836468886
9447364084,19601,2,0,20506.8765113326,45218.5805168597,43887.3614782489,59016.6513725014,69209.2754794466,56577.3931904062,58381.5827722215,58511.1079049018,63350.2982729604,11381.5297635149
9447364084,19601,2,0,20259.8844335237,45178.3176080726,43835.5879282673,59015.1547457921,69177.5664615260,56616.3906587237,58387.5692790584,58487.2713868256,63357.1121831812,11387.0052270852
9447364084,19601,2,0,20213.7566948679,45184.2676118190,43826.1214601391,59032.5180491585,69193.8103367846,56631.9653106571,58400.8564039891,58508.9298871705,63382.9563712332,11384.1823214223
9447364084,19601,2,0,20474.2184130598,45229.2394192766,43886.8504349824,59049.1634584123,69239.4391998707,56593.4545502125,58406.7212338577,58555.8120230293,63380.2429748416,11375.8596167954
9447394782,19602,2,0,20673.0385791467,45249.5351375773,43928.3057780581,59045.1602861575,69248.7109848497,56591.1913586034,58392.0834945797,58550.7259257573,63356.4307921591,11377.5022558665
9447394782,19602,2,0,20531.0537249198,45224.2628312760,43898.4827531451,59028.7095600529,69215.4566694326,56611.9007785960,58380.3051640551,58504.2818269841,63347.5605411752,11389.2927540879
9447394782,19602,2,0,20275.4712531539,45194.1599493361,43853.5839518684,59025.7649774217,69192.6544055865,56631.0892364858,58386.4985217380,58495.6549299366,63364.6561552115,11397.3721047784
9447394782,19602,2,0,20243.1416826953,45203.3222250437,43859.8016449450,59044.1868704117,69210.3340690702,56629.3735912338,58407.1471032465,58530.7343998772,63384.3434886710,11392.0304858731
9447394782,19602,2,0,20447.8631817413,45241.6991408233,43898.1907284213,59065.0909735535,69244.8659926537,56649.2312724488,58421.0304453215,58559.5961767412,63394.8198756355,11384.3526691778
9447394782,19602,2,0,20633.7855891959,45263.1872934126,43939.4757237416,59062.5357572207,69255.0625225913,56611.7791016278,58412.0385173694,58556.7367679878,63380.2186394480,11378.7920317297
9447394782,19602,2,0,20570.0511932373,45234.1186657026,43911.6116980170,59045.8660125732,69221.7473686901,56607.4352338620,58398.2890199594,58518.3111814209,63363.0500192308,11381.1038941261
9447394782,19602,2,0,20292.0436562267,45186.8714989391,43838.1796476906,59042.6050698247,69181.6061368712,56645.5687957051,58399.1529264339,58482.3921403996,63370.2654634468,11381.2742418816
9447424509,19603,2,0,20172.9827428142,45183.1603514081,43834.7605248833,59048.5550735711,69188.6147302412,56615.5389199461,58408.9965931636,58495.7036007239,63379.5494161227,11380.2764907421
9447424509,19603,2,0,20409.0847319666,45231.0037353159,43903.7513658694,59059.6155099832,69238.3562748534,56588.8308254197,58419.1566200108,58548.7060880847,63380.9487012574,11379.5585966296
9447424509,19603,2,0,20657.4395918197,45262.1408714858,43947.8714345494,59054.6510896794,69259.6132412031,56593.4180471220,58411.8803373107,58557.4059913131,63365.6904094414,11381.5297635149
9447424509,19603,2,0,20577.3761467247,45237.6229623876,43915.5661994845,59023.9884936856,69227.1011552922,56626.4168409058,58389.2362535232,58516.3400145356,63359.4118778808,11381.6636081799
9447424509,19603,2,0,20328.5345789987,45198.9905249748,43864.1090096203,59014.1934977431,69196.2682115429,56650.7644022485,58383.1037343244,58496.5431718047,63373.4290646208,11381.3229126689
9447424509,19603,2,0,20218.7819536558,45189.9985970226,43840.7835348107,59031.2161055984,69198.4462292742,56630.1401561336,58396.8167286439,58511.4242650192,63376.9576966995,11379.5220935391
9447424509,19603,2,0,20361.9957452618,45221.8171242146,43870.8864167507,59057.4861630392,69229.9240609551,56601.0958638173,58412.2818713058,58539.5803154675,63366.9923530015,11376.0421322477
9447424509,19603,2,0,20605.8120541999,45259.4153073975,43925.9695802681,59076.6016147480,69261.5114019075,56587.5167141629,58430.8619443545,58563.4533366341,63360.7503245313,11372.3553201104
9447443744,19604,2,0,20636.3529732255,45248.6468957092,43925.2395184587,59068.6561087226,69242.1039254749,56597.7497471910,58425.6054993270,58541.7339978051,63347.9012366863,11372.0511276898
9447443744,19604,2,0,20370.8659962457,45194.5128125439,43849.8363012470,59037.2999540099,69189.1744442951,56605.9021040623,58396.8410640375,58487.6120823367,63344.2995984267,11371.4792459391
9447443744,19604,2,0,20183.9093345612,45174.2901004242,43817.8352586026,59029.9871682193,69179.3307775653,56610.8178535788,58389.1632473422,58489.2303860141,63356.3334505846,11371.8199414502
9447443744,19604,2,0,20358.2602623372,45215.5264249572,43876.6904081352,59062.0003785605,69224.2539142356,56607.5569108303,58402.7667323903,58540.6875758783,63365.6660740478,11369.3255636015
9447443744,19604,2,0,20617.3348630913,45252.0416831228,43928.7924859310,59083.3303510911,69255.6709074325,56615.9526216381,58409.3981271588,58561.9080391376,63365.7025771382,11375.6649336462
9447443744,19604,2,0,20623.7472393169,45239.9348247840,43909.2268294398,59069.6781952557,69234.0732455718,56606.5226566003,58397.0600825803,58526.5852152606,63354.3987867897,11379.9601306247
9447443744,19604,2,0,20405.7751184308,45192.7119934141,43842.4505092754,59034.5013837406,69188.6634010285,56601.8259256266,58375.2799052673,58482.4651465806,63342.9124809889,11374.1439715434
9447443744,19604,2,0,20204.5214129793,45160.8691308285,43804.1222642832,59002.6706888518,69163.1599084876,56583.2580202748,58361.2383831336,58465.6858926617,63335.3685089586,11370.5423332838
9447481382,19605,2,0,20264.6176675878,45186.3117848853,43829.4675767654,59012.8185480021,69193.2262873371,56579.6320466216,58377.0928920939,58494.1218001369,63339.2621719420,11373.1340527071
9447481382,19605,2,0,20538.4151814977,45238.2313472288,43893.8346929587,59041.0962754187,69240.0840878023,56594.8781707407,58393.6044566826,58538.4365519661,63346.6722993071,11373.9127853037
9447481382,19605,2,0,20656.3201637120,45242.1736809994,43914.6292868291,59037.9570096383,69235.4481953127,56589.1958563244,58382.1181508818,58526.7920661065,63336.8286325774,11366.6730056941
9447481382,19605,2,0,20407.6976145288,45187.1270205724,43841.9881367962,59011.8572999531,69180.7178950032,56583.4648711208,58365.2172199947,58471.1126854448,63320.1832233236,11360.5526541921
9447481382,19605,2,0,20158.9168852869,45148.3485707977,43782.6219439970,59007.5134321873,69154.1679805355,56612.7403496768,58367.5412500879,58460.3807768469,63326.6199349429,11348.4457958533
9447481382,19605,2,0,20248.7509909307,45172.5379520817,43816.4846442553,59025.8136482090,69187.1546066225,56609.3698976569,58383.4565975323,58509.5626074053,63348.8503170385,11337.2636824730
9447481382,19605,2,0,20511.9991116950,45213.7621089178,43883.8936846544,59043.6636594483,69223.6576970913,56565.9068846053,58390.7572156261,58536.6965713204,63349.7142235129,11338.2492659157
9447481382,19605,2,0,20611.2266792861,45222.0483104543,43897.4606666120,59033.1872724837,69220.1655681031,56563.5220160280,58383.2132435958,58520.4040252745,63331.5965229435,11349.5287208706
9447520139,19606,2,0,20458.5585872487,45193.1135274093,43861.1522592923,59017.8316390932,69188.2131962461,56583.7203927541,58373.4182476534,58487.6850885176,63325.2814882924,11362.1587901728
9447520139,19606,2,0,20232.4706125816,45160.7596215571,43820.5121519037,59009.3994251949,69164.5105228350,56612.8376912514,58372.2014779711,58473.3880447506,63333.4338451638,11370.7248487361
9447520139,19606,2,0,20221.3006668981,45174.2170942433,43834.7483571865,59025.7406420281,69180.3285287048,56593.7465749362,58389.7837998802,58494.0001231687,63345.0053248424,11374.0587976656
9447520139,19606,2,0,20482.2247575693,45217.0230516664,43892.1798861908,59057.4983307360,69221.3945054822,56574.2174215354,58404.9325824248,58533.3139516036,63346.2829330088,11370.3841532251
9447520139,19606,2,0,20651.7572774034,45223.2042416524,43918.2795958760,59045.3549693067,69216.9167930514,56560.3705825509,58382.5683556642,58518.2990137241,63327.1674813000,11363.4242306424
9447520139,19606,2,0,20461.1259712783,45178.3297757694,43869.9251687017,59005.8951285099,69166.5546959012,56577.4418611935,58355.4465594459,58458.0689144506,63311.9700279681,11363.6554168820
9447520139,19606,2,0,20198.0725336631,45142.3377285672,43810.9848452913,58996.7328528022,69141.6109174142,56576.0547437557,58355.0571931475,58442.8836288155,63335.2468319904,11358.4598103386
9447520139,19606,2,0,20218.1492334210,45163.0836516503,43814.3918004017,59018.8172225358,69168.8422229040,56574.1687507481,58373.4547507438,58483.3047176613,63356.6376430051,11354.6878243235
9447554694,19607,2,0,20450.4670688614,45204.4781562419,43847.3419233983,59032.8830800632,69203.7756804826,56585.6915596394,58373.1018875360,58509.1367380165,63338.5321101326,11351.9622602351
9447554694,19607,2,0,20612.0297472765,45229.2150838830,43878.7710842919,59033.0290924250,69213.8383657552,56589.2810302022,58365.6917601708,58505.6689444219,63320.6942665902,11351.7310739955
9447554694,19607,2,0,20520.1271331728,45208.0797945015,43867.0049214641,59015.2885904572,69188.1280223683,56593.9534257822,58352.7940015385,58481.9541033140,63315.5716662277,11355.3327122551
9447554694,19607,2,0,20266.8686915001,45168.7051275825,43811.4350500738,59009.5697729504,69157.3559171031,56586.5432984170,58352.3437967560,58458.2879329934,63313.1867976504,11362.2317963537
9447554694,19607,2,0,20187.0242649479,45177.5753785664,43806.0934311685,59037.6528172178,69175.4006114915,56595.0728538899,58375.6571038688,58483.5602392946,63330.1729024152,11371.3575689709
9447554694,19607,2,0,20436.8149130261,45229.1420777020,43870.5578889364,59070.1770708255,69229.7415455028,56573.5360305133,58399.5544604290,58543.7781708714,63350.0427513271,11377.3440758078
9447554694,19607,2,0,20666.0908242608,45246.4080394938,43907.8640473956,59057.7051815820,69236.9569897188,56561.5386814459,58386.5350248285,58542.2085379812,63335.1494904158,11374.1074684529
9447554694,19607,2,0,20532.1853207243,45199.4163943636,43860.2153466369,59008.2069909062,69182.3240309838,56575.5437004891,58348.3041214108,58478.0604403307,63315.8271878610,11369.1917189364
9447572820,19608,2,0,20264.0336181403,45154.5662638742,43794.4611130058,58988.9090237451,69142.1219606808,56583.5987157859,58336.6596355512,58449.1986634666,63325.0624697496,11366.4539871513
9447572820,19608,2,0,20189.6038166744,45156.2332383390,43790.6769592938,59004.7513650085,69151.3450748726,56569.1921627475,58351.8570888831,58471.4412132590,63331.0976473738,11357.7784193165
9447572820,19608,2,0,20362.9934964013,45195.8512591945,43831.0007065651,59032.6153907331,69188.4930532730,56581.8100643529,58373.1505583233,58503.4787589938,63328.7249464933,11349.7355717165
9447572820,19608,2,0,20578.1183762309,45231.7094617317,43875.9238432354,59048.8714336885,69217.0384700196,56577.6730474331,58381.5097660406,58517.5811196116,63324.5757618767,11349.6990686261
9447572820,19608,2,0,20576.0133646805,45222.9122169287,43882.2753809769,59040.6947414235,69202.5832461940,56638.0856621590,58370.5588389000,58503.7342806271,63331.2071566452,11350.9158383084
9447572820,19608,2,0,20329.0821253558,45184.1094317603,43835.6852698419,59029.2327710163,69170.4605265814,56613.5677530608,58363.9882826156,58473.0108461491,63336.4149308854,11356.3669664850
9447572820,19608,2,0,20168.4928626866,45171.8808964533,43799.0726701017,59029.0380878671,69167.6497886153,56578.8411463281,58374.1848125532,58480.8711782968,63339.1891657610,11360.5404864953
9447572820,19608,2,0,20364.4414523232,45218.3858337105,43853.2432563574,59059.5911745895,69219.0948107827,56562.2809109521,58402.8397385712,58540.9796006021,63351.7948996696,11366.8555211464
9447630177,19609,2,0,20623.6742331360,45246.4445425843,43898.4827531451,59051.6943393514,69240.0475847118,56565.6391952752,58389.9298122421,58551.4559875666,63336.9989803329,11365.2493851658
9447630177,19609,2,0,20585.3216527501,45221.3547517354,43868.7083990194,59025.8501512995,69211.3804909970,56610.9151951534,58365.1928846010,58510.0493152782,63334.0422300049,11369.1917189364
9447630177,19609,2,0,20340.7996173963,45179.2666884248,43817.2633768520,59011.9424738309,69176.6417165675,56630.9310564271,58355.7872549569,58480.3966381207,63348.5339569211,11370.2746439537
9447630177,19609,2,0,20199.0459494090,45166.9286438463,43797.9167389035,59018.1723346042,69175.8629839708,56620.7466941863,58364.3533135203,58490.7756835106,63372.6016612368,11364.2029632390
9447630177,19609,2,0,20306.8760786539,45191.4830560350,43828.6158379878,59033.7469865376,69200.1010360421,56577.0524948951,58376.8617058543,58513.6266181441,63359.5822256363,11356.1114448518
9447630177,19609,2,0,20553.6613056168,45227.1587431199,43882.8350950308,59050.9521098452,69228.5734466078,56554.2989018362,58388.0438192345,58530.4545428502,63333.9083853399,11348.2267773105
9447630177,19609,2,0,20623.5038853805,45224.7860422394,43893.6765129000,59048.2752165442,69219.4355062938,56570.6522863663,58387.5327759680,58516.6685423498,63320.8524466489,11350.8063290370
9447630177,19609,2,0,20380.8070045501,45180.5807996817,43832.7163518171,59029.2571064099,69175.3276053106,56610.0391209821,58375.0973898149,58471.3682070780,63318.8082735826,11358.4719780354
9447647631,19610,2,0,20172.8488981492,45168.0480719540,43794.7531377295,59034.1363528359,69170.8742282734,56652.1880227768,58380.8405427153,58477.4642231863,63352.3667814203,11365.7482607355
9447647631,19610,2,0,20319.4818125625,45214.8450339351,43849.2400841026,59069.0089719305,69220.7496175506,56620.3694955848,58407.2201094275,58535.2121123080,63378.2839756532,11369.3012282078
9447647631,19610,2,0,20590.9066255918,45253.5383098320,43906.3795883832,59076.3095900242,69249.9764253193,56611.1585490898,58412.4522190614,58552.7700988235,63368.1361165028,11367.1475458702
9447647631,19610,2,0,20622.9076682362,45239.6914708475,43890.2573900928,59040.7920829981,69224.8988021673,56588.6726453610,58385.9388076842,58509.2097441974,63339.5420289689,11367.9262784668
9447647631,19610,2,0,20418.6242062758,45195.1333650819,43831.7794391617,59009.0952327743,69180.9612489396,56566.6856172020,58364.2803073393,58468.4601275374,63323.8335323705,11368.3521478556
9447647631,19610,2,0,20220.2664126682,45163.2174963153,43789.7278789416,59005.6152714830,69163.3789270305,56573.6212043911,58361.4208985859,58461.9990805244,63324.5879295735,11367.5125767749
9447647631,19610,2,0,20275.1427253397,45185.3505368363,43804.0857611927,59044.1016965339,69192.1920331072,56621.3550790275,58384.6368641241,58495.4115760002,63344.1779214584,11365.1398758944
9447647631,19610,2,0,20535.9329713458,45233.1939207441,43861.3347747447,59066.5997679595,69233.8055562416,56600.3414666142,58397.7049705119,58535.6258140000,63357.1851893622,11360.2241263779
9447670446,19611,2,0,20670.7388844471,45239.2777691555,43882.4943995197,59054.6754250731,69229.7537131996,56573.0006518531,58380.0496424219,58525.2711040037,63336.8651356679,11360.6013249794
9447670446,19611,2,0,20451.9515278738,45192.3347948126,43831.7794391617,59009.5697729504,69179.1117590225,56579.1331710519,58353.8890942525,58470.2974497576,63318.7352674017,11365.2372174690
9447670446,19611,2,0,20183.5199682629,45157.7663681387,43784.1429060999,58994.1411333789,69155.9809673621,56590.2544459480,58356.9431861551,58456.6087908318,63328.1774001363,11369.8487745649
9447670446,19611,2,0,20238.1407593011,45177.0521676030,43810.5954789930,59018.7685517486,69187.1911097129,56592.3594574984,58377.0928920939,58502.9555480304,63347.6822181435,11366.3566455767
9447670446,19611,2,0,20501.7904140606,45212.9833763212,43862.6245506079,59043.0066038199,69221.4188408759,56589.2931978990,58384.8802180606,58533.5451378433,63344.1170829743,11364.7505095961
9447670446,19611,2,0,20623.5525561678,45220.5881868355,43869.8521625207,59054.5902511953,69223.6942001818,56626.2343254535,58384.6246964273,58523.7623095976,63347.2685164515,11365.3345590436
9447670446,19611,2,0,20497.7750741090,45197.3843889941,43841.9029629184,59055.1864683396,69200.3200545849,56594.1359412345,58382.3128340309,58501.1668965974,63351.1500117380,11372.1971400517
9447670446,19611,2,0,20267.6717594904,45158.6424423099,43797.8437327225,59028.9529139894,69168.0148195200,56574.2417569290,58371.8972855505,58476.1014411422,63340.5276124116,11371.1872212154
9447694887,19612,2,0,20213.2213162077,45154.9556301726,43791.0176548049,59010.1173193074,69167.7714655835,56571.8933914422,58363.2947238967,58482.6598297297,63345.6380450772,11358.5814873068
9447694887,19612,2,0,20450.0168640790,45197.6399106274,43847.4149295792,59023.5747919936,69210.7599384590,56572.0394038041,58370.4006588413,58526.0011658130,63353.4497064375,11346.2677781220
9447694887,19612,2,0,20656.5878530421,45222.2916643907,43885.3294728795,59026.0204990550,69224.8501313800,56567.8780514906,58371.7634408854,58532.3892066451,63335.2103288999,11350.8671675211
9447694887,19612,2,0,20508.1906225895,45185.5087168950,43832.9475380567,59001.6486023187,69179.6958084700,56578.0624137314,58351.7475796117,58476.6854905897,63312.0795372395,11356.8293389643
9447694887,19612,2,0,20233.6752145671,45144.4549078144,43771.0382966216,59002.3664964312,69146.9890394099,56593.6127302712,58350.0684374501,58448.9309741365,63325.5005068352,11360.2971325589
9447694887,19612,2,0,20208.9017838356,45151.3296565193,43777.8278714488,59026.0691698423,69167.3090931043,56594.3184566869,58370.6683481714,58482.8910159694,63352.7561477186,11356.9266805389
9447694887,19612,2,0,20424.9270732301,45190.1932801718,43835.2594004531,59049.3094707741,69205.3574810696,56588.4901299087,58386.4985217380,58515.9263128437,63355.9440842862,11354.6999920203
9447694887,19612,2,0,20604.9724831191,45213.7377735242,43866.9927537673,59049.3703092583,69216.1867312420,56590.0840981925,58380.9743873804,58516.4616915039,63343.5208658300,11355.0771906218
9447766649,19613,2,0,20551.9456603648,45198.4429786177,43856.8083915265,59040.9989338441,69196.9009317777,56593.7222395426,58377.2389044558,58497.3097367045,63336.2932539172,11356.1601156391
9447766649,19613,2,0,20304.3086946243,45154.6271023583,43800.2651043903,59018.9875702914,69158.0008050347,56587.1151801677,58366.5800020389,58466.4037867743,63331.4383428848,11360.7838404318
9447766649,19613,2,0,20184.5177194024,45149.6261789641,43784.7391232442,59024.3900276808,69163.3180885463,56603.1157014899,58375.9856316830,58476.4056335627,63351.6488873077,11364.3976463882
9447766649,19613,2,0,20395.6029238868,45195.2915451406,43841.1607334122,59067.0864758325,69213.1813101268,56586.4216214488,58404.6892284883,58530.8804122391,63365.3253785367,11357.8879285879
9447766649,19613,2,0,20654.3854999171,45223.6909495254,43890.4155701515,59076.4069315988,69232.7104635276,56563.6436929963,58397.9604921452,58541.5758177464,63344.1414183680,11352.2664526557
9447766649,19613,2,0,20573.5554899223,45187.0418466947,43851.4789403181,59026.0083313582,69186.0473462116,56565.3471705515,58357.8557634168,58481.9906064045,63316.8736097878,11349.0055099072
9447766649,19613,2,0,20291.4231036888,45140.0015307772,43783.9238875571,58996.3313188070,69144.8353570723,56593.2598670633,58341.9525836692,58448.5781109287,63320.0615463554,11348.4214604597
9447766649,19613,2,0,20196.8192608904,45145.1362988364,43786.4060977090,59027.7361443071,69162.9165545512,56592.2256128333,58372.2136456679,58481.2970476856,63341.8538913653,11356.1844510327
9447776126,19614,2,0,20364.5144585042,45189.0251812768,43839.3720819792,59054.1278787160,69203.3011403065,56578.4517800298,58393.3854381398,58524.1030051087,63356.5889722178,11359.0681951797
9447776126,19614,2,0,20589.7020236064,45225.6621164107,43881.5574868644,59055.5880023348,69231.8343893563,56569.4111812903,58393.2759288684,58539.8723401912,63357.7570711129,11364.6166649310
9447776126,19614,2,0,20604.6196199113,45213.7134381305,43874.0378502278,59033.0899309092,69213.4976702441,56579.3278542010,58373.1383906264,58513.1885810585,63340.2720907783,11368.0114523446
9447776126,19614,2,0,20350.9596442434,45161.6478634252,43817.7744201185,59012.6725356403,69168.3068442438,56596.6668221737,58360.5569921115,58464.6638061286,63326.0358854954,11368.9605326968
9447776126,19614,2,0,20152.5653475453,45138.0060284982,43780.1519015420,59003.4250860548,69157.5140971618,56634.5935331708,58359.4010609133,58456.2802630176,63334.5897763620,11360.5404864953
9447776126,19614,2,0,20316.6954099900,45182.7831528066,43833.4220782328,59033.2846140583,69206.7567662042,56613.5677530608,58379.9766362409,58513.6996243251,63365.7512479255,11355.7829170375
9447776126,19614,2,0,20605.8363895936,45229.6774563622,43889.8436884008,59059.2626467753,69242.9069934652,56573.3778504546,58387.8491360854,58543.7173323872,63358.9616730983,11363.0713674345
9447776126,19614,2,0,20615.8382363820,45219.2132370945,43873.5389746581,59045.9876895415,69218.5350967289,56580.2404314627,58373.5520923184,58504.2574915904,63346.0882498596,11371.1385504281
9447797441,19615,2,0,20368.3837860939,45171.4671947613,43818.3949726565,59013.1227404227,69172.4925319508,56614.6263426844,58353.3780509860,58462.3884468227,63351.7948996696,11367.7437630145
9447797441,19615,2,0,20194.8480940051,45148.1295522549,43798.0019127812,59002.2326517662,69158.8403761155,56580.9461578785,58351.4555548879,58463.9580797129,63348.4974538306,11362.3291379283
9447797441,19615,2,0,20273.8164463860,45171.4428593676,43816.4238057712,59018.6468747803,69185.3294520990,56571.9663976231,58369.3542369145,58492.4061548849,63348.7773108575,11359.0560274829
9447797441,19615,2,0,20522.5241694469,45217.5949334171,43867.0535922514,59054.4442388334,69226.6144474193,56576.6874639904,58399.5179573386,58526.4392028987,63354.2527744278,11360.4431449207
9447797441,19615,2,0,20636.2069608636,45227.6211155992,43886.5340748650,59057.1454675281,69229.6807070187,56588.5996391801,58396.8532317343,58521.4991179886,63347.6335473562,11370.7613518266
9447797441,19615,2,0,20426.6062153916,45186.1657725234,43837.0358841892,59029.5612988305,69186.4123771163,56612.3631510753,58370.5953419904,58474.6413175234,63337.7533775359,11374.5698409322
9447797441,19615,2,0,20180.0035038811,45157.9367158942,43787.8297182373,59024.2075122284,69166.2748388743,56624.2023200840,58371.1672237411,58465.4790418157,63349.1301740654,11373.5234190054
9447797441,19615,2,0,20282.0296417414,45190.5583110765,43820.1106179085,59056.1963871759,69205.8685243362,56626.4655116931,58392.3268485162,58520.8298946633,63373.0883691098,11369.8366068680
9447866819,19616,2,0,20574.0543654921,45234.3133488518,43884.1248708940,59083.0626617610,69244.7078125950,56593.0773516110,58404.8109054565,58554.4979117724,63362.3199574215,11369.2038866333
9447866819,19616,2,0,20644.1646345858,45236.3331865244,43891.8635260734,59069.9337168890,69236.6162942077,56612.5334988308,58400.8077332018,58528.9944192315,63345.3095172630,11373.9979591815
9447866819,19616,2,0,20456.1493832777,45198.4794817082,43846.4780169238,59045.5983232431,69199.8941851961,56590.1571043734,58383.9311377084,58491.8221054374,63340.7587986512,11372.9272018611
9447866819,19616,2,0,20233.5170345084,45164.9696446578,43800.5692968109,59039.3927978634,69175.1450898582,56606.9971967764,58384.1744916448,58482.0149417981,63348.2662675910,11367.4030675035
9447866819,19616,2,0,20231.9352339214,45177.5753785664,43807.5048840000,59043.5906532674,69194.7837525305,56635.9076444277,58392.6918794209,58504.2209885000,63371.2145437990,11363.6067460947
9447866819,19616,2,0,20488.1747613157,45232.8167221426,43886.6192487427,59062.6087634016,69241.3495282719,56611.9737847770,58401.5864657985,58548.5479080260,63387.0203819720,11365.9064407942
9447866819,19616,2,0,20665.9813149894,45245.7388161685,43914.3494298022,59050.1612095517,69242.1039254749,56584.2922745048,58381.3272505883,58542.5492334923,63363.9382610989,11371.3454012741
9447866819,19616,2,0,20491.5087102452,45198.1144508035,43847.9259728458,59012.7820449117,69188.2131962461,56589.9259181338,58351.8327534895,58486.2493002925,63338.0088991692,11378.4148331282
9447891536,19617,2,0,20213.9513780171,45154.5419284806,43778.3632501090,59006.9780535271,69156.0661412399,56619.5664275945,58353.2685417146,58462.9359931797,63347.6335473562,11377.1615603555
9447891536,19617,2,0,20236.8388157410,45175.4095285319,43802.8689915104,59043.4081378150,69188.0428484906,56600.7916713967,58378.9910527983,58508.9785579578,63367.4182223903,11366.5148256354
9447891536,19617,2,0,20491.1801824310,45218.6413553438,43862.3203581873,59065.9548800279,69226.5049381479,56587.9790866421,58389.3700981882,58544.2040402602,63372.3583073004,11354.4809734775
9447891536,19617,2,0,20627.3488775765,45227.8279664452,43867.1387661292,59056.3910703251,69226.0547333654,56582.4427845877,58379.4655929744,58528.2156866348,63359.5822256363,11350.8671675211
9447891536,19617,2,0,20509.9184355383,45196.2284577960,43832.5581717584,59033.7104834471,69191.1942819677,56588.0399251262,58369.2203922494,58493.4890799021,63345.7597220454,11354.8460043822
9447891536,19617,2,0,20272.2711488894,45152.2422337810,43781.1374849846,59024.5360400426,69156.5406814160,56576.5536193254,58361.7737617938,58465.2721909697,63333.9083853399,11358.8126735465
9447891536,19617,2,0,20194.4343923131,45143.7735167923,43777.3168281822,59019.2309242278,69158.1346496998,56583.0876725193,58365.1077107233,58470.4069590290,63328.8344557647,11363.3512244614
9447891536,19617,2,0,20431.2299401844,45185.5452199854,43834.1278046486,59044.7222490719,69200.0401975580,56562.7676188250,58381.2055736200,58514.2958414694,63335.6727013792,11364.6166649310
9447901373,19618,2,0,20658.0601443576,45208.5056638903,43868.3555358115,59043.6393240546,69215.3593278581,56572.5626147675,58372.5300057853,58527.7411464587,63336.0985707680,11364.3611432977
9447901373,19618,2,0,20536.0911514045,45181.2621907038,43832.5946748489,59013.9136407162,69181.3262798443,56604.8556821356,58358.4154774707,58484.9473567324,63335.4293474427,11369.3985697824
9447901373,19618,2,0,20240.1240938832,45146.2678946410,43782.7192855716,59002.2934902503,69150.0796344030,56639.3145995381,58357.0891985170,58458.7503054726,63344.6281262409,11368.4008186429
9447901373,19618,2,0,20179.0787589225,45151.6946874240,43788.7179601053,59029.3666156813,69165.0093984047,56591.3373709653,58376.2289856195,58487.2713868256,63355.1045132054,11365.9794469752
9447901373,19618,2,0,20409.5227690522,45194.1842847297,43841.4040873487,59082.9044817023,69205.4304872505,56564.4345932897,58404.7865700629,58526.3540290209,63357.9760896557,11365.5535775864
9447901373,19618,2,0,20605.5565325667,45214.1636429130,43868.1608526623,59064.1783962918,69216.0407188801,56556.0267147851,58389.2970920073,58525.4171163655,63343.8980644315,11365.5170744959
9447901373,19618,2,0,20557.3846208446,45192.5659810523,43855.2995971205,59025.2661018520,69190.5980648234,56569.3260074126,58367.1153806991,58498.9888788661,63333.0444788654,11365.6022483737
9447901373,19618,2,0,20304.4303715925,45147.9592044994,43804.8036553053,58990.1622965178,69153.7421111467,56594.0994381441,58348.2311152299,58464.6638061286,63330.3067470803,11365.5535775864
9447917539,19619,2,0,20145.4594126007,45132.3602171723,43774.4330840352,58988.1424588452,69146.7091823830,56590.6924830337,58349.0341832202,58461.0256647785,63336.5852786409,11359.6644123241
9447917539,19619,2,0,20326.7580952626,45170.8709776170,43806.1907727431,59027.5292934611,69189.6976552585,56569.1069888698,58371.5809254331,58510.7793770876,63348.8868201289,11353.8725886363
9447917539,19619,2,0,20611.9567410955,45210.7566878026,43857.0882485534,59058.8002742960,69222.3435858344,56567.5860267669,58380.1469839964,58538.0715210614,63347.2198456642,11353.6048993062
9447917539,19619,2,0,20582.8759456887,45192.5294779618,43845.0422286987,59035.1706070659,69194.7715848337,56596.7763314451,58357.1622046979,58495.4724144843,63327.2769905714,11355.9897678835
9447917539,19619,2,0,20309.8571643755,45146.7667702107,43788.7544631958,59007.5255998842,69153.4865895134,56596.0827727262,58338.2901069255,58456.3411015017,63326.0237177986,11360.5161511017
9447917539,19619,2,0,20182.7047325758,45134.5504026005,43774.1410593114,59013.7311252639,69152.9268754596,56565.1403197055,58347.2455317872,58472.4998028826,63332.6672802639,11360.8446789159
9447917539,19619,2,0,20338.4147488190,45165.3711786530,43811.2647023182,59047.0827822555,69183.9301669644,56569.7032060141,58369.0135414035,58506.6910309550,63334.7966272080,11354.8703397758
9447917539,19619,2,0,20556.8249067908,45203.3952312247,43852.1603313402,59049.7110047693,69208.9347839355,56576.9916564110,58370.9117021078,58520.2701806094,63339.7367121181,11348.9690068167
9447990457,19620,2,0,20600.9936462580,45202.6286663248,43849.1062394376,59036.1075197212,69199.7846759247,56583.9515789937,58365.5700832026,58506.0704784171,63343.0828287444,11352.3151234430
9447990457,19620,2,0,20377.0228508382,45164.2395828485,43796.0672489864,59015.1425780953,69161.6511140816,56601.1567023014,58352.4289706338,58466.9026623440,63337.8872222010,11359.9199339573
9447990457,19620,2,0,20151.2269008948,45135.3534705908,43748.4672190150,59026.9209086199,69140.3941477319,56580.6419654579,58353.1712001400,58452.8854756040,63328.4937602537,11366.5756641195
9447990457,19620,2,0,20276.7975321076,45169.8488910838,43797.1015032163,59053.0084506083,69178.1870140640,56561.2709921158,58372.1163040933,58502.6026848225,63332.3144170561,11366.1497947307
9447990457,19620,2,0,20577.3518113311,45216.2199836761,43868.4285419924,59057.0481259535,69221.1876546362,56584.5964669254,58380.0739778155,58540.8335882402,63336.7312910028,11363.4729014296
9447990457,19620,2,0,20616.2641057708,45206.0234537384,43865.0580899725,59024.9862448251,69201.8896874751,56587.9060804612,58360.5326567179,58506.7397017423,63326.1332270700,11356.3669664850
9447990457,19620,2,0,20390.6506712798,45163.9840612152,43809.9140879709,59003.0965582406,69163.0260638226,56596.2166173913,58352.4411383306,58468.6548106865,63336.0620676775,11353.7874147586
9447990457,19620,2,0,20228.7351296570,45150.7212716782,43791.3705180127,59031.0335901461,69160.1423196755,56583.9150759033,58372.9437074773,58480.1289487906,63355.6155564720,11356.6954942993
9447997833,19621,2,0,20280.6181889100,45174.4361127861,43801.4332032853,59053.7141770240,69186.6192279623,56577.7338859172,58390.4895262959,58508.7838748086,63356.1874382227,11358.3259656735
9447997833,19621,2,0,20508.5678211910,45215.5507603508,43840.5888516615,59061.8908692891,69224.8379636831,56585.7645658204,58402.9127447522,58540.0670233404,63352.2086013616,11359.0803628766
9447997833,19621,2,0,20642.7045109671,45224.3966759411,43860.0084957909,59045.7078325145,69224.1079018738,56592.7001530094,58384.2596655226,58533.5573055401,63341.2455065241,11353.1668622206
9447997833,19621,2,0,20454.8231043240,45176.5167889428,43809.3543739170,59006.1384824463,69173.6727985427,56584.1949329302,58349.8615866041,58480.1897872747,63330.5014302295,11350.9036706115
9447997833,19621,2,0,20192.0251883421,45135.4264767717,43749.2337839149,58992.3646496428,69142.8033517029,56577.4175257998,58336.9759956686,58452.7151278485,63328.0192200776,11350.2344472863
9447997833,19621,2,0,20233.1641713005,45155.2841579868,43769.0062912522,59017.7464652154,69173.5632892713,56571.4066835693,58357.6124094804,58495.8009422985,63339.3230104261,11350.5994781910
9447997833,19621,2,0,20500.3667935323,45201.7039213663,43838.3013246588,59043.3959701182,69215.1889801025,56566.8924680480,58376.7400288860,58535.0052614620,63337.6803713550,11352.5949804699
9447997833,19621,2,0,20604.2545890066,45209.6250919980,43852.9633993305,59035.6816503324,69209.5431687767,56568.9001380238,58371.2645653157,58512.4950223396,63326.3644133097,11356.1722833359
9448019644,19622,2,0,20440.8180852808,45173.1098338324,43809.7680756090,59010.7378718454,69174.9625744059,56594.5496429265,58356.9066830646,58473.5097217189,63331.9615538482,11361.1732067301
9448019644,19622,2,0,20223.8193801405,45134.4773964195,43764.4920757309,59001.3687452917,69151.4910872344,56581.6397165974,58351.4433871911,58460.7823108421,63337.1936634821,11361.2097098206
9448019644,19622,2,0,20198.8634339566,45139.7825122343,43763.6403369532,59022.8082270938,69164.1454919303,56585.5820503680,58366.5313312516,58479.7517501890,63343.8980644315,11360.0416109256
9448019644,19622,2,0,20439.7716633541,45193.3082105585,43818.2124572041,59064.2757378664,69214.8726199852,56596.0219342421,58400.1871806638,58528.5928852363,63363.7679133434,11360.5648218890
9448019644,19622,2,0,20653.7284442887,45224.9077192076,43863.5979663537,59067.3054943753,69236.7744742664,56600.6334913380,58408.1691897797,58540.2008680054,63365.0698569034,11362.3778087156
9448019644,19622,2,0,20518.2654755589,45185.0828475062,43828.1534655085,59015.5076090000,69189.9775122854,56598.0539396115,58363.5137424395,58483.9374378961,63342.8516425047,11359.9929401383
9448019644,19622,2,0,20217.9058794845,45134.7329180528,43756.8020913388,58982.6548275781,69144.7258478009,56575.1543341908,58334.3112700644,58443.2608274170,63321.6555146392,11362.3656410188
9448019644,19622,2,0,20185.0044272753,45133.8568438816,43752.2635404238,58998.3998272669,69155.4334210051,56552.9239520952,58339.3851996396,58468.7034814738,63318.0660440764,11358.8491766369
9448059150,19623,2,0,20434.6247275980,45174.8863175685,43808.3444550807,59035.8885011784,69197.2051241982,56577.9285690664,58360.2162966005,58510.2683338210,63317.9200317145,11357.3403822309
9448059150,19623,2,0,20606.8341407331,45193.9774338837,43835.9772945656,59037.0200969830,69208.8982808451,56578.3179353647,58360.6543336861,58505.8271244806,63319.2828137587,11357.9731024657
9448059150,19623,2,0,20520.0419592950,45172.9881568642,43810.0114295455,59016.9433972251,69180.3406964016,56577.4783642839,58349.2897048535,58473.0595169364,63316.1557156752,11357.6445746515
9448059150,19623,2,0,20291.1310789650,45136.1200354906,43765.6358392322,59012.3318401292,69148.4369953319,56587.5167141629,58353.9377650398,58451.6565382249,63325.2693205956,11361.4652314539
9448059150,19623,2,0,20175.6353007216,45126.4467165164,43748.2238650786,59005.7369484512,69145.9912882705,56574.6432909242,58361.1167061654,58455.1121641226,63327.7636984443,11359.5305676590
9448059150,19623,2,0,20366.2057683626,45167.7438795335,43799.7905642142,59024.1223383507,69190.1600277378,56561.0398058761,58377.9689662651,58499.5729283136,63333.1053173496,11359.0803628766
9448059150,19623,2,0,20625.8887539578,45206.3154784622,43847.5001034570,59042.2278712232,69217.1601469879,56553.6053431173,58384.8802180606,58525.0277500672,63329.2968282440,11359.1898721480
9448059150,19623,2,0,20566.8632566697,45182.5397988702,43817.7014139376,59018.7928871422,69185.3416197959,56572.7207948262,58366.0811264691,58483.6332454756,63319.1854721841,11358.5814873068
9448076269,19624,2,0,20274.2423157748,45132.8225896516,43744.3910405794,58988.6169990213,69140.5523277906,56586.4094537520,58348.1094382616,58445.7673729626,63320.8646143457,11359.9564370478
9448076269,19624,2,0,20166.8502236155,45132.1290309327,43741.4829610387,58998.4241626606,69152.6956892199,56585.6793919426,58363.0270345666,58475.1645284868,63337.5221912963,11364.3003048136
9448076269,19624,2,0,20352.6509541018,45179.4735392708,43806.6531452223,59029.9628328257,69200.2105453135,56601.7164163552,58385.6224475668,58525.3684455783,63348.6069631020,11367.5977506526
9448076269,19624,2,0,20570.1241994182,45214.1636429130,43858.8403968959,59049.3094707741,69224.4851004753,56592.7853268872,58392.4850285749,58538.6190674184,63346.1977591310,11366.5269933322
9448076269,19624,2,0,20563.5779785275,45195.3037128374,43840.3698331187,59036.2413643863,69199.5656573819,56575.9330667874,58371.4349130712,58507.8104590627,63325.9750470113,11363.1808767059
9448076269,19624,2,0,20329.6175040160,45141.0722880976,43769.4686637314,58999.3367399223,69149.2887341095,56562.9866373678,58343.2910303197,58464.6881415222,63309.7190040559,11361.9641070236
9448076269,19624,2,0,20148.1728089923,45119.9491664130,43721.0047272857,58988.6048313245,69135.9042676043,56566.5031017496,58334.5667916977,58457.3753557317,63317.3846530543,11359.7860892923
9448076269,19624,2,0,20296.5578717480,45160.1755721096,43762.6669212074,59009.5454375568,69176.8485674135,56569.9587276474,58350.3726298707,58505.4985966664,63339.1283272769,11353.7387439713
9448106841,19625,2,0,20592.7561155089,45204.6363363006,43828.7983534401,59031.8123227427,69211.9280373540,56571.9785653200,58360.2771350846,58536.1003541761,63339.7367121181,11355.0406875313
9448106841,19625,2,0,20600.1297397836,45186.4943003376,43824.5518272489,59014.5220255573,69183.5042975756,56574.0957445672,58345.9192528335,58494.0731293497,63312.9921145012,11360.2484617716
9448106841,19625,2,0,20335.2876507355,45140.4639032564,43761.8151824298,58988.4709866594,69140.1021230082,56585.0101686173,58333.5325374677,58450.0869053347,63309.2809669702,11361.5869084221
9448106841,19625,2,0,20170.0503278799,45122.1271841443,43730.4590277171,58984.6746652507,69132.8745110953,56571.7717144740,58337.9372437177,58456.6087908318,63315.4864923499,11356.1722833359
9448106841,19625,2,0,20283.0030574873,45149.9182036879,43767.5705030271,59009.4480959822,69162.2108281355,56565.7973753339,58353.4388894701,58488.4394857206,63314.0628718217,11350.5873104942
9448106841,19625,2,0,20520.9423688599,45187.9057531691,43814.7324959128,59030.1331805812,69193.1776165498,56552.5832565842,58360.8733522289,58508.1633222706,63307.0299430580,11351.6093970273
9448106841,19625,2,0,20612.0297472765,45190.8381681034,43822.5563249699,59022.6743824287,69191.2672881486,56537.5683187047,58354.2541251572,58497.9667923330,63298.7924123089,11357.5107299864
