steady_timestamp,sequence,battery,flags,EEG-ch1,EEG-ch2,EEG-ch3,EEG-ch4,EEG-ch5,EEG-ch6,EEG-ch7,EEG-ch8,EEG-ch9,EEG-ch10
9745782627,23322,-2,0,11007.3609185126,43199.8622723591,41789.9790737879,57742.1946395696,65494.2707885564,54910.1875394235,55867.1647268511,55646.4913772702,58504.1114792286,11986.6658296103
9745782627,23322,-2,0,10861.0200288231,43176.4637913685,41764.8162767581,57717.7740720459,65462.6834476041,54923.9005337429,55847.7937535089,55612.8720309484,58494.6936818876,11983.3562160744
9745782627,23322,-2,0,10653.1714316936,43148.2469024361,41728.6417141035,57703.9759038487,65437.3868059092,54911.5381537708,55837.7432359332,55596.2144539978,58498.4413325091,11981.2755399177
9745782627,23322,-2,0,10618.9680359243,43146.5555925777,41721.7669653985,57710.2909384998,65441.5116551321,54896.7178990405,55841.0406817722,55605.8634375784,58503.1137280891,11979.1705283673
9745782627,23322,-2,0,10820.7692877328,43177.0721762097,41764.4025750661,57731.4870663654,65481.0566698067,54894.3695335537,55863.9524548898,55639.2394299637,58512.7140408824,11980.2169502941
9745782627,23322,-2,0,11021.5362853113,43201.6630914889,41801.9885905522,57746.3681595799,65507.4362365188,54910.3092163917,55876.4730149206,55660.9100980054,58515.8776420564,11985.7532523485
9745782627,23322,-2,0,10921.0432772507,43178.9338338236,41762.7477682982,57716.7033147255,65476.8466467060,54929.0839725895,55854.4738190647,55624.0906474191,58500.8140333896,11990.8271819237
9745782627,23322,-2,0,10645.8221428125,43141.8101908168,41701.4834147947,57686.8559544189,65437.7518368138,54934.4255914948,55835.9424168034,55587.6362277376,58505.0727272776,11988.1381209258
9745813086,23323,-2,0,10606.4109728030,43149.6948583581,41721.2924252224,57709.1593426953,65453.0101286298,54934.4012561011,55856.1651289231,55618.6395192425,58527.2666062826,11990.2187970826
9745813086,23323,-2,0,10831.3430162719,43185.7964148317,41789.1029996167,57736.0134495835,65497.0571911289,54912.0370293406,55872.7253642991,55660.1191977119,58538.2175334233,11993.6379198898
9745813086,23323,-2,0,10991.1778817381,43197.6477515373,41811.2360401376,57738.6903428846,65507.3753980347,54898.1050164783,55867.1768945479,55653.0862689482,58518.9439016557,11994.2584724278
9745813086,23323,-2,0,10911.4307967605,43172.1442589964,41769.0749706461,57718.3824568871,65474.4739458255,54880.2671729359,55847.0758593964,55617.8729543426,58496.1903085968,11989.4400644859
9745813086,23323,-2,0,10682.7024318829,43131.0174437348,41707.2630707856,57685.2984892255,65432.2520378499,54890.9990815337,55824.0789124010,55584.9593344366,58478.7661667464,11983.6360731014
9745813086,23323,-2,0,10572.6091110289,43124.3982166632,41689.5225688177,57679.8716964425,65428.2610332920,54916.3200586223,55822.8134719314,55589.0476805691,58485.6044123609,11981.8109185779
9745813086,23323,-2,0,10757.0592271679,43167.7152173528,41743.8878382226,57722.7871631370,65479.1828444960,54916.7702634047,55859.4504070653,55640.5900443111,58522.5455399153,11985.5342338057
9745813086,23323,-2,0,11002.9197091722,43201.6630914889,41803.3757079900,57748.4975065239,65515.2357301823,54898.2753642338,55879.4784360359,55668.9042748180,58532.1093496182,11985.1326998106
9745860315,23324,-2,0,10953.5918662520,43175.3808663513,41778.5049356839,57708.0277468908,65481.7867316161,54898.0563456910,55846.4918099489,55621.6206049641,58496.8108611348,11976.8586659710
9745860315,23324,-2,0,10679.2224705915,43132.7452566837,41718.3113395008,57668.1055336147,65432.0330193071,54895.5498001455,55815.3790091726,55572.4874451930,58475.4687209074,11972.6851459607
9745860315,23324,-2,0,10575.3103397236,43128.1336995878,41709.8304548152,57682.6580990149,65433.2011182021,54895.0752599694,55824.4074402152,55586.3951226617,58488.2326348746,11973.3665369828
9745860315,23324,-2,0,10750.9753787564,43160.7431270733,41751.1641209228,57732.9350222873,65477.1751745202,54903.2762876281,55860.8740275936,55633.6301217283,58510.9253894494,11984.3783026076
9745860315,23324,-2,0,10956.6581258514,43187.6945755361,41782.2647540022,57747.5119230812,65505.9639452033,54914.4462333115,55875.4509283875,55650.8109096423,58517.9096474258,11993.8326030390
9745860315,23324,-2,0,10964.4941226054,43182.4137951150,41769.4400015508,57726.6321553330,65496.3271293195,54930.7631147511,55868.1746456874,55638.9595729368,58513.7117920219,11996.2904777972
9745860315,23324,-2,0,10756.1831529966,43146.1905616731,41725.4416098391,57687.3304945949,65454.2268983121,54944.3909351928,55841.6247312197,55602.8458487663,58509.3557565593,11988.3449717718
9745860315,23324,-2,0,10570.9299688673,43123.2909562523,41694.4139829406,57669.5169864462,65426.6792327050,54902.7652443615,55825.0888312373,55583.4140369400,58500.2421516389,11984.2444579425
9745899624,23325,-2,0,10677.6285023077,43143.8543638831,41730.5277071110,57693.4873491874,65452.4139114855,54870.8250402013,55840.6878185643,55610.4628269774,58506.2773292631,11978.9150067341
9745899624,23325,-2,0,10935.8513642842,43169.8445642969,41773.9542170721,57714.5496323879,65482.5532965159,54878.2473352633,55851.8820996414,55638.3755234893,58510.4021784860,11977.9415909882
9745899624,23325,-2,0,10960.2840995046,43157.2266626915,41752.7094184193,57697.1498259311,65466.1634088954,54887.4826171519,55836.4899631604,55612.2514784104,58491.0920436280,11979.6085654530
9745899624,23325,-2,0,10726.6399851105,43123.6681548538,41689.5469042114,57674.1163758452,65426.3750402844,54898.2388611434,55822.5579502981,55574.4951151688,58479.2163715288,11980.5698135020
9745899624,23325,-2,0,10574.0448992540,43114.9074131413,41678.7176540390,57681.5873416945,65422.8950789930,54891.0842554115,55833.8495729498,55588.0255940359,58493.7811046259,11981.9690986366
9745899624,23325,-2,0,10673.5158207815,43135.7750131926,41717.1067375153,57704.5477855994,65449.0434594655,54889.9161565165,55848.4873122278,55621.3650833308,58503.4057528128,11981.1051921622
9745899624,23325,-2,0,10888.7137067921,43165.7440504675,41761.1172969239,57723.9309266384,65481.2270175622,54896.2676942580,55856.9438615198,55641.9528263552,58509.4409304370,11987.0673636054
9745899624,23325,-2,0,10967.3413636619,43168.5426207368,41765.5950093548,57710.9966649156,65480.2170987259,54885.9129842617,55845.7860835331,55634.2628419631,58511.1444079922,11990.4743187158
9745906057,23326,-2,0,10792.9782681892,43135.8601870704,41725.4416098391,57682.1835588388,65442.3390585161,54901.8891701902,55826.0014084990,55599.0495273575,58506.0704784171,11988.5883257083
9745906057,23326,-2,0,10560.4170788123,43108.6532169743,41682.1246091494,57666.1343667294,65412.5647043904,54901.1956114713,55817.3501760579,55576.4662820541,58499.4147482549,11982.5166449936
9745906057,23326,-2,0,10607.4452270330,43123.3396270396,41707.2265676951,57682.3660742912,65434.0285215860,54900.0275125763,55828.7026371937,55606.3866485418,58507.6887820945,11973.6950647970
9745906057,23326,-2,0,10874.5748430838,43156.7399548185,41762.7842713887,57704.0610777265,65473.6830455320,54877.9674782363,55844.2042829462,55643.4737884581,58511.4972712001,11975.8244117410
9745906057,23326,-2,0,10969.0935120045,43159.3195065450,41757.6008325421,57698.2327509483,65472.3080957910,54892.3375281842,55843.1091902321,55630.0893219529,58499.2930712867,11987.4567299038
9745906057,23326,-2,0,10789.7781639248,43134.6677527817,41712.1788203021,57680.6747644328,65439.3214697040,54915.1762951209,55834.4579577910,55595.4235537043,58488.7680135348,11997.1665519685
9745906057,23326,-2,0,10594.4136237356,43111.2327687007,41680.2872869291,57671.6706687838,65418.6728881955,54894.9414153043,55824.7359680295,55584.5578004414,58491.5057453200,11997.3612351176
9745906057,23326,-2,0,10612.9693613906,43118.2413620708,41693.2580517424,57681.4778324231,65433.6513229845,54890.9625784432,55830.4304501426,55603.5029043947,58502.7486971844,11991.5450760363
9745934301,23327,-2,0,10817.3988357128,43150.7777833753,41733.6548051945,57708.8551502747,65470.8236367786,54895.8053217788,55847.9275981740,55633.4476062760,58514.9894001883,11990.6811695618
9745934301,23327,-2,0,10974.3012862447,43169.1023347907,41762.9667868410,57725.6587395872,65489.8174115192,54912.7305880595,55858.0389542338,55647.4404576224,58514.6365369804,11996.3148131909
9745934301,23327,-2,0,10858.5256509744,43148.8309518836,41743.6688196798,57704.4991148121,65462.9268015405,54929.4490034942,55848.2439582914,55618.2379852473,58502.8217033653,11997.3125643303
9745934301,23327,-2,0,10601.6290679516,43122.7312421984,41690.9705247397,57677.6085048334,65429.2952875219,54927.6725197581,55837.2808634539,55590.0089286181,58498.5751771741,11997.5924213573
9745934301,23327,-2,0,10589.3396941604,43134.5582435103,41691.3598910380,57689.8857109278,65446.6464231914,54888.5777098659,55844.2286183398,55615.6340981272,58515.9749836309,11996.6676763987
9745934301,23327,-2,0,10836.1492565170,43167.4596957196,41747.4164703013,57713.1381795564,65485.6803945994,54865.1427257850,55852.2592982429,55650.7987419455,58518.6883800225,11998.0182907461
9745934301,23327,-2,0,10981.3585504020,43176.0014188893,41767.9555425384,57711.7753975122,65488.6858157147,54879.3789310678,55846.4309714648,55638.3390203988,58500.4246670912,11998.2373092889
9745934301,23327,-2,0,10870.7176831910,43159.5263573910,41743.2186148974,57706.3729401229,65465.6401979320,54899.4921339161,55848.2439582914,55610.9495348504,58493.0388751197,11998.3833216508
9745974128,23328,-2,0,10664.9497622182,43131.3094684586,41705.9611272255,57706.8961510862,65437.2407935473,54910.5525703282,55844.3624630049,55594.3771317775,58500.4124993944,11986.2642956151
9745974128,23328,-2,0,10598.5749760490,43123.2544531618,41697.1152116353,57705.7158844944,65434.7585833954,54899.6503139748,55841.7099050975,55600.0472784970,58505.1457334585,11978.4769696484
9745974128,23328,-2,0,10765.5279441566,43147.2248159030,41735.3947858402,57713.7830674880,65465.9565580494,54898.8229105909,55844.1069413716,55625.5142679474,58507.3480865835,11978.2092803183
9745974128,23328,-2,0,10969.7505676329,43166.4619445801,41764.3052334915,57712.1404284169,65485.7534007803,54885.4384440856,55840.7364893516,55639.7504732303,58501.2885735657,11981.7744154874
9745974128,23328,-2,0,10910.4452133179,43148.8917903678,41723.9814862203,57690.9808036418,65462.4279259708,54881.0580732294,55827.3885259369,55610.5601685520,58485.2515491530,11986.8361773658
9745974128,23328,-2,0,10650.7500600258,43122.0741865700,41666.5742926097,57685.2376507414,65429.3926290965,54894.2478565854,55826.9504888512,55578.8146475410,58487.0523682828,11992.2386347552
9745974128,23328,-2,0,10573.2053281732,43128.0485257101,41678.3891262247,57695.7627084932,65438.3602216550,54896.6448928596,55837.0983480016,55599.7309183796,58510.2439984273,11992.3359763298
9745974128,23328,-2,0,10776.9899145638,43161.8260520905,41738.2055238063,57713.2598565246,65476.2017587743,54888.7237222278,55848.4143060469,55640.5048704333,58520.9150685411,11993.3093920756
9746026892,23329,-2,0,10961.0871674950,43180.0532619313,41764.7067674867,57716.2774453367,65487.5177168197,54897.7034824831,55847.2462071519,55644.6662227467,58515.7681327850,11993.3215597724
9746026892,23329,-2,0,10916.6507386976,43168.2992668003,41745.0316017240,57708.0034114971,65470.7749659913,54911.5503214677,55841.5517250388,55624.3583367492,58511.9109728921,11989.7442569065
9746026892,23329,-2,0,10713.2190155148,43139.2914775745,41707.9931325950,57698.4639371879,65441.3899781639,54896.2433588644,55833.4480389547,55600.9963588492,58505.0970626712,11986.8240096690
9746026892,23329,-2,0,10579.0458226482,43119.6528149022,41685.5924027439,57693.6211938524,65425.6449784750,54908.0095216922,55828.2159293208,55591.5420584178,58495.5454206652,11981.0808567685
9746026892,23329,-2,0,10710.6759668788,43144.8764504162,41723.0080704745,57718.8691647600,65462.6591122104,54932.5517661841,55847.5990703598,55627.1934101090,58516.9483993768,11980.8983413162
9746026892,23329,-2,0,10966.0272524051,43178.1794366206,41774.1367325245,57747.0617182988,65500.6588293885,54894.1748504045,55865.7654417164,55660.4963963134,58527.0354200430,11981.9812663334
9746026892,23329,-2,0,10966.2706063415,43161.3880150049,41753.4516479255,57719.7574066281,65476.2017587743,54862.5510063617,55846.7960023694,55624.5043491111,58490.8486896916,11983.4048868617
9746026892,23329,-2,0,10713.3650278767,43128.2067057688,41698.9768692492,57692.0272255686,65434.5639002462,54884.2338421002,55833.1803496246,55585.3000299476,58476.8558383452,11987.6514130529
9746032482,23330,-2,0,10584.7524724582,43129.5086493288,41698.4049874985,57708.3076039177,65438.1168677185,54902.5948966060,55846.8203377631,55604.6831709866,58501.4954244116,11989.0993689749
9746032482,23330,-2,0,10736.6661672926,43160.9743133129,41736.8792448526,57731.3897247908,65477.1873422170,54918.1695485393,55863.9281194962,55647.5134638033,58523.8109803849,11991.1800451316
9746032482,23330,-2,0,10948.4205951023,43188.5463143137,41763.8671964059,57740.9778698873,65504.9053555797,54919.6661752486,55865.5220877800,55662.0781969004,58525.5874641211,11992.7861811122
9746032482,23330,-2,0,10979.5577312722,43185.5895639857,41766.1425557118,57730.3919736513,65496.8503402829,54914.1420408909,55862.0542941854,55646.7834019939,58518.2625106337,11994.1124600659
9746032482,23330,-2,0,10788.0138478854,43155.1824896252,41731.0630857713,57715.0241725640,65461.1746531980,54931.2011518367,55853.0258631428,55615.3664087971,58510.2805015178,11990.0849524175
9746032482,23330,-2,0,10590.1062590603,43132.9399398329,41694.7425107548,57701.6153706651,65438.0560292344,54921.0289572927,55850.4219760227,55599.4267259590,58508.5648562658,11988.6248287988
9746032482,23330,-2,0,10671.4351446248,43156.1315699774,41726.9625719419,57721.5947288484,65468.9376437710,54905.4908084498,55865.6802678387,55633.7517986966,58527.1936001017,11985.6437430771
9746032482,23330,-2,0,10935.4498302890,43187.1713645727,41780.9141396549,57735.4902386202,65504.9540263670,54902.8382505424,55867.6027639367,55668.2837222801,58533.8980010511,11985.9601031945
9746071765,23331,-2,0,11001.6786040963,43181.5620563374,41771.2651560743,57728.7858376707,65495.3537135737,54896.1703526835,55856.4814890405,55644.9460797737,58509.3800919529,11992.5671625694
9746071765,23331,-2,0,10777.1967654098,43142.0170416628,41708.2486542282,57697.4296829580,65450.2602291478,54905.3569637848,55836.6603109159,55599.5605706241,58492.6373411245,11992.2508024520
9746071765,23331,-2,0,10592.6614753931,43124.1548627267,41677.0385118774,57690.9077974609,65433.3714659576,54908.8734281666,55833.2411881087,55600.5948248540,58504.9997210967,11984.9015135709
9746071765,23331,-2,0,10666.9087614067,43143.1729728610,41707.2143999983,57709.5487089936,65456.7821146449,54904.3227095548,55845.9320958950,55631.7319610240,58523.3242725120,11978.8176651595
9746071765,23331,-2,0,10878.0183012847,43173.7017241897,41751.6751641893,57723.7119080955,65487.5298845165,54908.5692357460,55854.2913036124,55657.4423044108,58537.2197822838,11976.3476227044
9746071765,23331,-2,0,10990.9588631953,43186.3196257951,41772.9077951454,57729.2725455436,65496.7043279210,54929.7410282180,55861.9934557013,55659.8636760786,58534.3117027431,11981.5553969446
9746071765,23331,-2,0,10856.6274902700,43166.2550937341,41748.3290475630,57712.9069933168,65468.3535943235,54931.4688411668,55853.4030617443,55631.6102840557,58518.7857215970,11988.1746240163
9746071765,23331,-2,0,10618.8098558656,43134.7164235690,41689.6320780891,57700.9704827335,65434.8802603636,54908.8734281666,55846.7838346726,55597.7840868879,58499.5242575263,11989.9389400556
9746101681,23332,-2,0,10627.2420697639,43139.9728685965,41697.0057023638,57711.1548449743,65446.2448891963,54885.3167671174,55854.7901791821,55618.1284759759,58512.3733453714,11987.1647051800
9746101681,23332,-2,0,10885.1972424103,43170.9396570109,41759.2313039164,57734.9791953536,65485.2301898170,54878.1986644760,55866.8118636432,55657.7586645282,58525.7943149671,11987.2012082705
9746101681,23332,-2,0,11004.0148018863,43170.7084707713,41760.9956199557,57716.8858301779,65479.0368321341,54881.3987687404,55852.0524473970,55639.2759330542,58497.1637243427,11985.2178736883
9746101681,23332,-2,0,10834.7134682919,43138.1233786794,41703.0530476848,57688.0848917980,65440.1367053911,54879.4641049456,55832.9856664754,55594.9125104377,58472.9256722714,11985.7410846517
9746101681,23332,-2,0,10628.5683487176,43119.8353303546,41676.1746054030,57688.4864257931,65424.8662458784,54891.0477523210,55836.7941555810,55590.9823443639,58486.4561511385,11988.6248287988
9746101681,23332,-2,0,10628.9698827128,43130.7984251920,41700.8993653472,57704.6694625676,65442.4729031811,54893.6029686538,55846.4309714648,55615.9017874573,58500.2421516389,11982.6626573555
9746101681,23332,-2,0,10830.7711345212,43161.1811641589,41737.9500021730,57733.2878854952,65475.1431691507,54894.0653411331,55862.3828219996,55644.2525210548,58509.4165950434,11979.5598946657
9746101681,23332,-2,0,10994.9620354500,43175.1740155053,41759.8518564543,57739.1162122734,65489.1116851035,54881.7394642514,55865.3274046308,55649.6063076569,58504.8780441284,11983.4535576490
9746135421,23333,-2,0,10896.8903990571,43147.9427100156,41721.1585805574,57706.8718156926,65453.2656502631,54876.3856776494,55844.0826059779,55613.2370618531,58481.7594201648,11991.0705358602
9746135421,23333,-2,0,10629.1889012556,43113.4716249162,41664.2380948197,57677.1583000510,65416.1663426499,54915.7116737811,55830.6129655949,55578.0359149443,58479.6179055240,11996.9475334257
9746135421,23333,-2,0,10582.8543117538,43123.1327761936,41674.3007800922,57693.0371444049,65432.1546962753,54917.2691389744,55842.9023393861,55604.9143572262,58513.0060656061,11996.9718688193
9746135421,23333,-2,0,10822.0347282024,43160.0495683544,41736.1005122560,57728.8466761548,65476.8831497964,54889.4051132499,55863.5022501073,55652.9159211927,58530.7587352708,11998.1764708048
9746135421,23333,-2,0,10994.7551846040,43171.2560171283,41762.9059483569,57745.3339053499,65485.4492083598,54900.0518479700,55868.1259749001,55648.8275750602,58510.3048369115,11995.5117452005
9746135421,23333,-2,0,10896.6470451207,43150.1085600500,41735.2001026911,57722.4829707164,65455.6870219309,54904.0915233152,55852.9041861746,55611.3632365423,58497.6504322156,11996.3269808877
9746135421,23333,-2,0,10680.3540663960,43121.9403419049,41693.9759458549,57696.5292733931,65423.8076562548,54899.6259785812,55840.1524399041,55592.7101573128,58497.1150535554,12000.0502961155
9746135421,23333,-2,0,10598.4898021713,43114.9682516254,41680.4211315942,57685.0916383795,65419.0014160097,54882.6520415132,55832.9369956881,55595.3018767361,58494.9127004304,12001.3279042819
9746153253,23334,-2,0,10745.1835550687,43134.4852373294,41707.8592879299,57691.2971637592,65442.7527602081,54902.2420333981,55834.1781007641,55616.1208060001,58502.5783494289,11993.8569384326
9746153253,23334,-2,0,10965.6013830163,43161.6800397287,41763.7333517409,57709.2688519667,65474.4861135223,54894.7588998520,55844.7396616064,55640.4683673428,58517.8974797290,11989.1602074590
9746153253,23334,-2,0,10941.8135357274,43145.5821768319,41741.4299634644,57693.3413368255,65451.7811912507,54892.6903913921,55831.6593875217,55610.5236654616,58490.9947020534,11986.4346433706
9746153253,23334,-2,0,10678.6992596281,43108.8600678203,41670.7964834072,57671.0257808522,65410.2893450845,54891.9968326732,55818.5304426498,55569.6523718333,58467.7665688184,11984.8406750868
9746153253,23334,-2,0,10564.8217850622,43105.4166096194,41656.5116073371,57685.2254830446,65410.7638852606,54870.3261646315,55831.2335181329,55583.9737509939,58481.5525693188,11985.8627616200
9746153253,23334,-2,0,10760.0403128895,43143.2216436483,41718.0071470802,57727.3622171424,65455.8938727769,54880.5957007501,55861.5067478284,55634.0924942076,58509.6964520703,11991.0218650729
9746153253,23334,-2,0,10967.6333883857,43167.9220681988,41752.3322198178,57732.7768422286,65476.0922495029,54884.6597114890,55863.4779147137,55642.0014971425,58511.0470664177,11993.4919075279
9746153253,23334,-2,0,10939.2583193946,43155.6083590140,41725.4781129295,57709.6703859619,65459.3494986746,54877.9918136300,55846.8568408536,55615.0743840733,58510.5238554543,11994.3193109119
9746186638,23335,-2,0,10732.9793551553,43127.5861532308,41682.3679630858,57686.1137249127,65427.8838346904,54890.5488767513,55834.5431316687,55589.9845932244,58504.2453238936,11993.4797398311
9746186638,23335,-2,0,10580.5789524479,43112.7658985004,41664.0677470641,57683.7896948195,65419.2691053398,54900.1978603319,55835.9059137129,55580.8344852136,58493.6594276577,11989.6712507255
9746186638,23335,-2,0,10694.3225823488,43142.1387186310,41706.8493690936,57726.6564907267,65456.3927483466,54915.5413260256,55864.5973428214,55617.9581282204,58507.6766143977,11986.8361773658
9746186638,23335,-2,0,10950.3795942908,43175.5877171973,41762.8086067823,57747.2929045384,65490.7178210841,54891.9846649764,55874.6478603972,55651.0542635788,58515.3300956993,11984.1714517616
9746186638,23335,-2,0,10988.0629513514,43163.8458897631,41751.5169841306,57717.2386933857,65469.2296684948,54876.4951869208,55850.3733052354,55624.6016906857,58493.1483843911,11983.9402655219
9746186638,23335,-2,0,10742.4093201930,43126.1990357930,41685.4707257757,57678.5089143983,65423.0289236581,54883.7958050145,55827.8143953257,55576.3446050859,58474.0207649854,11987.6027422656
9746186638,23335,-2,0,10574.3247562809,43115.0534255032,41658.9208113080,57677.3773185938,65415.2781007819,54884.6475437921,55827.5467059956,55579.7028894090,58489.1938829236,11988.5031518305
9746186638,23335,-2,0,10698.7394562955,43144.0490470322,41698.8430245841,57706.8596479958,65452.1827252459,54905.1014421515,55845.5062265062,55620.8175369738,58519.1507525017,11984.1349486711
9746214343,23336,-2,0,10921.0676126443,43174.9306615688,41746.6499054014,57729.1021977881,65481.7502285256,54908.6422419270,55856.8343522484,55639.1785914796,58524.9304084926,11981.6040677319
9746214343,23336,-2,0,10978.7911663723,43177.4858779017,41743.7053227703,57718.9665063346,65478.0512486914,54908.9829374380,55850.0204420275,55630.4543528575,58513.6509535378,11988.4301456496
9746214343,23336,-2,0,10811.1081364554,43147.1761451157,41704.3428235481,57693.3900076128,65444.6752563061,54894.5033782187,55832.7179771453,55601.5317375094,58494.4868310416,11995.0372050245
9746214343,23336,-2,0,10600.3636274820,43120.0300135037,41661.8410585455,57679.2511439045,65418.1375095353,54878.0769875077,55823.3853536821,55583.7182293606,58482.2096249473,11995.9741176798
9746214343,23336,-2,0,10635.5526066940,43134.1810449088,41684.9840179028,57709.2688519667,65438.6644140756,54883.7836373177,55842.7076562369,55609.3555665666,58497.5287552474,11988.4544810432
9746214343,23336,-2,0,10908.9607543055,43173.5800472215,41751.7481703703,57748.1324756192,65486.5321333770,54890.3906966926,55866.7510251591,55652.0155116278,58520.1606713380,11983.8307562505
9746214343,23336,-2,0,11012.0941525767,43172.8986561994,41750.7625869276,57729.2482101500,65483.8795754696,54917.9748653902,55854.8266822726,55640.1398395286,58511.0592341145,11980.8496705289
9746214343,23336,-2,0,10817.7151958302,43149.5488459962,41705.5352578367,57706.2634308514,65451.9028682189,54932.2840768540,55843.3038733813,55605.3523943118,58502.0794738591,11989.8781015715
9746287948,23337,-2,0,10617.7512662420,43135.3126407133,41678.8149956135,57712.8826579231,65437.6423275424,54902.7287412710,55850.9451869861,55605.4010650991,58506.1069815075,11997.0083719098
9746287948,23337,-2,0,10656.7730699532,43146.5555925777,41695.6794234101,57721.2905364278,65451.4161603460,54871.2144064996,55852.3323044239,55627.7044533756,58508.8203778991,11995.0980435086
9746287948,23337,-2,0,10852.6121503184,43169.3821918176,41726.6827149150,57720.9376732199,65472.2107542164,54871.8592944312,55849.4850633673,55640.9307398221,58504.6590255856,11988.1867917131
9746287948,23337,-2,0,10979.5698989690,43178.9825046109,41739.4587965791,57720.5604746184,65479.9980801831,54907.5836523034,55849.9352681498,55642.7437266487,58510.7063709066,11990.9610265888
9746287948,23337,-2,0,10871.4112419099,43160.3294253813,41713.8701301604,57706.9204864799,65456.3197421657,54912.4628987294,55844.1921152493,55618.9558793599,58500.5098409690,11994.2949755183
9746287948,23337,-2,0,10632.2916639454,43130.3847235001,41667.5963791428,57690.9077974609,65424.0266747976,54901.9621763712,55832.3164431502,55589.4857176547,58485.8842693878,11989.2210459431
9746287948,23337,-2,0,10611.1198714735,43140.0823778679,41678.8028279167,57709.2323488762,65442.5215739684,54897.5087993340,55847.5990703598,55612.4948323469,58502.0916415560,11985.0718613265
9746287948,23337,-2,0,10865.1692134397,43177.3520332366,41742.7319070245,57740.7710190413,65488.4059586878,54889.4781194308,55870.1336448759,55656.6757395110,58520.3066836999,11986.7875065785
9746293155,23338,-2,0,11019.2365906118,43184.3241235162,41754.3763928840,57736.9990330262,65490.6813179936,54880.3645145105,55862.7843559948,55647.6473084684,58509.0272287450,11990.3161386572
9746293155,23338,-2,0,10873.0660486778,43155.3041665934,41708.9178775535,57710.4126154681,65454.4702522486,54913.9595254386,55844.9100093619,55608.2726415493,58501.2764058688,11990.3526417476
9746293155,23338,-2,0,10648.3530237517,43127.0751099642,41673.0353396226,57695.1543236521,65426.7400711891,54894.8805768202,55835.9180814097,55592.1747786526,58502.8217033653,11990.1092878112
9746293155,23338,-2,0,10620.9026997191,43131.0661145221,41678.5108031930,57710.7168078886,65436.5959056157,54892.7512298762,55846.1267790442,55608.2726415493,58506.6423601677,11989.1358720653
9746293155,23338,-2,0,10798.9891104197,43160.6579531955,41725.7944730469,57722.2396167800,65468.0615695998,54907.2429567923,55852.4174783016,55632.7418798603,58520.6838823014,11982.7113281428
9746293155,23338,-2,0,10986.3108030089,43176.6828099113,41748.9617677978,57723.3103741004,65484.0985940124,54875.2905849353,55846.3092944965,55637.4751139244,58508.4310116007,11981.1903660399
9746293155,23338,-2,0,10933.8193589147,43157.4213458406,41722.7768842348,57701.1529981858,65460.3472498140,54876.2396652875,55826.8409795798,55609.2703926888,58479.6179055240,11986.0574447691
9746293155,23338,-2,0,10671.5446538962,43122.2810374160,41666.5986280033,57676.8906107209,65424.2213579467,54892.1671804287,55815.9873940138,55575.5780401861,58468.3627859628,11994.8181864816
9746306717,23339,-2,0,10580.4207723892,43120.7844107068,41657.4363522956,57690.7009466149,65429.8428338789,54893.8463225903,55831.2335181329,55593.6470699681,58494.0001231687,11994.2463047310
9746306717,23339,-2,0,10791.2139521499,43152.2744100845,41711.7529509133,57721.2905364278,65469.9232272137,54889.0400823452,55854.3886451870,55640.2371811032,58518.9073985653,11987.6514130529
9746306717,23339,-2,0,10980.7379978640,43167.3258510545,41743.4376334402,57720.9133378263,65481.8719054938,54887.4096109709,55851.4318948590,55641.5634600569,58508.1146514833,11987.5419037815
9746306717,23339,-2,0,10911.6741506970,43155.8273775568,41716.4010110996,57706.4216109101,65460.7609515060,54901.9256732807,55840.9920109849,55613.8697820879,58492.6251734277,11992.3603117234
9746306717,23339,-2,0,10698.1432391512,43129.0949476368,41678.0119276232,57689.5450154167,65430.2078647836,54877.4929380602,55830.4182824458,55589.2910345055,58486.0667848401,11991.9344423346
9746306717,23339,-2,0,10594.9733377895,43120.0300135037,41666.0389139495,57677.6571756207,65423.1749360200,54876.5073546176,55827.4980352083,55591.4203814495,58488.9870320777,11988.9168535225
9746306717,23339,-2,0,10732.8698458839,43143.0147928023,41695.3143925055,57700.3134271050,65453.3994949281,54872.9665548421,55839.6535643344,55619.7224442597,58496.7621903475,11982.9668497761
9746306717,23339,-2,0,10967.8524069285,43169.1996763652,41734.7498979086,57724.0647713034,65485.3153636947,54877.0427332778,55855.7149241407,55646.7955696908,58505.7906213901,11976.9195044551
9746340901,23340,-2,0,10978.3774646804,43153.3451674050,41715.9751417108,57701.5058613937,65463.4743478975,54868.6348547731,55835.9789198939,55618.6273515456,58480.9320167809,11970.9938361023
9746340901,23340,-2,0,10720.6169751832,43116.1241828236,41657.6067000512,57669.0424462701,65420.2425210856,54884.5867053080,55813.1158175635,55574.0084072959,58460.9769939912,11971.1885192515
9746340901,23340,-2,0,10577.1111588534,43117.1827724472,41646.4854251550,57687.3426622918,65425.0487613307,54902.6679027869,55835.9789198939,55589.1450221437,58482.8180097884,11978.0876033501
9746340901,23340,-2,0,10742.2754755280,43146.8111142110,41691.1530401920,57720.2076114105,65465.9808934431,54889.9039888196,55854.6076637298,55635.5282824327,58504.8780441284,11976.5909766409
9746340901,23340,-2,0,10962.9853281993,43168.9928255192,41731.1969304363,57728.3478005851,65486.3496179247,54864.0476330709,55852.2958013334,55645.0069182578,58497.7599414870,11974.3156173350
9746340901,23340,-2,0,10969.0691766108,43160.7431270733,41732.1703461821,57712.5662978057,65470.7384629008,54879.3059248869,55840.8459986230,55620.0023012866,58487.8311008795,11970.3611158675
9746340901,23340,-2,0,10783.9498371466,43137.6001677161,41693.2580517424,57704.5842886899,65444.5657470347,54890.4758705703,55842.5859792687,55601.2153773920,58489.1208767427,11976.4571319758
9746340901,23340,-2,0,10614.0401187110,43119.2269455134,41649.0649768815,57693.0006413144,65427.4214622112,54870.2409907538,55835.2731934781,55589.4127114738,58484.4363134659,11979.2800376387
9746393236,23341,-2,0,10673.4063115101,43128.6082397639,41653.1776584076,57689.3016614803,65438.5670725010,54859.3265667036,55831.7080583090,55600.6556633382,58484.5579904341,11974.7779898143
9746393236,23341,-2,0,10917.1982850546,43154.7687879332,41700.2666451124,57706.2512631546,65469.5460286122,54851.9042716416,55840.3836261438,55626.6093606615,58491.0677082344,11970.2881096866
9746393236,23341,-2,0,10991.5550803396,43148.1982316488,41704.0751342180,57698.6099495498,65457.0619716719,54860.1418023907,55833.7400636784,55609.1365480237,58475.5173916947,11970.6409728945
9746393236,23341,-2,0,10765.5887826407,43110.7703962215,41648.8946291259,57668.7625892431,65409.9121464830,54876.5681931017,55812.8846313239,55563.3130017885,58466.0509235664,11970.5192959262
9746393236,23341,-2,0,10575.6632029314,43099.1259103619,41626.4330607908,57670.2348805587,65398.6813623154,54892.3618635779,55817.1311575151,55568.0219004590,58488.5611626889,11967.9032411093
9746393236,23341,-2,0,10677.6406700045,43124.6780736901,41672.6946441116,57691.7108654512,65432.9577642656,54887.2392632154,55829.0798357952,55609.7205974712,58504.2088208032,11964.0217458228
9746393236,23341,-2,0,10900.0540002311,43154.2699123635,41715.6101108061,57704.9006488073,65462.9146338437,54882.1288305498,55834.3119454291,55626.5971929647,58487.7824300922,11962.2695974803
9746393236,23341,-2,0,10969.6653937551,43156.2775823393,41715.5857754125,57696.2980871535,65461.4666779218,54864.0476330709,55827.5467059956,55612.5921739215,58469.0563446817,11962.0992497247
9746402161,23342,-2,0,10818.5182638205,43129.0097737591,41675.6392267428,57678.8982806967,65429.9280077567,54855.4329037202,55816.8634681850,55582.2702734387,58452.8368048167,11966.6012975492
9746402161,23342,-2,0,10603.9652657416,43106.1710068224,41630.9594440089,57675.9536980655,65410.3988543559,54926.1515576552,55820.1000755399,55567.3891802242,58459.4925349788,11973.1353507432
9746402161,23342,-2,0,10622.3263202474,43129.0584445464,41652.7152859283,57701.7005445428,65437.5328182710,54897.3627869721,55844.7396616064,55598.4533102132,58488.9505289872,11979.0488513991
9746402161,23342,-2,0,10884.9903915643,43167.0581617244,41716.8268804884,57729.1752039690,65477.9052363296,54846.6721620077,55863.5022501073,55639.9329886826,58500.8627041768,11974.2791142445
9746402161,23342,-2,0,11013.8463009192,43167.7395527465,41731.8053152775,57714.8903278989,65471.6023693753,54847.4265592108,55851.8212611573,55627.5827764073,58483.1100345122,11968.6211352218
9746402161,23342,-2,0,10832.2555935336,43136.3347272465,41676.6248101854,57684.0208810591,65432.2885409403,54888.2370143549,55825.7337191689,55583.8885771161,58469.2631955277,11971.1520161610
9746402161,23342,-2,0,10610.7791759625,43116.4040398505,41641.0708000688,57691.7473685417,65412.9905737792,54896.7544021310,55828.6539664064,55574.5437859561,58474.8360006726,11975.3863746554
9746402161,23342,-2,0,10636.0879853542,43129.3261338765,41668.3021055585,57709.5365412968,65434.3935524907,54882.1409982466,55835.5652182019,55601.4587313285,58489.4859076474,11974.5954743619
9746431056,23343,-2,0,10840.9919998525,43157.7985444421,41713.4564284685,57718.5041338553,65465.4820178733,54884.7448853667,55841.9775944276,55625.0518954682,58495.8739484794,11975.2768653840
9746431056,23343,-2,0,10995.1567185992,43174.2249351531,41734.1293453706,57729.7957565070,65480.7281419925,54880.6687069310,55853.7680926490,55632.3281781683,58500.4246670912,11977.5035539026
9746431056,23343,-2,0,10915.0811058074,43152.5055963242,41699.1350493079,57721.7042381198,65454.9812955151,54862.9282049632,55850.0204420275,55605.3767297055,58479.5814024335,11979.7302424212
9746431056,23343,-2,0,10656.1646851120,43109.9673282312,41637.3474848410,57678.5332497920,65406.4321851916,54861.0908827429,55820.5746157160,55560.8672947271,58457.0468279174,11968.8158183710
9746431056,23343,-2,0,10582.1850884285,43106.5238700303,41619.1081073034,57671.6585010870,65408.5858675293,54864.4248316724,55820.7449634715,55573.5703702103,58465.0166693365,11959.0573255190
9746431056,23343,-2,0,10808.0783799465,43138.3423972223,41666.0024108590,57696.0912363075,65447.9727021451,54851.7582592797,55836.5386339477,55619.7711150470,58478.8148375337,11947.2668272976
9746431056,23343,-2,0,10994.5361660612,43148.8917903678,41694.3409767596,57703.0754942838,65459.7510326697,54863.3905774425,55833.6427221038,55620.0631397707,58467.4867117915,11937.5570052329
9746431056,23343,-2,0,10881.2305732460,43124.1548627267,41660.6486242569,57675.9293626718,65425.3651214481,54855.2503882679,55811.6800293384,55578.2062626998,58448.3590923859,11933.6998453400
9746502368,23344,-2,0,10647.8663158788,43092.3728386252,41617.8061637433,57656.8504140535,65393.3640788038,54846.8060066728,55800.8507791660,55556.1097252694,58447.8115460288,11938.9319549739
9746502368,23344,-2,0,10593.1725186597,43093.8329622439,41622.9896025899,57666.3655529690,65403.5849441350,54844.7374982129,55809.8913779055,55575.7483879416,58460.6728015707,11948.4470938894
9746502368,23344,-2,0,10761.6707842638,43128.9611029718,41666.1362555240,57690.3845864975,65438.8590972247,54861.7844414618,55825.6728806848,55607.0923749575,58475.7850810248,11954.9811470833
9746502368,23344,-2,0,10966.9519973636,43164.8314732058,41712.3613357544,57714.4644585101,65471.7848848276,54886.5457044965,55842.5251407846,55634.3845189314,58501.9699645877,11960.8338092552
9746502368,23344,-2,0,10949.2845015767,43156.0950668869,41704.7808606337,57708.1980946463,65458.4490891097,54882.3356813958,55837.5607204808,55616.9482093841,58494.3408186798,11970.4341220485
9746502368,23344,-2,0,10695.4541781533,43121.4171309415,41645.2078169886,57684.8726198367,65420.3885334475,54924.2655646476,55824.9793219659,55577.8777348856,58475.3227085455,11978.0876033501
9746502368,23344,-2,0,10563.5076738053,43110.7582285247,41633.5511634322,57682.2809004134,65415.0104114518,54892.2401866096,55825.2591789928,55579.3013554139,58477.7075771228,11971.6143886403
9746502368,23344,-2,0,10755.8911282729,43140.5934211345,41691.9561081823,57702.9173142251,65453.9348735884,54861.0543796525,55840.0794337232,55621.6692757514,58492.0897947675,11969.4485386058
9746509475,23345,-2,0,10979.4968927881,43163.3956849807,41734.0441714929,57713.2720242215,65474.7416351556,54849.1665398564,55846.4553068584,55633.1920846427,58482.0757802822,11974.9848406602
9746509475,23345,-2,0,10936.3989106412,43147.4803375363,41703.2112277435,57696.6144472709,65448.6784285608,54857.5987537547,55831.3673627980,55597.8449253721,58462.6804715465,11978.2457834088
9746509475,23345,-2,0,10716.8206537744,43115.5523010729,41655.7328747404,57672.3277244123,65412.0536611238,54866.9678803084,55813.5416869523,55570.5892844887,58462.8751546956,11975.0700145380
9746509475,23345,-2,0,10586.2612668642,43103.4576104309,41638.9657885184,57670.1618743778,65405.0085646633,54876.1666591065,55810.5362658371,55572.8038053104,58470.1757727894,11969.6188863613
9746509475,23345,-2,0,10695.3446688819,43126.0043526438,41666.6838018811,57689.4111707517,65434.0406892828,54871.2874126805,55823.1785028361,55596.5794849025,58478.7661667464,11965.0681677495
9746509475,23345,-2,0,10937.8225311695,43153.7588690969,41711.5217646736,57720.6699838898,65467.1854954285,54859.9836223320,55841.2962034055,55621.9126296878,58484.0347794707,11962.8658146246
9746509475,23345,-2,0,10982.0277737272,43146.2027293699,41702.9313707166,57704.6207917803,65454.0687182534,54850.3224710546,55826.1352531641,55602.3834762870,58465.3573648475,11963.7053857054
9746509475,23345,-2,0,10740.0366193126,43111.5734642118,41642.2145635701,57676.3065612734,65413.9761572218,54894.4060366441,55807.8228694456,55561.9258843507,58453.8710590467,11973.5003816478
9746531909,23346,-2,0,10558.4945827143,43104.1390014530,41626.0558621893,57670.7459238253,65407.6854579644,54883.0170724179,55814.1744071871,55567.2188324687,58474.3736281933,11977.0168460297
9746531909,23346,-2,0,10701.8178835917,43133.6578339454,41674.9578357207,57698.6221172466,65447.5468327563,54849.2638814310,55835.8329075320,55614.6850177750,58495.4115760002,11973.6463940097
9746531909,23346,-2,0,10934.1722221226,43155.2189927157,41709.9277963898,57710.8749879473,65468.8159668028,54836.8528306716,55838.2056084125,55627.6801179819,58484.5701581309,11969.4728739995
9746531909,23346,-2,0,10952.9713137141,43144.2437301814,41692.1629590283,57692.8424612557,65450.3454030256,54845.0173552398,55823.4218567726,55599.9256015288,58465.3695325443,11966.2971051287
9746531909,23346,-2,0,10770.0056565875,43117.4382940804,41654.6621174200,57679.8108579584,65417.8089817210,54863.9989622836,55815.1478229330,55575.0183261322,58461.6097142260,11969.3268616376
9746531909,23346,-2,0,10585.3851926930,43100.0628230173,41630.9229409184,57674.6395868086,65400.0684797532,54874.9985602115,55816.7539589136,55568.2287513050,58468.8251584420,11967.8789057156
9746531909,23346,-2,0,10624.2853194359,43115.0412578063,41652.5814412633,57684.9821291081,65417.5291246941,54881.9706504911,55824.2127570661,55590.5564749751,58481.6864139839,11959.5196979983
9746531909,23346,-2,0,10879.8799588986,43154.2334092730,41716.6808681265,57715.9002467352,65464.1679066165,54870.3748354188,55845.2385371761,55631.3060916351,58496.2511470810,11965.0681677495
9746571429,23347,-2,0,10996.5560037338,43156.8251286963,41724.7845542106,57712.7123101676,65464.3625897656,54886.4726983156,55839.7752413026,55620.7688661865,58486.8820205273,11970.7261467722
9746571429,23347,-2,0,10802.1648792905,43125.0187692011,41667.4503667809,57690.2507418325,65425.9248355019,54876.7385408572,55822.3267640585,55576.8556483525,58467.9004134835,11977.4792185089
9746571429,23347,-2,0,10582.3676038809,43102.0218222058,41631.3366426104,57678.3507343396,65402.8548823256,54897.6791470895,55820.9639820143,55567.4743541020,58480.2141226683,11971.6995625180
9746571429,23347,-2,0,10647.7811420010,43120.8939199782,41672.5242963561,57700.0335700781,65432.9820996593,54863.1958942933,55837.8649129014,55609.5867528062,58509.5139366180,11966.2971051287
9746571429,23347,-2,0,10862.8573510433,43141.6885138486,41706.8250337000,57708.2711008272,65460.5906037505,54838.5441405300,55840.4322969311,55628.6170306373,58500.6680210277,11964.8491492067
9746571429,23347,-2,0,10956.0497410103,43143.7813577021,41704.6105128782,57697.3810121707,65458.4490891097,54851.9164393384,55831.0023318933,55614.7580239559,58473.1203554205,11971.2980285229
9746571429,23347,-2,0,10832.3894381987,43123.0476023158,41673.2908612559,57684.8604521399,65432.2033670626,54868.7930348318,55821.2560067381,55588.8164943294,58457.2780141571,11977.9050878978
9746571429,23347,-2,0,10613.1518768429,43100.7685494330,41637.2258078727,57677.0122876891,65406.8580545804,54894.7102290647,55815.0139782679,55568.0949066400,58457.8620636046,11979.5233915752
9746608261,23348,-2,0,10586.2247637738,43112.3765322021,41649.4178400893,57694.2539140872,65422.1771848805,54884.3798544620,55828.7513079810,55588.4392957279,58484.5093196468,11976.9316721519
9746608261,23348,-2,0,10825.3686771319,43146.2514001572,41707.2995738761,57720.6821515866,65462.1359012470,54855.4085683266,55845.2628725698,55628.3493413072,58508.4796823880,11962.9023177151
9746608261,23348,-2,0,10997.6024256606,43151.8242053021,41728.8729003431,57714.8538248084,65463.6811987435,54844.7131628192,55835.2853611749,55622.4115052576,58487.7945977890,11959.3858533332
9746608261,23348,-2,0,10849.1565244207,43118.8619146087,41676.1137669189,57677.3651508970,65420.1330118142,54864.0232976772,55807.2874907854,55571.0516569679,58456.5601200445,11965.2993539892
9746608261,23348,-2,0,10607.4817301234,43094.0884838772,41635.1572994128,57659.0040963911,65393.4005818942,54878.9165585885,55797.1761347255,55553.0678010636,58458.8354793504,11967.3191916618
9746608261,23348,-2,0,10593.9025804690,43103.7252997610,41652.8247951997,57675.3818163148,65411.7859717937,54866.9313772179,55812.1058987272,55582.9151613703,58478.3646327512,11968.6819737060
9746608261,23348,-2,0,10789.5713130788,43134.9597775055,41697.0057023638,57710.2301000157,65448.7636024386,54865.7511106261,55837.8040744173,55615.6949366113,58486.2858033830,11972.1132642100
9746608261,23348,-2,0,10953.6162016457,43152.8949626225,41720.4163510512,57720.8403316453,65465.8470487780,54864.0354653741,55844.3746307017,55624.0176412382,58484.7648412801,11975.1308530221
9746628259,23349,-2,0,10899.4091122995,43139.6565084791,41697.9061119287,57696.5171056963,65443.6410020761,54869.0485564651,55833.0221695659,55605.2307173436,58476.8193352547,11980.8983413162
9746628259,23349,-2,0,10661.5063040173,43109.2737695123,41643.4069978588,57668.7990923336,65406.7607130058,54876.1423237129,55818.5912811339,55572.6699606454,58467.6327241534,11985.7289169549
9746628259,23349,-2,0,10562.2178979421,43107.7893104999,41632.1275429039,57668.8477631209,65406.1158250742,54878.8435524076,55820.7327957747,55576.4906174478,58478.4133035385,11982.1151109985
9746628259,23349,-2,0,10775.5176232483,43138.2572233445,41684.2417883966,57697.9528939214,65447.9727021451,54863.3662420488,55838.2177761093,55618.4205006996,58497.7234383965,11975.0456791444
9746628259,23349,-2,0,10992.6623407505,43155.4015081680,41722.9350642935,57712.9434964072,65469.1323269202,54878.1743290823,55844.0704382811,55628.7265399087,58489.3398952855,11973.8654125525
9746628259,23349,-2,0,10906.3325317917,43135.2031314419,41692.6009961139,57696.1885778821,65444.2007161300,54909.0802790126,55831.8662383677,55592.7831634937,58478.6809928686,11972.7094813544
9746628259,23349,-2,0,10669.5248162236,43106.5725408176,41639.8296949928,57680.5165843741,65413.4407785616,54889.4294486435,55826.0135761959,55570.8813092124,58477.9752664529,11973.7559032811
9746628259,23349,-2,0,10584.4969508249,43102.8248901961,41634.3055606352,57682.9866268292,65414.2560142487,54880.9485639580,55827.6683829638,55586.1882718157,58497.2610659173,11969.7527310264
9746650571,23350,-2,0,10729.7670831940,43125.6636571328,41670.8694895882,57700.2890917114,65437.1069488822,54859.4969144591,55836.9036648524,55607.6277536177,58493.1605520879,11969.1808492757
9746650571,23350,-2,0,10934.9144516288,43148.9647965487,41708.7231944043,57708.2832685241,65458.7654492271,54832.1074289107,55840.2741168724,55619.1018917217,58480.2019549715,11971.8090717895
9746650571,23350,-2,0,10946.9239683931,43138.0990432858,41700.7898560758,57693.0128090113,65441.9983630050,54833.0686769597,55828.2646001081,55598.7209995433,58458.6894669885,11975.2160268999
9746650571,23350,-2,0,10710.0310789472,43103.4089396436,41641.4479986703,57670.6850853412,65402.7940438415,54858.5600018037,55815.2938352949,55558.2390722134,58444.8182926104,11980.1561118100
9746650571,23350,-2,0,10544.3678867028,43089.2944113290,41612.9147496205,57667.9473535560,65395.5664319287,54875.8016282019,55814.2595810649,55556.1340606630,58460.7214723580,11974.6198097556
9746650571,23350,-2,0,10708.2302598174,43119.7136533863,41664.4206102720,57700.9704827335,65435.2331235715,54861.1638889239,55832.8396541135,55603.4420659106,58488.3056410556,11968.3534458917
9746650571,23350,-2,0,10953.2268353473,43145.6430153160,41712.5438512067,57718.1391029506,65466.5162721033,54856.8565242485,55841.9532590339,55622.2168221084,58489.8752739457,11968.6819737060
9746650571,23350,-2,0,10946.7779560312,43138.1842171636,41698.2589751366,57710.7289755855,65450.6982662335,54863.3905774425,55838.3881238648,55596.6403233866,58473.0351815428,11972.5513012957
9746729614,23351,-2,0,10735.3520560357,43106.2683483970,41651.2673300064,57680.4070751027,65413.2217600188,54862.7335218140,55821.4020191000,55567.7785465226,58465.9657496887,11973.6828971002
9746729614,23351,-2,0,10579.6055367021,43089.1849020576,41631.0932886740,57666.4385591500,65400.5430199293,54865.2035642691,55815.3181706885,55566.8538015640,58468.3262828723,11971.7847363958
9746729614,23351,-2,0,10652.9037423635,43104.0659952720,41648.8824614291,57672.0113642949,65422.5300480883,54859.4117405814,55818.6399519212,55587.5267184662,58473.8869203204,11969.6675571486
9746729614,23351,-2,0,10881.5469333634,43131.9056856029,41693.7447596153,57690.3115803166,65452.1948929427,54853.2913890794,55827.5345382987,55615.8896197605,58486.6143311972,11964.3746090306
9746729614,23351,-2,0,10967.5725499016,43134.4365665421,41707.7376109617,57693.5481876715,65452.9492901457,54872.3460023041,55829.5787113650,55614.3564899608,58488.7436781412,11964.8734846004
9746729614,23351,-2,0,10760.2958345228,43105.5747896781,41660.0524071126,57674.4814067499,65417.3344415449,54903.1789460535,55821.1221620730,55574.5802890466,58477.4520554895,11966.1510927668
9746729614,23351,-2,0,10543.1024462333,43081.4462468782,41609.0575897276,57662.7395793158,65393.3640788038,54862.1616400633,55814.9896428743,55558.9204632355,58476.7949998611,11958.1934190446
9746729614,23351,-2,0,10637.3899289142,43100.6590401616,41642.2754020542,57682.7676082863,65418.1740126257,54852.5734949669,55825.2835143865,55593.6957407554,58488.6341688698,11953.1803279535
9746751421,23352,-2,0,10881.4860948793,43133.9620263660,41702.3351535723,57701.8708922984,65450.9416201699,54866.7610294624,55832.9978341722,55616.6440169635,58486.8820205273,11959.5196979983
9746751421,23352,-2,0,10948.5179366769,43138.8656081856,41697.9304473224,57696.0182301265,65448.7757701354,54878.4055153220,55826.9748242449,55599.7187506828,58475.1523607900,11970.3246127771
9746751421,23352,-2,0,10784.8745821051,43112.6077184417,41652.9464721680,57672.2060474440,65419.2812730366,54879.0382355568,55814.1379040967,55572.3414328312,58467.7909042121,11971.3588670070
9746751421,23352,-2,0,10588.0134152067,43094.1006515740,41618.1955300417,57667.2051240498,65401.2244109514,54879.0747386472,55814.1135687030,55565.9655596959,58466.4281221679,11974.2669465477
9746751421,23352,-2,0,10601.7629126167,43106.9375717223,41636.9946216331,57682.9136206482,65418.5147081368,54863.2689004742,55827.7657245384,55587.9160847645,58475.7607456311,11974.5103004841
9746751421,23352,-2,0,10841.8802417206,43141.8710293009,41698.6848445254,57709.4513674191,65459.3981694619,54861.7236029777,55843.9730967065,55626.4268452091,58495.7644392080,11973.5977232224
9746751421,23352,-2,0,10995.6069233816,43156.8372963931,41728.3861924702,57728.3234651914,65472.7461328766,54869.7542828809,55848.8036723452,55630.6247006131,58491.9316147088,11978.6716527976
9746751421,23352,-2,0,10828.7512968486,43130.5672389524,41683.0006833206,57700.9826504303,65437.4719797869,54891.4006155289,55831.2578535265,55589.3640406865,58473.4002124475,11984.5243149694
9746769469,23353,2,0,10589.5343773096,43109.3467756932,41636.3132306110,57680.6139259487,65410.4110220527,54894.5885520965,55821.4871929777,55574.8966491640,58478.4254712353,11984.9745197519
9746769469,23353,2,0,10618.0067878753,43119.5554733276,41647.8238718055,57687.6468547123,65427.6404807540,54865.1913965722,55825.9770731054,55603.9774445708,58489.3155598919,11980.0100994481
9746769469,23353,2,0,10836.2587657884,43143.3798237070,41687.3080479960,57699.3886821465,65456.3927483466,54858.4018217451,55830.9414934092,55626.8648822948,58487.3200576129,11977.7469078391
9746769469,23353,2,0,10961.2210121600,43155.0608126570,41708.3946665901,57703.0389911934,65465.1656577559,54872.7475362993,55830.5156240204,55619.8684566216,58479.6544086145,11978.5986466167
9746769469,23353,2,0,10863.8672698796,43141.6641784549,41692.6496669012,57698.5612787625,65446.7924355533,54926.4314146821,55824.6629618485,55601.5925759935,58482.8423451821,11978.9271744309
9746769469,23353,2,0,10643.9239821082,43120.3828767116,41656.4264334593,57697.6730368944,65422.6273896629,54904.3348772517,55824.7359680295,55583.8277386320,58485.4583999990,11980.3994657465
9746769469,23353,2,0,10585.7988943850,43125.6758248296,41643.6260164016,57708.8916533652,65428.9545920109,54875.6434481432,55836.7454847937,55596.2022863010,58490.2889756377,11983.3318806808
9746769469,23353,2,0,10815.1843148911,43160.3415930781,41691.8100958204,57738.5199951291,65469.0106499520,54853.7659292555,55854.4981544584,55639.3489392351,58501.2885735657,11980.1804472036
9746793178,23354,2,0,11008.4073404394,43173.1420101359,41718.6155319214,57730.2216258958,65480.4726203592,54856.5158287375,55846.0294374696,55642.7802297392,58488.9140258967,11980.8131674384
9746793178,23354,2,0,10886.3531736084,43148.2103993457,41678.7541571294,57693.3656722191,65444.6022501252,54889.6362994895,55822.6552918727,55598.8913472988,58469.0928477721,11983.3440483776
9746793178,23354,2,0,10629.4930936761,43116.7569030584,41629.5114880870,57672.5589106519,65410.8733945320,54883.8688111955,55813.6146931333,55573.7407179658,58469.5917233419,11983.7212469791
9746793178,23354,2,0,10585.7015528104,43116.4770460314,41633.0157847720,57686.2475695777,65418.4538696527,54865.7024398388,55825.4416944452,55595.2775413424,58482.8666805757,11980.9591798003
9746793178,23354,2,0,10767.3530986801,43140.8246073741,41675.1281834762,57703.6960468218,65449.2746457052,54863.2080619901,55838.6071424076,55621.8639589005,58489.7535969775,11974.9970083571
9746793178,23354,2,0,10945.0623107791,43158.0662337723,41704.9025376019,57711.3251927298,65465.8227133844,54870.3018292379,55842.4156315132,55630.7342098845,58491.0798759312,11969.5093770899
9746793178,23354,2,0,10922.2113761457,43151.8120376053,41689.7902581478,57707.7965606511,65455.3219910262,54889.8309826387,55838.6193101044,55619.4425872328,58489.5954169188,11975.4837162300
9746793178,23354,2,0,10698.2892515131,43124.4225520568,41637.0919632077,57694.6189449919,65423.0654267486,54904.9675974864,55824.3952725184,55588.8895005104,58483.3047176613,11983.6969115855
9746805494,23355,2,0,10573.1079865986,43122.2201989319,41625.4596450449,57699.0479866354,65425.0852644212,54908.3867202937,55830.1140900252,55595.3262121297,58498.8793695947,11990.7906788332
9746805494,23355,2,0,10754.9420479207,43157.5186874152,41684.6554900886,57728.6884960961,65470.6654567199,54881.6177872832,55857.3940663022,55643.4251176708,58526.4757059891,11990.1944616889
9746805494,23355,2,0,10979.9470975705,43172.9108238962,41727.8629815068,57726.1819505506,65485.8020715676,54871.9201329153,55850.0326097244,55650.0565124393,58510.6090293320,11982.0907756048
9746805494,23355,2,0,10927.6503366255,43153.4181735859,41702.7001844770,57697.5148568357,65456.0155497451,54893.4691239888,55830.9779964996,55610.0856283759,58478.4133035385,11981.6649062160
9746805494,23355,2,0,10690.8304533606,43122.1228573573,41649.6855294194,57677.7910202858,65420.5223781126,54888.0788342962,55820.9761497112,55580.9561621818,58474.3736281933,11978.5743112230
9746805494,23355,2,0,10585.7380559008,43121.5023048193,41645.0861400204,57688.5594319741,65423.8198239516,54881.5934518896,55829.0068296143,55595.5573983693,58490.3498141218,11978.1849449247
9746805494,23355,2,0,10714.8859899795,43146.9327911793,41671.2345204928,57710.5951309204,65455.4558356912,54866.5055078291,55845.2750402666,55624.5530198984,58500.8262010864,11977.6495662645
9746805494,23355,2,0,10931.7751858485,43174.6021337546,41700.2301420219,57726.3766336998,65483.5632153522,54862.3441555157,55855.0091977249,55646.5522157543,58502.5175109448,11978.3674603770
9746848836,23356,2,0,10973.4617151639,43164.9409824772,41697.2368886035,57715.1215141385,65472.4176050624,54862.7335218140,55845.4818911126,55631.4399363002,58488.4881565079,11977.5522246899
9746848836,23356,2,0,10752.9343779449,43129.2409599987,41648.6391074927,57695.6775346155,65431.1082743485,54884.4285252493,55832.5597970866,55588.1837740946,58470.2244435767,11978.1119387437
9746848836,23356,2,0,10568.9101311947,43116.7203999679,41624.3888877245,57707.7478898638,65416.9085721561,54901.5971454665,55841.0893525595,55583.0976768227,58481.8445940426,11979.6694039371
9746848836,23356,2,0,10698.5691085400,43140.1310486552,41664.5422872402,57717.5672212000,65448.9096148005,54864.6803533057,55849.9109327561,55622.2654928957,58501.0938904165,11975.2281945967
9746848836,23356,2,0,10942.8234545637,43163.3956849807,41706.4600027953,57712.8948256200,65475.1431691507,54858.4139894419,55841.7342404911,55640.4440319492,58499.6459344946,11969.1930169725
9746848836,23356,2,0,10970.2616108995,43162.8603063205,41693.4162318011,57703.1606681616,65465.8105456875,54865.1792288754,55830.2479346902,55615.5854273399,58478.7053282623,11969.7162279359
9746848836,23356,2,0,10768.0709927926,43132.4775673536,41642.6039298685,57683.9357071814,65428.9910951013,54851.3688929814,55814.1135687030,55581.8809071404,58465.9292465982,11966.7594776079
9746848836,23356,2,0,10595.0463439704,43108.0691675268,41612.0873462365,57673.5079910041,65406.1888312551,54851.6974207956,55806.4114166141,55574.9331522545,58466.6106376203,11962.0384112406
9746908049,23357,2,0,10650.5067060894,43122.8407514698,41632.5412445959,57690.0073878960,65429.2831198251,54867.4545881813,55821.4993606746,55599.9256015288,58482.1244510695,11965.2263478082
9746908049,23357,2,0,10884.0048081216,43161.6922074255,41688.1354513799,57721.3757103055,65472.7704682703,54877.1887456397,55845.8469220173,55639.4584485065,58503.3570820256,11975.3012007776
9746908049,23357,2,0,11002.7128583262,43171.2803525220,41711.6677770355,57730.2702966831,65478.6596335326,54866.0309676530,55852.2714659398,55639.8113117144,58497.3584074918,11978.9150067341
9746908049,23357,2,0,10804.8174371979,43130.1048664731,41657.6188677480,57687.1723145362,65430.3417094487,54878.1621613855,55823.1054966552,55588.0986002169,58471.8549149510,11973.2205246209
9746908049,23357,2,0,10569.5428514295,43102.2165053549,41613.3892897966,57669.0667816637,65402.4168452400,54891.9724972795,55814.6489473632,55568.9831485080,58479.5814024335,11967.1610116031
9746908049,23357,2,0,10635.6986190558,43119.4459640562,41651.6201932143,57692.0272255686,65426.8252450668,54873.3437534436,55831.3065243138,55606.6056670846,58503.5030943874,11963.6080441308
9746908049,23357,2,0,10880.2449898033,43147.9427100156,41699.3419001538,57709.3175227540,65458.0110520240,54857.0147043072,55838.1082668379,55632.6202028920,58503.5517651747,11967.1975146936
9746908049,23357,2,0,10964.4819549086,43150.0720569596,41698.7091799191,57703.0876619807,65454.2390660089,54847.5725715726,55827.3398551496,55613.4925834864,58480.5304827857,11971.9915872418
9746914505,23358,2,0,10821.0734801534,43127.9876872259,41658.4706065256,57687.4643392600,65426.1073509543,54871.0318910473,55814.7827920283,55588.9260036008,58468.5939722024,11973.3300338923
9746914505,23358,2,0,10623.6404315043,43111.8654889355,41633.2226356180,57679.9081995330,65410.7395498669,54878.0283167205,55813.3956745905,55582.4527888910,58477.4885585800,11978.0632679564
9746914505,23358,2,0,10609.5624062802,43125.0552722916,41641.1073031592,57689.6545246881,65425.2921152672,54881.3500979531,55826.3664394037,55600.5461540668,58488.5246595984,11978.8541682499
9746914505,23358,2,0,10834.6769652014,43162.1059091175,41687.6000727197,57716.0584267939,65465.4455147829,54859.5942560337,55843.9609290097,55635.2362577090,58503.2110696637,11977.7590755359
9746914505,23358,2,0,11011.8994694276,43176.0014188893,41712.5438512067,57730.1242843212,65479.4627015229,54850.3346387514,55849.1565355531,55638.5702066384,58503.0407219082,11975.4350454427
9746914505,23358,2,0,10874.3923276315,43145.4361644700,41667.5355406587,57705.5577044357,65444.2007161300,54865.4469182055,55833.1560142309,55594.3284609902,58482.0392771918,11974.8266606015
9746914505,23358,2,0,10615.6827577821,43115.5766364665,41617.7818283497,57688.3890842185,65412.1996734857,54900.2465311191,55819.6742061511,55568.2652543955,58479.3258808002,11971.9672518482
9746914505,23358,2,0,10611.8621009797,43126.9899360865,41645.5606801964,57701.7248799365,65431.2299513167,54881.7637996451,55826.0014084990,55597.6137391324,58499.0375496534,11974.0965987922
9746933198,23359,2,0,10818.8832947252,43146.8719526951,41690.4959845636,57700.1430793495,65453.7523581360,54836.9988430335,55820.0879078431,55618.3109914282,58487.5025730653,11971.2858608261
9746933198,23359,2,0,10954.4436050296,43146.3730771254,41685.4098872916,57685.3958308001,65453.3994949281,54836.7068183097,55806.2654042522,55606.6786732655,58470.7354868432,11965.9320742240
9746933198,23359,2,0,10875.7064388884,43125.0796076853,41650.9388021922,57671.0136131554,65428.8572504363,54844.0682748876,55798.3564013173,55585.1661852825,58464.0919243779,11967.8667380188
9746933198,23359,2,0,10659.5594725256,43101.0484064599,41616.3703755182,57666.8279254483,65405.4222663553,54880.4861914787,55799.6826802710,55568.3382605764,58469.8837480656,11972.0767611196
9746933198,23359,2,0,10574.9088057284,43107.0957517809,41621.0914418855,57686.6126004824,65411.1410838621,54879.5614465201,55817.3380083611,55581.2360192087,58480.1167810937,11977.1993614820
9746933198,23359,2,0,10770.0056565875,43141.8101908168,41685.0448563869,57717.0805133270,65452.0610482776,54868.0143022352,55839.9820921486,55624.6138583825,58497.0055442840,11973.6707294034
9746933198,23359,2,0,10991.2022171317,43162.3614307508,41724.7237157265,57721.5095549706,65471.4198539229,54848.4486457439,55839.7509059090,55635.4674439486,58489.9117770362,11971.7604010022
9746933198,23359,2,0,10910.0558470195,43135.7993485863,41671.2588558865,57691.9055486004,65436.7175825839,54852.2814702431,55817.2041636961,55588.8773328136,58463.1793471162,11969.6918925423
9746961557,23360,2,0,10652.7698976984,43100.8902264012,41600.0778294723,57667.0104409006,65396.6615246428,54855.3842329330,55801.4591640072,55552.7514409462,58462.2302667640,11967.1366762094
9746961557,23360,2,0,10577.4031835771,43098.1768300097,41594.6510366893,57673.9095249992,65401.4069264037,54867.9534637511,55810.6944458958,55572.5117805867,58481.7350847712,11966.6743037302
9746961557,23360,2,0,10748.6635163600,43129.7276678716,41638.7589376724,57699.2305020878,65438.8834326184,54873.3437534436,55832.6936417517,55607.1897165321,58493.9271169878,11969.5823832709
9746961557,23360,2,0,10941.3024924609,43152.9436334098,41680.8470009830,57709.3296904508,65461.0651439266,54871.1170649250,55835.7842367447,55615.0987194670,58490.9947020534,11967.6963902633
9746961557,23360,2,0,10940.6454368324,43146.5677602746,41678.8880017945,57701.4693583032,65448.3377330498,54861.2612304984,55827.2668489686,55596.8836773230,58476.5394782278,11972.3201150560
9746961557,23360,2,0,10715.1901824001,43111.8046504514,41634.0987097892,57674.0312019675,65408.0504888690,54850.1886263896,55810.8769613481,55561.3783379937,58456.0004059907,11979.7910809053
9746961557,23360,2,0,10553.8343548311,43099.0529041810,41602.3531887782,57667.6796642259,65397.3550833617,54851.8799362479,55809.5628500912,55557.4238365262,58462.8386516052,11983.9767686124
9746961557,23360,2,0,10709.0089924141,43129.4843139352,41641.3628247925,57698.9506450609,65436.4985640411,54849.1300367660,55828.8608172524,55602.6998364044,58489.0722059554,11976.8221628805
9747008709,23361,2,0,10965.5283768353,43158.1635753468,41686.5171477025,57726.0724412792,65468.6091159568,54859.1197158576,55846.3944683743,55629.2984216594,58489.2912244982,11971.5778855498
9747008709,23361,2,0,10953.8230524917,43147.7845299569,41664.7004672989,57705.7888906754,65450.7347693239,54864.6438502152,55830.6007978981,55596.7863357485,58468.3506182659,11970.7504821659
9747008709,23361,2,0,10716.7841506839,43113.4959603098,41611.5641352731,57674.1163758452,65410.0703265417,54865.8727875943,55810.9743029227,55559.6991958321,58456.7791385873,11968.0979242585
9747008709,23361,2,0,10586.8209809181,43108.2395152823,41610.4933779527,57676.1118781242,65408.7562152848,54872.2851638200,55813.5903577396,55570.1877504935,58474.4709697679,11967.8180672315
9747008709,23361,2,0,10689.8205345243,43134.0715356374,41644.5385936633,57697.7460430754,65440.9154379878,54869.4622581571,55831.3186920107,55602.6755010108,58494.8275265527,11967.4530363268
9747008709,23361,2,0,10898.8980690329,43160.3537607750,41675.6757298332,57719.6722327503,65469.9962333946,54845.4797277191,55844.3259599144,55622.5575176195,58493.9879554719,11966.1267573731
9747008709,23361,2,0,10968.2052701364,43152.6881117765,41673.3516997400,57705.4116920738,65459.0331385572,54828.3719459860,55830.6007978981,55607.7494305859,58468.2289412977,11966.8203160920
9747008709,23361,2,0,10780.8349067599,43118.4847160072,41639.2456455453,57679.2876469950,65419.8531547873,54852.2693025463,55811.5218492797,55568.2165836082,58448.9918126206,11971.7360656085
9747033449,23362,2,0,10569.4820129454,43101.1822511250,41604.5312065095,57667.9351858592,65400.5673553229,54875.4000942067,55807.4821739345,55556.8032839883,58458.0324113601,11967.7328933538
9747033449,23362,2,0,10662.1511919489,43130.7132513143,41637.5300002933,57692.0028901750,65441.2439658020,54870.9953879568,55831.2821889202,55606.8490210210,58503.6004359620,11965.3601924733
9747033449,23362,2,0,10920.2888800476,43158.9544756403,41686.3954707342,57707.4558651401,65474.1210826176,54848.5946581058,55842.4277992100,55633.5814509410,58507.2994157962,11966.3336082191
9747033449,23362,2,0,10970.2616108995,43145.7768599811,41672.0254207863,57685.7973647953,65451.7325204634,54847.5969069663,55820.9031435302,55598.4898133037,58474.0329326823,11969.4607063026
9747033449,23362,2,0,10781.4797946915,43114.8100715667,41626.2140422480,57666.6454099959,65413.7328032854,54865.2157319659,55807.1293107267,55561.7555365952,58459.2370133456,11974.9240021761
9747033449,23362,2,0,10604.5249797955,43101.2674250028,41608.9359127594,57671.5733272092,65399.7277842422,54873.0395610230,55814.7341212410,55559.8573758908,58468.7764876548,11976.8343305773
9747033449,23362,2,0,10634.6643648259,43115.1751024714,41620.3978831666,57682.6094282276,65418.5998820145,54855.8709408059,55822.0225716379,55577.7073871301,58477.4520554895,11973.2448600146
9747033449,23362,2,0,10850.1907786507,43145.4118290764,41662.4251079930,57697.8068815595,65454.0200474661,54858.0124554467,55829.7612268173,55608.0657907033,58490.4106526059,11967.4408686300
9747094525,23363,2,0,10988.2576345006,43156.3019177329,41691.1773755857,57698.1962478578,65463.2066585674,54869.9854691205,55827.8752338098,55613.0058756134,58494.1704709242,11969.5702155740
9747094525,23363,2,0,10836.5751259058,43130.0561956858,41650.2330757765,57684.9456260177,65427.9933439618,54857.6960953293,55821.2681744349,55576.1134188463,58471.9765919192,11978.8906713404
9747094525,23363,2,0,10584.8498140328,43099.0164010905,41591.5969447867,57665.6963296438,65395.2500718113,54858.6695110752,55811.0716444973,55550.2813984912,58463.7147257764,11981.2998753114
9747094525,23363,2,0,10614.4416527062,43113.7514819431,41606.7822304217,57685.0429675922,65419.7193101222,54865.5564274769,55824.2370924597,55585.3000299476,58488.2326348746,11978.8176651595
9747094525,23363,2,0,10848.8644996970,43139.4131545427,41656.2682534006,57696.6387826645,65452.5964269378,54840.3327919630,55830.9779964996,55612.0324598676,58493.1605520879,11970.4462897453
9747094525,23363,2,0,10956.4999457927,43141.0679613106,41666.7324726684,57686.3449111523,65448.6784285608,54833.6892294976,55819.3213429432,55593.4523868190,58471.7089025891,11969.8865756914
9747094525,23363,2,0,10831.6472086925,43119.3121193912,41635.1329640192,57671.1352901236,65424.0753455849,54846.0272740761,55808.2000680471,55564.7487900137,58462.6074653655,11969.8500726010
9747094525,23363,2,0,10629.4565905857,43098.0551530415,41607.1229259328,57667.0469439911,65404.6922045459,54859.0345419798,55806.6426028537,55553.3598257874,58466.4889606520,11972.5634689925
9747113497,23364,2,0,10589.7533958524,43106.0736652478,41606.1981809742,57677.8761941635,65416.2393488309,54862.8795341759,55814.9896428743,55566.1602428451,58474.4344666774,11978.9636775213
9747113497,23364,2,0,10795.0711120427,43139.5713346014,41647.3614993262,57699.9240608067,65454.7987800628,54862.0034600046,55829.9680776633,55603.8801029962,58489.2912244982,11975.9947594965
9747113497,23364,2,0,10991.7862665792,43153.8562106715,41678.2309461660,57700.8366380684,65466.7717937366,54858.3409832609,55827.8995692034,55615.4637503717,58490.7026773297,11971.0911776769
9747113497,23364,2,0,10886.9007199655,43124.4103843600,41640.0973843229,57676.9149461145,65429.4169644901,54846.9276836410,55810.8769613481,55573.2418423961,58465.2113524856,11971.1763515547
9747113497,23364,2,0,10620.3308179685,43093.0663973441,41582.8362030742,57660.0626860147,65390.1031360552,54857.1120458818,55801.9823749706,55544.1488792924,58458.0080759664,11978.3066218929
9747113497,23364,2,0,10586.9426578863,43105.2584295607,41594.6023659020,57694.0592309380,65408.8170537689,54852.4639856955,55824.3831048216,55574.0327426896,58479.3137131034,11986.1669540405
9747113497,23364,2,0,10801.5443267525,43140.6907627091,41647.0329715120,57715.9854206130,65449.4206580670,54844.9078459684,55839.3858750043,55610.4628269774,58486.4439834417,11985.8019231358
9747113497,23364,2,0,10961.8659000916,43155.2433281093,41669.3971982726,57700.5567810415,65460.1403989681,54873.2585795659,55830.6738040791,55609.2825603856,58478.8270052305,11981.0930244654
9747117681,23365,2,0,10900.0661679279,43135.6290008307,41648.2984119816,57673.0212831312,65435.6711606571,54858.7181818624,55810.3415826879,55583.4992108178,58466.7323145885,11979.1461929737
9747117681,23365,2,0,10678.4315702980,43102.1434991740,41609.6416391751,57654.9035825618,65400.2631629024,54865.2035642691,55797.8940288380,55557.2048179834,58461.8652358593,11976.0190948902
9747117681,23365,2,0,10557.8740301763,43094.9767257453,41594.2129996036,57665.0392740153,65395.6637735033,54858.4139894419,55803.4181631957,55556.6937747169,58471.8792503446,11971.3345316134
9747117681,23365,2,0,10730.9595174827,43127.7321655927,41634.6340884494,57701.0434889144,65436.0726946523,54836.2687812241,55827.7048860543,55597.1391989563,58491.9437824056,11970.3002773834
9747117681,23365,2,0,10976.1264407681,43159.1734941831,41684.4243038489,57721.8502504816,65467.6965386951,54839.7365748187,55846.2727914061,55623.1537347638,58492.0776270707,11977.6739016581
9747117681,23365,2,0,10940.3534121087,43147.9305423187,41668.0952547125,57698.4639371879,65446.1962184090,54851.8190977638,55834.0807591895,55591.7367415669,58469.5065494641,11985.7289169549
9747117681,23365,2,0,10682.4590779464,43112.7902338941,41606.6848888471,57675.4304871021,65404.7652107269,54860.6893487478,55818.4817718625,55556.7911162915,58467.8760780899,11982.0907756048
9747117681,23365,2,0,10582.2580946095,43106.6577146953,41585.5495994657,57678.9469514839,65405.2884216902,54872.0661452772,55818.7981319799,55571.2828432076,58483.6210777787,11978.5743112230
9747159385,23366,2,0,10728.6841581768,43125.8705079787,41621.1279449760,57681.1128015184,65430.2930386614,54861.2247274080,55817.0946544246,55598.1126147022,58486.8698528305,11974.5103004841
9747159385,23366,2,0,10919.2181227272,43144.5479226020,41663.0456605310,57676.4282382416,65446.8411063406,54848.5703227121,55809.6601916658,55603.4664013043,58481.3822215633,11970.9695007087
9747159385,23366,2,0,10939.5503441183,43136.7362612416,41664.9681566290,57671.7315072679,65437.1312842759,54835.2710300846,55807.3239938758,55590.5808103688,58469.0198415912,11973.5003816478
9747159385,23366,2,0,10734.7923419819,43105.9641559764,41617.7939960465,57659.3447919022,65403.4997702573,54844.7496659097,55797.8453580508,55557.1074764088,58455.0513256385,11978.3309572866
9747159385,23366,2,0,10555.2823107530,43090.9248827033,41579.2467325114,57661.0726048510,65389.1905587935,54864.8872041517,55797.0057869700,55547.1177973172,58464.4447875858,11977.1506906947
9747159385,23366,2,0,10683.2256428463,43121.5753110002,41616.0175123103,57695.8235469774,65427.7986608127,54862.0034600046,55817.3866791484,55586.5046319331,58490.6783419361,11976.2989519171
9747159385,23366,2,0,10945.4030062902,43153.8075398842,41672.2931101165,57707.6383805924,65462.0385596724,54847.4265592108,55823.7747199804,55613.8941174815,58488.2691379651,11973.5368847383
9747159385,23366,2,0,10965.8812400432,43145.7160214970,41660.4782765014,57687.2209853235,65443.4706543206,54879.2085833123,55812.5682712065,55587.1616875615,58465.1748493952,11974.0965987922
9747205614,23367,2,0,10744.8793626481,43115.1629347746,41608.8020680943,57672.6197491360,65407.5029425120,54865.2522350564,55809.0883099152,55556.1097252694,58457.1076664015,11972.7946552321
9747205614,23367,2,0,10592.6249723026,43106.0980006415,41599.7006308708,57678.2290573714,65404.3880121253,54850.2738002673,55820.2947586891,55567.7663788257,58467.6327241534,11974.8874990857
9747205614,23367,2,0,10670.7415859059,43124.2765396949,41631.2027979454,57689.0339721502,65427.3241206366,54837.8992525984,55826.4637809783,55592.5641449509,58475.5295593915,11970.5436313199
9747205614,23367,2,0,10881.1819024587,43153.2721612240,41664.7126349958,57705.3143504993,65458.9357969826,54843.2530392005,55830.7589779568,55613.6385958482,58477.7197448196,11968.4751228600
9747205614,23367,2,0,10984.8506793902,43162.4101015380,41678.0849338042,57712.8218194390,65464.2652481910,54864.2909870073,55832.0122507296,55615.4759180685,58480.1167810937,11971.8455748799
9747205614,23367,2,0,10816.8269539622,43133.7551755200,41641.9468742400,57687.6955254996,65428.4678841379,54876.0814852288,55816.9608097596,55581.0413360596,58470.4799652100,11976.5423058536
9747205614,23367,2,0,10581.8687283111,43107.8744843776,41584.8925438373,57668.6652476686,65402.7818761447,54881.4596072245,55813.4565130746,55559.5653511671,58471.5628902272,11980.4238011401
9747205614,23367,2,0,10641.4417719563,43127.4401408689,41608.9359127594,57693.5116845810,65431.5828145246,54872.8205424802,55838.0595960506,55598.7088318465,58496.7378549539,11982.6139865682
9747220558,23368,2,0,10904.3248618159,43163.2983434061,41672.9136626544,57715.9854206130,65470.4464381771,54860.5798394764,55853.0867016269,55634.0924942076,58505.1822365490,11981.6770739129
9747220558,23368,2,0,10995.2053893865,43167.0459940276,41682.0759383621,57715.5960543146,65467.4166816682,54869.0728918588,55845.9685989855,55616.7170231444,58487.1375421606,11985.4855630184
9747220558,23368,2,0,10829.7125448977,43146.5677602746,41644.9036245680,57696.1399070948,65439.0294449803,54877.5781119380,55831.3186920107,55586.3464518744,58477.8657571815,11996.0714592544
9747220558,23368,2,0,10630.9532172949,43122.5243913524,41608.4005340992,57682.7311051959,65413.8788156472,54882.7372153909,55819.9540631780,55574.6532952275,58483.4507300232,11993.0173673518
9747220558,23368,2,0,10622.5453387902,43119.1296039388,41601.6961331497,57676.4404059384,65414.8278959994,54864.1814777359,55815.0504813584,55577.3545239222,58478.8270052305,11981.2390368272
9747220558,23368,2,0,10818.8224562411,43140.5082472567,41633.4173187671,57686.5274266046,65443.0934557191,54854.1309601602,55822.1564163030,55597.6137391324,58477.0383537975,11969.0105015202
9747220558,23368,2,0,10983.4148911651,43153.6736952192,41664.9924920227,57698.8776388799,65460.2377405426,54841.0263506819,55831.3795304948,55608.5159954858,58473.2298646920,11965.1168385368
9747220558,23368,2,0,10857.1750366270,43125.9435141597,41637.8706958043,57674.8342699578,65429.7089892139,54845.1633676017,55813.0914821699,55573.5703702103,58453.4451896578,11964.5814598766
9747236454,23369,2,0,10597.3095355795,43101.3769342742,41598.5812027631,57659.6003135355,65399.3749210343,54870.3991708125,55807.7741986583,55548.1277161535,58456.9008155556,11970.2881096866
9747236454,23369,2,0,10593.7809035008,43117.8884988629,41616.3095370341,57686.5882650888,65424.9149166656,54867.9169606606,55829.9194068760,55582.4406211942,58488.8775228063,11971.6873948212
9747236454,23369,2,0,10834.8229775633,43151.5078451847,41658.6287865843,57709.6947213555,65463.6568633499,54844.3481319146,55845.3358787507,55619.9536304993,58499.0010465629,11973.5003816478
9747236454,23369,2,0,10978.1341107439,43160.4632700464,41666.5012864287,57704.6937979613,65466.2485827732,54856.1994686201,55836.9036648524,55607.8102690700,58478.1577819052,11976.6883182155
9747236454,23369,2,0,10874.3923276315,43140.7759365868,41637.8220250171,57684.8117813526,65438.2750477772,54853.1453767175,55823.0568258679,55577.8777348856,58466.8783269504,11980.5698135020
9747236454,23369,2,0,10661.8835026188,43113.3012771606,41593.6776209434,57669.6508311112,65407.4177686343,54864.5830117311,55815.6223631091,55560.5874377002,58469.3362017086,11979.3895469101
9747236454,23369,2,0,10587.4050303656,43113.2039355861,41602.8763997416,57680.2975658313,65411.1897546494,54886.7403876457,55824.2249247629,55571.3801847822,58482.2217926441,11973.1596861368
9747236454,23369,2,0,10773.3396055170,43146.4704187000,41648.2984119816,57709.6217151746,65451.8907005221,54868.8173702255,55846.2241206188,55611.5214166010,58501.0452196292,11974.9970083571
9747315631,23370,2,0,11001.1188900424,43173.9815812167,41692.7348407790,57729.1995393627,65479.6817200657,54858.3896540482,55859.8884441509,55636.1123318802,58497.5287552474,11980.9226767098
9747315631,23370,2,0,10931.2641425819,43149.3419951502,41654.1389064566,57696.9551427819,65444.6387532156,54865.0332165135,55836.7698201873,55595.7034107312,58468.0585935422,11979.0001806118
9747315631,23370,2,0,10654.6315553123,43107.7284720157,41583.4202525217,57660.1600275893,65397.3794187553,54857.8907784785,55811.0594768005,55551.6076774449,58453.5546989292,11975.8730825283
9747315631,23370,2,0,10580.7006294161,43112.7172277131,41590.1733242584,57683.1326391910,65409.7783018179,54885.2315932396,55830.6251332918,55578.5712936045,58482.4043080964,11981.6649062160
9747315631,23370,2,0,10780.9322483345,43150.1937339278,41659.0668236699,57716.3261161240,65455.3706618135,54881.3500979531,55856.6640044929,55624.4191752334,58510.6577001193,11985.7532523485
9747315631,23370,2,0,10961.3305214314,43166.7052985165,41686.2494583724,57716.9466686620,65469.6068670963,54870.1314814824,55850.9451869861,55625.5264356442,58506.0339753266,11984.4148056980
9747315631,23370,2,0,10930.7896024058,43154.4280924222,41666.5742926097,57707.0664988418,65453.2899856567,54859.3752374909,55838.7409870727,55604.7683448643,58496.4579979269,11983.3683837713
9747315631,23370,2,0,10718.6093052074,43121.8430003304,41620.2883738952,57689.0096367565,65415.4849516279,54860.1174669971,55822.8256396283,55574.4342766847,58476.4299689564,11982.3706326318
9747324514,23371,2,0,10569.2143236153,43108.5072046124,41592.4121804738,57679.8351933520,65402.5750252987,54884.6353760953,55821.0491558921,55568.9344777207,58475.9675964771,11977.0655168170
9747324514,23371,2,0,10698.3622576940,43134.8137651436,41628.5137369475,57693.3291691287,65432.1911993658,54861.6019260095,55831.8419029741,55603.8192645121,58490.9825343566,11974.1209341858
9747324514,23371,2,0,10949.8563833274,43161.7652136064,41689.2548794876,57707.0056603576,65461.6613610709,54841.1115245596,55832.7544802358,55629.3835955371,58489.8509385521,11976.7978274869
9747324514,23371,2,0,10948.8342967943,43147.4073313554,41670.0542539010,57688.5594319741,65440.1123699975,54839.0308484029,55818.0437347768,55595.7885846090,58468.3749536596,11977.1385229979
9747324514,23371,2,0,10703.0589886676,43110.4905391946,41594.2495026941,57668.6774153654,65398.1946544425,54860.3729886304,55804.9026222081,55557.0831410152,58459.9670751549,11971.8820779704
9747324514,23371,2,0,10569.1048143439,43096.0109799752,41575.5720880709,57677.0731261732,65391.8917874882,54849.0205274946,55813.1279852604,55566.4157644784,58472.4267967016,11960.7851384679
9747324514,23371,2,0,10693.7872036886,43112.2913583243,41606.7213919376,57696.9551427819,65415.9594918040,54830.0389204508,55823.0811612615,55592.5154741636,58474.7143237043,11947.5345166277
9747324514,23371,2,0,10894.1039964847,43130.7619221016,41637.1162986013,57702.2602585967,65436.3282162856,54854.6785065172,55825.1375020246,55601.5804082967,58472.6944860317,11941.9130406955
9747369396,23372,2,0,10948.8221290974,43132.6479151091,41644.7697799030,57703.6230406409,65437.5206505742,54859.3752374909,55828.7026371937,55594.9490135282,58473.8625849267,11946.5732685787
9747369396,23372,2,0,10772.3540220743,43108.4950369156,41605.7966469791,57696.6509503613,65410.1189973289,54871.9079652185,55825.7458868658,55569.8105518920,58463.3253594781,11960.6999645901
9747369396,23372,2,0,10570.8569626864,43092.8473788013,41577.3242364134,57676.0267042464,65391.4415827057,54864.2179808264,55817.4961884198,55557.5333457977,58464.6394707350,11969.9230787819
9747369396,23372,2,0,10656.1281820216,43116.2215243982,41606.8917396931,57688.0362210107,65420.3398626602,54865.3739120246,55828.0090784748,55594.0364362665,58488.3543118429,11975.3012007776
9747369396,23372,2,0,10928.2465537698,43154.3185831508,41671.9159115149,57711.1548449743,65462.4887644549,54857.2580582437,55842.7441593274,55631.4764393907,58510.2196630337,11976.2137780394
9747369396,23372,2,0,10993.3924025599,43159.0153141244,41680.5914793497,57712.0187514487,65459.9092127284,54865.6537690515,55846.6743254012,55614.4051607481,58494.3894894670,11980.4603042306
9747369396,23372,2,0,10778.7298952095,43124.8727568393,41620.7507463745,57684.8847875335,65416.4827027673,54851.1742098322,55832.7666479326,55569.0196515985,58462.3884468227,11978.9271744309
9747369396,23372,2,0,10589.8385697302,43099.9776491395,41582.0209673870,57666.6332422991,65393.0233832927,54851.5392407369,55816.1090709820,55562.3030829522,58462.2546021577,11971.9185810609
9747446065,23373,2,0,10644.6662116143,43112.0723397815,41602.3775241718,57677.7666848921,65410.1433327226,54871.5551020107,55818.3965979847,55588.6096434834,58480.0072718223,11965.0560000527
9747446065,23373,2,0,10864.5121578113,43149.6583552676,41643.4678363429,57708.4414485828,65451.0511294413,54892.6295529080,55838.4611300457,55621.8396235069,58491.1285467185,11971.1641838578
9747446065,23373,2,0,10992.6258376600,43163.7972189759,41669.0565027615,57716.4599607891,65464.1922420101,54868.3671654430,55845.4453880221,55627.3029193804,58488.3178087524,11979.8275839958
9747446065,23373,2,0,10845.9199170658,43137.1986337209,41635.5953364985,57690.0438909865,65428.8450827394,54855.2868913584,55828.8121464651,55591.4082137527,58469.0806800753,11984.7676689059
9747446065,23373,2,0,10590.2522714222,43110.3566945295,41589.6866163855,57661.7539958731,65394.9215439971,54867.5275943623,55813.8823824634,55560.1372329178,58462.9481608766,11983.7577500696
9747446065,23373,2,0,10608.2847981138,43125.0796076853,41615.2266120168,57678.5697528824,65414.6818836375,54866.4446693450,55823.5800368313,55586.0544271506,58485.7747601164,11976.2989519171
9747446065,23373,2,0,10865.9601137332,43152.9923041971,41655.4651854103,57704.5112825089,65453.2413148694,54867.2964081226,55835.3827027495,55620.3673321913,58494.7788557654,11968.6211352218
9747446065,23373,2,0,10993.9156135233,43158.4677677674,41653.3358384663,57706.2512631546,65455.1273078770,54876.3126714684,55834.4336223973,55606.8125179306,58478.2794588735,11975.0213437507
9747453012,23374,2,0,10846.9176682053,43132.0638656616,41616.2243631563,57689.7640339595,65422.2380233646,54878.5515276838,55822.4727764204,55572.7307991295,58463.2280179035,11978.5256404357
9747453012,23374,2,0,10638.8622202298,43106.5360377271,41589.1269023316,57677.3408155033,65396.2964937381,54858.4748279260,55814.4420965172,55560.6482761843,58466.6958114980,11980.5333104115
9747453012,23374,2,0,10610.8156790529,43110.6608869501,41596.6100358777,57684.5562597193,65403.7552918905,54849.1178690691,55821.0004851048,55572.7064637359,58468.7399845643,11979.4625530911
9747453012,23374,2,0,10807.9080321909,43143.4893329784,41644.6846060252,57700.3255948018,65439.8446806674,54873.4167596246,55833.8009021625,55604.7805125611,58482.2096249473,11978.1484418342
9747453012,23374,2,0,10993.5384149217,43164.2839268488,41681.8934229098,57704.0610777265,65460.0308896967,54880.5591976596,55835.0298395417,55615.4759180685,58491.3475652613,11976.0069271934
9747453012,23374,2,0,10897.8273117125,43138.7195958238,41635.7413488603,57674.0798727548,65427.4944683921,54853.4130660476,55812.9941405953,55575.5415370956,58464.6516384318,11979.2191991546
9747453012,23374,2,0,10627.0230512211,43103.8348090324,41568.1619607057,57653.4069558526,65388.5091677714,54861.8087768555,55801.1914746771,55537.1037828319,58450.1234084252,11982.4071357222
9747453012,23374,2,0,10584.2292614948,43115.6618103443,41579.0155462718,57683.2178130688,65408.9265630403,54863.1837265965,55825.6850483816,55568.5937822097,58473.1933616015,11980.1926149005
9747462023,23375,2,0,10817.5205126811,43151.8485406957,41643.1514762255,57723.0670201639,65451.6716819793,54857.2580582437,55850.3124667513,55613.8332789974,58488.0501194223,11978.7081558881
9747462023,23375,2,0,10976.0047637999,43158.8814694594,41664.4571133625,57713.5397135516,65455.4436679944,54846.3558018903,55836.5751370382,55607.2262196225,58472.9621753618,11976.4936350663
9747462023,23375,2,0,10884.3211682390,43133.1832937693,41635.6440072857,57678.5454174888,65421.6661416139,54854.0579539793,55805.3163239000,55572.1710850756,58457.5822065776,11975.3255361713
9747462023,23375,2,0,10668.2837111477,43102.2286730518,41586.9732199940,57660.5615615845,65393.7047743148,54873.3680888373,55791.5059880060,55553.9438752349,58456.0247413843,11973.9505864303
9747462023,23375,2,0,10572.9133034495,43096.6437002100,41557.2962074428,57662.9951009491,65394.0089667354,54864.1206392518,55797.1031285446,55561.7190335047,58468.9833385007,11966.7229745175
9747462023,23375,2,0,10731.6652438984,43126.0651911279,41589.7109517791,57687.2209853235,65426.6183942209,54846.1367833475,55816.4497664930,55595.2775413424,58481.7350847712,11965.8225649526
9747462023,23375,2,0,10965.6013830163,43154.3794216349,41647.3128285389,57707.1395050227,65454.4945876422,54839.5053885790,55828.1550908367,55618.8220346948,58483.3412207518,11968.4507874663
9747462023,23375,2,0,10948.1650734690,43148.9647965487,41654.6986205105,57705.6550460103,65443.0326172350,54877.6267827253,55829.0311650080,55599.5605706241,58471.3195362907,11977.0046783329
9747470808,23376,2,0,10688.5307586611,43122.7312421984,41613.4257928871,57682.9379560419,65406.3105082234,54894.4060366441,55815.0748167520,55561.0254747858,58468.2897797818,11984.3174641234
9747470808,23376,2,0,10575.2129981490,43116.4770460314,41597.4496069585,57677.5598340461,65406.3835144043,54868.4645070176,55815.5006861408,55573.0958300342,58489.9969509140,11979.0001806118
9747470808,23376,2,0,10749.9289568296,43140.0458747775,41624.3037138468,57698.8168003958,65436.0361915618,54850.5901603847,55827.9847430812,55607.7007597986,58495.3629052129,11973.0015060781
9747470808,23376,2,0,10946.3155835519,43154.5741047841,41643.2853208906,57712.2864407788,65450.9659555636,54849.6289123357,55832.1095923042,55610.7791870948,58472.1469396747,11972.9650029876
9747470808,23376,2,0,10934.5859238146,43141.7371846359,41629.4506496029,57697.3445090802,65433.7608322559,54870.9102140790,55817.6908715690,55590.5443072783,58456.5966231350,11972.8311583226
9747470808,23376,2,0,10741.1195443298,43118.8375792151,41603.7768093065,57675.4669901926,65406.1401604678,54876.6777023731,55805.4501685651,55573.4608609389,58453.0436556627,11976.9073367583
9747470808,23376,2,0,10585.2270126343,43112.9605816496,41591.3292554566,57675.0289531070,65403.3050871081,54881.6907934642,55812.7021158716,55575.2738477655,58464.5786322508,11980.6063165924
9747470808,23376,2,0,10696.0017245103,43138.5857511587,41617.0274311466,57697.6973722881,65437.2529612441,54885.4019409952,55832.9369956881,55610.2803115251,58491.8099377406,11976.3719580981
9747497990,23377,2,0,10963.7397254024,43171.7062219108,41669.2633536075,57735.8065987376,65480.2901049069,54870.1679845728,55856.8708553388,55647.9149977985,58505.4134227886,11977.9172555946
9747497990,23377,2,0,11002.9683799595,43167.0094909371,41667.3530252063,57724.6001499636,65468.1832465680,54883.2969294448,55844.8856739682,55624.7355353508,58485.6652508450,11980.5211427147
9747497990,23377,2,0,10749.4057458662,43125.9921849470,41617.3437912640,57677.4989955620,65417.0302491244,54884.9517362127,55810.1955703260,55571.7695510805,58468.3871213564,11973.3300338923
9747497990,23377,2,0,10575.8213829901,43106.8158947540,41587.8857972557,57673.5688294882,65399.6912811517,54873.6966166515,55807.6160185996,55573.2296746992,58481.2118738078,11972.8919968067
9747497990,23377,2,0,10688.3117401182,43129.6789970843,41624.3280492404,57702.6252895014,65431.1204420453,54869.2675750079,55830.4426178394,55610.2681438283,58499.0375496534,11982.5653157809
9747497990,23377,2,0,10904.3248618159,43152.4690932337,41656.4142657625,57710.5099570427,65457.3053256083,54858.9858711925,55834.4822931846,55624.6868645635,58495.8861161763,11983.4535576490
9747497990,23377,2,0,10981.0908610719,43151.5808513656,41647.4345055072,57703.5865375504,65454.8231154564,54882.6520415132,55830.4061147489,55613.3100680340,58485.8599339942,11982.0056017271
9747497990,23377,2,0,10813.6633527882,43121.2224477924,41609.4834591164,57679.5675040219,65420.9239121077,54872.5163500597,55814.3569226395,55580.6884728517,58474.0572680759,11980.5941488956
9747532952,23378,2,0,10588.9016570748,43093.0420619505,41568.1132899184,57666.9617701133,65393.2180664419,54873.2829149595,55807.0441368489,55557.8132028246,58467.5597179725,11974.6563128460
9747532952,23378,2,0,10634.3480047085,43110.2471852581,41592.8258821658,57693.6576969429,65420.5467135062,54865.9214583816,55829.3718605190,55592.0652693812,58492.4183225817,11967.0393346349
9747532952,23378,2,0,10899.1292552725,43144.1098855163,41655.5381915913,57711.7510621186,65460.0673927871,54843.6545731956,55840.8946694103,55628.6900368182,58507.5306020358,11964.9829938718
9747532952,23378,2,0,10993.2220548043,43140.3135641076,41652.8369628966,57695.1664913489,65450.8564462922,54840.4544689312,55823.9694031296,55606.8976918083,58486.5656604099,11968.9374953392
9747532952,23378,2,0,10797.8696823120,43107.9474905586,41596.5857004841,57669.5656572335,65410.4231897495,54858.7668526497,55806.0707211031,55561.3905056905,58460.6484661770,11971.8577425767
9747532952,23378,2,0,10597.6745664841,43090.4625102240,41566.2881353950,57667.4971487736,65395.0188855717,54893.5177947761,55807.9932172011,55558.6527739054,58466.5376314393,11972.2227734814
9747532952,23378,2,0,10624.0054624090,43102.3868531105,41585.9389657640,57687.5130100473,65415.0347468454,54872.3946730914,55822.0104039411,55587.3563707107,58480.6643274508,11970.2759419898
9747532952,23378,2,0,10826.1717451222,43126.6979113627,41616.1635246722,57701.5788675746,65440.5990778704,54856.1994686201,55830.0532515411,55608.0292876129,58487.7824300922,11966.2971051287
9747558140,23379,2,0,10967.5725499016,43131.4676485173,41635.0112870510,57690.5427665562,65441.9496922178,54841.9754310341,55818.4209333784,55605.5835805515,58482.8910159694,11959.3858533332
9747558140,23379,2,0,10851.3588775457,43103.1534180103,41606.5753795757,57661.5958158144,65407.2839239692,54838.0574326571,55799.0742954299,55570.5649490950,58455.0513256385,11959.6170395729
9747558140,23379,2,0,10592.3329475789,43067.8914326174,41548.9735028159,57635.6542861879,65368.9921820674,54836.6338121288,55786.2495429785,55535.2056221275,58438.4667548688,11960.6026230155
9747558140,23379,2,0,10571.8547138259,43075.8612740365,41556.2011147288,57655.1104334078,65386.3798208274,54837.6437309651,55799.5975063933,55560.2467421892,58459.8210627931,11956.7941339099
9747558140,23379,2,0,10831.9027303258,43118.8375792151,41626.3965577003,57703.1606681616,65438.8225941343,54859.8741130606,55828.8121464651,55614.2226452957,58488.7558458380,11960.1159151426
9747558140,23379,2,0,10991.6767573078,43141.0922967042,41657.1199921782,57712.6149685930,65454.8352831533,54880.2793406327,55836.7576524905,55619.3817487487,58488.3543118429,11965.8590680430
9747558140,23379,2,0,10862.9668603148,43124.4955582378,41619.0351011224,57685.5905139493,65427.0320959128,54874.8282124560,55818.9928151290,55585.8475763046,58472.3294551271,11973.3665369828
9747558140,23379,2,0,10641.1375795357,43092.6770310458,41569.3422272975,57662.7030762253,65394.0333021290,54844.0317717972,55803.4546662861,55563.8240450551,58463.3253594781,11971.6022209435
9747623017,23380,2,0,10590.2766068158,43085.2912390742,41559.0726911790,57662.4475545920,65390.6263470186,54841.1601953469,55803.0774676846,55567.6081987670,58461.7557265879,11965.5305402288
9747623017,23380,2,0,10770.8452276683,43114.9560839286,41599.7858047485,57686.1745633968,65426.3628725876,54866.2743215895,55821.3046775254,55596.8350065358,58480.2262903651,11964.8126461163
9747623017,23380,2,0,10974.9218387826,43140.4595764695,41641.9347065432,57707.7357221670,65453.3021533536,54856.2481394074,55837.6823974491,55616.6318492667,58487.9649455445,11966.0415834954
9747623017,23380,2,0,10912.9760942570,43123.2179500713,41627.7958428350,57682.9987945260,65426.6183942209,54855.7735992313,55822.9229812028,55587.0765136838,58472.2077781588,11967.1245085126
9747623017,23380,2,0,10641.1132441421,43091.5576029380,41564.7915086858,57663.2019517951,65389.6407635759,54873.9764736784,55815.2573322044,55550.8654479387,58463.0576701480,11972.3201150560
9747623017,23380,2,0,10553.4206531391,43093.1880743123,41556.5174748462,57679.9568703202,65395.0310532685,54855.7370961408,55823.7747199804,55568.6302853002,58483.1343699058,11971.8455748799
9747623017,23380,2,0,10763.3985972126,43120.9182553718,41610.3108625004,57695.7992115837,65429.5751445488,54841.0628537724,55828.8243141620,55607.5304120431,58498.6481833551,11964.7518076322
9747623017,23380,2,0,10955.5021946532,43133.8646847914,41641.3628247925,57692.8667966494,65439.3336374008,54834.0177573119,55822.7404657505,55605.0482018912,58484.8865182483,11957.2200032987
9747627796,23381,2,0,10901.7209746958,43115.5888041634,41622.0405222377,57672.3642275027,65414.7548898185,54850.7240050498,55808.6381051327,55574.3491028070,58467.0608424027,11957.4633572352
9747627796,23381,2,0,10688.8349510816,43084.4760033871,41579.5509249320,57650.6205532801,65385.0657095705,54866.9435449148,55794.2802228816,55550.5247524276,58468.4966306278,11957.0496555432
9747627796,23381,2,0,10569.7497022755,43077.7107639535,41560.1556161962,57652.4700431972,65379.8944384208,54852.7925135097,55800.1815558408,55552.1187207114,58474.9698453376,11961.9167342724
9747627796,23381,2,0,10700.5281077285,43106.2440130033,41593.7141240339,57674.4570713563,65410.1798358131,54850.7240050498,55818.0680701705,55581.7470624753,58482.1852895536,11968.4751228600
9747627796,23381,2,0,10941.1321447053,43134.8137651436,41636.2523921269,57693.5603553683,65441.9861953082,54835.5630548084,55831.8905737613,55607.7981013732,58482.3069665219,11970.0569234470
9747627796,23381,2,0,10949.4670170290,43121.1859447019,41622.2717084773,57678.7522683348,65424.0996809785,54832.9226645978,55820.2704232954,55582.5136273751,58462.2059313704,11967.8302349284
9747627796,23381,2,0,10692.5947693999,43086.1186424582,41567.5170727741,57649.6228021406,65383.3257289248,54850.6631665657,55800.5709221391,55542.8834388228,58457.4726973062,11966.6499683365
9747627796,23381,2,0,10555.6230062641,43081.4949176655,41558.5738156092,57665.1609509835,65383.2892258344,54855.1773820870,55812.2519110891,55555.5621789123,58478.2307880862,11968.4751228600
9747655669,23382,2,0,10713.0243323656,43104.6865478100,41599.4207738438,57686.8072836316,65412.7837229332,54830.4039513555,55822.9838196870,55592.0896047748,58483.0370283312,11964.8126461163
9747655669,23382,2,0,10918.5975701892,43126.8074206341,41628.2582153142,57690.3602511039,65433.4079690481,54849.5072353675,55820.9031435302,55599.8404276510,58470.2487789703,11964.3016028497
9747655669,23382,2,0,10929.0739571538,43121.6969879685,41618.3780454940,57674.9802823197,65421.6174708266,54859.1562189481,55806.6426028537,55579.8002309836,58457.7160512427,11965.8590680430
9747655669,23382,2,0,10742.6891772200,43096.2056631244,41584.0529727565,57659.7828289878,65392.6340169944,54865.8727875943,55793.6475026468,55557.4360042231,58461.4150310769,11968.4264520727
9747655669,23382,2,0,10564.2134002211,43081.0447128830,41562.0416092038,57657.4709665914,65379.3590597605,54859.4969144591,55796.5799175812,55550.2448954007,58465.5885510871,11974.6806482397
9747655669,23382,2,0,10641.3322626849,43105.3314357416,41593.7992979117,57676.1848843051,65407.5151102088,54850.6875019593,55815.4155122631,55578.6077966950,58483.5359039010,11974.8631636920
9747655669,23382,2,0,10905.3104452586,43139.8025208410,41646.4610897613,57696.6387826645,65444.9794487267,54832.3386151503,55831.6715552185,55613.4804157895,58491.4692422295,11973.5490524351
9747655669,23382,2,0,10973.5590567385,43134.6190819944,41643.1393085287,57693.0128090113,65434.6612418208,54857.6230891484,55824.8454773009,55591.8705862320,58471.5628902272,11973.0501768654
9747725516,23383,2,0,10748.6391809664,43102.2773438391,41596.2693403667,57665.3434664359,65392.9138740213,54866.9192095211,55801.9215364864,55545.9618661190,58456.2315922303,11973.7437355843
9747725516,23383,2,0,10564.8947912431,43086.9095427517,41568.8311840310,57657.2397803518,65378.8115134035,54846.0516094698,55801.8850333960,55545.1709658255,58465.0531724269,11971.7482333053
9747725516,23383,2,0,10650.3606937275,43098.8947241223,41582.5441783504,57664.4795599615,65401.2487463450,54849.8114277881,55811.1689860719,55577.9264056729,58482.9031836662,11964.8491492067
9747725516,23383,2,0,10859.4868990234,43121.5144725161,41614.1193516060,57669.9428558350,65428.4800518348,54853.9362770110,55816.6079465517,55595.3383798265,58490.2038017600,11957.7918850494
9747725516,23383,2,0,10945.8775464663,43123.8019995188,41636.2158890364,57658.3713761563,65428.3705425634,54832.4967952090,55808.3704158026,55583.4140369400,58471.6723994986,11955.0176501738
9747725516,23383,2,0,10803.1869658236,43101.4499404551,41614.1315193028,57646.6295487222,65400.7377030785,54828.4936229543,55800.9237853470,55557.9470474896,58451.9120598582,11960.4322752600
9747725516,23383,2,0,10568.1192309012,43073.9509456353,41561.6157398150,57639.3897691126,65371.7664169430,54843.7154116798,55794.8521046323,55538.4178940888,58442.8471257251,11959.3371825459
9747725516,23383,2,0,10582.9029825411,43086.9460458422,41567.2980542313,57663.0194363427,65392.3906630579,54869.0850595556,55809.0031360374,55570.4311044300,58469.6403941292,11952.8639678361
9747731861,23384,2,0,10854.9848511989,43123.7289933379,41624.4740616023,57691.5283499989,65435.7806699285,54843.0826914450,55824.3344340343,55616.5345076921,58491.9924531929,11953.7400420074
9747731861,23384,2,0,10993.2098871075,43132.8669336519,41646.1447296439,57693.3900076128,65442.9596110541,54848.1201179297,55821.0978266794,55612.6165093151,58487.2227160383,11962.7319699595
9747731861,23384,2,0,10826.2934220904,43113.3986187352,41622.8314225312,57683.4368316116,65415.1564238136,54874.4266784609,55817.2163313929,55576.9043191398,58477.7197448196,11973.5855555256
9747731861,23384,2,0,10604.8291722160,43090.3895040431,41590.1976596521,57663.4209703379,65390.5411731408,54859.2413928258,55806.4600874014,55562.5342691919,58477.4642231863,11973.8532448557
9747731861,23384,2,0,10606.6664944363,43092.8230434076,41587.9466357398,57659.3691272958,65397.7079465695,54848.6433288930,55802.8949522323,55576.4906174478,58477.1235276753,11964.6301306639
9747731861,23384,2,0,10799.2811351435,43114.9560839286,41604.6893865682,57674.4084005690,65424.3673703086,54848.6189934994,55813.5660223460,55594.9611812250,58475.5052239978,11956.7819662131
9747731861,23384,2,0,10958.5927896463,43129.5086493288,41625.8246759496,57682.9744591323,65437.3624705155,54829.3453617319,55822.4362733299,55601.9332715046,58477.3912170054,11956.9766493623
9747731861,23384,2,0,10872.6523469858,43112.4130352926,41609.2279374831,57669.8333465636,65411.2505931335,54842.2674557578,55809.9643840864,55576.9043191398,58463.1185086321,11961.7828896074
9747749354,23385,2,0,10605.6079048127,43079.6697631420,41564.9983595317,57641.5677868439,65370.3062933243,54859.0345419798,55786.9674370910,55539.8293469203,58452.5447800929,11963.2551809229
9747749354,23385,2,0,10545.0371100281,43085.8631208249,41559.2187035408,57651.6183044196,65381.6344190664,54858.8276911339,55796.7624330335,55560.1007298273,58470.3704559386,11965.8955711335
9747749354,23385,2,0,10793.2337898225,43127.8173394704,41627.0779487224,57696.7847950264,65433.3592982608,54858.5721695006,55830.6616363822,55613.6142604546,58499.0375496534,11966.2240989477
9747749354,23385,2,0,10970.3954555645,43140.1553840489,41651.8027086666,57703.7690530027,65443.4949897143,54838.7753267696,55831.0875057710,55609.6232558967,58485.6409154514,11965.3115216860
9747749354,23385,2,0,10858.1484523729,43117.7059834106,41607.4271183533,57673.7756803342,65412.8932322046,54856.0291208646,55811.3393338274,55573.6068733008,58470.6138098750,11967.6842225665
9747749354,23385,2,0,10633.9951415006,43086.6661888152,41558.6589894870,57643.7579722720,65377.4730667530,54844.2142872495,55791.7858450329,55548.5779209360,58465.6128864808,11962.7928084437
9747749354,23385,2,0,10572.6699495130,43083.8797862428,41552.5873087723,57648.3086908838,65377.1810420292,54854.1431278570,55793.4406518008,55555.7690297583,58468.0707612390,11960.0064058712
9747749354,23385,2,0,10743.5895867849,43113.7028111558,41594.6388689924,57670.1862097714,65408.9752338276,54838.4224635618,55809.6966947563,55582.6474720402,58474.4344666774,11960.6999645901
9747802164,23386,2,0,10958.6536281304,43136.9552797844,41635.8751935254,57683.0718007069,65434.2475401288,54826.3642760102,55817.3623437548,55600.8016757000,58476.0771057485,11961.0284924043
9747802164,23386,2,0,10927.2244672367,43119.8596657482,41626.4208930940,57663.5183119124,65413.6232940140,54835.1858562069,55803.1626415624,55576.8191452620,58459.8332304899,11963.9487396418
9747802164,23386,2,0,10655.6536418455,43085.6927730694,41570.5468292830,57639.9008123791,65372.9710189285,54862.3441555157,55789.1941256096,55537.9676893064,58448.7119555937,11970.9086622246
9747802164,23386,2,0,10533.9036674351,43083.8797862428,41562.7716710131,57649.9634976517,65375.5749060486,54872.2243253359,55801.1671392834,55550.6829324863,58471.0031761733,11971.2371900388
9747802164,23386,2,0,10734.0014416884,43116.6838968774,41614.5938917821,57686.3692465459,65419.4881238826,54854.6663388204,55829.9072391792,55597.5772360420,58493.8176077164,11966.7716453048
9747802164,23386,2,0,10945.6585279235,43133.4144800090,41641.1681416434,57684.7266074748,65436.2065393173,54847.3535530298,55828.8486495556,55601.6169113872,58486.6508342877,11964.2407643656
9747802164,23386,2,0,10911.5159706383,43119.7379887800,41626.2627130353,57662.9220947681,65415.8499825325,54848.1566210201,55813.9797240380,55574.5559536529,58471.8549149510,11967.7937318379
9747802164,23386,2,0,10702.3167591614,43088.7590326688,41579.7091049907,57643.6119599101,65384.2991446707,54856.3089778915,55802.4934182371,55552.0457145305,58473.5097217189,11966.7594776079
9747831837,23387,2,0,10564.2499033115,43078.8180243644,41559.3890512964,57650.8517395198,65378.1666254719,54884.0391589510,55810.3172472943,55555.5865143060,58473.2420323888,11970.2151035057
9747831837,23387,2,0,10673.0291129086,43104.0903306657,41592.5946959262,57670.2592159524,65407.2109177883,54855.8831085027,55823.3488505916,55582.1242610768,58480.6886628444,11968.4264520727
9747831837,23387,2,0,10921.8585129378,43130.6524128302,41638.9292854279,57682.0983849611,65435.0992789064,54830.3309451745,55828.0942523526,55607.1653811384,58485.5314061799,11966.4917882778
9747831837,23387,2,0,10955.5265300469,43117.4869648677,41635.7413488603,57656.1933584250,65419.2691053398,54832.1560996980,55806.6304351569,55582.0269195022,58468.2654443882,11964.7761430258
9747831837,23387,2,0,10698.1310714544,43079.5237507802,41567.3345573218,57622.4279997414,65377.1202035451,54835.4048747497,55784.0471898535,55535.6071561227,58450.9021410218,11967.5017071141
9747831837,23387,2,0,10521.6386290376,43064.7765022308,41534.4939435966,57631.7606232046,65366.2909533727,54835.2953654783,55791.5911618838,55536.5684041717,58461.1960125341,11961.5273679741
9747831837,23387,2,0,10664.9375945214,43092.0199754173,41577.4337456848,57679.6648455965,65402.5628576019,54841.7320770976,55824.7359680295,55579.8123986805,58479.3258808002,11956.5629476703
9747831837,23387,2,0,10895.9413187049,43119.6649825990,41628.9517740331,57679.8838641393,65427.8838346904,54835.4778809306,55822.8378073251,55595.5939014598,58473.1933616015,11955.8815566482
9747844524,23388,2,0,10932.7607692911,43115.2481086523,41623.7926705802,57651.6791429037,65416.7747274911,54838.4589666522,55803.8440325845,55578.1575919125,58461.2690187150,11956.1370782815
9747844524,23388,2,0,10750.2453169470,43084.1596432697,41582.2886567171,57623.6934402110,65382.6930086900,54840.2232826916,55784.5095623328,55552.8974533081,58461.0500001722,11955.0663209611
9747844524,23388,2,0,10546.0713642581,43059.8364173206,41545.9194109134,57614.8840277112,65359.8055709661,54842.0484372150,55779.7154897846,55537.7851738540,58454.9539840639,11958.7409654016
9747844524,23388,2,0,10602.0427696436,43083.2105629175,41564.6089932334,57647.7124737394,65388.7646894047,54857.0633750945,55805.2554854159,55566.7686276863,58476.6489874992,11967.5017071141
9747844524,23388,2,0,10880.6951945858,43126.9899360865,41626.5912408495,57689.4355061453,65438.3967247455,54860.9083672906,55834.1659330672,55611.9837890803,58495.8496130858,11968.4386197695
9747844524,23388,2,0,10993.7939365550,43133.0859521947,41640.8396138291,57683.4489993084,65439.0902834644,54845.7230816555,55829.1285065825,55600.5339863699,58479.4353900717,11968.2317689235
9747844524,23388,2,0,10779.5086278062,43098.7487117604,41588.9930576666,57644.9139034702,65393.6926066180,54844.3602996114,55803.1626415624,55550.2083923102,58453.5425312324,11967.2218500872
9747844524,23388,2,0,10560.2954018441,43081.6652654210,41560.4476409200,57637.8323039192,65375.7817568946,54853.4982399254,55801.4956670976,55545.7063444857,58464.9436631555,11968.7671475837
9747872380,23389,2,0,10622.3019848538,43099.7342952031,41581.5099241205,57672.8874384661,65403.8161303747,54851.2107129227,55829.1528419762,55580.0314172233,58484.1077856517,11972.6243074766
9747872380,23389,2,0,10841.2231860922,43128.5839043703,41620.4100508634,57696.7117888454,65438.5792401978,54866.6636878878,55844.8856739682,55604.7805125611,58493.3430675403,11973.5490524351
9747872380,23389,2,0,10951.0488176160,43130.6280774365,41628.1852091333,57680.1150503789,65433.6513229845,54845.0660260271,55829.5300405777,55594.3771317775,58481.1997061110,11966.6864714270
9747872380,23389,2,0,10831.7445502671,43100.4765247093,41593.7627948212,57653.4434589431,65396.5763507650,54830.1605974190,55803.7710264035,55560.9768039985,58459.5047026757,11960.6634614996
9747872380,23389,2,0,10596.7984923129,43072.3569773514,41546.5034603609,57633.2815853074,65364.9646744190,54844.4576411860,55789.9971936000,55536.8482611986,58459.8453981867,11962.5859575977
9747872380,23389,2,0,10564.5784311257,43085.0965559251,41548.6814780922,57650.7665656420,65385.6497590180,54860.8961995937,55806.3505781300,55565.8317150309,58484.4484811627,11968.9618307329
9747872380,23389,2,0,10816.5592646321,43131.2121268840,41617.2707850831,57687.9997179202,65441.1709596211,54850.9065205021,55836.6238078255,55621.6814434482,58501.2642381720,11977.9780940787
9747872380,23389,2,0,10986.3594737962,43144.2924009687,41647.7752010182,57689.8127047468,65452.4747499696,54843.0461883545,55835.7599013510,55620.9270462452,58482.3191342187,11978.8906713404
9747928749,23390,2,0,10841.7585647524,43112.5347122608,41604.3121879667,57656.3637061806,65409.6201217592,54851.6974207956,55810.0495579642,55569.8227195888,58454.4064377069,11972.1497673005
9747928749,23390,2,0,10614.9526959727,43083.4539168540,41554.8626680782,57648.1140077346,65381.5614128855,54866.3108246800,55804.0265480368,55551.2669819338,58460.9769939912,11962.6224606881
9747928749,23390,2,0,10594.2432759801,43091.9104661459,41567.2372157472,57671.3664763632,65398.6813623154,54868.5740162890,55818.4087656815,55576.0647480590,58483.6454131724,11959.7873873284
9747928749,23390,2,0,10772.0376619569,43120.1273550783,41609.9214962020,57687.0749729617,65432.5197271800,54852.9506935684,55833.3385296833,55602.7485071917,58493.0997136038,11957.0374878464
9747928749,23390,2,0,10943.7968703096,43138.0017017112,41631.4704872755,57695.0083112902,65446.5004108295,54837.8992525984,55839.0086764028,55610.5966716425,58491.3475652613,11956.3074260370
9747928749,23390,2,0,10894.6515428417,43121.0521000369,41613.0729296792,57677.2434739287,65422.4205388169,54832.3629505440,55821.8278884888,55584.4604588668,58470.0540958212,11960.4201075632
9747928749,23390,2,0,10646.3331860791,43084.9505435632,41559.5472313551,57648.3451939742,65378.8601841908,54856.1264624392,55800.5587544423,55545.3534812779,58457.3510203380,11963.5472056467
9747928749,23390,2,0,10541.8248380668,43079.5480861738,41552.5994764692,57650.0608392263,65380.0891215699,54865.7511106261,55802.5542567212,55552.6540993716,58482.4529788837,11960.2740952013
9747936110,23391,2,0,10752.8492040671,43110.7825639183,41609.8119869306,57675.6738410386,65421.1429306505,54863.6947698630,55823.7260491932,55600.6799987318,58501.4710890180,11958.7896361889
9747936110,23391,2,0,10959.9555716904,43132.3558903854,41643.9667119126,57685.8703709762,65440.8302641101,54838.2642835031,55834.9446656639,55609.3799019602,58481.9906064045,11964.1312550942
9747936110,23391,2,0,10884.2724974517,43112.8145692877,41608.2910248278,57662.6300700444,65410.8977299256,54829.1993493700,55823.6530430122,55570.2120858872,58452.7029601516,11967.2583531777
9747936110,23391,2,0,10657.0164238896,43079.9861232594,41560.7518333405,57636.7128758115,65376.2806324643,54830.4039513555,55809.7818686341,55541.5328244755,58449.6732036427,11965.9564096176
9747936110,23391,2,0,10557.6550116335,43071.2740523342,41550.9325020044,57643.2834320959,65373.8227577061,54841.0020152882,55810.3659180816,55549.6973490437,58464.9193277619,11962.0384112406
9747936110,23391,2,0,10692.6069370967,43093.5531052170,41586.3283320624,57666.2682113944,65403.1590747462,54850.4319803260,55819.0171505227,55576.5392882351,58480.6156566635,11957.3295125702
9747936110,23391,2,0,10914.2415347266,43122.6217329270,41628.3920599793,57679.8838641393,65434.9776019382,54845.6987462619,55826.4272778878,55600.4244770985,58491.0068697503,11957.2321709956
9747936110,23391,2,0,10937.4209971743,43120.8087461004,41618.4023808876,57667.4363102894,65429.0641012823,54853.5225753190,55818.4087656815,55587.9039170677,58477.3060431276,11963.7297210990
9747971077,23392,2,0,10706.9161485605,43095.5242721023,41565.5337381920,57655.4389612220,65398.2676606234,54896.2798619549,55818.8833058576,55553.3111550001,58466.1360974442,11972.0767611196
9747971077,23392,2,0,10546.9717738229,43084.9992143505,41540.1154195288,57656.5827247234,65388.9837079475,54871.7132820693,55820.4651064446,55554.3454092300,58479.3137131034,11969.1565138821
9747971077,23392,2,0,10705.9914036020,43110.1741790771,41587.5572694415,57682.9987945260,65426.8495804605,54850.6631665657,55836.4047892827,55600.3514709176,58497.6625999124,11968.8523214615
9747971077,23392,2,0,10931.1424656137,43131.4919839109,41630.3997299551,57689.3138291771,65447.6441743309,54831.0975100744,55836.4899631604,55612.2514784104,58487.4904053684,11966.6256329429
9747971077,23392,2,0,10924.2920523024,43116.8542446329,41608.2180186468,57667.5336518640,65423.2966129882,54814.7927963316,55817.8003808404,55578.2671011839,58457.7038835459,11959.4101887269
9747971077,23392,2,0,10726.9198421374,43086.8730396612,41565.4363966174,57647.4447844093,65388.4604969841,54826.0965866801,55802.7367721736,55548.8456102661,58446.6069440433,11959.0329901254
9747971077,23392,2,0,10573.4365144128,43079.0127075136,41552.1857747772,57651.2411058181,65382.9972011106,54873.7209520451,55806.6791059442,55551.0722987847,58460.8918201135,11964.4597829084
9747971077,23392,2,0,10645.2502610619,43107.4607826856,41577.7987765895,57672.5832460455,65412.1023319111,54865.1670611786,55822.0347393348,55579.8245663773,58480.6034889667,11971.3953700975
9748024590,23393,2,0,10881.7781196030,43140.5204149536,41626.3113838226,57693.1588213731,65447.3034788199,54847.3657207266,55835.5530505050,55612.2514784104,58492.1019624643,11973.2205246209
9748024590,23393,2,0,10970.6509771978,43137.9165278335,41627.7593397445,57691.4553438179,65442.8379340858,54827.0334993355,55831.5133751598,55600.7165018223,58478.4011358417,11972.1132642100
9748024590,23393,2,0,10766.4648568120,43103.4819458245,41573.8929459093,57674.5422452340,65405.2275832061,54847.3170499393,55819.4673553051,55559.5653511671,58456.8034739810,11974.4494620000
9748024590,23393,2,0,10571.7573722513,43086.3011579105,41545.8099016420,57663.8955105140,65390.8331978646,54855.6884253535,55812.8481282334,55554.7347755284,58462.4492853068,11976.9073367583
9748024590,23393,2,0,10657.9898396355,43106.7307208763,41586.6203567861,57672.3398921091,65418.3200249876,54848.6676642867,55819.1266597941,55590.7633258211,58478.9486821987,11975.2403622935
9748024590,23393,2,0,10865.7410951904,43130.7254190111,41625.6178251036,57674.0677050579,65440.2097115721,54842.5473127848,55816.9729774564,55602.9310226440,58482.9031836662,11970.0447557501
9748024590,23393,2,0,10928.5142430999,43131.3703069427,41616.0905184913,57666.2195406071,65432.7022426323,54846.3314664967,55808.3217450153,55586.3829549648,58470.7476545401,11967.3313593586
9748024590,23393,2,0,10792.9782681892,43110.7582285247,41582.9335446488,57658.6025623960,65409.3159293386,54846.9276836410,55800.9967915279,55567.5716956766,58462.7656454242,11965.4940371383
9748045242,23394,2,0,10601.0085154136,43089.2335728449,41550.5918064934,57651.8251552656,65388.2779815318,54853.4252337445,55795.8863588623,55553.4693350588,58461.5123726515,11965.0316646591
9748045242,23394,2,0,10607.9197672091,43102.6910455310,41565.1930426809,57680.8694475820,65406.9675638518,54879.0625709504,55815.9508909233,55575.7362202448,58487.6364177303,11968.4994582536
9748045242,23394,2,0,10834.5187851427,43132.8791013488,41621.5659820616,57696.8456335105,65439.1876250390,54880.3523468136,55827.6562152670,55609.4772435348,58501.9334614973,11970.1055942342
9748045242,23394,2,0,10966.5991341557,43131.8448471188,41635.2424732906,57677.8153556794,65436.7784210680,54834.5166328816,55811.1203152846,55601.0085265460,58479.7517501890,11967.5868809919
9748045242,23394,2,0,10798.3442224881,43090.6936964636,41579.4170802669,57640.0468247410,65390.8940363487,54809.0253080375,55784.5217300296,55549.0281257184,58436.4590848930,11963.4133609816
9748045242,23394,2,0,10578.8876425895,43062.8175030423,41534.0072357237,57633.5249392439,65367.9579278375,54813.2353311383,55782.6357370221,55538.2110432428,58434.9016196997,11965.1898447178
9748045242,23394,2,0,10593.0265062978,43065.8715949448,41546.9293297497,57646.7512256904,65381.9507791838,54824.4661153059,55788.4153930130,55558.9447986291,58453.1288295405,11960.4566106537
9748045242,23394,2,0,10782.2220241977,43091.3507520921,41588.3968405223,57658.6634008801,65406.4565205852,54833.9690865246,55794.4627383340,55575.9065680003,58465.4668741189,11957.9257297145
9748057255,23395,2,0,10911.4794675478,43102.6910455310,41598.9462336678,57661.7418281763,65412.1023319111,54814.8414671189,55794.9129431164,55571.7452156868,58455.1608349099,11958.4732760715
9748057255,23395,2,0,10839.4345346592,43089.7932868987,41576.2778144866,57660.4642200099,65397.0387232443,54809.5850220914,55796.8962776986,55556.5355946582,58445.2198266055,11961.9167342724
9748057255,23395,2,0,10624.4434994946,43064.1924527833,41534.4939435966,57648.9049080281,65371.8515908208,54820.8644770463,55792.6010807201,55536.1181993893,58434.0133778316,11966.5769621556
9748057255,23395,2,0,10564.7852819717,43068.2564635221,41528.0693996741,57662.4232191984,65378.0206131100,54822.6531284792,55804.4159143351,55548.1520515472,58445.6821990848,11973.8532448557
9748057255,23395,2,0,10771.2102585729,43093.8572976376,41573.0412071317,57672.5345752583,65404.1811612793,54812.2132446052,55805.9490441348,55578.8146475410,58460.3564414533,11969.9109110851
9748057255,23395,2,0,10946.8144591216,43099.7829659904,41599.9318171104,57660.9022570955,65406.1888312551,54813.3813435002,55794.0612043388,55573.1079977310,58450.5492778140,11963.4620317689
9748057255,23395,2,0,10835.4070270108,43076.7738512982,41564.9861918349,57643.0400781594,65376.4753156135,54828.7369768907,55783.9498482790,55538.3083848174,58432.6627634843,11964.7761430258
9748057255,23395,2,0,10618.3839864768,43056.8431639022,41527.4610148330,57653.8571606350,65357.5423793570,54839.3958793076,55790.4717337761,55530.1195248556,58441.8372068888,11966.8933222730
9748114465,23396,2,0,10572.7429556939,43055.2856987089,41524.6259414732,57652.9932541606,65363.9060847954,54820.3412660829,55786.5902384895,55544.1488792924,58451.1333272615,11964.5814598766
9748114465,23396,2,0,10720.5439690022,43071.6999217230,41543.1695114314,57647.3109397443,65384.7006786658,54826.8996546705,55780.0561852956,55556.3165761154,58449.8557190951,11961.6247095487
9748114465,23396,2,0,10896.8538959666,43088.7833680624,41572.1042944763,57648.8805726345,65400.5551876261,54817.2263356962,55778.6934032514,55561.2079902382,58453.2626742055,11956.5994507608
9748114465,23396,2,0,10876.3756622136,43077.9784532836,41566.8843525393,57638.1121609461,65384.9196972086,54810.7287855928,55770.3098601404,55541.3016382358,58438.8439534703,11954.5066069072
9748114465,23396,2,0,10646.0654967490,43050.3942845860,41522.0828928372,57628.9863883289,65354.8289829655,54814.9874794808,55767.7303084140,55513.7783080224,58424.4495681288,11961.8072250010
9748114465,23396,2,0,10520.8233933504,43048.2527699452,41511.2293072712,57628.6578605147,65356.0579203446,54827.3985302402,55774.2156908206,55520.1298457639,58436.1670601693,11967.4652040237
9748114465,23396,2,0,10707.7678873381,43079.9982909563,41561.5427336340,57654.7454025031,65394.7998670289,54818.6986270118,55790.7394231062,55561.8407104730,58459.4803672820,11969.8865756914
9748114465,23396,2,0,10925.6304989529,43101.0240710663,41592.9718945277,57663.7251627584,65414.0126603123,54816.0095660139,55793.8786888865,55571.9277311392,58452.3014261565,11969.7405633296
9748144478,23397,2,0,10877.4099164436,43087.2867413532,41561.9929384165,57652.8472417987,65392.5975139039,54848.1079502328,55789.6564980889,55545.2074689160,58437.1283082183,11964.7274722385
9748144478,23397,2,0,10668.7460836270,43065.5674025242,41530.8436345497,57641.4096067852,65370.0751070846,54833.9934219182,55792.7227576883,55533.4534737850,58437.3229913674,11959.7752196316
9748144478,23397,2,0,10558.8961167094,43052.3776191682,41513.2734803374,57634.9242243785,65361.1561853134,54796.2127232830,55789.2427963969,55536.1912055702,58438.0773885705,11954.9324762960
9748144478,23397,2,0,10666.2395380814,43065.2875454973,41525.6115249159,57640.1806694061,65374.6379933932,54795.9450339529,55786.8335924260,55545.3656489747,58436.5929295581,11952.1582414204
9748144478,23397,2,0,10889.7722964157,43094.8915518675,41572.6761762270,57669.8455142604,65405.8603034409,54813.4300142875,55803.7466910099,55566.7077892021,58443.1269827520,11959.5683687856
9748144478,23397,2,0,10940.1343935658,43092.8108757108,41574.5013307505,57671.4881533315,65403.4754348636,54810.7409532896,55801.3131516453,55557.9348797928,58432.7357696652,11961.4178587027
9748144478,23397,2,0,10706.9648193478,43054.8598293201,41520.0508874678,57631.1400706666,65362.1782718466,54821.4120234033,55774.7754048745,55517.8179833676,58419.5946570964,11957.4876926289
9748144478,23397,2,0,10513.2550859266,43035.1724958605,41486.6748950825,57615.0057046794,65348.2949297716,54842.4743066038,55767.1949297538,55514.2893512889,58431.2999814401,11956.4656060957
9748153177,23398,2,0,10642.0501567974,43063.0608569787,41530.8558022466,57641.0324081837,65385.9904545290,54839.3350408235,55786.2008721912,55558.7622831768,58457.0468279174,11957.6093695971
9748153177,23398,2,0,10877.6167672896,43094.8915518675,41579.5630926288,57661.7174927827,65418.3565280781,54828.7613122844,55798.7335999188,55581.5158762357,58458.2392622061,11959.0208224285
9748153177,23398,2,0,10908.5713880071,43094.7942102930,41582.2643213235,57655.0860980142,65410.7273821701,54833.2146893216,55797.8210226571,55565.8682181214,58448.8701356524,11960.3836044727
9748153177,23398,2,0,10743.3218974548,43071.2862200310,41555.3980467384,57647.1162565951,65383.8002691009,54822.1055821222,55796.3487313415,55548.9794549311,58442.3360824585,11962.0019081502
9748153177,23398,2,0,10580.1895861496,43048.6299685467,41531.6101994496,57640.7768865504,65362.6406443258,54813.3935111970,55788.5735730717,55539.4278129251,58437.9070408149,11959.1790024872
9748153177,23398,2,0,10613.8211001682,43051.9152466889,41534.0194034205,57642.6263764675,65369.8074177545,54794.9351151166,55787.3203002989,55543.8325191750,58437.5541776071,11952.6206138997
9748153177,23398,2,0,10832.8518106780,43074.9000259874,41565.0105272286,57657.9455067675,65392.0256321532,54792.6475881139,55794.3045582753,55562.1083998031,58437.9313762086,11952.2799183886
9748153177,23398,2,0,10951.8275502127,43083.3322398857,41579.3440740860,57664.2483737218,65397.6106049950,54802.1140562421,55796.8719423049,55560.8551270303,58430.5577519339,11961.0893308884
9748180953,23399,2,0,10767.9614835212,43055.5168849485,41536.5624520565,57638.3433471858,65359.4162046677,54823.1155009585,55777.0507641803,55519.2902746831,58409.9213381222,11963.0970008642
9748180953,23399,2,0,10551.7536786744,43040.5506178563,41522.0585574436,57624.9710483774,65344.0362358835,54842.4256358165,55773.1814365907,55512.2573459195,58424.7415928525,11960.8216415583
9748180953,23399,2,0,10621.8274446777,43062.9513477073,41553.8405815451,57652.6403909527,65374.5041487282,54821.7405512175,55794.0247012484,55550.0015414642,58449.6732036427,11960.6877968933
9748180953,23399,2,0,10841.0406706398,43091.3994228794,41575.3409018312,57678.3507343396,65405.4709371426,54809.9622206929,55813.3105007127,55573.7163825722,58456.3167661081,11964.0095781259
9748180953,23399,2,0,10929.5363296331,43101.7054620884,41564.5481547493,57689.3138291771,65409.7174633338,54815.6080320188,55823.1176643520,55566.0385658769,58450.7926317504,11971.6508917308
9748180953,23399,2,0,10800.7899295495,43076.2019695475,41533.8247202714,57654.8427440777,65378.5924948607,54815.3768457791,55802.6272629022,55538.7342542062,58433.3441545063,11965.9929127081
9748180953,23399,2,0,10591.6150534663,43042.7773063749,41501.8966838080,57617.6704302836,65347.3458494194,54836.4756320701,55774.7754048745,55516.4308659298,58420.1543711503,11956.4412707021
