steady_timestamp,sequence,battery,flags,EEG-ch1,EEG-ch2,EEG-ch3,EEG-ch4,EEG-ch5,EEG-ch6,EEG-ch7,EEG-ch8,EEG-ch9,EEG-ch10
9808759162,23494,-2,0,11085.0759981207,42267.5246709979,41100.0098254430,57543.3501380891,65079.1211406545,54628.9798981485,55423.2871467501,55286.0476942842,58051.6800082611,12197.4468416741
9808759162,23494,-2,0,11207.8602267610,42267.9870434772,41089.9228047768,57532.3140370707,65081.6276862000,54618.7103620299,55419.0527882557,55291.5474932481,58051.1202942073,12186.0213743573
9808759162,23494,-2,0,11137.0320635547,42241.1937750731,41040.3759433138,57510.9232260559,65053.6419835072,54626.5341910871,55402.6020621511,55256.6870418504,58020.3725243357,12176.8104278624
9808759162,23494,-2,0,10955.0884929612,42213.1959046835,40961.9186341995,57520.0489986731,65028.0411493917,54600.6048291574,55407.7246625136,55234.8216906596,57999.9794644604,12181.3003079900
9808759162,23494,-2,0,10942.4340882654,42224.9985706018,40969.3530969583,57559.6426841350,65049.1156002891,54588.8386663296,55445.3836841806,55268.4045338909,58021.4189462625,12194.5630975271
9808759162,23494,-2,0,11108.2067897811,42264.5800883668,41045.9122453682,57581.1308367243,65093.3208428468,54629.3205936595,55478.3216394803,55316.0775700432,58065.1374809473,12206.3414280517
9808759162,23494,-2,0,11230.0662734629,42287.5648676653,41089.3630907229,57584.8054811648,65108.0559236994,54650.1151875299,55475.6812492697,55321.3583504643,58063.0933078810,12211.8047239252
9808759162,23494,-2,0,11179.0106175938,42273.1704823238,41085.9439679157,57560.2145658857,65085.6916969388,54672.2725634445,55446.0894105963,55294.9544483586,58047.2753020112,12195.1836500650
9808780451,23495,-2,0,11014.2600026112,42233.6498030429,41018.7417783626,57514.0868272299,65043.8713229584,54629.1745812976,55409.2821277069,55261.7853068192,58036.9084243181,12186.3377344747
9808780451,23495,-2,0,10927.8450197747,42227.9918240202,41004.8097655003,57504.9367192190,65040.4643678480,54693.2010019800,55412.1293687635,55261.6149590637,58048.8692702950,12191.7645272578
9808780451,23495,-2,0,11037.5733097240,42263.7891880733,41048.1267661900,57522.7380596710,65078.3545757546,54657.4766441078,55436.5864393776,55295.6358393806,58074.9081414961,12203.6036962665
9808780451,23495,-2,0,11210.5614554557,42280.5684419921,41066.5121560895,57532.1923601024,65097.1536673461,54600.7021707320,55449.1435024989,55310.4317587173,58064.9914685854,12210.3567680032
9808780451,23495,-2,0,11192.0178854976,42261.6963442198,41054.2471176919,57527.0210889527,65075.6411793631,54595.8837627901,55439.7013697643,55276.8489154860,58023.4752870255,12208.1787502719
9808780451,23495,-2,0,11012.5565250560,42236.0346716202,41012.9256192812,57531.2067766598,65047.9596690909,54608.3434843368,55441.5995304687,55251.1872428864,58004.6761954341,12214.6519649817
9808780451,23495,-2,0,10962.6811357788,42243.4447989853,41029.5466931414,57552.8531093078,65059.3486333172,54636.4630316946,55456.2616051403,55273.8921651580,58040.0476900984,12212.5712888250
9808780451,23495,-2,0,11060.4364120543,42261.2826425278,41072.7176814692,57553.1451340315,65079.3401591973,54645.2116057103,55451.8447311936,55296.8526090629,58064.5047607125,12196.2787427791
9808863148,23496,-2,0,11163.4481333573,42267.8531988122,41113.9540060021,57514.9263983107,65082.8079527918,54657.0264393254,55420.4520733904,55291.7665117909,58072.9369746108,12172.8194233045
9808863148,23496,-2,0,11170.1647020036,42256.2695514367,41077.5239217142,57498.6703553552,65070.7497652403,54613.2957369437,55406.6174021027,55276.7272385178,58051.1081265104,12179.5724950412
9808863148,23496,-2,0,11045.3484679938,42227.7119669933,40992.1553608045,57499.5342618297,65042.7032240634,54574.7606411054,55405.1329430903,55250.3598395025,58012.2079997675,12193.8573711113
9808863148,23496,-2,0,10917.6728252307,42211.4924271283,40949.3859064718,57506.2873335664,65027.7612923648,54602.0649527761,55410.2677111496,55238.1313041954,57992.5936724889,12202.5086035524
9808863148,23496,-2,0,11011.6074447038,42248.0806914749,41019.0094676927,57558.8517838415,65070.4577405165,54681.4470068490,55451.9420727682,55285.2567939907,58034.6330650122,12203.8835532934
9808863148,23496,-2,0,11237.8049286423,42296.0092492605,41110.0725107156,57617.1472193202,65121.8419241998,54683.0166397392,55492.7768633060,55335.0105062997,58084.5692927735,12209.0061536559
9808863148,23496,-2,0,11269.1124125677,42288.8303081349,41099.4744467828,57604.6509946831,65107.0460048631,54662.8669338004,55483.8336061411,55308.2415732892,58069.4935164099,12206.3292603548
9808863148,23496,-2,0,11067.9073779036,42238.2005216547,41029.2790038113,57528.3230325127,65050.1985253063,54617.2259030175,55426.1465555035,55249.7149515709,58039.6948268905,12191.1318070230
9808870415,23497,-2,0,10922.6007424440,42200.6023384718,40976.3130195410,57484.1907961359,65017.6377686081,54550.4982536405,55394.0481712846,55228.7135068545,58012.9867323642,12181.0082832663
9808870415,23497,-2,0,10982.8186740207,42214.4978482436,41009.1536332661,57503.1845708765,65036.2665124441,54615.9361271543,55408.7710844404,55253.3774283146,58019.0705807756,12191.1683101135
9808870415,23497,-2,0,11147.1677550082,42252.7774224485,41070.6735084029,57535.4289674573,65074.5947574363,54653.1936148261,55437.8032090599,55284.5510675749,58040.9480996633,12205.2950061249
9808870415,23497,-2,0,11225.8197472717,42267.9748757804,41094.1814986648,57541.2086234482,65087.8088761860,54667.9895341628,55449.1921732862,55296.6214228233,58061.8035320178,12207.3148437975
9808870415,23497,-2,0,11141.8748068902,42255.5881604146,41055.5733966456,57551.9892028334,65075.9332040868,54616.0091333352,55464.4748004958,55283.9548504306,58058.9076201740,12218.2536032413
9808870415,23497,-2,0,10971.0403434961,42233.8323184952,41014.9697923475,57538.3370469980,65052.2183629789,54606.0316219404,55455.4098663627,55264.4256970298,58048.4555686030,12216.1972624782
9808870415,23497,-2,0,10984.4734807887,42241.5831413714,41041.8725700230,57536.0738553890,65063.5464887211,54611.1785576965,55445.9799013249,55283.4681425577,58064.5290961061,12202.2774173128
9808870415,23497,-2,0,11148.2750154191,42263.3511509877,41096.1770009438,57535.9035076334,65090.8508003918,54658.7177491838,55438.6306124439,55311.1131497394,58075.2975077945,12187.2746471301
9808876077,23498,-2,0,11205.2685073378,42263.1686355353,41100.3748563477,57527.6294737938,65087.9183854574,54672.0413772049,55426.4507479241,55300.8557813177,58078.4976120589,12179.5724950412
9808876077,23498,-2,0,11090.3811139355,42239.0279250386,41033.0388221295,57531.5839752613,65058.5577330237,54630.4521894640,55423.7251838358,55272.9917555932,58044.1603716245,12193.5531786908
9808876077,23498,-2,0,10988.0021128673,42238.9427511609,41059.1020287243,57556.0775489659,65059.9448504615,54667.8191864073,55447.3791864596,55283.2612917117,58052.6412563101,12202.8979698508
9808876077,23498,-2,0,11004.0148018863,42250.3317153871,41079.6411009614,57572.6377843419,65074.6677636173,54640.0403345605,55473.9899394113,55301.4033276747,58066.3177475391,12202.3382557969
9808876077,23498,-2,0,11128.3321603263,42263.1929709290,41066.5851622704,57572.6986228260,65089.7192045872,54662.1490396878,55483.1522151190,55315.7125391385,58087.1610121968,12185.3521510321
9808876077,23498,-2,0,11234.6413274683,42263.2173063226,41046.9099965077,57563.7310302675,65091.2401666901,54655.5298126161,55473.1016975433,55314.5444402435,58086.3092734192,12178.6477500826
9808876077,23498,-2,0,11137.0198958579,42228.1986748662,40988.5780579385,57527.7511507621,65054.1043559865,54615.8144501861,55430.5999325407,55271.1422656761,58041.9580184996,12182.3102268264
9808876077,23498,-2,0,10943.1884854684,42200.3103137480,40976.8483982012,57495.4824187876,65020.5945189361,54588.1329399139,55396.8832446443,55237.1457207528,58008.8010446571,12185.8753619955
9808908175,23499,-2,0,10935.2794825335,42213.4149232263,41006.4767399651,57509.3535931658,65036.7775557106,54601.1037047271,55405.9968495647,55261.3107666431,58020.7618906340,12190.8276146024
9808908175,23499,-2,0,11128.0158002089,42254.9919432703,41058.2016191594,57557.0631324085,65081.3234937794,54643.0822587663,55442.0862383416,55307.7305300227,58056.0968822079,12189.4161617710
9808908175,23499,-2,0,11235.8094263633,42268.0722173550,41064.9546908961,57560.4579198221,65088.8066273255,54623.5044345781,55453.5847118393,55300.6489304717,58050.3172262170,12189.0389631694
9808908175,23499,-2,0,11161.9515066481,42256.3790607081,41052.8234971636,57554.0333758996,65073.7795217492,54627.9943147058,55463.9759249260,55280.2315352028,58040.2423732476,12190.1705589740
9808908175,23499,-2,0,11020.8792296829,42241.7899922174,41025.0081422264,57540.4420585484,65059.9813535520,54647.2071079892,55458.9750015318,55270.7407316809,58050.9742818454,12194.7821160699
9808908175,23499,-2,0,10955.7698839833,42232.1410086368,41012.1347189877,57517.5424531276,65048.5680539320,54624.7333719573,55434.7977879446,55266.9444102721,58060.1730606435,12190.7302730278
9808908175,23499,-2,0,11073.6383631072,42254.6025769720,41058.4084700054,57530.3307024885,65072.5384166732,54643.7758174852,55436.8541287077,55290.8174314388,58089.0105021139,12182.1520467677
9808908175,23499,-2,0,11257.1759019844,42283.8780555280,41098.9999066067,57575.2781745525,65101.6192120801,54634.5283678997,55461.1043484758,55316.6616194907,58083.5837093309,12193.2124831797
9808977046,23500,-2,0,11212.7394731870,42271.4061662845,41074.7496868386,57568.2817488793,65084.6939457994,54628.2376686423,55462.6496459723,55295.0639576300,58042.0796954678,12205.5748631518
9808977046,23500,-2,0,11007.1175645761,42247.9225114162,41026.8941352340,57553.2789786966,65063.6194949020,54712.9978447109,55469.1106929853,55273.8434943708,58051.8138529262,12210.9164820571
9808977046,23500,-2,0,10957.6558769909,42257.9730289919,41052.4949693494,57570.8856359994,65077.1256383755,54688.4190971285,55482.8723580921,55298.7264343737,58102.2246208636,12202.2044111319
9808977046,23500,-2,0,11111.2365462901,42272.5255943922,41093.7556292760,57594.4909678359,65091.6051975948,54623.3219191258,55478.8326827469,55316.2722531924,58086.3822796002,12195.1593146714
9808977046,23500,-2,0,11248.7315203893,42270.6761044751,41075.4189101639,57585.4260337028,65083.5623499948,54572.2662632567,55459.1940200746,55295.4654916251,58034.0855186551,12194.9889669159
9808977046,23500,-2,0,11178.8159344447,42244.2356992788,41029.5466931414,57539.9918537659,65055.0534363387,54663.7551756684,55437.1218180378,55268.1368445608,58028.4640427230,12180.1930475792
9808977046,23500,-2,0,11008.1639865029,42217.8683002635,41022.9152983729,57498.2566536633,65030.7667134801,54666.6754229060,55412.1293687635,55250.5180195612,58039.9381808270,12170.9455979937
9808977046,23500,-2,0,10901.5141238498,42199.3612333958,40978.0651678835,57479.0681957735,65016.5548435909,54575.5150383085,55400.1076843024,55239.4575831491,58027.1012606788,12174.4377269819
9808981966,23501,-2,0,11006.3996704636,42219.3040884886,40980.9854151210,57505.9588057522,65041.9731622540,54574.0184115992,55417.0816213704,55265.0462495678,58034.9737605232,12180.4485692124
9808981966,23501,-2,0,11213.8467335979,42254.4200615196,41032.2965926233,57550.1153775226,65078.5492589038,54613.0158799168,55445.4931934520,55300.1378872051,58050.1955492487,12193.1881477861
9808981966,23501,-2,0,11236.1987926617,42255.5638250210,41042.2376009277,57565.5683524878,65072.7817706097,54616.4471704208,55456.4806236831,55285.2567939907,58035.2049467629,12200.9024675718
9808981966,23501,-2,0,11050.9334408356,42225.8503093794,41013.6800164842,57546.4042299916,65037.9943253929,54628.6635380311,55449.7032165527,55251.5279383975,58031.5789731096,12196.4855936251
9808981966,23501,-2,0,10947.3255023882,42217.4545985715,41016.4542513599,57535.5506444256,65033.8451407763,54627.7144576789,55448.8758131688,55259.3274320610,58046.3505570527,12187.8586965776
9808981966,23501,-2,0,11040.6152339297,42233.8931569793,41054.5269747189,57542.7174178543,65051.0137609935,54615.6927732178,55448.7663038974,55281.1927832518,58057.3258195870,12178.9519425032
9808981966,23501,-2,0,11168.3152120865,42242.1671908189,41038.6359626681,57537.0716065284,65056.7082431066,54599.4488979592,55439.3850096469,55279.0147655205,58040.1815347634,12182.9672824548
9808981966,23501,-2,0,11199.2333297136,42235.6818084123,41007.1702986840,57519.9151540081,65047.8744952131,54599.5827426242,55424.4795810388,55267.0417518467,58027.5636331581,12186.6419268953
9809000455,23502,-2,0,11088.6533009867,42222.3946834817,41001.7191705073,57513.8069702030,65038.3350209039,54632.9830704032,55426.2073939876,55262.1138346334,58032.4550472809,12188.4549137219
9809000455,23502,-2,0,10927.0419517844,42199.3125626085,40972.2368411053,57495.7379404209,65017.1145576447,54623.4435960940,55418.9067758939,55245.8942947685,58029.1576014419,12190.4260806073
9809000455,23502,-2,0,10971.1498527675,42211.9426319108,40989.2472812638,57523.7114754169,65035.8163076616,54614.4881712324,55436.1849053824,55267.5406274165,58038.9891004748,12196.3882520505
9809000455,23502,-2,0,11172.0993657984,42242.8485818410,41036.9933235970,57556.3087352055,65068.1702135138,54622.6283604069,55453.0128300886,55296.8647767598,58037.3221260101,12197.4955124614
9809000455,23502,-2,0,11251.6639353236,42254.3592230355,41044.6468048986,57579.9870732230,65075.1788068838,54638.9817449369,55471.3130461103,55289.1017861867,58026.8214036519,12199.8682133419
9809000455,23502,-2,0,11101.7092396777,42228.8192274042,41015.1401401030,57542.8755979130,65039.9168214909,54628.2133332486,55443.1326602683,55248.5225172822,58013.3882663593,12187.8708642744
9809000455,23502,-2,0,10935.6080103477,42195.9056074981,40977.0309136535,57486.8068509529,65008.4754929004,54600.8481830938,55402.6263975448,55229.8085995685,58005.3332510625,12175.6301612706
9809000455,23502,-2,0,10960.8924843458,42199.7140966037,40996.2802100274,57475.7220791472,65017.6256009113,54581.6840605977,55388.6700492889,55243.2295691642,58004.2259906516,12173.7685036566
9809064093,23503,-2,0,11125.8864532649,42226.7993897316,41011.2829802101,57515.0724106726,65051.7194874092,54595.5917380663,55416.8626028276,55267.6744720815,58016.1381658413,12179.7428427967
9809064093,23503,-2,0,11231.3195462357,42246.7665802180,41006.6349200238,57549.3366449260,65075.1909745806,54595.0441917093,55448.0119066944,55286.9481038491,58029.8024893735,12194.5144267398
9809064093,23503,-2,0,11140.3416770905,42233.5646291651,40993.0314349757,57536.5848986555,65057.7911681238,54611.4219116330,55443.9600636523,55268.9399125511,58028.0503410310,12193.9912157764
9809064093,23503,-2,0,10961.0749997981,42217.3694246938,40977.4202799519,57524.9769158864,65038.8460641705,54626.3030048474,55444.7266285522,55253.5964468574,58021.6257971085,12197.0939784662
9809064093,23503,-2,0,10976.6739871251,42236.9107457914,41001.5366550550,57569.5715247425,65060.1760367011,54638.1543415530,55475.5960753920,55283.9426827338,58046.1923769940,12195.1349792777
9809064093,23503,-2,0,11172.8172599110,42265.1519701175,41061.9127666904,57584.0510839618,65086.5677711101,54603.7197595441,55480.0129493387,55313.4736829231,58056.0725468142,12185.7901881177
9809064093,23503,-2,0,11241.3700638114,42249.6868274555,41047.8590768599,57538.1180284552,65062.2445451610,54573.5317037263,55440.1150714563,55279.3797964252,58008.2534983000,12173.0871126346
9809064093,23503,-2,0,11098.6551477751,42211.3707501601,40973.5631200590,57498.0011320300,65021.7869532247,54572.5582879805,55413.1271199030,55232.7531821997,57981.9712731625,12169.4611389813
9809094044,23504,-2,0,10950.0510664765,42190.2354607786,40933.7869191448,57488.1574653002,65009.2542254971,54585.1640218891,55410.6327420543,55228.4579852212,57998.3368253893,12171.3592996857
9809094044,23504,-2,0,10960.9168197394,42198.5216623150,40951.4544149317,57495.4702510908,65024.9262190051,54619.5986038980,55414.8914359423,55248.9118835805,58018.5473698123,12172.9167648790
9809094044,23504,-2,0,11123.8422801986,42244.0166807360,41041.4953714215,57541.1599526609,65073.0494599398,54707.0113378740,55454.1322581963,55293.2023000161,58063.5191772698,12182.0303697994
9809094044,23504,-2,0,11242.5259950096,42268.4250805628,41100.6303779810,57555.2501455819,65094.7687987688,54687.5430229573,55465.0223468528,55309.6286907270,58091.5535507499,12175.3624719405
9809094044,23504,-2,0,11162.0366805258,42235.5601314441,41026.5899428134,57532.3140370707,65054.2990391357,54583.9837552972,55444.0939083174,55267.7718136561,58037.3951321910,12181.9208605280
9809094044,23504,-2,0,10958.4954480717,42192.6446647496,40929.1631943521,57503.6956141431,65007.2830586118,54537.1624579226,55421.5593338013,55221.4737272448,57981.1682051722,12194.3927497715
9809094044,23504,-2,0,10915.8598384041,42190.9655225880,40928.8590019315,57508.3193389358,65007.7941018784,54566.6691227182,55420.4885764809,55235.1867215643,57996.6455155310,12188.7591061425
9809094044,23504,-2,0,11092.7051440287,42221.2144168898,40984.6843949552,57538.7629163868,65044.4310370122,54586.9040025347,55437.0853149473,55278.1995298334,58021.6744678957,12183.7946858388
9809099330,23505,-2,0,11228.4236343918,42245.6349844135,41035.2411752545,57548.2415522119,65066.4424005649,54662.3923936243,55444.5441130998,55288.3717243773,58033.8056616282,12190.4017452136
9809099330,23505,-2,0,11166.1371943552,42233.0292505049,41026.3587565737,57526.4978779893,65048.4342092670,54642.4373708347,55431.7436960421,55265.0462495678,58028.1720179992,12191.7036887737
9809099330,23505,-2,0,11010.8895505913,42204.8488646630,41009.5795026549,57504.7177006762,65022.3344995818,54578.1675962159,55418.1280432972,55243.2539045579,58012.8407200023,12186.1673867192
9809099330,23505,-2,0,10948.7856260070,42195.0295333269,40981.2774398448,57501.3229132626,65015.4475831800,54585.6872328524,55415.1469575756,55243.2660722547,58010.7357084519,12180.6919231489
9809099330,23505,-2,0,11057.6986802691,42215.6781148354,40991.0237649999,57538.1058607584,65036.8870649820,54594.7399992887,55435.8807129619,55263.6104613427,58027.5514654612,12172.3570508252
9809099330,23505,-2,0,11240.3479772783,42249.2731257635,41052.3732923812,57577.0303228950,65070.6159205752,54611.4705824203,55463.8907510483,55296.7309320947,58051.5583312929,12176.7495893783
9809099330,23505,-2,0,11223.1306862738,42240.0743469654,41031.3110091807,57545.9783606028,65056.3675475956,54599.2055440227,55451.5405387730,55278.2482006207,58037.0666043768,12184.7315984941
9809099330,23505,-2,0,11005.1463976908,42197.1345448772,40953.2187309710,57483.9596098963,65010.9577030523,54603.7927657250,55408.1626995992,55233.4224055249,57995.2583980931,12185.4008218194
9809134933,23506,-2,0,10913.6696529760,42190.5761562897,40934.0667761717,57480.4431455145,65013.0748822995,54614.8775375307,55402.0058450068,55244.1178110323,58002.7658670329,12178.6234146890
9809134933,23506,-2,0,11075.5486915084,42224.9985706018,40980.7785642750,57535.2707873986,65054.5058899816,54626.9722281727,55435.2358250303,55289.8683510866,58035.9836793595,12180.5337430902
9809134933,23506,-2,0,11244.8500251028,42256.5250730700,41032.6494558312,57575.2173360684,65084.4262564693,54619.4404238393,55464.8154960068,55304.5182580614,58043.0409435168,12187.0921316778
9809134933,23506,-2,0,11241.5647469606,42250.9522679251,41030.0820718016,57580.3277687340,65073.7186832651,54608.8545276033,55472.5784865799,55286.9359361522,58021.8934864386,12192.4702536735
9809134933,23506,-2,0,11103.1571955996,42236.1928516789,41007.6326711632,57583.9294069936,65057.4869757033,54624.6847011700,55479.2707198325,55276.0945182830,58020.6523813626,12193.1273093019
9809134933,23506,-2,0,10949.3210046672,42206.3089882817,40957.3070771036,57527.5808030065,65028.4791864774,54586.7944932633,55444.9091440045,55253.3287575273,58007.4260949161,12180.8257678140
9809134933,23506,-2,0,10987.1503740897,42216.3960089479,40984.3923702314,57501.8096211356,65042.2043484936,54619.1970699028,55434.5544340082,55270.1688499302,58026.5658820186,12171.6999951967
9809134933,23506,-2,0,11172.5617382777,42247.8373375384,41035.5818707655,57517.0435775579,65078.4032465419,54669.3523162070,55444.7387962490,55306.0392201643,58057.1311364378,12187.6640134284
9809154119,23507,-2,0,11242.4773242223,42263.1443001417,41048.7229833343,57548.9959494149,65092.8828057612,54693.0671573149,55461.7735718011,55313.3155028644,58075.9302280292,12208.7871351131
9809154119,23507,-2,0,11096.3797884692,42242.8729172347,41017.4885055898,57558.9247900224,65064.6659168288,54628.1646624613,55455.6045495119,55280.6087338043,58050.5849155471,12209.8578924335
9809154119,23507,-2,0,10948.0433965008,42205.6641003501,40975.0962498587,57526.7290642289,65028.3940125996,54543.5504987546,55422.9342835423,55255.7501291950,58007.5599395811,12190.1097204899
9809154119,23507,-2,0,11005.5114285955,42198.1444637135,40971.1660837849,57509.6212824959,65027.5301061252,54529.8010013447,55407.6516563327,55260.1183323545,57986.7653457107,12174.1578699550
9809154119,23507,-2,0,11142.2641731886,42208.0854720179,40983.2607744269,57497.4292502793,65035.7433014807,54551.9097064720,55403.0887700240,55261.8826483938,57975.5102261495,12169.0352695925
9809154119,23507,-2,0,11188.2093963920,42212.8065383852,40983.7596499966,57496.8695362254,65037.8604807279,54608.4043228209,55414.3438895853,55261.5784559732,57988.1159600581,12178.2948868748
9809154119,23507,-2,0,11090.7218094466,42208.8277015241,40985.5483014296,57515.5347831518,65035.3417674855,54645.3454503753,55441.8915551924,55264.8637341154,58018.0849973330,12190.7302730278
9809154119,23507,-2,0,10947.7392040802,42198.9962024911,40977.2986029836,57519.2946014701,65023.0402259975,54613.7337740293,55437.5233520330,55253.3165898305,58023.2075976954,12189.9880435216
9809209173,23508,-2,0,10972.3787901466,42209.4847571525,41010.6137568849,57521.4239484141,65034.4413579206,54606.6400067816,55424.0050408627,55264.6447155726,58034.3653756821,12183.0646240294
9809209173,23508,-2,0,11168.4125536611,42237.6773106913,41080.6388521009,57543.1676226367,65064.2887182273,54635.0029080758,55430.9527957486,55293.1901323192,58051.8625237135,12178.1245391193
9809209173,23508,-2,0,11246.2249748438,42236.8742427010,41041.5562099056,57534.9300918876,65060.0300243393,54580.9174956979,55433.1186457831,55283.3464655895,58043.4059744215,12186.5810884112
9809209173,23508,-2,0,11076.7776288875,42193.9222729160,40921.0595082680,57484.5071562533,65011.2253923824,54558.4315919691,55404.1716950413,55232.7531821997,57994.0781315013,12197.8240402756
9809209173,23508,-2,0,10948.7369552197,42192.7785094146,40923.3713706644,57495.4824187876,65014.2551488913,54684.4402602674,55419.2596391017,55245.5657669542,58008.8132123539,12208.4342719052
9809209173,23508,-2,0,11007.6772786300,42222.7840497800,40993.4694720613,57526.0598409037,65045.6356389977,54637.0714165357,55445.6148704202,55277.2747848748,58032.7957427919,12207.6798747022
9809209173,23508,-2,0,11144.9167310960,42234.4893741237,41017.0139654137,57530.1725224298,65056.2702060210,54570.6357918825,55439.2755003755,55275.1211025372,58017.0994138903,12200.5252689703
9809209173,23508,-2,0,11227.9977650030,42233.6376353461,41030.4592704031,57545.0049448570,65053.1066048470,54563.5906954220,55437.0244764632,55266.6523855484,58008.9348893221,12186.6662622890
9809282029,23509,-2,0,11122.1022995529,42196.5748308234,40970.4238542787,57500.0818081867,65017.3335761875,54566.5961165373,55410.9977729590,55235.1380507770,57991.3282320193,12178.9762778969
9809282029,23509,-2,0,10937.2506494188,42173.3345298916,40918.1027579400,57465.6958969651,64996.4294730457,54600.1424566781,55397.0779277935,55217.3488780218,57998.8235332623,12181.1421279314
9809282029,23509,-2,0,10926.7742624543,42190.2476284754,40919.3681984096,57482.5724924585,65016.6765205591,54620.7180320057,55423.6035068675,55244.8113697512,58015.2864270637,12187.1164670714
9809282029,23509,-2,0,11129.8896255196,42233.4429521969,40988.0426792783,57527.4834614320,65063.1936255132,54633.8469768777,55455.9574127197,55294.7354298158,58052.9941195180,12183.4904934182
9809282029,23509,-2,0,11259.9744722537,42255.0284463608,41032.1019094742,57554.3010652297,65079.3888299846,54609.6819309873,55470.3883011517,55298.9332852197,58037.4072998878,12184.5247476481
9809282029,23509,-2,0,11150.1731761235,42234.4407033364,41012.5970914670,57531.4744659899,65050.3080345777,54574.9918273451,55451.2606817461,55263.4036104967,57999.0790548955,12181.7018419852
9809282029,23509,-2,0,10993.1125455329,42214.4370097595,40985.1589351313,57520.4627003651,65032.0321539497,54587.0378471998,55443.6558712317,55256.1881662807,57997.4972543086,12188.0047089395
9809282029,23509,-2,0,10990.8858570143,42225.8016385921,40996.5600670544,57532.3627078580,65048.1786876337,54623.4435960940,55454.4486183137,55278.5767284349,58014.5807006480,12195.0741407936
9809286878,23510,-2,0,11110.7133353267,42252.7044162676,41033.4403561247,57543.9828583239,65079.0603021703,54658.9002646361,55467.1395261000,55304.5669288487,58042.4690617662,12190.6085960596
9809286878,23510,-2,0,11240.0437848577,42271.2601539226,41061.2800464556,57563.5850179056,65098.4434432093,54619.2335729933,55487.0823811928,55323.4633620147,58058.2992353328,12190.6329314532
9809286878,23510,-2,0,11210.5249523653,42262.6819276624,41042.8216503752,57593.9677568725,65089.9990616142,54614.1718111150,55515.7008041204,55313.3885090453,58048.8692702950,12195.1593146714
9809286878,23510,-2,0,11005.7547825320,42224.6700427875,40963.3422547277,57555.0919655232,65047.4972966116,54605.4354047961,55492.5943478536,55272.6510600821,58019.9101518564,12189.9150373407
9809286878,23510,-2,0,10914.7647456900,42207.3919132990,40937.9482714583,57506.6036936838,65031.0587382038,54635.9884915185,55449.2408440735,55263.0385795920,58022.0760018909,12176.7739247719
9809286878,23510,-2,0,11074.8551327895,42235.2681067203,40994.9295956801,57520.1828433382,65061.0277754787,54624.1128194193,55446.2719260487,55295.9521994980,58039.5001437414,12176.1898753244
9809286878,23510,-2,0,11214.7471431628,42250.4290569617,41030.1794133762,57521.6794700474,65072.6357582478,54605.7761003071,55447.2331740977,55296.2685596154,58024.2175165317,12186.0092066605
9809286878,23510,-2,0,11175.4576501215,42244.7832456359,41016.9652946264,57525.5487976371,65063.3639732687,54625.6337815222,55456.9916669497,55282.1418636040,58034.4505495598,12201.5595232002
9809300298,23511,-2,0,11040.5665631424,42230.3280218102,40995.1242788293,57530.9147519360,65049.4076250128,54596.6016569026,55470.4248042422,55276.8489154860,58044.3185516832,12208.8236382035
9809300298,23511,-2,0,10950.6351159240,42208.4018321353,40981.4721229939,57507.1999108281,65029.4769376168,54579.3478628077,55459.0966785000,55260.6172079242,58020.1778411865,12197.4590093709
9809300298,23511,-2,0,11023.5074521966,42210.8110361062,40983.7961530871,57494.3629906799,65029.0875713185,54579.6398875314,55436.2457438666,55257.2345882074,58005.5522696054,12185.4738280003
9809300298,23511,-2,0,11181.9186971345,42228.1013332916,40999.0179418126,57505.8249610871,65047.5216320053,54591.9292613226,55429.3344920711,55271.8966628791,58011.0277331757,12185.4616603035
9809300298,23511,-2,0,11203.0783219096,42227.2739299077,40995.4649743403,57510.4121827894,65041.6446344398,54580.8809926074,55427.1929774303,55257.7699668677,58000.2714891842,12190.6937699374
9809300298,23511,-2,0,11013.3109222590,42194.7861793904,40956.5770152942,57489.3498995889,65005.8716057803,54617.3719153794,55412.0928656730,55221.3398825798,57998.3733284798,12187.7856903967
9809300298,23511,-2,0,10903.2784398892,42185.3440466558,40967.0655699556,57494.3021521958,65005.5795810566,54630.5373633418,55420.5859180554,55231.4877417301,58025.1665968839,12182.0912082835
9809300298,23511,-2,0,11021.5971237954,42208.9615461891,41012.9134515844,57506.0561473268,65036.7532203170,54619.9392994090,55433.8365398956,55270.0350052652,58058.1167198805,12174.3768884978
9809376454,23512,-2,0,11176.8691029530,42219.3649269727,41009.9323658628,57502.6856953068,65047.4121227339,54564.6857881360,55431.6706898611,55272.8944140186,58026.7483974709,12183.9041951102
9809376454,23512,-2,0,11198.2964170582,42223.1004098974,40995.6839928831,57517.5302854308,65045.9519991151,54588.5953123931,55446.4057707137,55263.6956352204,58008.9470570190,12201.1214861146
9809376454,23512,-2,0,11085.2828489667,42220.6668705328,41017.6101825581,57528.1283493636,65041.0970880828,54656.0286881859,55452.0515820396,55263.0507472888,58031.4207930509,12198.2620773612
9809376454,23512,-2,0,10975.6275651984,42214.6073575150,41019.5935171402,57528.3108648159,65036.7532203170,54651.7699942978,55453.8645688662,55260.3251832005,58040.2423732476,12197.7753694883
9809376454,23512,-2,0,11010.1473210851,42218.2089957746,40990.9507588190,57532.3383724643,65042.8857395157,54562.7024535539,55460.6906467839,55265.2409327169,58023.1710946050,12199.5518532245
9809376454,23512,-2,0,11163.1682763304,42223.3802669243,40975.6316285189,57517.1652545261,65050.5757239078,54527.4526358579,55444.7996347331,55271.2639426443,58003.7149473851,12195.0498054000
9809376454,23512,-2,0,11213.7493920233,42216.4933505225,40975.7046346998,57500.5563483628,65039.0772504101,54559.8065417101,55428.1785608730,55255.0322350825,57989.9776176720,12192.8352845782
9809376454,23512,-2,0,11059.0979654038,42195.9664459822,40948.4976646037,57490.5058307870,65011.9189511013,54584.8354940748,55423.1898051755,55223.6274095825,57979.0875290155,12198.3594189358
9809381363,23513,-2,0,10957.1935045116,42204.5203368488,40954.8978731326,57532.7399064595,65023.4660953863,54662.0760335069,55458.1841012383,55247.6951138983,58013.7167941735,12203.7253732347
9809381363,23513,-2,0,11020.9400681670,42231.9098223972,41036.0807463353,57540.8557602404,65053.7758281723,54646.1120152752,55470.1449472153,55282.5190622055,58045.7908429988,12194.0398865637
9809381363,23513,-2,0,11145.6832959958,42241.6074767651,41054.4174654475,57517.4207761594,65061.1007816597,54613.2470661564,55450.0682474574,55281.9715158485,58040.7290811205,12177.8568497892
9809381363,23513,-2,0,11185.8610309052,42230.0725001769,40998.8840971475,57499.1448955313,65047.8379921227,54568.1779171242,55430.8311187804,55262.7343871714,58017.2089231617,12177.4796511876
9809381363,23513,-2,0,11099.5068865527,42207.6596026291,40946.7090131708,57496.1638098097,65026.0334794160,54552.3477435576,55426.0492139289,55245.7969531939,57997.2539003721,12181.4828234424
9809381363,23513,-2,0,10962.1822602090,42194.4941546667,40938.6783332676,57497.1980640397,65015.9464587497,54609.0613784493,55426.9131204034,55241.8667871201,58000.7581970571,12181.8478543471
9809381363,23513,-2,0,10961.6103784583,42213.1472338962,40979.0264159325,57520.5722096365,65042.2286838873,54678.1617287068,55446.6856277406,55273.5027988597,58035.0467667042,12183.3323133595
9809381363,23513,-2,0,11157.8996636060,42260.1632144201,41067.7897642559,57578.3079310614,65095.1216619766,54659.1314508757,55497.9116313652,55329.4742042452,58086.9298259572,12190.9857946611
9809386823,23514,-2,0,11242.0271194399,42253.4588134706,41041.3736944533,57558.3772436654,65085.3388337310,54555.9615495140,55484.8070218869,55310.8211250157,58051.9720329849,12195.1228115809
9809386823,23514,-2,0,11101.0278486556,42211.2855762823,40951.9289551078,57510.0714872783,65034.3075132556,54543.6600080260,55442.6581200923,55257.8429730486,58011.9403104374,12192.2390674339
9809386823,23514,-2,0,10936.2650659762,42183.8960907339,40914.4281134995,57486.5269939259,65005.8351026899,54568.0805755497,55416.4002303483,55240.7230236187,57996.5360062596,12181.6531711979
9809386823,23514,-2,0,10955.9280640420,42198.4973269214,40975.3639391888,57506.2508304759,65029.5742791914,54631.9488161733,55424.7959411562,55268.1855153481,58025.3004415490,12173.1114480282
9809386823,23514,-2,0,11110.5064844807,42238.3952048038,41047.6157229234,57542.3280515559,65072.1977211622,54651.5023049677,55456.6753068323,55301.0139613764,58058.3479061201,12182.4927422787
9809386823,23514,-2,0,11230.3826335803,42268.2790682010,41062.8010085585,57584.0875870523,65098.7841387203,54654.5807322639,55497.5222650669,55321.0663257406,58072.3772605569,12202.2044111319
9809386823,23514,-2,0,11192.5775995514,42262.9252815989,41049.9762561071,57575.7162116381,65086.8232927434,54651.1251063662,55494.8453717658,55306.6962757927,58061.7305258369,12209.8092216462
9809386823,23514,-2,0,11014.1991641271,42226.7628866411,40999.9061836807,57536.5240601714,65041.9974976477,54647.9250021018,55458.9019953509,55261.0917481003,58024.6920567078,12198.9313006865
9809404973,23515,-2,0,10929.4146526648,42201.3324002811,40949.4345772591,57501.7122795610,65020.2538234251,54604.5958337153,55434.6639432796,55248.5833557663,58012.4513537040,12181.3733141710
9809404973,23515,-2,0,11069.2701599477,42211.3829178569,40976.0331625141,57502.3449997958,65033.3949359938,54548.0525465791,55431.3178266533,55271.6533089426,58014.0088188973,12171.3227965952
9809404973,23515,-2,0,11204.7696317680,42221.7011247628,41003.9215236322,57507.5771094296,65041.1700942637,54544.2440574735,55431.9140437976,55272.1156814219,58001.2570726269,12177.2119618575
9809404973,23515,-2,0,11139.1979135892,42212.2954951186,40987.8966669164,57503.2940801479,65022.7725366674,54569.5528668652,55427.9352069365,55244.3124941815,57986.2177993537,12182.7360962152
9809404973,23515,-2,0,10986.2377968280,42204.3864921837,40978.0408324898,57504.6690298889,65017.2484023098,54640.4783716462,55438.5576062629,55244.3124941815,58004.4206738008,12184.5855861322
9809404973,23515,-2,0,10937.5426741426,42205.7736096215,40965.9948126351,57497.7942811840,65022.7603689706,54617.5057600444,55438.7766248057,55257.1494143297,58022.7087221257,12183.4783257214
9809404973,23515,-2,0,11040.4570538710,42219.3649269727,40973.4049400003,57499.6924418884,65036.6437110456,54566.7664642928,55439.7257051579,55267.6988074752,58021.7839771672,12182.1885498581
9809404973,23515,-2,0,11192.0300531944,42235.0247527839,40990.9872619095,57522.5068734314,65054.8587531895,54567.2288367720,55448.8636454720,55276.9340893638,58010.3828452441,12181.9086928312
9809493289,23516,-2,0,11211.9729082872,42235.8278207742,40997.3631350447,57548.0103659723,65053.7636604754,54601.8581019301,55459.1331815905,55273.9286682485,58006.7082008035,12182.5535807628
9809493289,23516,-2,0,11038.7170732253,42211.7114456711,40969.4747739265,57530.2820317012,65028.1384909663,54642.8997433139,55446.1502490804,55247.6586108078,58012.0863227993,12186.4350760493
9809493289,23516,-2,0,10938.5647606757,42212.2468243313,40959.6189394999,57523.2734383312,65032.9934019987,54627.3494267742,55452.0880851300,55259.2544258800,58037.6506538243,12192.2390674339
9809493289,23516,-2,0,11057.6743448755,42233.3334429255,41001.9625244437,57525.3297790943,65058.7645838697,54586.1131022413,55458.4152874780,55291.9368595465,58037.1152751641,12192.8352845782
9809493289,23516,-2,0,11196.0210577523,42251.1226156806,41055.6585705234,57521.6307992601,65074.5339189522,54640.7460609763,55455.7870649642,55300.4907504130,58037.5168091592,12187.6153426412
9809493289,23516,-2,0,11159.7856566136,42239.9283346035,41029.7048732001,57508.3801774199,65061.7335018945,54636.3048516359,55445.3106779997,55275.1454379308,58028.6465581753,12184.2327229244
9809493289,23516,-2,0,11018.1658332914,42213.9259664929,40975.5342869443,57501.8704596197,65037.4832821263,54582.1220976833,55434.3232477685,55255.1782474444,58032.5645565523,12172.5882370648
9809493289,23516,-2,0,10933.1014648022,42195.1755456887,40930.3069578534,57497.0155485873,65022.5900212151,54555.8642079394,55428.4097471126,55247.5004307491,58014.1791666528,12176.9077694370
9809502117,23517,-2,0,11022.0473285779,42220.9467275597,40963.0137269135,57529.2964482586,65050.4297115460,54625.0497320747,55454.3512767391,55277.2747848748,58021.8326479544,12192.3729120989
9809502117,23517,-2,0,11205.0373210981,42255.9288559257,41016.7462760836,57563.8648749326,65083.8300393249,54606.0316219404,55484.3203140140,55309.4948460620,58037.3221260101,12197.3981708868
9809502117,23517,-2,0,11237.5372393122,42246.8517540958,41003.0819525515,57548.1442106373,65069.2531385310,54587.7679090092,55472.3473003402,55294.3095604269,58013.7898003545,12198.3959220263
9809502117,23517,-2,0,11062.2493988809,42218.7930452221,40983.5649668475,57509.0250653516,65038.6027102341,54726.9906960573,55448.4134406895,55261.8339776065,58016.6978798952,12190.2070620644
9809502117,23517,-2,0,10946.7171175471,42224.6335396971,40985.4387921582,57516.1675033866,65048.1056814528,54662.4897351989,55460.7879883584,55277.1774433002,58059.6376819833,12190.4747513945
9809502117,23517,-2,0,11052.7099245717,42241.3032843445,41001.4636488740,57543.8855167493,65073.3414846636,54561.4613484780,55481.3027252019,55306.4285864626,58054.2595599876,12193.5896817812
9809502117,23517,-2,0,11196.9579704077,42241.7291537333,41003.7755112704,57539.9675183723,65075.0814653092,54537.5761596145,55474.9633551572,55298.1180495325,58020.2386796706,12187.5910072475
9809502117,23517,-2,0,11203.1756634842,42228.9895751597,40983.9786685394,57525.2689406102,65058.0953605444,54552.0435511370,55459.5712186761,55270.4973777444,57996.8888694674,12188.9051185044
9809510744,23518,-2,0,11066.3864158007,42200.7970216209,40954.0096312645,57492.6716808215,65026.3620072302,54572.0350770171,55427.8135299683,55244.2151526069,57988.3228109041,12185.0357909147
9809510744,23518,-2,0,10927.7233428065,42183.3363766800,40937.9482714583,57471.8405838606,65007.9036111498,54599.9842766194,55408.5398982007,55235.1015476865,57994.3944916187,12179.6698366158
9809510744,23518,-2,0,10954.0299033377,42197.6212527501,40961.6144417789,57486.6730062878,65023.7337847164,54603.0140331283,55420.5372472681,55250.7248704072,58013.5464464180,12181.8113512566
9809510744,23518,-2,0,11141.8991422839,42226.1666694968,41000.0765314362,57513.1255791809,65054.3112068325,54600.1181212845,55436.4282593189,55281.2657894327,58024.4121996809,12187.6518457316
9809510744,23518,-2,0,11249.4372468050,42241.9725076698,41012.9134515844,57536.0495199953,65067.7321764282,54610.8013590950,55457.3932009448,55288.0553642600,58021.4554493529,12198.2499096644
9809510744,23518,-2,0,11110.5673229648,42223.3437638338,40984.3315317473,57538.5682332377,65043.8713229584,54623.4070930036,55457.9529149987,55258.0984946819,58009.2512494395,12197.4955124614
9809510744,23518,-2,0,10978.5356447391,42215.1914069625,40975.7776408808,57569.3768415934,65037.4711144295,54620.4503426756,55479.2463844388,55261.2012573717,58023.4752870255,12190.5964283628
9809510744,23518,-2,0,11000.3766605362,42213.5487678914,40997.8741783112,57541.3059650228,65039.6004613735,54579.4938751696,55460.5081313315,55272.2251906933,58026.2495219012,12174.0726960772
9809525478,23519,-2,0,11108.2554605684,42208.4139998321,40997.3022965606,57484.6775040088,65032.7622157590,54562.5199381016,55421.5958368917,55264.2066784870,58006.3796729893,12166.1028546582
9809525478,23519,-2,0,11168.0840258468,42210.2148189619,40998.3243830937,57471.4268821687,65033.6869607176,54612.7481905867,55417.0207828863,55256.8452219091,57998.2273161179,12171.6148213190
9809525478,23519,-2,0,11104.4713068565,42208.7303599495,40985.8889969406,57490.4571599997,65033.7477992017,54610.4363281903,55428.3975794158,55256.9790665742,58005.3210833657,12184.6829277068
9809525478,23519,-2,0,10973.6563983131,42199.7505996942,40949.0938817481,57513.6487901443,65026.7757089222,54598.8283454212,55437.1218180378,55249.8974670232,58004.2746614389,12197.9943880311
9809525478,23519,-2,0,10958.1547525606,42207.6717703259,40949.3615710782,57523.7601462041,65037.4102759454,54592.7323293129,55442.7067908795,55261.6514621542,58017.3549355236,12197.2399908281
9809525478,23519,-2,0,11126.9693782821,42232.2991886955,41002.3275553484,57540.5150647293,65065.1891277922,54578.7516456634,55454.0349166217,55292.5209089940,58033.8299970219,12184.9627847338
9809525478,23519,-2,0,11248.9018681448,42236.6308887645,41026.6994520848,57536.7430787142,65064.4468982860,54586.5511393269,55448.3160991149,55287.9580226854,58015.0795762177,12184.1475490466
9809525478,23519,-2,0,11146.3403516242,42225.5704523524,41013.1324701272,57519.4892846193,65044.9907510661,54632.4476917430,55437.0853149473,55260.8362264670,58003.6419412042,12192.7501107004
9809581101,23520,-2,0,10976.6618194283,42217.7952940826,40984.5870533806,57514.0868272299,65037.2520958867,54632.6788779827,55442.5486108208,55260.5442017433,58025.4342862140,12202.6181128238
9809581101,23520,-2,0,10971.8190760928,42225.0107382986,40989.2472812638,57531.0364289043,65046.5968870467,54611.3610731489,55452.2219297951,55280.5113922297,58041.6051552917,12201.8880510145
9809581101,23520,-2,0,11106.3694675609,42241.0477627112,41007.6448388601,57537.2297865871,65061.7091665008,54597.4898987707,55449.2773471639,55290.5619098055,58044.2090424118,12195.6703579379
9809581101,23520,-2,0,11217.9837505177,42247.6913251766,41021.4673424509,57535.7331598779,65064.2157120463,54621.9104662944,55446.0650752027,55284.2955459417,58028.7195643562,12189.8420311598
9809581101,23520,-2,0,11183.9263671103,42242.4470478459,41029.3033392049,57530.1725224298,65058.8740931411,54634.3215170538,55446.1989198677,55273.8069912803,58027.7339809136,12199.0286422611
9809581101,23520,-2,0,11015.5497784744,42221.2630876771,40989.3324551415,57515.3279323058,65034.0641593191,54610.8378621855,55437.8518798472,55250.8343796786,58014.2765082274,12214.4937849230
9809581101,23520,-2,0,10940.5237598642,42220.1679949631,40979.1967636880,57517.1044160420,65034.1371655000,54638.4463662767,55442.6094493050,55256.9668988773,58028.0503410310,12206.6577881691
9809581101,23520,-2,0,11092.3887839113,42245.7201582912,41022.5380997713,57546.5867454440,65063.8141780512,54588.9360079042,55462.8686645152,55293.6646724953,58041.7511676536,12197.5198478550
9809594633,23521,-2,0,11232.4633097370,42248.8837594652,41037.2853483208,57539.6754936485,65066.0773696603,54585.5898912779,55453.2318486314,55290.1725435071,58023.3414423605,12181.3976495646
9809594633,23521,-2,0,11157.1209310094,42224.1589995210,41002.8020955245,57505.2530793364,65035.8406430552,54610.3268189189,55429.1033058315,55254.1074901239,58015.4446071224,12163.8639984428
9809594633,23521,-2,0,10985.6780827741,42194.7375086031,40961.6996156566,57483.4972374170,65006.8571892230,54587.0865179871,55418.4687388082,55231.9744496030,58004.7492016150,12157.5854668821
9809594633,23521,-2,0,10933.6733465529,42190.8803487102,40958.9862192651,57492.7325193056,65006.9666984944,54565.8903901215,55425.2704813323,55240.3944958045,58002.6806931551,12163.8153276555
9809594633,23521,-2,0,11044.0951952211,42211.5045948251,40974.7433866508,57521.5577930792,65032.6405387908,54571.7430522934,55450.5549553303,55262.0164930589,58010.7843792392,12173.7563359598
9809594633,23521,-2,0,11197.8948830631,42235.7791499869,41008.5695838186,57548.1685460310,65054.9317593704,54604.1091258424,55469.5852331614,55281.2292863423,58014.1791666528,12173.4156404488
9809594633,23521,-2,0,11210.4032753970,42240.5853902320,41042.2497686245,57539.5416489835,65054.5788961626,54638.0935030689,55463.2458631167,55278.6497346158,58019.8858164628,12177.6013281559
9809594633,23521,-2,0,11041.5278111914,42218.2089957746,41011.7210172957,57510.2053319434,65028.7712112011,54636.9375718707,55443.3151757207,55252.8298819575,58019.2774316216,12193.4558371162
9809633049,23522,-2,0,10928.0153675302,42208.1219751083,40965.9583095447,57513.1377468777,65027.4814353379,54612.8942029485,55449.9830735797,55255.9934831315,58029.6443093148,12204.8691367361
9809633049,23522,-2,0,11051.7851796132,42226.2883464650,40980.1580117370,57549.8963589798,65053.5203065390,54577.3523605287,55469.4513884964,55288.9192707344,58043.5398190866,12195.2444885491
9809633049,23522,-2,0,11216.4019499307,42237.0445904565,41007.0486217157,57558.6571006923,65062.1228681928,54582.3289485293,55466.2512842319,55289.9900280548,58020.8835676023,12185.5833372717
9809633049,23522,-2,0,11198.5884417820,42225.4609430810,40992.6420686774,57548.5092415420,65041.8758206794,54627.7022899821,55451.4675325921,55261.2620958558,57998.8965394432,12184.2935614085
9809633049,23522,-2,0,11056.9807861566,42207.2945717244,40970.1196618581,57543.5569889351,65016.8955391019,54594.1924529317,55450.4454460589,55247.2935799031,58001.0258863872,12187.3963240983
9809633049,23522,-2,0,10958.0209078956,42190.3206346564,40956.3701644482,57521.5577930792,64997.1595348551,54553.6253517240,55435.6981975095,55240.2363157458,57997.3390742499,12178.7329239604
9809633049,23522,-2,0,10990.2653044764,42190.0164422358,40970.4968604596,57487.7072605178,64997.4393918820,54575.6245475799,55410.1216987877,55242.2561534184,57994.1998084695,12166.2366993232
9809633049,23522,-2,0,11162.0366805258,42224.1224964305,41018.0847227342,57508.8060468087,65034.6603764634,54604.6931752899,55426.5115864082,55274.7439039357,58018.0728296362,12177.9785267574
9809679244,23523,-2,0,11218.7868185080,42229.0747490374,41026.6994520848,57502.2354905244,65039.8924860973,54595.0320240125,55423.1046312978,55275.1697733245,58018.8028914455,12190.9492915706
9809679244,23523,-2,0,11060.6310952034,42203.1453871078,40980.1093409497,57487.5369127622,65011.0793800206,54602.1014558666,55418.6512542606,55242.8523705627,58001.9627990426,12199.7952071609
9809679244,23523,-2,0,10925.7765113148,42194.9443594491,40960.8235414854,57511.8479710145,65004.9103577313,54618.0046356142,55433.6175213528,55242.9132090468,58015.0309054304,12194.9402961286
9809679244,23523,-2,0,11014.2478349144,42216.7975429431,41004.0310329037,57544.6764170428,65035.7798045711,54609.0492107525,55462.5401367009,55283.4194717704,58036.9205920149,12189.9150373407
9809679244,23523,-2,0,11189.3896629838,42238.6993972244,41032.1384125646,57557.1848093768,65058.0345220603,54592.4768076797,55468.6118174156,55295.2829761728,58027.1012606788,12187.5423364602
9809679244,23523,-2,0,11216.7913162291,42235.3167775076,41024.2172419329,57535.5871475160,65051.4883011695,54651.3197895154,55458.2692751161,55276.8489154860,58023.8159825366,12181.4341526551
9809679244,23523,-2,0,11100.1031036971,42214.0719788548,41001.1351210598,57514.8655598266,65027.4814353379,54603.3182255489,55447.4035218532,55254.5211918159,58025.3612800331,12184.9384493401
9809679244,23523,-2,0,10955.6603747119,42189.3715543042,40965.4837693686,57485.9794475689,65004.1924636188,54589.6904051072,55426.3047355622,55237.4377454765,58013.6924587799,12186.6540945921
9809704317,23524,-2,0,10969.7018968456,42201.1863879193,40969.8154694375,57505.8614641776,65018.5503458698,54595.2875456457,55445.9799013249,55253.7181238256,58017.0020723157,12194.7334452826
9809704317,23524,-2,0,11141.8018007093,42231.8124808226,41016.3934128758,57533.2022789387,65049.6023081620,54596.3096321789,55467.4193831269,55285.5609864112,58025.3977831236,12196.6559413806
9809704317,23524,-2,0,11238.5593258453,42230.8025619863,41020.5547651892,57527.9823370017,65047.2296072815,54603.0992070061,55459.5833863730,55278.8079146745,58014.9335638558,12190.4139129104
9809704317,23524,-2,0,11113.0130300262,42198.7650162515,40972.9182321274,57506.5428551997,65010.7021814191,54622.0321432626,55427.5093375477,55234.4931628454,58007.1584055860,12175.1312857008
9809704317,23524,-2,0,10927.1757964494,42171.5580461554,40948.2786460609,57478.5084817196,64987.2185265508,54622.1416525340,55404.9139245475,55214.9396740509,58017.7808049124,12163.2556136016
9809704317,23524,-2,0,10945.9748880409,42186.3904685826,41007.0851248062,57489.2647257111,65007.5385802451,54606.7130129625,55418.1280432972,55242.8036997754,58027.2472730407,12168.8527541402
9809704317,23524,-2,0,11133.1992390555,42226.1910048904,41051.2660319703,57542.4618962210,65048.5802216289,54624.2344963875,55461.5788886519,55277.3721264494,58035.9106731786,12181.7748481661
9809704317,23524,-2,0,11240.3966480656,42241.4492967064,41044.6833079891,57551.5024949604,65061.8673465595,54693.9675668798,55469.5243946773,55281.5821495502,58040.2302055507,12181.3489787773
9809727935,23525,2,0,11164.8230830983,42224.0859933400,41017.0383008074,57536.2077000540,65043.2507704204,54630.4521894640,55456.6144683482,55264.7420571472,58037.9670139417,12179.2561349238
9809727935,23525,2,0,10991.2995587063,42199.4220718799,40965.8731356669,57522.5920473091,65018.0027995128,54566.8638058674,55449.2286763766,55245.3345807146,58017.5861217632,12184.3543998926
9809727935,23525,2,0,10922.1262022679,42191.5495720355,40936.2326262062,57502.8317076687,65009.3515670717,54529.2047842004,55439.2024941945,55242.5846812326,58001.3544142014,12191.7401918641
9809727935,23525,2,0,11065.7901986564,42206.1386405262,40951.7707750491,57496.5410084112,65030.5476949373,54531.7600005332,55439.0564818327,55268.1003414703,57999.5657627685,12194.5022590429
9809727935,23525,2,0,11208.7484686291,42221.0075660438,40990.4883863397,57493.3652395404,65049.1521033795,54608.3799874272,55435.1263157589,55279.2094486697,58009.0200631999,12187.5058333697
9809727935,23525,2,0,11131.0333890210,42206.7348576705,40988.5658902417,57493.4504134182,65031.1560797784,54645.8078228546,55435.2479927271,55252.0268139672,58007.8397966081,12178.4530669335
9809727935,23525,2,0,10961.1480059791,42184.4801401814,40952.8902031568,57492.7446870025,65007.0762077658,54607.5769194369,55437.2799980965,55235.5395847721,58007.1705732828,12167.2222827659
9809727935,23525,2,0,10943.3710009208,42185.4170528367,40955.1290593722,57498.7068584457,65013.7684410184,54586.6849839919,55440.4192638768,55253.3530929209,58015.7001287557,12172.7829202140
9809763071,23526,2,0,11082.5572848784,42221.9079756087,41015.4930033109,57521.8984885902,65050.0768483381,54688.9909788792,55457.8920765146,55285.6096571985,58033.4771338140,12193.9547126859
9809763071,23526,2,0,11229.1171931107,42252.1447022138,41060.4283076780,57556.3695736896,65073.4023231477,54641.0380857000,55475.8394293284,55302.2550664523,58046.6547494733,12196.7411152584
9809763071,23526,2,0,11198.8926342025,42220.4235165963,40994.2603723548,57539.2009534724,65037.0087419503,54530.2755415208,55456.3954498054,55267.4554535387,58010.6018637869,12187.0069578000
9809763071,23526,2,0,11007.7624525078,42172.9573312900,40919.2708568350,57499.1570632282,64987.5957251523,54526.0655184200,55430.8676218708,55224.2357944236,57976.8486728000,12179.5846627380
9809763071,23526,2,0,10887.7159556526,42155.2776678063,40909.6583763449,57472.3029563399,64972.9336504806,54552.6154328877,55415.9378578691,55214.1974445447,57974.2447856799,12170.6657409668
9809763071,23526,2,0,11023.3492721379,42188.8726787344,41001.4393134804,57494.0222951689,65016.1411418989,54655.4324710416,55430.5999325407,55259.1814196991,58022.0760018909,12165.3727928488
9809763071,23526,2,0,11214.8566524342,42227.9309855361,41073.6424264277,57521.6673023506,65054.9317593704,54652.9015901024,55449.0096578338,55288.9557738248,58042.3230494043,12176.9442725274
9809763071,23526,2,0,11178.9741145034,42213.6461094660,41001.0134440916,57509.9741457037,65036.2300093536,54589.9215913468,55447.2818448850,55261.8461453033,58015.2012531859,12186.0700451446
9809806841,23527,2,0,11021.5849560986,42188.5441509202,40928.2262816967,57513.6974609316,65013.0505469059,54574.2617655357,55451.6378803476,55243.5094261912,57997.9961298783,12195.5365132729
9809806841,23527,2,0,10958.1790879543,42187.2057042697,40930.2217839757,57524.6362203754,65018.6355197476,54656.2477067287,55457.0525054338,55257.4779421439,58021.6136294116,12193.8330357177
9809806841,23527,2,0,11042.9149286292,42203.6199272839,40963.9506395689,57522.5677119155,65035.4391090601,54589.2767034152,55452.5991283966,55270.4000361699,58030.7028989384,12188.6982676584
9809806841,23527,2,0,11182.5635850661,42209.4360863652,40965.3255893099,57511.3734308384,65041.0362495986,54526.0776861169,55439.0199787422,55267.4189504482,58002.3278299473,12186.3012313843
9809806841,23527,2,0,11206.9841525898,42199.4829103641,40955.5549287610,57510.8502198750,65031.6306199545,54548.8556145694,55433.9095460766,55258.5243640707,57987.0086996472,12186.3620698684
9809806841,23527,2,0,11045.5796542335,42179.8199122982,40933.7747514480,57495.6771019368,65011.2740631697,54602.1987974412,55431.8775407071,55238.8735337016,57992.6788463667,12193.7843649304
9809806841,23527,2,0,10910.2018593814,42176.4129571878,40925.4642145179,57505.7641226030,65012.9897084218,54623.6139438496,55451.7230542253,55244.3124941815,58016.9655692253,12204.0173979585
9809806841,23527,2,0,11017.2410883328,42208.0368012306,40985.2319413122,57544.5790754682,65050.1863576095,54627.9334762217,55477.9931116661,55286.5709052476,58050.0860399773,12202.1192372541
9809812443,23528,2,0,11204.1247438364,42230.1576740547,41027.1861599577,57551.8553581683,65069.0584553819,54620.0366409836,55473.6857469908,55301.4398307652,58053.6025043592,12197.4711770677
9809812443,23528,2,0,11207.3735188881,42220.5695289582,41015.1888108903,57523.2977737249,65053.6298158104,54652.9867639801,55450.8104769636,55276.0093444052,58053.1401318799,12192.6649368227
9809812443,23528,2,0,11062.8334483284,42200.0182890243,40988.5172194544,57499.9966343089,65030.9370612356,54634.0173246332,55437.3286688838,55255.5919491363,58046.6912525637,12188.6374291743
9809812443,23528,2,0,10951.5963639731,42180.3796263520,40954.4476683502,57503.3914217225,65015.8491171752,54555.3531646729,55444.8604732172,55248.5225172822,58018.7663883551,12185.3399833353
9809812443,23528,2,0,10961.9997447567,42167.9320725022,40926.5714749288,57485.5779135737,65007.0275369785,54546.1787212684,55431.4516713183,55239.5549247237,57991.5959213494,12177.1997941607
9809812443,23528,2,0,11109.8737642459,42186.6703256095,40960.3490013093,57494.8618662497,65026.8973858904,54604.1942997201,55428.5557594745,55257.8794761391,58007.1340701923,12171.3836350794
9809812443,23528,2,0,11193.1738166958,42202.2449775429,40993.5303105455,57503.9146326859,65037.6657975787,54595.5065641886,55433.8487075924,55271.0692594951,58021.8934864386,12182.5535807628
9809812443,23528,2,0,11064.4639197027,42185.9767668906,40964.8145460433,57489.6540920094,65015.9342910529,54589.0333494788,55427.6796853032,55246.2958287636,58008.3995106619,12192.3607444021
9809852130,23529,2,0,10902.3658626274,42173.9550824295,40932.1199446801,57478.9951895925,65004.6913391885,54622.9933913116,55427.5701760318,55238.3259873446,58017.3062647363,12195.0254700063
9809852130,23529,2,0,10969.4220398187,42200.1277982957,40966.8343837159,57515.7781370883,65037.2520958867,54632.4111886525,55455.2151832135,55279.7083242394,58069.5300195004,12185.4008218194
9809852130,23529,2,0,11157.6319742759,42227.9918240202,41027.8067124957,57540.1013630373,65065.9678603889,54655.6636572812,55468.5631466283,55303.5083392251,58080.8946483330,12172.1867030697
9809852130,23529,2,0,11207.1423326485,42222.6623728118,41031.2014999093,57524.3198602580,65053.3621264803,54629.5152768087,55455.4098663627,55280.4140506551,58050.7430956058,12169.5341451623
9809852130,23529,2,0,11095.4672112075,42200.3224814448,41000.6849162773,57508.8790529897,65030.4990241500,54592.9148447653,55448.3769375990,55259.9966553862,58019.7763071914,12183.0281209389
9809852130,23529,2,0,10956.3174303404,42179.9172538728,40945.0663740997,57502.9047138496,65010.5561690572,54546.8479445936,55448.0727451785,55247.9871386220,58004.1651521675,12184.3422321958
9809852130,23529,2,0,10935.8513642842,42175.3421998673,40903.2460001192,57498.0132997268,65009.5097471304,54543.7086788133,55445.8703920535,55246.6851950620,57985.5120729380,12184.2570583180
9809852130,23529,2,0,11088.5072886248,42202.0016236064,40947.9744536404,57514.3788519537,65037.7388037596,54583.9837552972,55453.7185565043,55273.9651713390,58003.1795687249,12176.3480553831
9809876156,23530,2,0,11216.9616639846,42213.9503018865,40980.8637381528,57515.2305907313,65046.8402409832,54636.4265286041,55449.1191671052,55280.2923736869,58015.7731349366,12169.8261698860
9809876156,23530,2,0,11115.3492278162,42188.3859708615,40945.8329389995,57485.0060318231,65014.4741674342,54631.9366484765,55425.5503383592,55242.8888736532,58003.3499164804,12174.6324101311
9809876156,23530,2,0,10952.0100656650,42171.5458784586,40919.3195276223,57487.2570557353,64999.5565711292,54608.0636273098,55431.1839819882,55234.1037965470,58015.9799857826,12182.2980591295
9809876156,23530,2,0,10948.5787751610,42178.6153103127,40930.0757716138,57500.4955098787,65011.1037154142,54564.2842541409,55440.7599593879,55257.9281469264,58029.7173154957,12179.9861967332
9809876156,23530,2,0,11081.1945028342,42197.5604142660,40993.2869566090,57502.0894781625,65035.0984135491,54633.1290827651,55441.7455428305,55275.3157856863,58034.9980959169,12172.9654356663
9809876156,23530,2,0,11173.8271787473,42210.9692161649,40999.6019912601,57503.0020554242,65042.1556777064,54578.8003164507,55440.8694686593,55270.7163962873,58017.8903141838,12178.1488745129
9809876156,23530,2,0,11118.1356303887,42192.6811678400,40951.7221042618,57490.0434583078,65019.5602647062,54528.5598962687,55423.2506436597,55247.4152568713,57985.4999052411,12190.3652421231
9809876156,23530,2,0,10971.6852314277,42168.3214388005,40899.6200264660,57481.8667660428,64995.2857095444,54530.7379140000,55413.0906168125,55228.3971467371,57971.7017370439,12199.9168841292
9809929545,23531,2,0,10924.8639340531,42178.7248195841,40912.7489713379,57502.1746520402,65009.7531010669,54610.9473714569,55434.6517755828,55242.9010413500,58001.4274203824,12200.2697473370
9809929545,23531,2,0,11098.7038185624,42225.5339492620,41003.9823621164,57552.1960536794,65062.6582468530,54682.7611181059,55474.9755228540,55294.1392126714,58060.5137561546,12190.7667761183
9809929545,23531,2,0,11244.8500251028,42235.3897836886,41031.7733816600,57548.2658876055,65073.3049815731,54599.6192457147,55469.2932084377,55296.7917705788,58059.4916696214,12179.2196318333
9809929545,23531,2,0,11150.3556915758,42195.0903718110,40946.9280317136,57497.6239334285,65026.6661996507,54547.9430373077,55426.9496234938,55242.6941905040,58017.7929726092,12175.6788320578
9809929545,23531,2,0,10952.1682457237,42158.9888153373,40876.6839179547,57460.5246258153,64988.8124948346,54561.1206529669,55399.6453118232,55212.8833332878,58007.1705732828,12177.9176882733
9809929545,23531,2,0,10932.4809122642,42177.8487454129,40938.5201532089,57496.1273067192,65013.4277455074,54675.2049783788,55430.7459449026,55248.8388773996,58027.7096455199,12181.2151341123
9809929545,23531,2,0,11091.6222190115,42229.9264878151,41023.7305340600,57557.3308217386,65065.0431154303,54654.1548628751,55482.0327870113,55298.3127326817,58059.6985204674,12191.4968379277
9809929545,23531,2,0,11200.0972361880,42235.1707651457,41014.9332892570,57542.1090330131,65063.4004763592,54555.1463138269,55469.6339039487,55288.2987181964,58033.4041276331,12189.6230126169
9809935147,23532,2,0,11157.9970051806,42199.1300471562,40942.1339591653,57486.4904908355,65022.1641518263,54497.4592631893,55421.4619922267,55248.2913310426,57980.3286340914,12184.9141139465
9809935147,23532,2,0,10987.0165294246,42160.9843176163,40888.1215529683,57452.3235981566,64984.2982793133,54540.3017237029,55390.5073715091,55210.4254585296,57956.5286191057,12187.6031749443
9809935147,23532,2,0,10902.9985828622,42170.1100902335,40919.4533722874,57498.0863059077,64998.0964475105,54614.3421588705,55419.0162851653,55223.1772048000,57988.7365125960,12185.2061386702
9809935147,23532,2,0,11034.7260686674,42204.5933430297,40972.1516672275,57545.2482987935,65039.5274551926,54612.9672091295,55452.2827682792,55270.2296884143,58034.6452327090,12177.6499989432
9809935147,23532,2,0,11204.3315946824,42224.3780180638,40988.0183438847,57529.5154668014,65058.1561990285,54603.2817224584,55449.9222350956,55283.8696765529,58035.2414498533,12176.1168691435
9809935147,23532,2,0,11170.2985466686,42203.8511135235,40945.6747589408,57480.0659469130,65028.8320496852,54571.0373258776,55424.3335686769,55245.8334562843,57999.3710796193,12181.7261773789
9809935147,23532,2,0,11010.7557059262,42189.1525357614,40926.4132948701,57469.6138953420,65008.9500330765,54631.5351144813,55424.7351026721,55233.4224055249,58011.1007393566,12188.8807831107
9809935147,23532,2,0,10942.9086284415,42193.6789189795,40935.1010304017,57500.4833421818,65016.8468683146,54589.5687281390,55446.2110875646,55253.0367328035,58031.6641469874,12192.5919306417
9809984386,23533,2,0,11015.0509029047,42202.5978407507,40939.9194383436,57510.9232260559,65030.1948317294,54556.7646175043,55444.6657900680,55266.1413422818,58021.3337723847,12193.6626879622
9809984386,23533,2,0,11177.9520279703,42227.8701470520,40971.9326486847,57535.1612781272,65057.5356464906,54598.3781406388,55458.9263307445,55286.0355265873,58017.9024818806,12199.1381515325
9809984386,23533,2,0,11245.8234408486,42237.8476584468,40992.6664040710,57546.9274409550,65063.6925010830,54627.2642528964,55466.7014890144,55288.8705999471,58024.4121996809,12204.2607518949
9809984386,23533,2,0,11071.2534945299,42207.3310748149,40975.9844917268,57499.4977587392,65026.9825597681,54612.4074950756,55443.7653805031,55250.1408209597,58015.3716009415,12198.6149405691
9809984386,23533,2,0,10886.1584904593,42178.6518134032,40940.1749599769,57463.8099039575,64999.2402110118,54603.2817224584,55422.1433832488,55227.4480663849,58012.0863227993,12189.2458140154
9809984386,23533,2,0,10968.6676426157,42197.9011097771,40962.2958328010,57490.2259737601,65025.3764237875,54580.3942847345,55436.6229424681,55260.6050402274,58031.8588301366,12188.9416215949
9809984386,23533,2,0,11161.5134695625,42224.4631919416,41014.2518982349,57507.8082956693,65051.0745994776,54595.7012473377,55443.7897158968,55284.7579184209,58034.6087296185,12191.0344654484
9809984386,23533,2,0,11200.0485654007,42228.4906995900,41026.4560981483,57519.5866261939,65052.6564000646,54625.0132289842,55457.8920765146,55273.1864387423,58028.5857196912,12195.5730163634
9810004349,23534,2,0,11087.0228296124,42214.8750468451,40980.1945148275,57544.7615909205,65037.3859405518,54615.5589285528,55477.1900436758,55260.4955309560,58036.6772380784,12201.5473555034
9810004349,23534,2,0,10983.3418849841,42198.3026437722,40955.7739473039,57526.7899027130,65024.8288774305,54674.3167365108,55460.3499512728,55259.7289660561,58069.5665225908,12184.1718844403
9810004349,23534,2,0,10992.6623407505,42201.9286174255,40979.0264159325,57496.2368159906,65029.5012730105,54670.5812535861,55434.5422663113,55263.9633245505,58074.2632535645,12173.6833297789
9810004349,23534,2,0,11102.9381770568,42206.7105222769,40993.6763229073,57469.6625661293,65032.3606817639,54547.4441617379,55410.3650527242,55263.0872503793,58025.7263109378,12180.6554200584
9810004349,23534,2,0,11169.9821865512,42194.8591855713,40964.4008443513,57458.2370988126,65018.6598551413,54496.4250089593,55398.9152500138,55247.9384678347,57972.8333328485,12196.2300719918
9810004349,23534,2,0,11051.3836456180,42173.4075360725,40924.5638049530,57456.9229875557,64994.6164862191,54601.6634187810,55403.8066641366,55224.8198438711,57964.7661498548,12203.3481746332
9810004349,23534,2,0,10901.5992977276,42167.6522154752,40918.6259689034,57478.5936555974,64990.6133139644,54618.1871510665,55421.2916444712,55220.6219884672,57987.5684137010,12200.5131012735
9810004349,23534,2,0,10939.4773379374,42182.4116317215,40969.7181278630,57493.1583886944,65011.5295848030,54600.4344814019,55431.6828575580,55247.8532939570,58008.8132123539,12187.0921316778
9810041036,23535,2,0,11118.1477980855,42214.8020406641,41059.6617427781,57502.4545090672,65041.9366591635,54591.5520627211,55432.8022856657,55273.0282586836,58020.2386796706,12184.9871201274
9810041036,23535,2,0,11205.0129857045,42218.8538837062,41014.7994445920,57505.8614641776,65042.0948392222,54595.6647442473,55431.7436960421,55262.6613809905,58023.2075976954,12197.3981708868
9810041036,23535,2,0,11120.2163065454,42200.7483508336,40947.5485842516,57506.4455136251,65024.9505543987,54614.4029973546,55432.4372547610,55248.9605543678,58036.0688532373,12204.6622858901
9810041036,23535,2,0,10970.6509771978,42176.0479262831,40905.8985580266,57489.1917195302,65000.7246700242,54630.8172203687,55420.7927689014,55232.6923437156,58023.7186409620,12197.4346739773
9810041036,23535,2,0,10944.8189568427,42180.8419988313,40910.3275996702,57497.0885547682,65005.1172085773,54583.0468426419,55427.1686420366,55239.4940862396,58012.1349935866,12199.2354931071
9810041036,23535,2,0,11096.0269252614,42206.6618514896,40955.2994071278,57525.1229282483,65035.0984135491,54541.7375119280,55450.5306199367,55266.8349010007,58010.0178143394,12197.3616677963
9810041036,23535,2,0,11230.1271119470,42218.5983620729,41020.5182620987,57521.1684267809,65044.2606892567,54572.0837478044,55444.2764237697,55274.2450283659,58005.1264002165,12182.5535807628
9810041036,23535,2,0,11159.4206257089,42207.3310748149,41024.5457697471,57511.4464370193,65025.8996347509,54613.9771279658,55442.5364431240,55249.2039083043,58001.0015509936,12183.9163628070
9810070499,23536,2,0,10986.0917844661,42188.6293247980,40946.9888701977,57517.4937823403,65008.3416482354,54600.0207797099,55456.0304189007,55237.2552300242,58006.2944991116,12202.4599327651
9810070499,23536,2,0,10955.4291884723,42196.2463030092,40933.4218882401,57532.6182294912,65026.5323549857,54593.7787512397,55475.3283860619,55269.1954341844,58056.4497454157,12201.8272125304
9810070499,23536,2,0,11090.9408279894,42213.3784201359,40962.1011496518,57520.0489986731,65043.9321614425,54585.9427544857,55462.8808322120,55284.3442167290,58060.6476008196,12189.2944848027
9810070499,23536,2,0,11185.4594969100,42209.6429372112,40979.2576021721,57481.0271949620,65031.9713154656,54614.2813203864,55421.4984953172,55256.7965511218,58012.2445028580,12172.2353738570
9810070499,23536,2,0,11146.5593701671,42200.2008044766,41022.0757272921,57470.4047956355,65018.5381781730,54665.6411686760,55404.1960304349,55238.9465398826,58001.2327372332,12158.6075534153
9810070499,23536,2,0,11010.9017182881,42177.0700128162,40982.0440047446,57482.0006107078,64996.5146469235,54556.7646175043,55410.1095310909,55221.4372241543,57973.0523513913,12166.5043886534
9810070499,23536,2,0,10924.2555492119,42160.2299204132,40905.9350611171,57486.7946832560,64982.5461309708,54497.7026171258,55422.0703770678,55214.1122706669,57954.1194151348,12177.1754587671
9810070499,23536,2,0,11047.1249517300,42188.3738031647,40930.3312932471,57522.7502273678,65018.4165012048,54549.2814839582,55457.9164119082,55255.0565704761,57992.1799707969,12180.7770970267
9810104535,23537,2,0,11216.6696392609,42210.8597068935,40973.5996231495,57527.0940951336,65039.8681507036,54565.8052162438,55458.2814428129,55273.1621033487,58007.1584055860,12183.3931518436
9810104535,23537,2,0,11168.2422059055,42186.5486486413,40933.2637081814,57486.0281183562,65009.0352069543,54576.4519509638,55420.3060610285,55234.7365167818,57982.1659563117,12182.3345622200
9810104535,23537,2,0,10995.0593770246,42164.4156081203,40896.9066300745,57476.3669670788,64989.0558487710,54631.2065866671,55414.3682249789,55218.1032752249,57991.9974553446,12172.3448831284
9810104535,23537,2,0,10948.7369552197,42178.1894409239,40956.4675060228,57504.8272099476,65011.3349016538,54619.0145544505,55441.0276487180,55251.3575906420,58046.8372649256,12155.5777969063
9810104535,23537,2,0,11069.4161723096,42191.8537644561,40972.4071888608,57525.0620897642,65026.7027027412,54538.7564262064,55448.0240743912,55263.2332627412,58014.6050360416,12158.6440565057
9810104535,23537,2,0,11188.7447750522,42202.3301514206,40969.1462461123,57512.9065606381,65033.8329730795,54544.3170636544,55439.6770343706,55260.5320340465,57979.7202492502,12169.3516297099
9810104535,23537,2,0,11181.0669583569,42196.1489614346,40944.6770078013,57496.5410084112,65023.2714122371,54535.9700236339,55432.7171117879,55248.8388773996,57965.7152302070,12182.8942762739
9810104535,23537,2,0,11035.8576644719,42169.3435253336,40895.2274879129,57487.5855835495,64995.5777342681,54576.0017461814,55425.0149596990,55228.5674944926,57968.1000987843,12191.4116640499
9810125425,23538,2,0,10914.9107580519,42156.6161144568,40874.4450617393,57488.2426391780,64984.5659686434,54629.1745812976,55422.0947124615,55219.8432558705,57986.6193333489,12182.7482639120
9810125425,23538,2,0,10986.7610077914,42165.9730733137,40902.8444661241,57473.7022414746,64998.3032983565,54596.0419428488,55414.0275294679,55239.8834525379,58006.2579960211,12164.9712588537
9810125425,23538,2,0,11169.7144972211,42187.4125551157,40951.6490980809,57476.2452901105,65019.3412461633,54524.5567240140,55415.0131129105,55257.5387806280,58005.0777294293,12164.2777001348
9810125425,23538,2,0,11209.7705551622,42194.6158316349,40947.9257828531,57496.6991884699,65022.3344995818,54556.8011205948,55427.8622007556,55248.9727220647,58012.7677138214,12178.8789363223
9810125425,23538,2,0,11071.8862147647,42179.7104030268,40914.8904859788,57503.9389680796,65003.6449172617,54569.6867115303,55440.2854192118,55230.2466366542,58003.6784442946,12183.6000026896
9810125425,23538,2,0,10942.4827590527,42160.1447465355,40902.4550998257,57479.2385435290,64988.9463394996,54583.7525690576,55426.4142448336,55223.1285340127,57991.0970457797,12170.4467224240
9810125425,23538,2,0,10975.8344160444,42155.3750093809,40903.9638942318,57459.2105145584,64986.9143341302,54559.8308771037,55401.7624910703,55219.9284297483,57965.4232054833,12157.3786160361
9810125425,23538,2,0,11120.9828714452,42180.2944524743,40951.7464396555,57489.3742349825,65016.3844958354,54560.0863987370,55412.0563625826,55238.8126952175,57965.9464164467,12164.1316877729
9810192030,23539,2,0,11190.1318924900,42186.0011022842,40967.3940977698,57500.4833421818,65022.6751950928,54537.7343396732,55411.1924561081,55239.4819185428,57966.6643105592,12169.3516297099
9810192030,23539,2,0,11058.5139159563,42155.8008787697,40908.7092959927,57476.4764763502,64990.0049291232,54517.4629567662,55396.5182137397,55209.2573596346,57946.7214554664,12168.9135926243
9810192030,23539,2,0,10894.1404995751,42133.6313351583,40839.8279642780,57458.5412912332,64966.8498020692,54518.9839188691,55395.6543072652,55192.0035655396,57938.7394463506,12167.1736119786
9810192030,23539,2,0,10947.0578130581,42154.3894259382,40857.7144786078,57473.4467198413,64991.6232328007,54526.9659279849,55415.3659761184,55227.2168801452,57966.8589937084,12173.3182988742
9810192030,23539,2,0,11139.7941307335,42188.6901632821,40921.0838436617,57493.6450965674,65026.4958518952,54591.0531871514,55428.5070886872,55259.8749784180,57984.1492908938,12178.7572593541
9810192030,23539,2,0,11220.1374328554,42212.2103212409,40980.9732474242,57530.6957333932,65043.4941243569,54637.3147704722,55455.7627295706,55264.4743678171,58010.9790623884,12179.6698366158
9810192030,23539,2,0,11107.7322496051,42200.0669598116,40952.9510416409,57537.9720160933,65025.7657900859,54588.4249646376,55468.3441280855,55247.0258905730,58009.6406157379,12174.4255592851
9810192030,23539,2,0,10977.1850303917,42176.2547771291,40905.2171670045,57520.2436818223,65002.6471661223,54557.7988717343,55452.3922775506,55232.8748591679,57995.4409135455,12170.4102193335
9810197883,23540,2,0,10975.2016958096,42169.0758360035,40880.2125500334,57501.5175964118,64996.1982868061,54519.7991545562,55426.3655740463,55225.3673902282,57965.6543917229,12168.9865988052
9810197883,23540,2,0,11100.5654761763,42182.5941471738,40900.8854669356,57492.4039914914,65008.7431822306,54520.2128562482,55413.3096353553,55232.7653498965,57954.9954893060,12167.4534690055
9810197883,23540,2,0,11194.0620585638,42182.0831039073,40928.6278156919,57482.6941694267,65013.5615901724,54537.3936441622,55400.2050258770,55232.8261883806,57961.3591947444,12164.2046939538
9810197883,23540,2,0,11111.6015771947,42170.6089658032,40956.1146428149,57471.4512175623,65003.9247742887,54627.6414514980,55399.1464362534,55220.3786345308,57982.2876332799,12163.5598060222
9810197883,23540,2,0,10943.9063795810,42156.2997543394,40910.2424257924,57474.7729987950,64989.9319229423,54574.2374301421,55407.2136192470,55211.1798557326,58003.8974628374,12159.0334228041
9810197883,23540,2,0,10931.9577013008,42147.3321617809,40872.4982302476,57459.0158314093,64985.2716950591,54496.9117168323,55395.3622825415,55217.1176917822,57988.8946926547,12159.4836275865
9810197883,23540,2,0,11096.0147575646,42165.5958747122,40889.9832105822,57459.3443592235,65002.0752843716,54545.6433426081,55391.3347748931,55234.1037965470,57977.2502067952,12165.0929358219
9810197883,23540,2,0,11200.9854780561,42183.4702213451,40918.3582795733,57474.6878249172,65013.8049441089,54577.4010313160,55399.7183180041,55236.5860066989,57981.4845652896,12173.9510191090
9810216672,23541,2,0,11147.0217426463,42182.5454763865,40922.8481597010,57490.9195324790,65006.4799906215,54580.6376386709,55410.9856052621,55230.6968414366,57983.0663658766,12176.6035770164
9810216672,23541,2,0,10989.9367766622,42162.8459752302,40908.2225881198,57477.2430412500,64988.8124948346,54584.2271092337,55404.2690366159,55220.0136036261,57980.3164663946,12168.5485617196
9810216672,23541,2,0,10933.0771294085,42155.9347234347,40897.0891455268,57474.2254524379,64988.0094268443,54558.3220826977,55410.6935805384,55222.7635031080,57977.2623744920,12172.5152308839
9810216672,23541,2,0,11069.5013461874,42180.9271727091,40935.4052228223,57498.7798646266,65016.9320421924,54524.0821838379,55434.5422663113,55247.3909214777,57986.2421347473,12172.2718769474
9810216672,23541,2,0,11208.8458102037,42190.5396531992,40991.5591436601,57487.3665650067,65027.4692676411,54560.6704481845,55418.2497202654,55249.2039083043,57982.5796580036,12160.7125649656
9810216672,23541,2,0,11145.2574266070,42171.8744062728,40983.8083207839,57458.9306575315,64999.2402110118,54572.4731141027,55384.0584921930,55214.5868108430,57963.4642062948,12161.8806638606
9810216672,23541,2,0,10950.2092465352,42141.4551642154,40867.9840147263,57448.8071337748,64966.6672866168,54569.7962208017,55379.2035811606,55188.4140949769,57964.1699327105,12175.1677887913
9810216672,23541,2,0,10942.6774422018,42159.5241939975,40838.3191698720,57505.3504209110,64993.6430704733,54567.3140106498,55425.9153692639,55225.5864087710,58000.3201599715,12186.4472437462
9810248084,23542,2,0,11099.4582157655,42191.5009012482,40887.7930251541,57530.4158763663,65025.8266285700,54531.3949696285,55440.9303071434,55255.7622968919,58013.2909247847,12185.9118650859
9810248084,23542,2,0,11203.3338435429,42190.7830071357,40909.1595007752,57499.3760817710,65018.9032090777,54527.6594867038,55414.5629081281,55238.3989935255,57978.5643180521,12173.5494851138
9810248084,23542,2,0,11152.6553862754,42172.3489464489,40922.3371164344,57465.0266736398,65001.0045270512,54555.7060278807,55390.7385577488,55214.9031709604,57962.4056166712,12159.7269815230
9810248084,23542,2,0,10999.8047787856,42151.0068062215,40908.5511159340,57457.7625586365,64983.8237391372,54573.5560391200,55389.4974526728,55203.7088898833,57956.4434452280,12163.7909922618
9810248084,23542,2,0,10919.2667935145,42158.1249088629,40891.8570358930,57493.0488794230,64999.1428694373,54575.4907029148,55423.5426683834,55221.4493918512,57988.1646308454,12174.3160500137
9810248084,23542,2,0,11049.8991866056,42196.0272844663,40923.9310847182,57537.0351034380,65038.3471886008,54572.7651388265,55457.4053686417,55265.9953299200,58015.3716009415,12181.3246433837
9810248084,23542,2,0,11240.6886727893,42222.1513295452,40959.1443993238,57542.1942068909,65060.9912723883,54575.2230135847,55461.8709133757,55287.1549546951,58004.2381583485,12185.1574678829
9810248084,23542,2,0,11212.7881439743,42208.4261675289,40954.4476683502,57501.0917270230,65034.8428919158,54609.5602540191,55427.5945114255,55254.2900055763,57989.5030774959,12180.3390599410
9810296974,23543,2,0,11003.0900569278,42170.2561025953,40921.0838436617,57457.5678754873,64989.9684260328,54566.0242347866,55396.1288474413,55211.2650296104,57970.7648243886,12170.3980516367
9810296974,23543,2,0,10931.1181302200,42165.5107008344,40892.8912901229,57485.2493857595,64992.5601454560,54544.5117468036,55418.7485958352,55223.1407017096,57974.4759719196,12178.3435576621
9810296974,23543,2,0,11043.1461148689,42183.2390351054,40914.9878275534,57509.9741457037,65013.5494224756,54543.3193125150,55433.0821426926,55244.5923512084,57980.9126835389,12168.9500957148
9810296974,23543,2,0,11163.7036549906,42187.0596919078,40915.1216722184,57489.3742349825,65012.4786651552,54546.8236092000,55412.5795735459,55235.1988892611,57969.6332285840,12152.8157297275
9810296974,23543,2,0,11170.6635775733,42177.5688883859,40906.7381291074,57461.7292278008,64998.0477767232,54547.0426277428,55393.6831403799,55218.1154429217,57956.2122589883,12146.9143967684
9810296974,23543,2,0,11030.6133871412,42151.8950480895,40880.9426118428,57446.5682775594,64970.6582911747,54557.3243315582,55383.3040949899,55193.8895585472,57942.4992646689,12145.9531487194
9810296974,23543,2,0,10918.8895949130,42153.2578301337,40880.3342270016,57480.3336362431,64977.4722013956,54595.9689366678,55413.0054429347,55202.6868033502,57958.0374135118,12163.9856754110
9810296974,23543,2,0,11018.1901686850,42195.4067319284,40943.9712813856,57531.4501305962,65023.9406355624,54592.9391801589,55458.8411568668,55251.1385720991,57999.8577874922,12179.8645197649
9810316811,23544,2,0,11195.5951883635,42210.8718745903,40957.4287540718,57519.2094275924,65040.3305231829,54506.2808433859,55448.6811300196,55265.5329574407,57994.3214854378,12171.6513244095
9810316811,23544,2,0,11191.7988669548,42183.5067244355,40931.1586966310,57465.7324000555,65007.5507479419,54544.6212560750,55407.8706748755,55229.7112579939,57964.3889512533,12154.2150148622
9810316811,23544,2,0,11032.1100138505,42156.5309405791,40897.7340334584,57447.7363764544,64979.7718960951,54576.7804787781,55397.2239401554,55203.9887469102,57968.4042912049,12148.0338248761
9810316811,23544,2,0,10960.9898259204,42157.0054807552,40867.1566113424,57513.1620822714,64988.7516563505,54550.7659429706,55428.8599518950,55221.0113547655,57980.8640127516,12164.8495818854
9810316811,23544,2,0,11016.7543804599,42166.8978182722,40863.1777744813,57525.2567729134,65001.2235455940,54515.2849390349,55434.3475831622,55234.2376412121,57972.8211651516,12176.1290368403
9810316811,23544,2,0,11145.0019049737,42187.6802444458,40892.7939485483,57519.2946014701,65022.2006549167,54573.4952006359,55437.0123087664,55249.1430698202,57980.3529694850,12179.1709610460
9810316811,23544,2,0,11229.2388700790,42202.8168592935,40933.3975528465,57508.9277237770,65034.2953455587,54576.5127894480,55434.3354154654,55255.1782474444,57998.3246576925,12179.4508180730
9810316811,23544,2,0,11110.2022920601,42178.3476209826,40926.7418226843,57480.3701393335,65005.0807054868,54588.0599337329,55418.6269188669,55226.1704582185,57988.8581895643,12165.6891529662
9810338421,23545,2,0,10914.1076900616,42145.9815474336,40890.0440490663,57449.5493632810,64967.5068576976,54560.6582804877,55392.3203583357,55193.8895585472,57974.7193258560,12152.6697173657
9810338421,23545,2,0,10920.5687370746,42142.4285799613,40879.4338174367,57449.7075433397,64968.4072672625,54501.2555845981,55390.7020546583,55199.5840406603,57956.7111345581,12154.0933378939
9810338421,23545,2,0,11110.8106769013,42163.1988384380,40909.0499915038,57472.1326085844,64996.1739514125,54571.9255677457,55405.6074832664,55222.9946893477,57963.0748399965,12157.5002930044
9810338421,23545,2,0,11202.4699370685,42175.2570259896,40910.7413013622,57486.1132922340,65003.7787619268,54558.9182998420,55415.7553424167,55216.0469344618,57955.8958988709,12169.1326111671
9810338421,23545,2,0,11106.4181383482,42178.1651055303,40909.5488670735,57485.9186090848,65003.5719110808,54608.1122980971,55416.5097396198,55208.6854778839,57969.2316945889,12184.6585923132
9810338421,23545,2,0,10980.7136624704,42172.4827911140,40905.1806639141,57482.1101199792,64997.5245657598,54587.9260890679,55415.2199637565,55214.7449909017,57986.4733209870,12187.3963240983
9810338421,23545,2,0,10975.1408573255,42177.5323852955,40903.8787203540,57490.0434583078,65008.7796853210,54576.2572678147,55424.3457363737,55233.2520577694,57997.9352913942,12184.8897785528
9810338421,23545,2,0,11097.5600550611,42184.8208356924,40906.3365951122,57490.8221909044,65016.8712037083,54517.8279876709,55423.0802959041,55242.8888736532,57977.0798590397,12178.9884455937
9810400513,23546,2,0,11223.8729157800,42190.9533548912,40942.2921392240,57492.0024574963,65023.1132321785,54550.1088873422,55416.6557519816,55243.9474632768,57961.4808717127,12175.1921241849
9810400513,23546,2,0,11135.9004677502,42165.7540547709,40920.3902849427,57468.7499888676,64994.8963432461,54545.4851625494,55394.9729162431,55210.6201416788,57942.2924138229,12169.6071513432
9810400513,23546,2,0,10936.3137367634,42141.3578226409,40871.2814605654,57457.8355648174,64969.8308877908,54530.2025353398,55393.0625878419,55183.5470162477,57942.2437430356,12174.2308761359
9810400513,23546,2,0,10926.4335669432,42149.3154963631,40854.2953558005,57479.8712637638,64983.9940868927,54557.5433501010,55411.9225179175,55212.3966254149,57978.6373242330,12180.1443767919
9810400513,23546,2,0,11109.9954412141,42183.3972151641,40909.7192148290,57509.3657608626,65023.2835799340,54548.2593974251,55433.7026952306,55251.5401060943,57998.3976638735,12180.6797554521
9810400513,23546,2,0,11205.6943767266,42191.8659321529,40935.8919306952,57505.3625886079,65027.6882861839,54599.0960347513,55430.7946156899,55244.6775250862,57994.9542056726,12176.9442725274
9810400513,23546,2,0,11138.4435163862,42179.1141858824,40920.1469310063,57512.3955173715,65010.4831628762,54558.9913060229,55432.7901179688,55222.9703539540,57990.3426485767,12174.7905901898
9810400513,23546,2,0,10980.4338054434,42146.3100752478,40870.7095788147,57481.5017351381,64974.8804819723,54546.2882305398,55418.6634219574,55200.3262701665,57964.9973360945,12175.2164595786
9810409522,23547,2,0,10922.0410283901,42146.7359446366,40888.7056024158,57486.7946832560,64981.9620815233,54596.8936816264,55437.9127183313,55214.6476493271,57994.5405039806,12174.9852733389
9810409522,23547,2,0,11041.7346620374,42173.8699085518,40919.6845585270,57495.1417232766,65015.1920615467,54589.4470511707,55440.8694686593,55246.1619840986,58017.1359169808,12168.5850648101
9810409522,23547,2,0,11220.5024637601,42199.3003949117,40945.1150448870,57522.2756871917,65039.6126290704,54555.8033694553,55442.5851139113,55266.3481931278,57995.6842674819,12174.1700376518
9810409522,23547,2,0,11183.4883300247,42180.2822847775,40913.3086853918,57493.8762828070,65013.4764162947,54527.1606111341,55413.6138277759,55227.0830354802,57947.3906787917,12179.6941720094
9810409522,23547,2,0,10982.5388169938,42150.1063966566,40872.0723608588,57462.0820910086,64978.6037972001,54557.6285239787,55394.5592145512,55190.4582680431,57936.0503853527,12182.8091023961
9810409522,23547,2,0,10919.4249735732,42155.6548664078,40906.3487628091,57466.1461017475,64991.0635187468,54575.0891689197,55403.9891795889,55214.2704507256,57977.6274053967,12181.1421279314
9810409522,23547,2,0,11054.6810914570,42178.7369872809,40957.3435801940,57477.4498920960,65022.9428844229,54564.7831297106,55415.2564668470,55249.6176099963,58003.2769102995,12178.7815947477
9810409522,23547,2,0,11190.2900725487,42194.9686948427,40950.4323283986,57488.5468315985,65039.9654922782,54624.5873595954,55423.6886807453,55256.8087188186,58004.5910215563,12183.9163628070
9810441179,23548,2,0,11192.2490717372,42198.5094946182,40927.4962198873,57507.9299726375,65043.2020996331,54628.3350102169,55437.1218180378,55256.8087188186,58018.9854068979,12190.2192297613
9810441179,23548,2,0,11045.4458095684,42167.9929109863,40878.1683769671,57486.4783231386,65008.0009527244,54533.4269749979,55425.4408290878,55226.5841599105,57978.4426410838,12189.7811926756
9810441179,23548,2,0,10920.1185322921,42149.6926949646,40847.6031225479,57465.0875121239,64986.8413279493,54507.4246068873,55415.6336654485,55206.7873171795,57948.7534608359,12188.1993920887
9810441179,23548,2,0,10998.8313630397,42170.0127486589,40880.1517115493,57472.3759625209,65004.4114821616,54536.6392469592,55416.9234413117,55226.6693337882,57959.1203385290,12177.6013281559
9810441179,23548,2,0,11193.9403815956,42202.0867974842,40937.9482714583,57499.1570632282,65035.5242829378,54552.2990727703,55430.7216095089,55254.5211918159,57976.6053188636,12174.5107331628
9810441179,23548,2,0,11214.4551184391,42198.5825007992,40953.6080972694,57501.7731180451,65022.6873627896,54557.9813871866,55423.7251838358,55229.7234256908,57964.0482557423,12164.2290293475
9810441179,23548,2,0,11041.3574634359,42164.1965895775,40896.4320898984,57479.5792390400,64984.7119810052,54536.1038682990,55404.8652537602,55189.3023368450,57942.0855629769,12158.4493733566
9810441179,23548,2,0,10927.2366349335,42144.6187653894,40862.3747064910,57466.3529525935,64972.4104395173,54532.4778946457,55397.3212817300,55189.3510076322,57941.8300413436,12151.2704322310
9810522295,23549,2,0,10997.8701149907,42158.4777720707,40896.1157297810,57477.8514260912,64996.3564668648,54575.5272060053,55405.6318186600,55217.1785302663,57958.9986615608,12144.3835158292
9810522295,23549,2,0,11143.7242968073,42181.4747190661,40923.1888552120,57492.8663639707,65021.7139470438,54554.2215688683,55413.4799831108,55234.6513429041,57972.2371157041,12151.9153201626
9810522295,23549,2,0,11202.3360924034,42194.1291237620,40929.2362005330,57498.3174921474,65029.9514777929,54575.5272060053,55424.6620964911,55243.2782399515,57995.1610565186,12165.2876189711
9810522295,23549,2,0,11085.1125012112,42184.4436370909,40928.8224988410,57489.6662597063,65012.9532053313,54620.7910381866,55427.0834681589,55232.7166791092,58006.4770145639,12167.1614442818
9810522295,23549,2,0,10938.4674191011,42169.1366744876,40887.9147021223,57496.2124805970,64998.3032983565,54559.6361939545,55431.2813235628,55221.4007210639,57987.9091092121,12175.9100182975
9810522295,23549,2,0,10977.7325767487,42169.6598854510,40872.5103979445,57507.1390723440,65007.0518723722,54510.2353448534,55431.2569881692,55234.4201566644,57964.4741251311,12177.6986697305
9810522295,23549,2,0,11156.8654093761,42186.5121455508,40937.0478618934,57500.2034851549,65025.5346038462,54524.3620408648,55415.2442991502,55254.3386763636,57957.1978424310,12171.3836350794
9810522295,23549,2,0,11215.6110496373,42187.6559090522,40965.1917446448,57493.3044010563,65023.7946232005,54590.7489947308,55400.3510382389,55241.4165823376,57968.4164589017,12166.4922209565
9810533068,23550,2,0,11064.8046152137,42161.6048701542,40901.7737088036,57488.5224962049,64993.8620890161,54554.6109351667,55404.2568689191,55212.3236192340,57967.5160493368,12171.9676845269
9810533068,23550,2,0,10935.2916502303,42149.7900365392,40865.9641770537,57497.3440764015,64983.8359068340,54557.9327163993,55420.1965517571,55216.0104313713,57972.5291404279,12180.3512276379
9810533068,23550,2,0,10969.1543504886,42161.5440316701,40897.8557104267,57488.9118625032,64998.2911306597,54579.7858998933,55421.4011537426,55239.5184216332,57991.1092134765,12178.1853776034
9810533068,23550,2,0,11127.2127322186,42191.5982428228,40934.2736270177,57508.8425498992,65027.0433982523,54595.4822287949,55434.7491171573,55263.0994180761,58008.0709828477,12171.6878274999
9810533068,23550,2,0,11223.9459219610,42203.1088840173,40950.5783407605,57513.6001193570,65036.6802141360,54576.8899880495,55444.7631316426,55267.8569875339,58001.3787495951,12174.0483606836
9810533068,23550,2,0,11137.5187714276,42182.8496688071,40934.1641177463,57502.8438753655,65013.7441056248,54536.1890421767,55444.0817406205,55242.4021657803,57971.4462154106,12187.3233179174
9810533068,23550,2,0,10949.6373647846,42157.3096731757,40877.6208306101,57479.0803634703,64985.9530860812,54533.1471179710,55434.2259061940,55214.2826184225,57957.3438547929,12193.6018494780
9810533068,23550,2,0,10934.5007499368,42166.0947502819,40893.6700227196,57482.1709584633,64997.8895966645,54559.5753554704,55427.5215052445,55233.7509333392,57982.0564470402,12185.3521510321
9810539408,23551,2,0,11142.3371793695,42192.5108200845,40933.6895775702,57516.3378511421,65026.8243797094,54532.3075468902,55428.8356165014,55262.1503377239,57986.6801718330,12173.1966219060
9810539408,23551,2,0,11198.2112431805,42178.3232855890,40930.9640134819,57471.8649192543,65006.3704813501,54543.3314802118,55388.8647324380,55230.7698476175,57963.6223863535,12158.2790256010
9810539408,23551,2,0,11055.5328302346,42147.8432050475,40887.7321866700,57433.1959787510,64973.2865136885,54534.5585708024,55369.4085852181,55193.5366953393,57949.7025411880,12159.7634846134
9810539408,23551,2,0,10922.1505376615,42141.0292948266,40867.1809467360,57455.5358701179,64971.6073715269,54580.6741417614,55400.9959261705,55200.9224873109,57975.3398783940,12169.6193190400
9810539408,23551,2,0,10950.5134389558,42159.2686723642,40879.6041651922,57498.8772062012,64992.5479777592,54604.3038089915,55427.6310145159,55225.3917256218,58002.8510409107,12173.7928390503
9810539408,23551,2,0,11071.3143330140,42181.4382159756,40925.3060344592,57510.2540027307,65014.3038196786,54556.0953941791,55428.9329580760,55239.0195460635,57991.9974553446,12177.9055205764
9810539408,23551,2,0,11167.3174609470,42182.5576440833,40945.4314050044,57486.9528633147,65012.3448204901,54502.5818635518,55411.9346856143,55235.3570693198,57953.2555086603,12179.9496936427
9810539408,23551,2,0,11090.5271262974,42155.3020032000,40915.0973368248,57437.4303372454,64979.5650452491,54530.2877092176,55372.7547018445,55199.1338358779,57930.4775802078,12171.1524488397
9810588192,23552,2,0,10903.1567629209,42127.2311266294,40846.9825700099,57413.0827759027,64948.9146169521,54535.7266696974,55356.1336279843,55173.9710388480,57933.6411813818,12173.2452926933
9810588192,23552,2,0,10888.7258744889,42146.9184600889,40859.7464839772,57461.9360786468,64974.8683142755,54569.3581837161,55391.8093150692,55209.9752537471,57969.9860917919,12179.0614517746
9810588192,23552,2,0,11084.5892902478,42196.0881229505,40938.0091099424,57519.6231292843,65028.8685527757,54568.1535817306,55433.8608752893,55267.5041243260,58004.7978724023,12188.0533797268
9810588192,23552,2,0,11210.7196355144,42212.6240229328,40976.8362305044,57512.6875420953,65042.1070069191,54552.4572528290,55427.2051451271,55267.7961490498,58015.1525823987,12183.0524563326
9810588192,23552,2,0,11151.8036474977,42195.2972226570,40929.1266912616,57498.3174921474,65017.0172160702,54546.4099075080,55413.8571817124,55236.0871311292,57976.3132941398,12183.8190212324
9810588192,23552,2,0,11007.9328002633,42179.5887260585,40920.5241296078,57490.0069552173,65001.6250795891,54603.0748716124,55409.7323324894,55228.8838546100,57964.1577650137,12189.0389631694
9810588192,23552,2,0,10928.4412369190,42174.6243057548,40902.0657335274,57473.0573535429,65000.3474714227,54589.0211817819,55404.9139245475,55234.4809951485,57971.7869109217,12190.8762853897
9810588192,23552,2,0,11016.2798402838,42190.2962992627,40896.3225806270,57476.9875196167,65019.7792832490,54563.0431490650,55412.9202690570,55258.7920534008,57988.8095187770,12185.8388589050
9810599868,23553,2,0,11180.4220704253,42210.1174773873,40947.5364165547,57491.7712712566,65043.0804226649,54586.2834499968,55417.4101491847,55279.7448273299,58003.7514504756,12177.4918188845
9810599868,23553,2,0,11178.6942574765,42200.4563261099,40949.7509373765,57490.2381414569,65028.9172235630,54574.7241380150,55414.3560572821,55257.6847929899,57985.9501100236,12178.5260731144
9810599868,23553,2,0,11004.2703235196,42177.8730808065,40900.2892497912,57495.9934620542,65001.8319304351,54598.5728237879,55417.7021739084,55226.3408059740,57985.0983712460,12176.5184031386
9810599868,23553,2,0,10928.4412369190,42169.0271652162,40862.5693896401,57503.1602354829,64997.3177149138,54555.6086863061,55424.9176181244,55235.5760878626,57992.5328340048,12176.4819000482
9810599868,23553,2,0,11052.2962228797,42185.1736989003,40888.8759501713,57509.5726117086,65019.1465630142,54533.3783042106,55432.9239626339,55262.1138346334,57996.7428571055,12176.6279124100
9810599868,23553,2,0,11177.6113324592,42193.0218633511,40906.1784150536,57491.6860973789,65024.4760142226,54515.1024235826,55422.7517680899,55255.2025828380,57971.3367061392,12180.8987739949
9810599868,23553,2,0,11167.6216533676,42188.0817784410,40908.9283145355,57482.6089955490,65013.6954348375,54604.2186351138,55417.5439938497,55237.0118760877,57961.3713624412,12181.5071588360
9810599868,23553,2,0,11039.1307749173,42173.3588652852,40895.5316803335,57483.1078711187,64995.1153617889,54603.2452193680,55418.5782480797,55222.6783292303,57971.0811845060,12181.7748481661
9810632987,23554,2,0,10925.9590267671,42165.3281853821,40892.2707375849,57492.6595131247,64985.4055397242,54577.6443852525,55426.9252881002,55218.2857906772,57983.3705582971,12176.5305708355
9810632987,23554,2,0,10992.1026266966,42179.3818752126,40926.6688165034,57495.5554249686,65001.3938933495,54548.2593974251,55427.9838777238,55237.6445963225,57988.4079847818,12169.3516297099
9810632987,23554,2,0,11185.6906831496,42204.4838337583,40961.8699634122,57523.6141338423,65031.2169182625,54521.4539613241,55442.1835799162,55267.6379689911,57987.5562460042,12171.5053120476
9810632987,23554,2,0,11243.9496155379,42208.5843475876,40956.7716984433,57541.5614866561,65035.2200905173,54590.5056407943,55460.4716282410,55264.3040200616,57977.9072624236,12182.0303697994
9810632987,23554,2,0,11065.0601368470,42185.9524314969,40934.0181053844,57513.1134114841,65006.6381706802,54612.6021782248,55446.1380813836,55232.8505237743,57981.2290436563,12183.1376302103
9810632987,23554,2,0,10932.8824462594,42166.5206196707,40896.5537668666,57494.2899844990,64990.6984878421,54566.6082842341,55428.9451257728,55227.2777186294,57990.1966362148,12182.0060344058
9810632987,23554,2,0,11000.8025299250,42177.4837145082,40919.4655399842,57494.9713755211,65006.7111768611,54585.7359036397,55425.8301953861,55247.6099400205,58019.3747731962,12174.0118575931
9810632987,23554,2,0,11123.2947338416,42189.9434360549,40961.6144417789,57492.0997990708,65019.5967677966,54579.6277198346,55424.5160841292,55250.4693487739,58005.4792634244,12166.1150223550
9810655594,23555,2,0,11157.2912787649,42178.9316704301,40918.2000995146,57480.1389530939,65005.3727302106,54500.5620258791,55414.2952187980,55228.7986807322,57967.7350678797,12167.5873136706
9810655594,23555,2,0,11045.6283250208,42143.8522004896,40838.4530145371,57448.1987489337,64966.7281251009,54490.9373776922,55389.8259804870,55192.8674720141,57930.1490523936,12164.0465138951
9810655594,23555,2,0,10898.1680072235,42125.9413507662,40798.7133167133,57434.4492515237,64949.6325110647,54543.0394554880,55383.8273059533,55177.4144970489,57928.9566181049,12167.9766799689
9810655594,23555,2,0,10953.3606800124,42165.3525207757,40858.8339067155,57485.6022489674,64998.0234413295,54616.8487044160,55426.9739588875,55229.0542023655,57982.0442793434,12186.2403929002
9810655594,23555,2,0,11167.6581564580,42215.3009162339,40958.4265052113,57529.7344853442,65053.8610020500,54619.7932870472,55453.6212149297,55284.2468751544,58041.1671182061,12185.5590018781
9810655594,23555,2,0,11265.2309172812,42224.4388565479,40983.7961530871,57556.9779585308,65060.5775706963,54615.9726302448,55456.1642635657,55279.7691627235,58038.9647650811,12184.7072631005
9810655594,23555,2,0,11111.3825586519,42189.4445604851,40918.7354781748,57510.0836549752,65019.1222276205,54564.6371173488,55433.4106705068,55228.3241405561,57987.1060412218,12186.5324176239
9810655594,23555,2,0,10943.7968703096,42167.6765508689,40882.5852509139,57474.0186015920,64999.1915402245,54579.6033844410,55426.8522819193,55217.5557288678,57976.3254618366,12185.2669771543
9810700567,23556,2,0,10954.6382881788,42173.3953683757,40897.5636857029,57480.8081764192,65008.6336729591,54548.1863912441,55429.5656783108,55232.8261883806,57987.4589044296,12172.3935539157
9810700567,23556,2,0,11078.4689387459,42181.0123465868,40908.3077619976,57482.5116539744,65018.3799981143,54576.0017461814,55412.7985920888,55238.0096272272,57985.9744454172,12170.1546977002
9810700567,23556,2,0,11178.3778973591,42191.3670565832,40917.4578700084,57476.2087870201,65029.0510682280,54613.4660846992,55401.9328388259,55247.4517599618,58002.3034945536,12177.0537817988
9810700567,23556,2,0,11123.7936094113,42181.1948620392,40908.5389482372,57473.6170675968,65015.4110800895,54569.5285314716,55403.3807947478,55234.7000136914,57988.6270033246,12188.1385536045
9810700567,23556,2,0,10959.7608885413,42162.0550749367,40870.5879018464,57465.2821952731,64995.1762002730,54529.6063181955,55402.1031865814,55214.0027613955,57974.4638042227,12192.9812969401
9810700567,23556,2,0,10922.5642393535,42163.2353415285,40878.5942463559,57464.2844441336,65002.9635262397,54564.4059311091,55402.3708759115,55226.5233214263,57978.4183056902,12184.8532754623
9810700567,23556,2,0,11094.8953294568,42195.5405765934,40959.4972625317,57483.1200388155,65041.0970880828,54582.0977622897,55413.7355047441,55269.4509558177,58001.0258863872,12177.7595082146
9810700567,23556,2,0,11220.7701530902,42213.1228985026,40995.0999434356,57498.1349766950,65056.7812492875,54629.3449290532,55426.3169032590,55275.3766241705,58002.5955192774,12169.9600145511
9810775654,23557,2,0,11128.9405451674,42195.5649119871,40961.7117833535,57484.8356840675,65032.1416632211,54612.3466565915,55423.0316251168,55245.7969531939,58004.0434751993,12167.0641027072
9810775654,23557,2,0,10970.9186665279,42166.6057935485,40902.5767767940,57469.5652245548,65001.0653655353,54535.1304525531,55410.4502266019,55226.5719922136,57997.1443911007,12174.2795469232
9810775654,23557,2,0,10932.8459431689,42161.3736839146,40839.4385979797,57475.2962097584,64999.2402110118,54543.9642004466,55414.2708834043,55233.2642254662,57986.8018488012,12185.3521510321
9810775654,23557,2,0,11054.2552220682,42191.3792242800,40856.6315535905,57496.8452008318,65027.9924786045,54570.5627857015,55431.6341867707,55261.4932820955,57993.3845727824,12187.0677962841
9810775654,23557,2,0,11198.4545971169,42215.5807732608,40901.4695163831,57512.1521634351,65053.8488343532,54592.4281368924,55446.2354229582,55283.0422731689,58005.8807974196,12187.8221934871
9810775654,23557,2,0,11176.4797366547,42201.7461019731,40900.0093927643,57502.5883537322,65034.2466747714,54568.8714758431,55438.9956433485,55263.9268214601,57994.7960256139,12187.0312931937
9810775654,23557,2,0,10990.3748137478,42171.7162262141,40879.2269665907,57472.1447762812,65003.0852032079,54606.6156713879,55422.9221158454,55231.4999094269,57988.9555311389,12186.6419268953
9810775654,23557,2,0,10940.1343935658,42186.2444562207,40907.1518307994,57505.5572717570,65023.7581201101,54673.3433207649,55453.4143640837,55263.4401135871,58035.8498346945,12188.8686154139
9810779294,23558,2,0,11111.3825586519,42221.3725969485,40962.1984912264,57543.7030012969,65061.7091665008,54581.8300729596,55478.5406580231,55304.1410594599,58047.9931961238,12200.7321198163
9810779294,23558,2,0,11217.2050179211,42221.2265845867,40968.1849980633,57507.3094200995,65055.4306349402,54552.8831222178,55449.7032165527,55288.1892089250,58009.4215971950,12201.8758833176
9810779294,23558,2,0,11141.7896330125,42195.8082659235,40912.5299527951,57466.3042818062,65026.3255041397,54563.2378322141,55424.6499287943,55252.0024785736,57987.7630968502,12200.0263934006
9810779294,23558,2,0,11013.2622514717,42180.4161294425,40884.6537593738,57488.7293470509,65016.5670112877,54627.3372590774,55437.4138427616,55249.3864237566,58006.3553375957,12193.4436694193
9810779294,23558,2,0,10953.3241769219,42186.9258472428,40913.7345547806,57512.8213867603,65025.5711069367,54675.5578415867,55454.4486183137,55264.8272310250,58036.5920642007,12185.5711695749
9810779294,23558,2,0,11035.5169689609,42192.8271802019,40897.2716609792,57516.4716958072,65034.5630348888,54551.7758618069,55466.8109982858,55271.6046381553,58024.1445103508,12191.5090056245
9810779294,23558,2,0,11168.8992615340,42188.0452753505,40892.9156255165,57486.2228015054,65028.6251988392,54476.8715201649,55441.4170150163,55263.8538152791,57985.0497004587,12191.1196393262
9810779294,23558,2,0,11159.5301349803,42166.9586567563,40885.6758459069,57450.7296298728,65001.3695579559,54500.1604918840,55408.4547243230,55233.4710763122,57949.7877150658,12182.3345622200
9810809459,23559,2,0,10986.1282875566,42146.2735721573,40864.8812520365,57428.1342168726,64973.9192339233,54600.6534999447,55388.0373290541,55204.6701379323,57948.6074484740,12173.8415098376
9810809459,23559,2,0,10911.4307967605,42161.7143794256,40921.7287315933,57471.0861866576,64992.8278347861,54615.5589285528,55418.1037079036,55231.2930585809,57985.7189237840,12173.0141064536
9810809459,23559,2,0,11047.7211688743,42194.6158316349,40948.4003230292,57529.0652620189,65033.5896191430,54588.3276230630,55452.1124205237,55275.8146612561,58018.5473698123,12176.7495893783
9810809459,23559,2,0,11191.1174759327,42208.7790307368,40939.4814012579,57527.1305982241,65049.2494449541,54604.9852000136,55448.4377760831,55280.2680382933,58012.3175090389,12181.3003079900
9810809459,23559,2,0,11193.5510152973,42204.1188028536,40951.1380548143,57508.4045128136,65040.8659018431,54610.0469618920,55439.4215127374,55264.7785602377,58010.1151559140,12177.1754587671
9810809459,23559,2,0,11054.7419299411,42165.5958747122,40884.9701194912,57466.0365924761,64999.3253848896,54529.5089766209,55409.7931709735,55227.5940787468,57982.1051178275,12176.3480553831
9810809459,23559,2,0,10901.8426516641,42128.6912502482,40810.5038149348,57429.0346264375,64964.3554242205,54488.7593599609,55384.4478584913,55199.4866990858,57945.9183874761,12189.6230126169
9810809459,23559,2,0,10936.4719168221,42147.4416710523,40836.0073074756,57449.6832079461,64986.9751726143,54531.8451744109,55399.2924486153,55222.9095154699,57955.2875140298,12198.7487852341
9810822198,23560,2,0,11132.3353325810,42191.7564228815,40917.6768885512,57484.9816964294,65033.7356315049,54574.1035854770,55428.0690516015,55263.2575981348,57981.6427453483,12199.4180085594
9810822198,23560,2,0,11221.4272087186,42210.3729990206,40953.5715941789,57512.2860081001,65049.8699974921,54629.8559723197,55455.0448354580,55269.5848004827,57993.5184174475,12193.3219924511
9810822198,23560,2,0,11068.2237380210,42187.2787104506,40912.7976421252,57501.9434658006,65020.2538234251,54656.1381974573,55445.8095535694,55234.0672934566,57986.9721965567,12189.7690249788
9810822198,23560,2,0,10919.8630106588,42167.2628491769,40894.6069353749,57478.6909971720,65002.0509489779,54588.8630017232,55425.0879658799,55228.5796621894,58000.6973585730,12184.2692260148
9810822198,23560,2,0,10959.9555716904,42164.6224589663,40886.7952740146,57460.9748305978,65001.8806012224,54501.4502677472,55407.4448054867,55237.5107516574,57983.6260799304,12179.4386503761
9810822198,23560,2,0,11097.2680303373,42172.5436295981,40891.9422097707,57447.0063146450,65008.6823437464,54509.5052830440,55390.6898869615,55237.2187269337,57954.1802536189,12180.1443767919
9810822198,23560,2,0,11178.7794313542,42189.1768711550,40931.2803735993,57468.2146102074,65022.0668102517,54569.1269974764,55402.2978697306,55245.5414315606,57967.9662541193,12186.8366100445
9810822198,23560,2,0,11099.5433896432,42177.4472114177,40917.6525531576,57471.5728945305,65012.3691558838,54576.6831372035,55404.3055397063,55237.2308946305,57977.6517407903,12192.0078811942
9810874604,23561,2,0,10944.6729444808,42156.2389158553,40876.9029364976,57469.0785166818,64994.7990016715,54587.4758842854,55406.0211849584,55223.7855896412,57973.3078730246,12202.2409142223
9810874604,23561,2,0,10946.9726391803,42167.2993522674,40881.1372949919,57491.5522527138,65008.4511575068,54583.2901965783,55428.2272316602,55241.7329424550,57984.1492908938,12205.6357016359
9810874604,23561,2,0,11102.2324506411,42186.8285056682,40911.5930401398,57487.4517388845,65027.9559755140,54566.6569550214,55429.2249827997,55269.7916513287,57993.3967404792,12196.0840596299
9810874604,23561,2,0,11194.4027540749,42192.7298386273,40936.1717877221,57470.4656341197,65028.3088387218,54619.5742685043,55415.4754853898,55263.5617905554,57989.1015435007,12180.1322090950
9810874604,23561,2,0,11070.4625942364,42175.9749201021,40917.3361930402,57442.7841238475,65001.5155703177,54620.6936966121,55396.7007291920,55231.5972510015,57988.4566555691,12174.9244348548
9810874604,23561,2,0,10921.8828483314,42165.6688808931,40890.6159308170,57450.8026360538,64993.5578965955,54570.9764873935,55405.2911231490,55232.2056358426,58003.8487920501,12188.5522552965
9810874604,23561,2,0,10949.4548493322,42180.5256387139,40895.9453820255,57479.2385435290,65011.8581126172,54526.8442510167,55422.8369419677,55254.9470612047,58004.0313075025,12209.3103460765
9810874604,23561,2,0,11085.2706812699,42196.1732968282,40900.8854669356,57491.0047063568,65027.9073047267,54529.5454797114,55427.8865361492,55262.4423624477,57997.6189312768,12211.1476682967
9810882785,23562,2,0,11191.3486621723,42207.8664534751,40936.3421354776,57502.2841613116,65036.4125248059,54586.4659654491,55430.1983985456,55266.0318330104,58011.4170994740,12199.1259838357
9810882785,23562,2,0,11146.5593701671,42196.6356693075,40965.9218064542,57489.1430487429,65023.0523936943,54612.5778428312,55421.8391908282,55251.7347892435,58015.6271225747,12184.5125799513
9810882785,23562,2,0,10981.3950534924,42170.2195995049,40904.6574529507,57466.0365924761,64995.6629081459,54654.6537384449,55416.3880626515,55225.8175950106,57993.7131005966,12186.7027653794
9810882785,23562,2,0,10909.5569714498,42163.0041552889,40853.8208156244,57461.1816814437,64989.6398982185,54567.6668738577,55420.3547318158,55229.5287425416,57983.3462229035,12184.7072631005
9810882785,23562,2,0,11047.2831317887,42178.0799316525,40875.0656142773,57467.5453868821,65008.7796853210,54518.8135711136,55426.3777417432,55256.0786570093,57981.7887577101,12177.6013281559
9810882785,23562,2,0,11186.4085772622,42189.7730882993,40899.2914986518,57482.9010202727,65019.3169107697,54538.3548922112,55425.9397046575,55254.8132165397,57971.2150291710,12174.4498946787
9810882785,23562,2,0,11131.1672336860,42182.9105072912,40895.8602081477,57477.8757614848,65010.7873552968,54636.5360378755,55421.6566753759,55236.2453111879,57983.4435644781,12178.2705514811
9810882785,23562,2,0,10989.0120317036,42171.1565121602,40881.5388289871,57482.8280140918,65000.0554466990,54574.0305792961,55429.7968645504,55236.2818142783,57998.7626947781,12182.5779161565
9810909290,23563,2,0,10926.2875545813,42159.5363616943,40887.1846403129,57474.3227940125,64993.5943996860,54525.6396490312,55420.6954273268,55235.4787462880,57974.6098165846,12175.3503042436
9810909290,23563,2,0,11011.0842337404,42167.2750168737,40916.7643112895,57460.5611289058,65001.4303964400,54519.2394405024,55411.1924561081,55237.9244533494,57955.9810727487,12172.6004047616
9810909290,23563,2,0,11157.9726697870,42185.5995682891,40928.7981634474,57466.8153250728,65018.3434950239,54524.5932271045,55417.1667952482,55250.7248704072,57956.7476376485,12181.1299602345
9810909290,23563,2,0,11169.9943542480,42187.0110211205,40898.8777969598,57481.8059275586,65016.4088312290,54576.2694355115,55430.7946156899,55246.1376487049,57956.0905820201,12195.4513393951
9810909290,23563,2,0,11001.2527347075,42174.6121380580,40867.6189838216,57473.7995830491,65000.9680239607,54638.9817449369,55430.2227339392,55230.2344689573,57968.9275021683,12196.5829351997
9810909290,23563,2,0,10894.6028720544,42171.5215430649,40863.6279792637,57462.3011095515,65002.1969613398,54625.0010612874,55425.2339782418,55239.1168876381,58003.6176058105,12184.3787352863
9810909290,23563,2,0,11024.7485572726,42197.3778988137,40927.8004123079,57484.7261747961,65036.4003571091,54561.4978515684,55444.2885914665,55281.7890003961,58037.5533122497,12183.9650335943
9810909290,23563,2,0,11194.4879279526,42216.3595058575,40949.7022665892,57506.9443891948,65053.7514927786,54521.2836135686,55455.1056739421,55290.5862451991,58008.7402061730,12198.1769034835
9810940961,23564,2,0,11188.0147132428,42202.8776977777,40918.2244349083,57508.5991959627,65038.0308284834,54553.0291345797,55443.5098588699,55266.9079071817,57978.5643180521,12199.1016484420
9810940961,23564,2,0,11054.3038928555,42179.8929184791,40881.5753320776,57510.8137167845,65016.2871542608,54592.9270124621,55436.5621039840,55257.4414390534,57996.0492983866,12188.1993920887
9810940961,23564,2,0,10931.2398071883,42161.3858516114,40853.0420830278,57476.9510165263,65000.0797820926,54576.4641186607,55424.6012580070,55251.4427645197,58006.5621884417,12184.4152383767
9810940961,23564,2,0,10965.2241844148,42171.5945492459,40896.1400651746,57446.9576438577,65006.5286614088,54586.5024685396,55409.5984878243,55254.7158749651,57988.5539971437,12180.7162585425
9810940961,23564,2,0,11140.7675464793,42204.4594983646,40947.9622859435,57473.8604215333,65039.1137535006,54577.3766959224,55433.3011612354,55281.6308203374,57989.3935682245,12187.5910072475
9810940961,23564,2,0,11205.7430475139,42208.1949812893,40934.4804778637,57508.1854942708,65041.7298083175,54588.9116725105,55442.5364431240,55275.1454379308,57980.5111495437,12192.9691292433
9810940961,23564,2,0,11039.6904889712,42179.0533473983,40890.0927198536,57467.5210514885,65009.6922625827,54588.2059460948,55405.7534956283,55237.3647392956,57972.2492834010,12201.9002187113
9810940961,23564,2,0,10900.8814036150,42168.8933205512,40861.6203092879,57448.2352520241,65001.9901104938,54599.4245625656,55397.0170893094,55239.8469494475,57987.4832398233,12209.7970539494
9810998343,23565,2,0,10995.4122402325,42197.3535634200,40904.6696206475,57483.0226972409,65036.8627295884,54620.5841873406,55425.8058599925,55282.3365467532,58023.9984979889,12208.3125949370
9810998343,23565,2,0,11142.1911670076,42208.3166582575,40935.0401919176,57484.5071562533,65044.7108940392,54607.1997208354,55425.9153692639,55285.9138496191,58029.6808124052,12191.7523595610
9810998343,23565,2,0,11176.2120473246,42203.9727904917,40930.0392685233,57491.3454018678,65039.0164119260,54624.9645581969,55427.6066791223,55272.2738614806,58019.1314192598,12182.1763821613
9810998343,23565,2,0,11077.8848892984,42190.6004916833,40922.6778119455,57490.0677937014,65020.7283636012,54560.1107341306,55426.5480894987,55257.3440974788,58002.1331467981,12186.0092066605
9810998343,23565,2,0,10933.8558620052,42182.0344331200,40942.3529777082,57468.7378211708,65011.6999325585,54622.5675219228,55423.6765130485,55251.5644414879,58002.1088114045,12197.8118725788
9810998343,23565,2,0,10952.3629288729,42206.2968205849,40980.9854151210,57486.1619630212,65035.4877798474,54586.6241455078,55439.0929849231,55274.1111837009,58018.1945066044,12213.9584062628
9810998343,23565,2,0,11132.8950466349,42221.1170753152,40953.4134141202,57509.7916302514,65054.4207161039,54551.1674769658,55451.7838927095,55293.7133432826,58013.8141357481,12218.8984911729
9810998343,23565,2,0,11209.8800644337,42208.5843475876,40918.1879318178,57488.4981608113,65042.3260254619,54568.8593081463,55432.0235530690,55277.8953374128,57998.4463346608,12208.6654581448
9811008283,23566,2,0,11064.8411183042,42173.9185793391,40860.9145828722,57459.2470176489,65003.2920540539,54566.6569550214,55410.6327420543,55237.1943915401,57983.7599245955,12199.8682133419
9811008283,23566,2,0,10903.7164769748,42154.5719413906,40837.6621142436,57442.3095836714,64986.0139245653,54603.9752811773,55398.1121820235,55231.5242448206,58004.5666861627,12193.2733216638
9811008283,23566,2,0,10945.0258076887,42170.4507857445,40883.0476233931,57456.4362796828,65007.4534063673,54604.3038089915,55405.1572784839,55258.8407241881,58023.6091316906,12187.8830319713
9811008283,23566,2,0,11109.1802055270,42199.6654258164,40931.1951997215,57484.1299576518,65034.5508671920,54571.1590028459,55421.3159798648,55276.7150708210,58021.8934864386,12187.8100257903
9811008283,23566,2,0,11208.9188163846,42212.5266813582,40952.5008368585,57507.2607493122,65043.5671305378,54577.8877391889,55435.1749865461,55273.9043328549,57999.8334520986,12193.3098247543
9811008283,23566,2,0,11139.5507767970,42204.8123615725,40939.9924445245,57515.7172986042,65034.1736685905,54588.8386663296,55449.6910488559,55266.6158824579,58006.4526791702,12202.8371313667
9811008283,23566,2,0,10969.5923875742,42177.6540622637,40899.5956910723,57500.7753669056,65009.0230392575,54573.9819085088,55451.8568988904,55246.3566672477,57993.1533865428,12211.9385685902
9811008283,23566,2,0,10939.6598533898,42178.6274780095,40897.9043812139,57510.7772136941,65010.9211999619,54564.4546018964,55456.5292944704,55252.4526833560,57988.4444878723,12209.2008368051
9811028201,23567,2,0,11101.0886871397,42189.6879144216,40940.1627922800,57498.9623800790,65021.4462577137,54539.2431340793,55434.6761109764,55266.8105656071,57986.2908055346,12188.4305783283
9811028201,23567,2,0,11199.2576651072,42182.7766626262,40938.9338549009,57473.1911982080,65012.8193606662,54593.9247636016,55405.8021664156,55251.0899013119,57979.1483674996,12177.6499989432
9811028201,23567,2,0,11110.2387951506,42179.6252291490,40930.3921317312,57483.8622683217,65006.5894998929,54676.2757356993,55417.4344845783,55236.5738390021,58002.2791591600,12177.9055205764
9811028201,23567,2,0,10968.7893195839,42173.5413807375,40894.5947676781,57487.4639065813,65002.8053461810,54621.5697707833,55434.0798938321,55239.6400986015,58021.1999277197,12185.4981633940
9811028201,23567,2,0,10931.4344903374,42164.5494527854,40890.6524339075,57460.6219673899,64999.5200680388,54524.6418978917,55427.3268220953,55248.3643372235,58005.3089156689,12185.7536850272
9811028201,23567,2,0,11023.6534645585,42165.1700053234,40881.8795244981,57440.9833047177,64998.7170000485,54472.7710063355,55410.1825372718,55244.7505312671,57967.0171737671,12184.9749524306
9811028201,23567,2,0,11146.7662210131,42181.2070297360,40917.3605284338,57462.8851589990,65013.0505469059,54537.0529486512,55418.8459374098,55248.7902066123,57962.3569458839,12180.7040908457
9811028201,23567,2,0,11126.6408504679,42172.1664309965,40890.7376077852,57459.8067317028,64999.5444034324,54540.7519284853,55412.6404120301,55237.6324286257,57966.6278074688,12176.4088938672
9811061039,23568,2,0,10960.1259194459,42148.1108943776,40839.8766350653,57451.2650085331,64978.1900955082,54562.8362982190,55413.3096353553,55217.1176917822,57968.3677881144,12179.5359919507
9811061039,23568,2,0,10881.9119642681,42144.3997468466,40837.6134434563,57453.0536599660,64979.0540019826,54577.8999068858,55418.7850989256,55224.7103345997,57986.3151409283,12174.0118575931
9811061039,23568,2,0,11028.8734064956,42175.1718521118,40899.8633804024,57466.9978405251,65016.1776449894,54562.8484659158,55428.7869457141,55267.2242672991,58014.1061604719,12186.1552190224
9811061039,23568,2,0,11185.9583724797,42194.8591855713,40916.1437587515,57468.4214610534,65034.9037303999,54589.5200573517,55418.4322357178,55277.3477910558,58023.4752870255,12194.4900913461
9811061039,23568,2,0,11135.0000581853,42179.7834092077,40887.8781990318,57453.3700200834,65010.5318336635,54585.7967421239,55403.0522669336,55242.4873396580,57996.8767017706,12200.6104428481
9811061039,23568,2,0,10992.2608067553,42171.4850399745,40896.8822946808,57469.7112369166,65002.5011537604,54606.7981868403,55421.0239551411,55236.8171929385,57993.1655542396,12209.4928615288
9811061039,23568,2,0,10946.0235588282,42174.8798273881,40910.6074566971,57490.1773029728,65004.4358175552,54547.2008078015,55442.4999400336,55245.3345807146,57985.4999052411,12207.5216946435
9811061039,23568,2,0,11024.0793339473,42176.3034479164,40900.4474298499,57474.2862909221,65004.2898051934,54515.4187837000,55430.3809139979,55243.4607554039,57968.8909990778,12193.8573711113
9811124586,23569,2,0,11153.4827896593,42190.2597961723,40920.5606326983,57461.0478367787,65018.5868489603,54578.3379439714,55413.9423555901,55254.7158749651,57991.4255735939,12178.5260731144
9811124586,23569,2,0,11168.9235969276,42187.7897537172,40936.7923402601,57455.0491622450,65014.1456396199,54573.6412129977,55399.8886657596,55244.6775250862,57991.8149398922,12175.9100182975
9811124586,23569,2,0,11009.3807561852,42163.6855463110,40890.8957878439,57457.8477325143,64991.1851957151,54584.5556370479,55405.6318186600,55219.2957095135,57971.0933522028,12190.2800682454
9811124586,23569,2,0,10918.2447069814,42167.2993522674,40888.4622484794,57489.6175889190,64996.5146469235,54556.5212635679,55429.4318336457,55228.1294574070,57974.3421272545,12202.1192372541
9811124586,23569,2,0,11018.6890442548,42181.6450668216,40885.6758459069,57493.2922333595,65016.2384834735,54533.9258505677,55432.5102609419,55256.6748741536,57977.4570576412,12201.5716908971
9811124586,23569,2,0,11174.1922096520,42196.5018246424,40890.2874030028,57494.6063446164,65031.5576137736,54562.4104288302,55435.8807129619,55269.7916513287,57977.4083868539,12196.0475565395
9811124586,23569,2,0,11155.0889256399,42189.7730882993,40920.3172787618,57472.9965150588,65019.2317368919,54599.3393886878,55420.0140363048,55249.4472622408,57982.9568566051,12182.0790405867
9811124586,23569,2,0,11017.4114360884,42175.1110136277,40918.0540871527,57468.5431380216,65005.1537116678,54609.9009495301,55416.1933795024,55236.5738390021,57990.5981702100,12185.1331324893
9811126630,23570,2,0,10933.3813218291,42164.8779805996,40865.3071214253,57479.7009160083,64999.7147511879,54547.3711555570,55422.3380663979,55236.7198513640,57988.1524631485,12188.9659569885
9811126630,23570,2,0,10978.3287938931,42170.7914812556,40862.5450542465,57486.2106338085,65006.4556552278,54548.2959005155,55427.7526914842,55244.7261958735,57976.0091017192,12182.7604316088
9811126630,23570,2,0,11149.3822758300,42203.7294365553,40919.4290368937,57517.4086084626,65040.4643678480,54616.9947167779,55447.4886957310,55278.0170143810,58000.3566630620,12175.2894657595
9811126630,23570,2,0,11210.7561386049,42205.8344481056,40949.2520618068,57506.6401967743,65037.7509714565,54598.3903083356,55438.7279540184,55273.8434943708,58023.0372499399,12167.4778043992
9811126630,23570,2,0,11079.4788575822,42185.1371958098,40927.5813937651,57490.6396754521,65009.6679271891,54596.4313091471,55424.0537116500,55240.9298744647,58006.0876482656,12175.4476458182
9811126630,23570,2,0,10916.0301861596,42157.5408594154,40868.3977164183,57453.4673616580,64982.0715907947,54514.1533432304,55399.5601379454,55218.6386538851,57978.8320073822,12187.0434608905
9811126630,23570,2,0,10963.2895206199,42164.0992480029,40857.9334971506,57465.8297416301,64994.7746662778,54504.0906579578,55415.4876530866,55244.3003264847,57976.3741326239,12190.2679005486
9811126630,23570,2,0,11127.4560861550,42186.4513070667,40890.2752353060,57475.2718743647,65016.0194649307,54531.2367895698,55422.1798863392,55257.5874514153,57977.6274053967,12188.0412120300
9811159429,23571,2,0,11186.9804590129,42198.8623578261,40922.3492841312,57469.7964107944,65024.5246850099,54640.4540362525,55421.1212967156,55254.6550364810,57984.7820111286,12190.8884530865
9811159429,23571,2,0,11083.8105576511,42186.8163379714,40920.8039866347,57466.2191079284,65008.6945114433,54611.9451225964,55415.0496160010,55242.9010413500,57987.5075752169,12189.1363047440
9811159429,23571,2,0,10930.4245715011,42159.2321692738,40891.1878125677,57456.9594906462,64981.3415289853,54543.0272877912,55399.4749640676,55220.3664668339,57975.6805739050,12179.7063397062
9811159429,23571,2,0,10903.6191354002,42146.3952491256,40852.1051703724,57443.5506887473,64975.3671898452,54519.3246143801,55385.8106405355,55217.4705549901,57978.6738273235,12171.8460075586
9811159429,23571,2,0,11074.4292634007,42175.7072307720,40881.7091767426,57468.4944672343,65006.8571892230,54513.3746106337,55404.9869307284,55247.7802877760,57977.5057284285,12180.6310846648
9811159429,23571,2,0,11214.0292490503,42197.4752403883,40917.6160500671,57501.8217888324,65023.7946232005,54564.1625771727,55425.5868414497,55257.9524823200,57964.6688082803,12190.1827266708
9811159429,23571,2,0,11109.0098577715,42182.5698117802,40905.2780054887,57473.8604215333,64999.4957326451,54602.7828468887,55415.0496160010,55229.1272085464,57952.3550990954,12195.2931593364
