steady_timestamp,sequence,battery,flags,EEG-ch1,EEG-ch2,EEG-ch3,EEG-ch4,EEG-ch5,EEG-ch6,EEG-ch7,EEG-ch8,EEG-ch9,EEG-ch10
8317431280,21535,-2,0,44134.3048852705,61974.8253210046,40597.1189157508,57811.4166667953,70822.9675998020,51142.2898704440,44198.2217966814,62488.2899592359,31399.7515704381,23117.1151691838
8317431280,21535,-2,0,44140.8511061613,61969.6783852484,40585.2189082580,57803.9457009460,70825.3646360761,51143.5674786104,44188.7309931596,62484.5909794017,31382.1692485290,23120.7533105338
8317431280,21535,-2,0,44146.3874082157,61977.7942390293,40593.3590974325,57814.1057277932,70832.8234342286,51150.7099166454,44194.0969474585,62492.1714545224,31388.7641402070,23112.1385811832
8317431280,21535,-2,0,44138.4540698872,61985.1313602136,40605.5024588618,57823.0124818676,70825.1699529269,51146.9014275399,44206.7878552448,62488.8861763802,31396.0525906040,23098.2309037145
8317431280,21535,-2,0,44138.0768712856,61985.3868818469,40601.1585910960,57818.9484711287,70825.7296669808,51150.6855812518,44204.9992038118,62483.7514083209,31386.1724207837,23105.5193541115
8317431280,21535,-2,0,44144.0512104257,61986.7131608006,40603.7259751257,57816.0038884976,70833.9793654267,51158.9596150914,44197.9662750482,62490.5166477545,31386.5009485979,23117.6140447535
8317431280,21535,-2,0,44140.1453797455,61985.1556956072,40610.4912145592,57814.7506157248,70831.4606521844,51152.8149281958,44196.5913253072,62493.1692056619,31397.4762111322,23116.8839829441
8317431280,21535,-2,0,44134.9497732021,61978.5243008387,40599.8323121423,57807.7906931421,70821.7143270292,51148.0816941317,44191.7120788812,62486.4404693188,31388.2652646373,23117.1395045774
8317478729,21536,-2,0,44145.9493711301,61981.2742003207,40592.3978493835,57811.6721884286,70823.2474568289,51152.3525557165,44189.7652473895,62489.0565241357,31381.4148513260,23123.9412471014
8317478729,21536,-2,0,44144.2458935749,61985.3747141500,40602.1076714482,57817.4396767227,70822.0671902371,51154.2020456336,44196.6034930040,62492.6216593049,31393.9962498409,23123.6857254681
8317478729,21536,-2,0,44132.8204262581,61978.3782884769,40599.0779149393,57810.6866049859,70817.9788441046,51146.6215705129,44192.1622836636,62484.3962962525,31392.4631200412,23119.2080130373
8317478729,21536,-2,0,44137.0061139652,61974.6428055522,40590.0251485031,57804.6514273618,70826.8369273917,51156.1123740348,44184.0464298827,62484.8586687318,31380.5022740642,23125.2918614488
8317478729,21536,-2,0,44149.4293324215,61983.1236902378,40598.3843562204,57816.4905963705,70823.6368231272,51155.4309830128,44190.4588061084,62494.2764660728,31387.0241595613,23124.4036195807
8317478729,21536,-2,0,44151.8020333019,61990.1444513046,40604.1640122113,57826.7357970954,70828.9906097293,51155.9785293698,44204.8775268436,62501.9421150712,31390.8569840606,23122.8826574778
8317478729,21536,-2,0,44147.7380225631,61991.9087673440,40603.4947888860,57821.5158551584,70837.0942958134,51163.5225014000,44205.9361164672,62500.6645069048,31389.4333635323,23123.0895083238
8317478729,21536,-2,0,44136.6775861510,61988.5748184145,40606.3298622458,57813.5338460425,70830.8522673432,51163.8631969111,44200.8986899825,62495.3107203027,31396.0160875135,23113.6717109829
8317500070,21537,-2,0,44122.0276791762,61974.3872839189,40601.8156467245,57803.0696267748,70808.2081835558,51146.2322042146,44194.0482766712,62482.5468063354,31394.1787652932,23102.1245666979
8317500070,21537,-2,0,44122.7212378951,61964.9816542748,40588.5041864002,57796.0366980111,70807.0157492671,51135.3299478613,44184.0585975795,62472.8248165739,31374.9294689193,23101.9785543360
8317500070,21537,-2,0,44131.2264579743,61966.0645792920,40585.3527529230,57801.1714660704,70811.1771015806,51130.9617447018,44183.5353866162,62470.9874943537,31365.1831437642,23101.3701694949
8317500070,21537,-2,0,44125.3616281057,61963.6188722306,40593.9796499705,57805.1503029315,70803.0734154965,51128.1753421294,44192.0284389986,62467.3858560941,31372.9339666404,23094.8482839978
8317500070,21537,-2,0,44119.2899473910,61956.1114032909,40592.5560294422,57798.7622620995,70799.4231064496,51127.6399634692,44190.3492968370,62463.2975099616,31368.1277263953,23096.9289601545
8317500070,21537,-2,0,44131.7253335441,61955.3813414815,40582.3473318078,57793.6761648275,70812.3938712628,51133.5777995188,44179.6782267233,62468.4687811113,31357.9798672450,23108.4517690458
8317500070,21537,-2,0,44141.3256463374,61962.8766427244,40588.1269877987,57801.4634907941,70819.5484769947,51133.4439548537,44185.3605411396,62480.8433287802,31366.5337581115,23108.8898061314
8317500070,21537,-2,0,44141.0579570073,61968.2669324170,40587.8592984686,57807.7420223548,70811.2136046710,51132.8720731030,44193.9874381871,62483.4715512940,31368.3102418477,23111.7978856721
8317529985,21538,-2,0,44145.2071416239,61973.8275698651,40583.1382321013,57807.9975439881,70821.7751655133,51143.9933479992,44192.8436746857,62487.1583634314,31361.9952071965,23118.2832680788
8317529985,21538,-2,0,44145.8276941619,61979.4125427068,40589.3194220873,57810.8812881351,70833.2736390110,51146.7189120875,44195.9951081628,62494.4346461315,31377.0466481665,23118.4657835311
8317529985,21538,-2,0,44130.5207315586,61969.7270560357,40590.4388501950,57804.4080734253,70820.0230171708,51128.7593915769,44191.6755757907,62484.4936378271,31382.6802917955,23108.4517690458
8317529985,21538,-2,0,44129.7419989619,61961.8058854040,40573.0390437382,57791.2182900692,70805.1662593500,51120.6192024023,44178.1694323172,62477.9595846332,31362.7496043996,23120.3761119323
8317529985,21538,-2,0,44144.0390427289,61969.7635591262,40570.2891442562,57796.0245303143,70815.8251617669,51137.2767793529,44179.0820095790,62491.6847466495,31359.9145310398,23133.6875722566
8317529985,21538,-2,0,44136.6045799701,61980.0939337289,40588.9787265763,57807.3769914501,70826.3258841251,51147.4003031096,44190.9941847686,62495.8339312661,31378.8839703868,23125.2675260551
8317529985,21538,-2,0,44123.3174550394,61977.6238912738,40596.7052140588,57805.3328183838,70823.1744506480,51147.5341477747,44192.8558423825,62486.3796308347,31390.0539160703,23113.7690525574
8317529985,21538,-2,0,44124.3760446630,61973.7788990778,40594.0769915451,57800.0642056595,70822.6147365941,51145.3439623465,44186.4921369441,62481.0745150199,31387.9124014294,23115.7888902301
8317545937,21539,-2,0,44123.7068213377,61969.5445405834,40594.4906932371,57799.6140008771,70813.6106409451,51131.0347508828,44185.1293549000,62477.6067214253,31386.2332592678,23112.8564752957
8317545937,21539,-2,0,44127.7221612893,61969.5932113707,40587.5794414416,57799.4801562120,70808.9139099715,51130.4993722225,44188.9378440055,62477.0713427651,31379.0543181423,23121.4833723432
8317545937,21539,-2,0,44134.9376055053,61974.3021100412,40582.1526486586,57799.4314854247,70822.2132025990,51142.9834291629,44189.4488872721,62483.3377066289,31373.1773205768,23131.3270390730
8317545937,21539,-2,0,44130.1435329571,61979.0840148926,40590.9620611584,57798.9447775518,70825.1699529269,51151.0627798533,44191.7364142748,62491.8307590114,31387.5960413120,23128.9543381925
8317545937,21539,-2,0,44111.9406585100,61971.1750119577,40595.1720842592,57791.3034639470,70815.3992923781,51146.6580736034,44189.6922412086,62488.1317791772,31395.0183363740,23121.1548445290
8317545937,21539,-2,0,44109.2272621185,61963.5458660497,40588.0661493146,57782.0681820584,70814.0121749403,51143.0564353438,44177.4272028110,62480.1984408486,31383.2035027589,23122.6879743287
8317545937,21539,-2,0,44122.6725671078,61967.0744981283,40585.9124669769,57790.0380234774,70810.5565490426,51143.4458016422,44178.0355876522,62484.8465010350,31375.6108599414,23131.3148713761
8317545937,21539,-2,0,44125.6293174358,61975.0565072442,40597.1310834476,57803.9700363397,70815.1316030480,51143.8473356373,44191.8215881526,62487.5233943360,31389.1535065054,23124.0872594633
8317592388,21540,-2,0,44124.1691938170,61973.9979176206,40595.2450904401,57804.1038810047,70806.0666689149,51144.1758634515,44193.6467426760,62481.7315706483,31382.7898010670,23124.3306133998
8317592388,21540,-2,0,44134.7185869625,61974.2169361634,40592.2275016280,57800.5387458356,70821.2154514595,51147.2299553541,44187.7210743232,62483.3012035385,31376.8276296237,23133.7362430439
8317592388,21540,-2,0,44125.1791126533,61969.6297144612,40592.9332280437,57799.7478455421,70817.2366145984,51129.6476334449,44188.7431608564,62480.6243102374,31386.7443025344,23126.0097555613
8317592388,21540,-2,0,44111.0402489451,61960.4674387535,40580.8142020081,57793.8830156735,70805.3731101960,51116.0563160937,44187.0640186948,62470.4764510871,31378.6041133599,23111.8708918531
8317592388,21540,-2,0,44117.5621344422,61960.4431033598,40569.9362810484,57790.6950791058,70789.8592967468,51117.1270734141,44181.8197413641,62469.1136690429,31359.2696431082,23113.7568848606
8317592388,21540,-2,0,44131.5914888790,61967.8897338155,40575.0710491077,57797.3508092680,70808.7557299128,51136.0113388833,44184.2897838192,62484.1042715288,31364.7207712849,23120.4856212037
8317592388,21540,-2,0,44123.8650013965,61966.9284857665,40585.2797467421,57797.4116477521,70813.7931563975,51142.2777027472,44186.7111554869,62488.0344376026,31382.7289625828,23118.5144543184
8317592388,21540,-2,0,44121.4923005160,61963.0348227831,40580.9845497636,57791.7901718199,70817.1879438111,51141.7058209965,44179.8242390852,62483.5202220813,31381.0741558149,23119.6338824261
8317616284,21541,-2,0,44123.8771690933,61964.9451511843,40581.4955930302,57797.2899707839,70815.5209693463,51135.5124633136,44183.7544051590,62486.2457861696,31382.9966519129,23118.4779512279
8317616284,21541,-2,0,44113.1087574050,61963.3390152037,40584.8052065660,57800.5874166229,70808.1230096780,51129.0270809070,44190.5804830766,62481.3787074405,31386.7199671408,23110.3377620534
8317616284,21541,-2,0,44104.8103881717,61957.1456575208,40576.3973280614,57789.9771849933,70802.6962168950,51126.8490631757,44182.4524615989,62471.9000716154,31372.2769110119,23112.6739598434
8317616284,21541,-2,0,44105.3944376192,61954.6877827626,40570.3256473467,57779.0505932463,70805.7503087975,51134.3565321154,44170.5646218029,62470.9996620505,31367.3733291923,23112.4306059069
8317616284,21541,-2,0,44100.4665204059,61951.1834860776,40578.1616441007,57776.0816752215,70803.8034773058,51133.6629733965,44168.9463181254,62472.0704193709,31377.3751759807,23106.4197636764
8317616284,21541,-2,0,44101.6224516041,61947.0708045514,40574.6330120220,57775.2907749280,70788.2044899788,51121.9698167497,44165.2960090786,62466.3637695609,31366.5824288988,23116.0079087729
8317616284,21541,-2,0,44123.5851443695,61958.4232656872,40576.0322971567,57785.5603110466,70810.7025614045,51133.2736070982,44168.8124734604,62476.2074362907,31362.6035920377,23129.9520893320
8317616284,21541,-2,0,44120.3242016210,61966.5269517713,40593.6024513690,57797.0709522411,70814.5962243878,51137.8608288004,44182.6471447481,62480.2106085455,31384.0309061429,23120.6072981719
8317645021,21542,-2,0,44100.9410605820,61957.7053715747,40594.3568485720,57788.7482476142,70792.6456993192,51128.7958946673,44182.4646292957,62468.5661226859,31384.0187384461,23109.8145510900
8317645021,21542,-2,0,44111.7946461481,61952.9112990264,40582.5906857442,57781.9465050901,70806.1640104895,51139.2357785414,44171.0148265853,62469.8193954587,31369.2714898967,23120.7898136243
8317645021,21542,-2,0,44122.9037533474,61961.4651898930,40592.1788308407,57792.9339353213,70816.6890682414,51146.6824089971,44178.0355876522,62479.9550869122,31379.0299827487,23120.5951304751
8317645021,21542,-2,0,44118.9614195768,61963.6188722306,40601.1707587929,57802.4612419336,70811.2257723678,51146.1105272464,44192.4056376001,62477.7892368777,31388.5451216642,23115.1926730857
8317645021,21542,-2,0,44121.6504805747,61963.8987292575,40591.8746384201,57800.2467211118,70801.2239255794,51140.5012190110,44193.4398918300,62471.9122393122,31377.5333560394,23125.4013707202
8317645021,21542,-2,0,44137.4076479604,61965.8333930524,40587.5916091385,57798.4702373757,70814.8030752338,51155.2484675604,44185.0198456286,62481.0015088389,31371.5711845962,23145.9404429573
8317645021,21542,-2,0,44136.1178720972,61969.1916773755,40604.9062417175,57799.8086840262,70814.2068580895,51151.9510217214,44187.4412172963,62486.4648047124,31390.2851023099,23141.9737737930
8317645021,21542,-2,0,44132.7352523804,61965.1154989398,40604.1883476050,57798.5432435566,70811.5908032725,51148.3372157650,44185.4335473205,62480.6608133279,31388.6059601483,23135.0868573912
8317672417,21543,-2,0,44138.8677715791,61971.3940305005,40599.6132935995,57803.8605270683,70813.1361007690,51149.6756624155,44187.8792543819,62479.6143914011,31381.3418451450,23130.0250955129
8317672417,21543,-2,0,44131.9078489964,61975.8717429313,40611.3186179432,57809.0561336117,70814.9125845052,51152.6810835308,44196.3601390675,62481.9505891911,31391.3071888430,23118.4414481375
8317672417,21543,-2,0,44115.6883091314,61968.6197956249,40611.9756735716,57801.4026523100,70809.3519470571,51143.7378263659,44194.7296676933,62475.1245112735,31388.1314199722,23116.8474798536
8317672417,21543,-2,0,44117.4039543835,61960.6012834185,40598.7250517315,57788.5778998586,70812.2235235073,51135.2934447708,44181.2721950071,62472.0460839773,31373.6640284497,23126.0827617423
8317672417,21543,-2,0,44114.2281855127,61956.5616080733,40595.4519412861,57786.0348512227,70804.6430483866,51129.0635839974,44176.1860977351,62471.0970036251,31375.7812076969,23124.0994271601
8317672417,21543,-2,0,44107.3169337173,61953.1181498724,40590.9377257648,57785.4508017752,70788.3139992502,51128.6985530927,44177.9139106840,62469.3448552826,31369.0159682634,23121.7388939765
8317672417,21543,-2,0,44124.8384171423,61959.3845137362,40590.0008131094,57788.3467136190,70807.0522523576,51147.3638000191,44177.5245443856,62478.0325908141,31363.2606476661,23130.1589401779
8317672417,21543,-2,0,44134.6942515689,61969.3255220406,40608.5687184612,57798.3120573170,70824.5859034794,51161.2593097909,44185.6890689538,62488.8496732897,31385.5883713362,23124.4401226712
8317737514,21544,-2,0,44117.8419914691,61962.0127362500,40616.4777213961,57793.8586802798,70811.3717847297,51141.8274979647,44187.0883540885,62480.8676641739,31400.5546384284,23110.7636314422
8317737514,21544,-2,0,44109.3611067835,61949.0054683463,40598.7737225187,57780.1091828699,70803.2315955552,51127.5182865009,44179.8242390852,62469.9410724269,31384.8339741332,23110.2647558724
8317737514,21544,-2,0,44113.1574281923,61947.8617048449,40584.4766787518,57779.3182825764,70805.4582840738,51127.3601064422,44175.7480606495,62469.9532401237,31373.1651528800,23114.0732449780
8317737514,21544,-2,0,44111.0159135514,61950.9522998379,40587.6646153194,57786.4120498242,70799.2284233004,51126.0459951853,44182.2456107529,62470.4521156934,31377.4846852522,23104.4120937006
8317737514,21544,-2,0,44113.2060989796,61949.6625239747,40584.5983557200,57784.9397585086,70783.6294359734,51125.9729890044,44179.8242390852,62465.7918878103,31367.8235339747,23108.7802968600
8317737514,21544,-2,0,44140.0480381710,61954.5417704007,40578.6848550641,57784.6112306944,70806.6628860592,51140.0266788349,44168.4109394652,62474.2727724959,31353.4534840268,23127.2386929404
8317737514,21544,-2,0,44147.0566315410,61967.2205104902,40598.2261761617,57797.0952876347,70821.8603393911,51146.1835334273,44176.6363025175,62486.4039662283,31376.9128035015,23124.7199796981
8317737514,21544,-2,0,44130.6424085268,61964.9451511843,40609.2136063928,57800.3318949896,70810.8607414632,51136.3276990007,44190.4831415021,62478.8843295917,31389.2021772926,23112.0777426991
8317747251,21545,-2,0,44124.6559016899,61963.7770522893,40602.5092054434,57796.7180890332,70805.0689177754,51135.3786186485,44192.1622836636,62476.2926101685,31381.0984912086,23116.4824489490
8317747251,21545,-2,0,44122.5873932300,61964.9694865780,40602.0955037514,57796.9249398792,70808.7192268223,51141.6571502092,44193.1235317126,62480.2836147264,31382.8993103384,23117.4680323916
8317747251,21545,-2,0,44114.5932164174,61959.1898305871,40604.3951984509,57792.0091903627,70801.5037826063,51137.3497855339,44190.0086013260,62475.4652067845,31388.3139354246,23114.2922635208
8317747251,21545,-2,0,44119.6306429021,61953.3858392025,40596.6322078779,57783.4918025867,70803.1829247679,51142.4358828059,44178.2059354077,62473.1776797818,31372.8001219753,23120.7046397465
8317747251,21545,-2,0,44136.0448659162,61962.9253135117,40598.8345610029,57791.1087807978,70817.2609499920,51148.3250480682,44177.9382460776,62483.0821849957,31372.6784450071,23126.3747864660
8317747251,21545,-2,0,44130.6059054364,61968.8023110772,40610.2721960164,57799.9425286913,70815.5574724368,51143.9325095151,44188.9743470960,62486.3309600474,31384.9434834046,23120.3882796291
8317747251,21545,-2,0,44123.1957780712,61963.8257230766,40604.9549125048,57794.7347544511,70808.0500034971,51135.0257554407,44189.9599305387,62478.7869880172,31377.6915360981,23121.8119001574
8317747251,21545,-2,0,44129.0727756367,61959.4940230076,40591.5339429091,57785.1222739609,70797.5371134420,51127.6399634692,44179.7999036915,62475.8789084765,31365.4143300038,23131.9597593077
8317772157,21546,-2,0,44137.2007971144,61958.1190732667,40590.2928378332,57786.6310683670,70799.1432494227,51129.1365901784,44179.1306803663,62480.5026332692,31366.2660687814,23138.4573094112
8317772157,21546,-2,0,44137.2251325080,61959.6400353695,40592.9332280437,57793.3963078005,70803.3532725234,51135.1352647121,44188.4024653453,62483.3133712353,31375.2093259463,23132.0814362760
8317772157,21546,-2,0,44140.4617398629,61962.6576241816,40592.6290356232,57797.8010140504,70810.9824184314,51145.7211609481,44192.5151468715,62482.8753341497,31377.5820268267,23130.6091449604
8317772157,21546,-2,0,44135.6798350115,61963.7162138052,40601.4384481230,57799.6261685739,70806.9305753893,51148.8360913347,44196.1776236152,62484.1651100129,31387.3161842851,23123.6248869840
8317772157,21546,-2,0,44120.4093754987,61955.8315462639,40603.3974473115,57792.3620535706,70802.1973413252,51142.5453920773,44193.0870286222,62479.0668450441,31390.1999284321,23118.2102618978
8317772157,21546,-2,0,44119.1074319387,61950.0032194857,40589.2950866937,57781.8491635156,70794.4343507522,51132.5070421983,44178.7169786743,62472.8856550580,31374.8807981320,23123.2233529889
8317772157,21546,-2,0,44134.4508976324,61956.9266389780,40585.5352683754,57787.6531549001,70810.3862012871,51135.3907863454,44176.3442777938,62483.2403650544,31369.3931668649,23130.8403312000
8317772157,21546,-2,0,44130.3625514999,61966.3079332285,40597.8976483475,57799.8573548135,70799.3866033591,51133.0302531617,44188.8161670373,62484.4206316462,31383.4225213017,23125.0363398155
8317799585,21547,-2,0,44139.6708395695,61966.0159085047,40590.2441670459,57796.6572505491,70795.2009156520,51135.0500908343,44189.0108501865,62484.0190976510,31367.7261924002,23140.5136501743
8317799585,21547,-2,0,44153.0674737715,61973.9127437428,40597.4474435650,57796.2435488571,70826.6057411520,51149.1889545426,44183.7057343717,62493.6437458380,31371.4008368407,23138.5181478953
8317799585,21547,-2,0,44137.4441510509,61972.1240923099,40614.5673929949,57795.5256547445,70827.5669892011,51145.9401794909,44188.7431608564,62491.1250325956,31393.2661880315,23115.2170084794
8317799585,21547,-2,0,44121.0177603399,61962.3412640642,40609.8219912340,57788.9064276729,70806.7602276338,51129.6476334449,44184.1924422446,62474.9784989116,31388.0462460945,23101.3336664044
8317799585,21547,-2,0,44129.9123467175,61956.8901358875,40592.7507125914,57786.5580621860,70797.8534735594,51135.7071464628,44181.1140149484,62474.3214432831,31366.8987890162,23114.1827542494
8317799585,21547,-2,0,44142.4085713546,61964.0812447099,40600.6110447390,57795.7933440747,70812.3330327787,51150.9897736724,44185.8715844062,62487.4260527615,31378.1660762742,23122.4446203922
8317799585,21547,-2,0,44131.7740043314,61962.4386056388,40611.0387609163,57797.4359831457,70810.6538906172,51151.5616554231,44192.2352898446,62489.2877103754,31394.9331624963,23120.2179318736
8317799585,21547,-2,0,44129.7419989619,61952.7044481804,40600.4163615898,57784.8667523277,70816.1415218843,51148.0938618285,44182.1239337847,62486.7689971330,31387.4621966470,23122.9434959619
8317835951,21548,-2,0,44130.0948621698,61946.7057736467,40592.4221847772,57782.7739084741,70811.1649338837,51131.3632786970,44176.5511286398,62482.5589740323,31381.7190437465,23114.2557604304
8317835951,21548,-2,0,44115.1772658649,61938.6020875627,40586.4113425466,57781.1191017062,70794.5073569331,51110.1914862251,44177.6948921411,62467.9090670575,31378.4581009980,23095.7851966531
8317835951,21548,-2,0,44108.0104924362,61931.0824509261,40570.5203304959,57773.9766636711,70784.4203362669,51102.4771664393,44170.8323111330,62453.8918803174,31360.9974560571,23094.3615761249
8317835951,21548,-2,0,44113.7049745493,61929.1842902217,40562.4531475023,57769.6814666926,70786.4888447268,51109.0842258142,44162.9354758949,62452.7116137256,31353.5994963887,23102.1123990011
8317835951,21548,-2,0,44111.2836028815,61926.6412415857,40570.1431318944,57768.0509953183,70777.1683889604,51106.8453695987,44162.5461095966,62451.0933100481,31362.7009336123,23102.4774299058
8317835951,21548,-2,0,44114.6662225983,61922.6989078151,40565.4707363144,57764.7657171762,70769.0768705732,51104.7768611388,44161.3658430048,62452.3344151241,31351.5553233225,23109.9118926646
8317835951,21548,-2,0,44137.5171572318,61933.6254995621,40567.6122509552,57773.4899557982,70795.3225926203,51118.9278925439,44163.0449851663,62463.1271622060,31349.0852808674,23118.4536158343
8317835951,21548,-2,0,44131.7983397250,61940.2933974210,40581.3374129715,57783.3701256184,70796.7705485422,51116.4943531793,44176.5876317303,62466.6557942847,31367.8600370652,23106.2494159209
8317869918,21549,-2,0,44111.5999629989,61929.0017747693,40572.3819881098,57774.1956822139,70779.7966114742,51107.2834066844,44176.9648303318,62453.6606940778,31368.8091174174,23099.7275304238
8317869918,21549,-2,0,44114.5688810237,61921.1049395313,40557.4887271985,57763.7192952494,70782.2788216261,51114.7787079273,44165.7218784674,62451.6773594956,31359.0992953527,23111.4936932516
8317869918,21549,-2,0,44122.1980269317,61928.3812222314,40563.2318800989,57769.1825911229,70791.9886436908,51122.3470153512,44168.2770948002,62461.0586537461,31368.8577882047,23116.1782565284
8317869918,21549,-2,0,44115.2016012585,61932.4208975766,40574.4383288729,57776.3615322484,70787.4500927758,51116.5551916635,44176.7093086985,62462.7012928172,31378.0809023965,23109.7902156963
8317869918,21549,-2,0,44113.3521113414,61931.6299972831,40567.4784062901,57770.0951683846,70774.3333156007,51104.6673518674,44167.2306728734,62453.4538432318,31359.9875372208,23115.3995239317
8317869918,21549,-2,0,44125.7509944040,61929.0869486471,40562.6721660451,57766.2501761886,70785.7952860079,51115.0463972574,44159.0539806084,62462.2632557316,31351.2024601146,23127.3968729991
8317869918,21549,-2,0,44117.6594760167,61922.4920569691,40571.6519263004,57764.2060031223,70777.4360782905,51116.2509992429,44155.5375162266,62460.9491444747,31366.0105471481,23118.7821436485
8317869918,21549,-2,0,44110.8090627054,61915.0332588166,40563.6577494877,57751.6124369106,70770.9750312776,51116.3483408175,44146.5942590617,62451.9328811289,31357.9920349418,23118.4779512279
8317897479,21550,-2,0,44126.7244101498,61928.2230421727,40564.1079542702,57760.5556940754,70780.8795364914,51125.4132749506,44151.5343439718,62462.0685725824,31354.3052228044,23126.2531094978
8317897479,21550,-2,0,44125.7631621008,61939.9161988195,40580.0233017146,57777.5783019307,70788.7885394263,51123.2717603097,44167.4496914162,62465.9500678690,31373.1408174864,23115.2048407826
8317897479,21550,-2,0,44106.7207165729,61933.1996301733,40580.1936494701,57773.5264588887,70779.2003943299,51115.1559065288,44170.3334355633,62452.8941291779,31374.4914318337,23110.5202775057
8317897479,21550,-2,0,44102.7053766214,61922.4312184850,40563.6699171846,57757.5502729601,70776.2436440019,51113.1117334626,44157.1923229945,62445.4353310255,31358.7951029321,23118.8186467390
8317897479,21550,-2,0,44108.0469955266,61921.5794797074,40560.2021235900,57759.1929120312,70780.7335241296,51111.0553926995,44157.2896645691,62449.3533294025,31359.8780279494,23118.3927773502
8317897479,21550,-2,0,44107.6089584410,61921.6038151010,40560.0317758345,57763.9991522763,70765.5239031009,51094.0692879347,44161.1224890683,62444.8634492748,31356.7874329563,23107.4175148159
8317897479,21550,-2,0,44124.3882123598,61925.1202794828,40548.8374947574,57767.0289087852,70768.1886287051,51095.5172438566,44161.1468244619,62446.1653928349,31334.8612432814,23107.4418502095
8317897479,21550,-2,0,44141.1187954914,61930.0603643929,40548.8618301510,57770.4723669861,70774.8078557768,51097.4154045610,44158.2509126181,62453.2226569922,31331.8193190757,23108.2570858967
8317946291,21551,-2,0,44136.9209400875,61928.8679301043,40557.0141870224,57772.5530431428,70777.9592892539,51102.0391293537,44160.2829179875,62455.6683640536,31346.3962198695,23100.0925613285
8317946291,21551,-2,0,44125.2521188343,61923.4411373213,40556.6491561177,57766.7003809710,70781.3905797580,51102.3189863806,44153.3351631016,62448.2704043852,31347.4913125836,23096.1258921642
8317946291,21551,-2,0,44116.4670417281,61921.6403181915,40555.3350448608,57761.0424019483,70778.9083696061,51106.3464940290,44147.1661408124,62442.0162082182,31349.4503117721,23094.8969547851
8317946291,21551,-2,0,44104.4453572670,61923.5993173800,40564.2661343289,57762.8432210781,70769.3810629938,51108.5245117603,44155.0873114441,62437.6601727556,31362.1777226489,23084.5300770919
8317946291,21551,-2,0,44094.2123242389,61916.5177178290,40559.3625525092,57752.7683681087,70757.3350431390,51102.9517066154,44151.9845487543,62428.6682448035,31352.2853851318,23081.6585006417
8317946291,21551,-2,0,44102.4985257754,61913.7313152566,40545.6860612802,57740.7953544350,70758.9533468165,51095.7362623994,44138.6365853395,62428.4978970479,31335.3236157607,23093.0839679584
8317946291,21551,-2,0,44115.5422967696,61917.6249782399,40544.3476146297,57741.9269502395,70758.1381111293,51090.1026187704,44137.5049895350,62440.1667183011,31331.4177850805,23105.6897018670
8317946291,21551,-2,0,44121.9668406921,61926.7507508571,40556.3692990908,57755.7737892240,70778.9570403934,51100.9318689428,44148.8087798835,62451.1541485323,31344.4007175906,23106.3954282827
8317955284,21552,-2,0,44125.6049820421,61937.5434979391,40567.3323939283,57766.0311576457,70787.0607264775,51112.4181747437,44157.1193168136,62452.2005704590,31348.4890637231,23106.6874530065
8317955284,21552,-2,0,44125.6049820421,61941.9725395826,40574.4626642665,57775.0474209915,70791.1490726100,51114.5475216877,44166.3789340958,62453.8067064397,31361.4111577490,23099.9952197539
8317955284,21552,-2,0,44113.8509869112,61931.5083203149,40568.9141945152,57769.7544728736,70774.3576509943,51097.0017028690,44165.0161520516,62440.6534261741,31365.9983794513,23086.6594240359
8317955284,21552,-2,0,44114.6053841142,61918.0143445382,40546.0024213976,57755.7372861335,70755.3638762537,51083.5685655765,44149.9160402944,62427.6096551799,31340.7260731500,23093.0839679584
8317955284,21552,-2,0,44133.6965004294,61926.1058629255,40541.9140752651,57761.5899483054,70778.5311710046,51097.5492492260,44147.1661408124,62438.3658991714,31333.2551073008,23109.9848988455
8317955284,21552,-2,0,44129.8150051429,61935.9373619584,40559.0096893014,57777.1889356324,70783.2522373719,51098.9728697543,44161.6213646380,62445.3866602382,31348.5985729945,23105.5923602924
8317955284,21552,-2,0,44125.0574356851,61940.5002482670,40564.7041714145,57780.2186921413,70780.7821949168,51101.6254276617,44167.8877285019,62444.1942259495,31349.1461193515,23101.6743619154
8317955284,21552,-2,0,44129.2309556954,61938.6872614404,40557.6590749540,57773.7454774315,70784.1526469368,51104.9107058039,44158.6524466132,62445.7516911429,31340.8112470278,23104.2052428546
8317988715,21553,-2,0,44124.0840199393,61932.8954377527,40558.0241058587,57769.4746158466,70779.6262637187,51097.0382059595,44154.7222805394,62446.5304237395,31344.6927423143,23093.2421480171
8317988715,21553,-2,0,44116.9780849947,61927.7850050871,40553.8627535453,57767.5034489613,70774.3576509943,51091.8182640224,44154.4667589062,62442.0162082182,31341.1276071452,23086.2457223440
8317988715,21553,-2,0,44121.7478221493,61929.6588303978,40550.6504815840,57769.5111189371,70775.9029484908,51098.2671433386,44154.4910942998,62441.8215250691,31330.0550030363,23088.6184232244
8317988715,21553,-2,0,44128.4035523114,61934.0148658604,40555.5175603132,57774.6215516027,70770.8168512189,51100.7250180968,44161.3536753079,62448.6232675931,31330.8459033298,23089.9812052686
8317988715,21553,-2,0,44130.9831040379,61933.8810211954,40560.1656204996,57778.4057053147,70776.0976316400,51104.8133642293,44167.2550082671,62450.9351299894,31337.7449874284,23090.5044162320
8317988715,21553,-2,0,44131.1656194902,61929.3668056740,40553.2178656137,57774.8040670551,70779.4559159631,51104.4483333246,44159.9422224765,62448.3312428693,31332.5372131882,23093.1326387457
8317988715,21553,-2,0,44132.9299355295,61928.8557624075,40552.5486422884,57777.2011033292,70787.1945711425,51106.1639785767,44158.4820988577,62451.3001608941,31338.2681983918,23093.4611665600
8317988715,21553,-2,0,44118.9614195768,61926.3613845588,40559.5572356584,57782.3967098726,70774.8565265641,51093.0472014015,44168.7516349763,62444.9607908494,31351.9081865303,23084.7977664220
8318022673,21554,-2,0,44111.3079382752,61918.7200709540,40546.7081478134,57771.5917950938,70759.4157192958,51081.5608956007,44163.4343514647,62431.0044425935,31335.8833298145,23081.5489913703
8318022673,21554,-2,0,44121.3219527605,61915.4712959022,40536.5967917535,57762.1739977529,70763.4310592473,51089.2630476896,44150.7312759815,62429.3253004319,31321.1117458715,23083.4714874683
8318022673,21554,-2,0,44119.4724628434,61912.3685332124,40545.0290056518,57762.1374946624,70762.7496682252,51093.4852384872,44149.1373076977,62430.3838900555,31330.4443693347,23081.0987865878
8318022673,21554,-2,0,44117.0632588724,61913.9625014962,40548.8496624542,57764.6440402079,70757.7365771342,51093.7407601204,44150.1472265340,62427.7191644513,31331.9166606502,23084.2867231555
8318022673,21554,-2,0,44133.4044757056,61924.1833668275,40550.9911770950,57773.3561111332,70767.0448652037,51105.8841215497,44156.0607271899,62440.4709107217,31326.7575571973,23098.1944006241
8318022673,21554,-2,0,44139.5734979949,61934.6597537920,40566.6875059966,57784.8180815404,70774.2846448134,51110.4835109488,44163.9575624280,62447.5646779695,31340.2150298835,23094.8482839978
8318022673,21554,-2,0,44127.6491551084,61930.5592399627,40570.0092872293,57782.2628652075,70764.4531457805,51105.2879044054,44166.0017354943,62442.7827731181,31351.1537893273,23087.2799765739
8318022673,21554,-2,0,44127.3084595973,61924.5727331258,40560.9808561867,57773.8793220965,70768.8335166367,51108.6948595158,44159.4433469067,62439.3028118267,31345.7756673316,23095.4566688389
8318073799,21555,-2,0,44131.4941473044,61924.6335716099,40559.9831050472,57773.3561111332,70767.2273806561,51102.8056942535,44157.5451862024,62441.4443264676,31346.9072631361,23103.0249762628
8318073799,21555,-2,0,44118.0366746183,61919.6934866998,40563.1953770085,57772.9789125316,70756.5928136328,51087.8880979486,44161.2928368238,62433.2189634152,31349.9248519482,23093.4124957727
8318073799,21555,-2,0,44107.7306354092,61913.9625014962,40555.0673555307,57764.9604003253,70750.0222573484,51090.1147864672,44155.7200316789,62420.6132295067,31336.2240253256,23089.8473606035
8318073799,21555,-2,0,44112.0866708718,61915.1062649976,40554.9213431689,57761.0180665547,70754.1714419651,51097.6709261943,44149.5023386024,62421.1729435605,31333.9243306260,23094.9212901787
8318073799,21555,-2,0,44110.3588579230,61910.2270185716,40559.4355586902,57755.4087583193,70738.6454608190,51082.7168267989,44140.0602058678,62416.3180325282,31336.2240253256,23092.2322291808
8318073799,21555,-2,0,44120.2755308337,61903.8998162236,40551.9037543568,57753.8756285196,70743.1353409467,51086.2576265743,44136.9696108748,62419.6276460640,31328.2420162097,23102.9032992946
8318073799,21555,-2,0,44136.7019215446,61913.3662843519,40553.0231824645,57764.3641831810,70756.4224658773,51095.5780823407,44140.6807584058,62427.0256057324,31329.8116490999,23106.8334653684
8318073799,21555,-2,0,44133.3071341310,61916.4933824354,40561.6500795120,57774.9987502042,70754.0010942096,51098.4374910941,44153.6150201285,62429.8971821826,31346.5665676251,23095.9312090150
8318078425,21556,-2,0,44118.0610100119,61909.5334598526,40558.9853539077,57768.1605045898,70740.0569136505,51089.6037432006,44154.8926282950,62420.7957449590,31344.5467299524,23091.3683227064
8318078425,21556,-2,0,44121.0299280367,61904.9097350599,40550.1394383174,57757.4650990824,70750.7401514610,51098.6078388496,44144.9881230811,62422.5600609984,31333.3159457849,23101.9298835487
8318078425,21556,-2,0,44122.9767595284,61907.9638269625,40557.8780934968,57760.2880047453,70756.5319751487,51103.4627498820,44144.5622536923,62427.5123136053,31342.5268922798,23104.4850998815
8318078425,21556,-2,0,44115.0920919871,61910.9692480778,40568.1354619186,57767.8076413819,70749.7058972310,51099.2162236908,44154.0652249110,62426.1982023484,31353.5994963887,23100.8956293188
8318078425,21556,-2,0,44119.3629535720,61916.2986992862,40566.2129658206,57768.7202186436,70750.4724621309,51098.6078388496,44155.8538763440,62422.9372595999,31345.3741333364,23113.0268230512
8318078425,21556,-2,0,44127.5153104433,61922.2730384263,40561.6744149056,57767.7346352009,70757.7000740437,51097.7317646784,44151.6925240305,62424.9814326661,31342.5633953703,23121.3251922845
8318078425,21556,-2,0,44129.2917941795,61920.1801945727,40562.7938430133,57764.7048786920,70740.3854414647,51090.2364634354,44151.0841391894,62427.0742765197,31342.5633953703,23126.3139479819
8318078425,21556,-2,0,44134.4387299356,61916.9922580051,40555.4567218291,57760.4218494104,70751.4458778767,51093.3270584285,44144.3188997558,62425.0422711502,31332.6345547628,23125.8029047153
8318135228,21557,-2,0,44138.5027406744,61920.6060639615,40557.1115285970,57764.7292140857,70760.3647996479,51097.0260382626,44143.4914963719,62427.2932950625,31330.8215679362,23117.8573986900
8318135228,21557,-2,0,44130.5694023459,61925.3514657225,40567.4054001092,57773.9766636711,70756.3981304837,51093.9476109664,44155.7200316789,62428.1085307496,31345.9946858744,23097.0384694259
8318135228,21557,-2,0,44115.2867751363,61919.0242633745,40565.8601026127,57768.6715478563,70746.2746067270,51086.0872788188,44157.0341429358,62418.2526963230,31342.1861967688,23084.6760894538
8318135228,21557,-2,0,44117.4404574739,61912.6362225425,40552.3052883519,57756.6620310921,70739.7892243204,51083.4955593955,44139.0746224251,62412.4122018480,31324.0441608058,23089.8473606035
8318135228,21557,-2,0,44130.4720607713,61912.2955270315,40548.4724638527,57757.3677575078,70735.9077290338,51081.9989326863,44134.4022268451,62421.0025958050,31316.7922134993,23102.4530945121
8318135228,21557,-2,0,44143.1994716481,61919.6569836093,40559.4720617806,57771.5917950938,70755.2543669823,51090.5893266433,44145.8885326460,62436.4190676797,31325.7719737546,23107.5270240873
8318135228,21557,-2,0,44143.1386331640,61927.9310174489,40566.8335183585,57781.7761573346,70769.3932306906,51095.1400452551,44155.0508083536,62437.6480050588,31332.5493808850,23100.1290644189
8318135228,21557,-2,0,44132.6987492899,61928.4177253219,40570.6298397673,57784.1123551246,70766.5703250276,51098.5104972750,44163.6412023106,62435.1292918164,31343.1231094242,23090.6625962907
8318156404,21558,-2,0,44120.0321768972,61920.7155732329,40569.8754425643,57779.2939471827,70751.0200084879,51094.3248095679,44166.9264804528,62427.4514751212,31351.3971432638,23085.0289526617
8318156404,21558,-2,0,44118.6207240658,61911.6749744935,40555.0186847434,57766.9924056947,70750.0709281357,51089.2022092055,44157.8372109261,62421.6718191303,31338.4750492378,23097.7685312353
8318156404,21558,-2,0,44128.5495646733,61914.8872464547,40546.0632598818,57765.4836112887,70760.1944518924,51090.3824757973,44152.6294366859,62428.0476922655,31330.0306676427,23105.4585156274
8318156404,21558,-2,0,44126.4567208197,61918.7687417413,40552.5851453789,57771.9324906049,70752.2489458670,51092.8890213428,44158.9201359433,62430.1770392095,31339.7283220106,23098.1335621400
8318156404,21558,-2,0,44127.7829997734,61923.0882741134,40558.2552920984,57772.3218569032,70753.3562062779,51100.4451610699,44161.0981536747,62429.3983066128,31341.5656442308,23097.3061587560
8318156404,21558,-2,0,44141.4838263961,61930.5105691754,40562.9276876784,57772.3218569032,70766.2052941230,51109.6196044744,44155.0508083536,62433.0121125693,31338.9130863234,23103.1223178374
8318156404,21558,-2,0,44147.4216624457,61936.5944175869,40575.3022353473,57776.6657246690,70770.3666464364,51108.9017103618,44156.5717704565,62439.2419733426,31349.7545041927,23098.3890837732
8318156404,21558,-2,0,44141.1796339755,61934.9274431221,40576.1053033376,57777.2862772070,70757.7244094374,51099.0458759352,44159.6380300559,62436.5407446479,31350.1317027942,23097.4886742084
8318187646,21559,-2,0,44153.7610324904,61942.6417629079,40571.4085723640,57782.1776913298,70765.6942508564,51107.7701145573,44159.4433469067,62439.7651843060,31336.1875222351,23107.4418502095
8318187646,21559,-2,0,44161.5118553666,61953.5683546549,40577.8087808928,57791.5346501866,70777.1562212636,51115.8372975509,44167.1211636020,62451.2514901068,31345.6661580602,23110.4229359311
8318187646,21559,-2,0,44147.9205380154,61949.4313377351,40584.1603186344,57789.6364894822,70774.4063217816,51108.2811578239,44170.1752555046,62444.8512815780,31359.3913200764,23101.1754863457
8318187646,21559,-2,0,44138.8799392760,61936.8134361297,40571.3112307894,57777.4566249625,70763.9664379075,51099.4109068399,44156.8759628771,62431.9291875520,31344.4007175906,23101.6256911281
8318187646,21559,-2,0,44150.2445681086,61937.6408395136,40569.4495731755,57777.2497741165,70772.6906765296,51111.4082559074,44153.6636909158,62434.8007640022,31339.2781172281,23107.4905209968
8318187646,21559,-2,0,44148.3707427979,61940.8044406876,40578.7456935482,57787.0447700590,70760.8271721272,51103.8399484835,44162.9598112886,62436.1635460464,31349.9978581291,23099.6423565460
8318187646,21559,-2,0,44152.0453872384,61942.2158935191,40573.1242176160,57788.9307630665,70757.3472108359,51108.6218533349,44168.4717779494,62441.8945312500,31342.1496936783,23112.0655750022
8318187646,21559,-2,0,44168.9706535191,61952.6922804836,40574.7425212934,57792.0578611500,70783.2035665846,51132.7990669221,44167.4375237194,62453.6120232905,31346.6395738060,23130.3779587208
8318210093,21560,-2,0,44168.0702439542,61958.4841041713,40593.6267867626,57798.7379267058,70784.5663486288,51127.2262617772,44171.0756650695,62459.5741947337,31364.6599328008,23130.5604741731
8318210093,21560,-2,0,44156.3527519137,61946.3164073484,40590.8768872807,57789.1984523966,70771.1575467299,51105.5799291292,44167.0481574211,62449.6818572167,31360.4377420032,23125.0606752091
8318210093,21560,-2,0,44150.7191082847,61937.7260133914,40574.7546889903,57780.4377106841,70769.2107152382,51097.9994540085,44159.1026513957,62439.1933025553,31343.1717802115,23111.8587241562
8318210093,21560,-2,0,44140.6077522248,61934.8787723348,40575.0588814108,57780.3282014127,70765.2927168612,51095.0792067710,44162.1324079046,62436.2000491369,31344.4980591652,23094.6901039391
8318210093,21560,-2,0,44124.5220570249,61926.7994216444,40574.3896580856,57774.6945577837,70752.1029335052,51092.2197980176,44162.7042896553,62427.9016799036,31345.6053195760,23082.7900964462
8318210093,21560,-2,0,44124.6559016899,61920.7399086266,40565.1543761970,57763.1230781051,70757.2620369581,51104.5091718087,44146.5942590617,62421.6718191303,31333.5471320245,23092.2930676650
8318210093,21560,-2,0,44143.0291238926,61932.7859284813,40572.2481434447,57770.9590748590,70771.7537638742,51116.6647009349,44148.4315812820,62436.1392106527,31340.3002037612,23103.1588209278
8318210093,21560,-2,0,44146.0832157951,61939.4173232498,40577.6871039246,57783.6256472517,70757.6270678628,51101.3455706348,44160.6114458017,62438.8161039538,31348.7810884468,23099.8735427856
8318240104,21561,-2,0,44149.4658355119,61937.1784670344,40563.0858677371,57784.8302492372,70760.3769673448,51094.0571202378,44157.6546954738,62434.0585344960,31332.9022440929,23104.1565720673
8318240104,21561,-2,0,44156.7907889993,61941.3276516510,40559.0948631791,57784.3800444547,70773.6397568818,51105.3122397991,44152.6172689891,62440.1058798170,31334.7030632227,23111.5180286452
8318240104,21561,-2,0,44146.3630728221,61939.1374662229,40568.1597973122,57781.6301449727,70768.4441503384,51102.4406633488,44151.6681886369,62437.1491294891,31349.1826224420,23103.7793734658
8318240104,21561,-2,0,44133.0637801946,61931.3744756498,40567.8921079821,57774.2686883949,70762.4089727142,51099.1675529035,44153.2134861334,62433.5109881390,31347.5643187645,23099.3746672159
8318240104,21561,-2,0,44139.2449701806,61934.9396108189,40566.3833135761,57777.7364819894,70770.0867894095,51103.6696007280,44154.7101128426,62434.0463667992,31341.8820043482,23102.6721130549
8318240104,21561,-2,0,44139.5856656917,61938.4560752008,40573.7204347603,57785.3169571101,70766.1809587293,51099.4474099304,44163.9332270344,62435.0927887260,31352.4922359778,23097.4278357242
8318240104,21561,-2,0,44129.6568250842,61931.1311217134,40569.3887346913,57780.5107168650,70742.8189808293,51092.9620275238,44165.3081767754,62431.6980013124,31353.0762854253,23097.9023759003
8318240104,21561,-2,0,44144.3675705431,61929.9630228184,40556.6126530273,57771.6404658811,70763.0660283426,51106.9305434765,44152.6659397764,62437.5384957874,31337.1487702841,23115.0344930270
8318296164,21562,-2,0,44155.0021375664,61937.2636409121,40563.5604079132,57777.2011033292,70777.7524384079,51114.4258447194,44152.3252442653,62447.7836965123,31343.7071588717,23118.7821436485
8318296164,21562,-2,0,44146.1683896729,61943.1284707808,40576.1418064281,57785.9861804354,70777.4847490778,51112.3208331691,44163.7020407948,62448.8422861359,31361.2043069031,23107.7582103269
8318296164,21562,-2,0,44137.9186912269,61941.1208008050,40571.5059139385,57782.5427222345,70773.0313720406,51105.5555937355,44166.5006110640,62438.8039362570,31353.5264902078,23097.2331525751
8318296164,21562,-2,0,44139.3423117552,61938.9914538610,40566.2129658206,57780.9365862538,70770.7803481284,51108.2811578239,44163.2640037091,62437.8061851175,31347.8076727010,23095.4079980516
8318296164,21562,-2,0,44138.2472190412,61936.3997344377,40571.3477338798,57781.9951758774,70759.8780917750,51096.6366719643,44161.4631845793,62437.0274525208,31354.7675952837,23097.1966494846
8318296164,21562,-2,0,44142.5302483228,61927.5659865442,40561.7230856929,57777.8459912608,70760.5594827971,51097.5857523165,44158.2387449213,62439.8381904869,31340.6652346659,23110.5811159898
8318296164,21562,-2,0,44163.2396683155,61935.9738650489,40557.6712426508,57784.0271812469,70775.3797375275,51110.1914862251,44155.8417086471,62452.8697937843,31331.5881328360,23126.5451342215
8318296164,21562,-2,0,44164.9918166580,61948.9446298622,40577.9669609515,57799.8816902072,70789.9201352309,51120.1811653167,44168.6786287953,62464.1005779519,31355.7653464232,23117.9912433550
8318307450,21563,-2,0,44149.1251400009,61946.7301090404,40586.7398703609,57796.0853687984,70776.5843395129,51112.1504854135,44173.7768937642,62453.8797126206,31363.7838586295,23105.0691493290
8318307450,21563,-2,0,44148.0422149836,61939.2104724038,40576.2513156995,57783.6256472517,70776.4504948479,51108.7070272127,44161.0373151905,62443.0869655386,31351.9568573176,23105.1543232068
8318307450,21563,-2,0,44149.4901709056,61936.7891007360,40574.8033597776,57779.4886303319,70775.5135821925,51104.6186810802,44155.7687024662,62442.8922823895,31353.2953039681,23103.2318271088
8318307450,21563,-2,0,44138.4297344935,61931.0702832293,40574.2436457237,57780.5715553492,70768.4319826416,51097.4154045610,44159.6501977527,62437.3073095478,31356.8117683500,23096.2597368292
8318307450,21563,-2,0,44139.5856656917,61928.8557624075,40565.0083638351,57777.1037617546,70753.7455725763,51097.6100877101,44154.2964111506,62430.9801071998,31342.6364015512,23104.3512552165
8318307450,21563,-2,0,44157.3383353564,61935.8765234743,40562.5869921673,57782.4210452662,70765.0493629248,51116.7133717222,44156.1702364614,62445.8368650206,31340.7990793310,23118.4779512279
8318307450,21563,-2,0,44159.0053098211,61937.7138456946,40575.5455892837,57788.5413967682,70773.5667507008,51119.0617372090,44162.1445756014,62456.0820657456,31355.8748556946,23112.3454320292
8318307450,21563,-2,0,44149.6483509643,61932.6642515131,40578.2468179784,57784.6355660880,70776.6451779970,51111.2135727582,44160.1490733225,62451.3731670751,31355.7896818168,23105.8357142289
8318357138,21564,-2,0,44147.7380225631,61930.4618983881,40570.1187965007,57779.5251334224,70776.4991656352,51103.7182715153,44152.4590889304,62445.4109956318,31343.5124757225,23108.2327505030
8318357138,21564,-2,0,44139.6708395695,61933.4186487161,40575.0467137140,57785.7306588021,70773.3964029453,51105.4704198578,44161.6335323349,62444.7174369129,31352.1637081636,23102.2705790598
8318357138,21564,-2,0,44127.4301365656,61930.2915506326,40571.4694108481,57783.3822933153,70762.5549850761,51104.4483333246,44166.3059279149,62438.3172283841,31353.0762854253,23096.7099416117
8318357138,21564,-2,0,44130.8614270696,61925.3392980256,40559.4355586902,57772.2488507223,70764.2219595408,51105.1297243467,44154.8561252045,62434.3627269166,31339.9108374629,23103.2561625024
8318357138,21564,-2,0,44139.6343364790,61929.3911410677,40565.2760531652,57773.6724712505,70761.5937370271,51106.1153077894,44150.8042821624,62438.1955514158,31346.3353813854,23106.4684344637
8318357138,21564,-2,0,44145.3409862889,61929.4154764613,40567.6852571361,57777.6391404148,70759.8780917750,51108.0864746747,44151.7411948178,62438.3415637777,31344.9482639476,23113.7812202543
8318357138,21564,-2,0,44154.7831190235,61937.7381810882,40570.1431318944,57783.5283056771,70761.8127555699,51107.9526300096,44150.4635866514,62439.8625258806,31338.2681983918,23122.5054588763
8318357138,21564,-2,0,44158.7254527942,61942.5809244238,40574.5235027506,57784.5138891198,70763.5405685187,51109.9602999854,44154.5032619966,62446.8954546442,31340.2393652771,23122.5419619668
8318368668,21565,-2,0,44149.5388416929,61942.3619058809,40580.1814817733,57780.9730893443,70766.7771758736,51111.6516098438,44158.4212603736,62447.9175411774,31350.4602306084,23114.7303006065
8318368668,21565,-2,0,44136.4220645177,61937.4948271518,40576.2999864868,57770.3263546242,70773.5424153072,51113.2455781276,44151.2301515512,62444.1698905559,31352.6747514302,23110.7149606549
8318368668,21565,-2,0,44133.3193018279,61936.1198774108,40573.8542794254,57769.7301374799,70780.3684932249,51113.8661306656,44148.4194135851,62445.9828773825,31355.4368186090,23109.5955325472
8318368668,21565,-2,0,44134.3657237547,61938.3465659294,40580.8993758858,57780.8027415888,70773.5180799135,51111.4812620883,44162.3635941442,62446.8467838569,31369.1254775348,23100.1047290253
8318368668,21565,-2,0,44136.2638844590,61935.8035172934,40575.6429308583,57782.5062191440,70764.8911828661,51107.2225682003,44166.3302633085,62437.9643651762,31360.2673942477,23098.3525806828
8318368668,21565,-2,0,44146.7159360299,61933.1996301733,40560.0561112281,57776.3736999452,70765.2197106803,51106.3586617258,44157.1071491167,62434.1802114643,31341.7116565927,23107.2228316667
8318368668,21565,-2,0,44147.9692088027,61931.8490158259,40560.7496699471,57772.4678692651,70765.3413876485,51107.5267606208,44154.0895603046,62437.4046511223,31346.1285305394,23109.3886817012
8318368668,21565,-2,0,44144.5987567827,61930.4253952976,40566.0547857619,57772.2366830254,70762.2142895650,51105.7989476720,44156.4865965788,62436.0418690782,31352.2367143445,23109.1939985520
8318417634,21566,0,0,44155.3184976838,61934.1243751318,40558.9366831204,57772.5773785365,70760.1336134083,51101.3212352411,44154.2112372729,62438.1468806285,31337.6841489443,23118.8429821326
8318417634,21566,0,0,44165.2838413817,61946.2190657738,40567.6244186520,57784.0150135500,70780.2346485598,51109.5587659903,44160.6479488922,62448.1487274170,31344.7657484953,23118.8551498294
8318417634,21566,0,0,44145.7790233746,61942.0698811572,40578.5875134895,57785.1344416578,70773.8831108182,51107.4537544399,44165.7827169515,62443.8535304385,31358.2840596655,23102.9032992946
8318417634,21566,0,0,44134.3900591483,61930.7904262023,40570.1918026817,57772.0054967858,70767.6410823481,51107.4537544399,44154.4910942998,62431.1139518649,31347.3087971313,23101.2849956171
8318417634,21566,0,0,44144.3919059368,61931.8976866132,40563.6212463973,57769.3407711816,70760.7054951590,51109.7899522299,44147.5190040203,62430.3838900555,31336.7837393794,23111.4936932516
8318417634,21566,0,0,44159.7597070241,61943.8098618029,40571.5789201195,57783.6378149485,70763.0538606458,51110.2401570123,44159.8083778114,62442.8071085117,31341.0180978738,23118.8429821326
8318417634,21566,0,0,44166.1599155530,61952.9478021169,40575.1562229854,57792.4228920547,70779.3342389949,51107.9769654033,44165.6853753769,62444.7782753970,31343.5733142066,23118.1250880201
8318417634,21566,0,0,44159.9300547797,61953.7752055009,40573.5014162175,57789.7825018441,70783.8484545162,51113.3672550958,44163.7872146725,62444.3645737051,31347.2966294344,23111.5180286452
8318435164,21567,0,0,44153.2743246175,61946.5719289817,40578.5023396117,57787.5801487192,70773.7492661532,51114.6570309591,44161.4875199730,62444.1942259495,31358.4787428147,23103.5360195294
8318435164,21567,0,0,44147.2634823870,61939.1618016165,40577.6384331373,57783.8203304009,70773.5302476104,51111.8462929930,44158.3847572831,62440.0085382424,31361.3989900522,23101.6013557345
8318435164,21567,0,0,44145.0124584747,61935.1221262713,40565.8114318254,57779.9753382048,70778.5555063982,51111.9071314771,44152.7997844414,62435.4943227211,31349.9126842514,23104.0348950991
8318435164,21567,0,0,44146.6550975458,61940.1230496655,40571.0192060656,57787.3732978732,70777.3630721096,51112.8927149197,44162.5217742029,62439.0837932839,31355.0961230979,23099.7153627269
8318435164,21567,0,0,44140.7780999803,61942.4105766682,40575.7159370393,57789.2471231839,70770.2693048618,51110.1671508314,44172.2437639645,62436.9057755526,31358.2840596655,23098.8271208589
8318435164,21567,0,0,44143.5401671591,61937.5191625454,40567.6974248329,57776.9455816959,70770.2693048618,51108.8773749682,44159.1513221830,62431.9535229457,31342.2105321624,23113.6595432860
8318435164,21567,0,0,44152.9092937128,61938.5534167754,40567.0647045982,57772.5287077492,70778.5920094887,51112.1018146263,44151.2058161576,62440.6534261741,31340.6165638786,23124.9024951504
8318435164,21567,0,0,44143.7956887924,61938.2005535675,40573.2580622810,57775.6071350454,70764.0637794821,51097.5857523165,44151.1936484608,62437.1004587018,31348.3430513612,23118.6726343771
8318461246,21568,0,0,44141.4594910024,61935.7913495966,40559.8005895949,57772.8085647761,70760.3526319511,51096.9773674753,44149.1859784850,62437.9887005698,31332.2086853740,23127.5428853610
8318461246,21568,0,0,44149.3076554532,61947.6183509085,40561.9177688421,57776.3371968548,70782.4735047752,51120.2541714976,44149.0764692136,62447.0901377934,31335.9076652082,23132.6776534203
8318461246,21568,0,0,44140.5104106502,61948.4579219892,40576.2026449122,57779.2939471827,70781.0742196406,51122.4078538353,44157.2653291754,62446.1045543507,31355.6315017581,23123.2720237762
8318461246,21568,0,0,44133.4044757056,61936.6065852837,40571.1043799434,57768.6593801595,70763.9055994234,51106.9427111733,44149.7091894484,62430.8827656252,31353.6846702665,23115.1074992080
8318461246,21568,0,0,44153.6880263095,61934.7327599730,40557.1358639906,57769.6571312990,70760.5716504939,51112.9413857070,44148.0057118932,62436.3703968924,31334.6178893449,23128.1391025053
8318461246,21568,0,0,44170.9539881012,61949.7476978525,40566.9308599331,57789.5269802108,70780.7578595232,51128.9662424229,44158.1414033467,62450.9716330799,31348.4282252390,23130.8646665937
8318461246,21568,0,0,44157.4478446278,61956.1844094718,40581.1183944287,57795.7203378937,70785.5762674651,51126.8003923884,44170.5281187124,62452.6021044542,31366.7649443511,23112.4914443910
8318461246,21568,0,0,44145.8763649492,61948.7012759257,40574.4748319633,57785.7428264989,70782.8628710736,51123.2717603097,44165.3933506531,62444.0968843750,31359.9632018271,23103.8280442531
8318496997,21569,0,0,44144.4892475113,61941.1208008050,40567.7460956202,57776.0086690406,70771.1088759426,51112.4668455309,44157.6303600801,62444.1577228591,31349.9248519482,23107.6243656619
8318496997,21569,0,0,44146.7767745141,61941.4371609224,40572.3698204130,57780.7054000142,70779.6992698996,51110.3983370710,44164.3712641200,62450.1563973928,31359.4034877733,23106.7604591874
8318496997,21569,0,0,44147.4581655361,61941.2911485605,40566.8821891458,57782.2628652075,70782.0476353864,51106.3708294227,44167.6078714749,62445.5570079937,31353.0884531222,23101.3823371917
8318496997,21569,0,0,44149.8430341134,61943.5300047759,40560.9078500058,57781.3381202490,70777.8619476793,51104.7403580484,44163.9818978217,62441.5781711326,31348.1970389993,23100.0803936316
8318496997,21569,0,0,44145.4869986508,61938.5777521690,40562.8181784070,57778.5395499797,70766.1687910325,51108.3541640048,44167.4131883258,62444.8999523653,31353.9280242029,23103.7550380722
8318496997,21569,0,0,44146.1805573697,61937.3731501835,40559.8979311694,57773.2222664681,70775.5500852830,51112.6980317706,44158.6037758259,62444.4375798860,31350.1317027942,23112.0412396086
8318496997,21569,0,0,44154.5397650871,61943.0676322967,40558.5351491253,57777.9189974418,70782.2544862324,51113.0265595848,44156.9002982707,62450.8256207180,31348.2335420898,23117.0786660933
8318496997,21569,0,0,44164.7119596311,61955.2109937260,40568.9750329994,57795.9515241334,70787.0972295680,51116.9323902650,44173.6673844927,62461.1073245334,31361.2773130840,23114.7911390906
8318542491,21570,0,0,44159.5893592686,61958.1799117508,40573.3797392493,57798.9082744613,70781.7434429659,51111.6759452375,44182.4889646894,62454.6341098236,31362.4819150695,23105.2881678719
8318542491,21570,0,0,44157.7033662610,61954.0063917405,40563.0980354339,57786.7527453352,70787.0242233870,51115.8859683382,44172.6087948692,62449.9860496373,31349.4259763784,23106.3954282827
8318542491,21570,0,0,44160.3437564716,61954.7364535499,40564.9596930478,57785.0492677800,70792.1589914463,51123.7828035763,44167.6322068686,62453.3930047477,31355.0352846138,23106.0547327717
8318542491,21570,0,0,44153.1283122556,61952.1082310361,40569.6199209310,57785.3656278974,70784.8583733525,51114.4501801131,44169.3356844238,62452.4804274860,31359.8536925557,23100.2020705999
8318542491,21570,0,0,44163.9940655185,61959.1898305871,40568.6951759724,57792.0335257564,70792.2319976272,51120.3150099817,44173.3510243754,62455.2546623616,31351.9690250144,23113.0268230512
8318542491,21570,0,0,44183.7544051590,61972.7446448478,40576.9935452057,57803.5441669509,70800.4816960732,51134.9527492597,44179.0455064885,62469.3691906762,31351.9203542271,23129.0395120702
8318542491,21570,0,0,44192.0406066954,61984.2309506487,40593.1887496770,57815.0791435390,70814.6692305687,51142.4602181995,44190.2397875656,62480.3566209073,31372.7514511880,23129.6235615177
8318542491,21570,0,0,44182.8418278972,61980.7266539637,40592.9697311342,57807.6325130834,70812.9414176199,51139.5764740525,44186.1514414331,62474.7229772783,31374.1750717163,23124.4279549743
8318554028,21571,0,0,44193.7075811601,61981.7974112841,40584.3428340867,57805.1259675379,70811.1527661869,51137.9460026782,44180.1040961121,62479.5292175234,31361.4354931427,23131.5703930094
8318554028,21571,0,0,44196.7616730627,61990.3756375443,40592.7385448946,57816.0160561944,70819.5606446916,51138.0190088591,44189.7774150863,62489.4458904341,31373.1408174864,23126.1801033168
8318554028,21571,0,0,44183.8882498240,61990.9718546886,40601.6939697562,57821.4063458869,70817.6138131999,51141.2312808204,44200.7526776206,62483.9217560764,31381.5486959910,23113.3310154718
8318554028,21571,0,0,44183.1095172274,61985.9100928102,40597.8976483475,57814.6532741502,70815.1924415321,51146.9744337208,44194.9730216297,62476.2561070780,31374.1385686258,23111.2381716183
8318554028,21571,0,0,44190.3006260497,61981.9434236460,40597.3622696873,57812.8889581109,70815.9468387352,51143.3849631580,44191.6634080939,62476.7428149509,31376.0123939366,23112.9416491735
8318554028,21571,0,0,44186.2731184013,61973.9005760460,40591.6799552710,57809.1169720958,70812.2235235073,51133.6264703060,44187.8427512915,62474.1024247403,31375.3675060050,23111.2746747087
8318554028,21571,0,0,44188.6458192818,61975.0321718505,40581.6416053920,57808.1678917436,70815.6548140114,51134.4660413868,44184.9955102349,62472.2164317328,31361.4841639300,23116.0809149538
8318554028,21571,0,0,44187.5142234773,61980.9456725065,40585.9246346737,57811.8912069714,70806.3830290323,51129.7693104132,44184.2532807287,62471.4133637425,31360.2430588540,23115.3508531444
8318585449,21572,0,0,44182.6471447481,61976.3706185011,40587.6037768353,57808.6180965260,70794.2518352998,51128.2361806135,44187.8305835947,62477.2051874302,31361.9222010156,23120.9844967734
8318585449,21572,0,0,44181.5885551245,61973.1826819335,40587.5064352607,57804.6149242713,70814.3285350577,51138.1771889178,44182.2821138434,62478.6166402616,31363.6986847518,23124.0385886760
8318585449,21572,0,0,44179.0333387917,61976.6991463153,40594.7218794767,57807.8758670198,70828.4065602818,51144.8572544736,44183.4380450416,62484.6761532795,31376.0245616334,23119.6460501229
8318585449,21572,0,0,44163.3248421933,61978.7919901688,40603.7138074289,57813.2053182283,70817.5529747158,51133.2127686141,44194.1091151553,62481.0136765358,31391.5262073858,23106.2129128304
8318585449,21572,0,0,44159.5041853908,61975.0808426378,40593.0062342247,57807.9975439881,70802.3676890807,51128.6012115182,44198.5503244957,62475.1853497576,31375.0024751003,23111.7127117944
8318585449,21572,0,0,44179.9094129629,61982.3449576411,40586.4356779403,57807.6081776897,70822.3592149608,51141.6328148155,44192.0162713017,62478.5679694744,31364.5625912262,23120.2057641768
8318585449,21572,0,0,44182.9513371687,61985.6059003897,40594.9774011100,57812.4509210253,70820.8382528580,51141.2434485172,44191.7729173653,62483.0578496020,31379.2855043819,23117.9060694772
8318585449,21572,0,0,44172.4506148105,61976.6748109216,40593.0792404056,57806.5130849757,70812.5885544120,51130.9739123986,44188.1347760152,62477.2781936111,31379.5653614089,23116.3729396776
8318617665,21573,0,0,44177.4150351142,61972.9393279970,40582.0066362967,57803.0696267748,70812.0531757518,51131.9473281445,44181.4425427626,62474.2606047990,31362.7861074900,23127.0683451849
8318617665,21573,0,0,44182.7688217163,61980.0087598511,40590.1711608649,57810.0782201448,70821.2884576404,51140.9879268839,44187.1370248757,62480.5026332692,31370.6464396377,23129.7817415764
8318617665,21573,0,0,44171.9639069375,61975.2633580902,40596.2306738827,57811.6478530349,70807.8066495606,51126.6908831170,44189.6070673308,62471.8514008281,31379.1638274137,23117.0178276092
8318617665,21573,0,0,44171.7327206979,61961.5868668612,40581.3130775778,57796.5234058840,70802.0756643570,51121.4101026958,44176.5146255493,62459.5620270369,31363.5526723899,23115.7767225332
8318617665,21573,0,0,44183.7909082494,61959.2750044648,40575.9106201884,57794.2358788813,70808.6948914287,51128.0049943738,44166.9873189370,62459.4403500687,31355.9843649660,23122.8096512969
8318617665,21573,0,0,44180.6029716818,61961.8302207977,40583.6857784583,57797.6915047790,70792.1103206590,51118.2708369155,44167.9485669860,62458.5886112911,31360.0727110985,23114.5356174573
8318617665,21573,0,0,44182.5863062640,61964.0204062258,40580.3031587415,57797.1561261188,70790.0661475927,51126.7517216011,44170.3212678664,62464.3560995852,31349.5111502562,23123.6127192872
8318617665,21573,0,0,44198.8058461289,61976.3219477138,40587.0683981751,57806.8172773962,70820.1933649264,51148.4588927332,44174.7868126005,62478.7748203203,31355.4611540026,23136.1089439244
8318671098,21574,0,0,44187.8549189883,61979.0231764085,40598.8832317902,57812.3049086634,70818.4533842807,51144.3340435102,44183.1703557115,62482.8996695433,31376.6329464745,23131.0471820460
8318671098,21574,0,0,44167.1211636020,61964.3611017368,40591.6556198773,57804.5419180903,70805.4582840738,51130.5967137971,44181.1991888262,62467.1181667640,31380.9281434530,23119.0741683722
8318671098,21574,0,0,44165.2230028976,61953.1911560534,40573.0512114350,57794.1750403972,70798.3523491292,51125.5714550093,44172.8886518961,62456.2402458042,31363.7595232359,23116.7988090664
8318671098,21574,0,0,44169.7858892062,61954.6756150658,40574.1949749364,57800.8672736498,70795.8701389773,51124.9630701681,44177.0743396032,62455.4493455108,31362.7861074900,23109.9118926646
8318671098,21574,0,0,44164.9188104771,61952.3029141853,40576.5920112105,57800.6360874102,70788.7642040327,51118.7940478789,44183.5475543130,62451.6530241020,31361.0582945412,23099.5328472746
8318671098,21574,0,0,44166.8899773624,61947.8982079354,40567.2350523537,57788.0911919857,70790.0053091086,51115.0098941669,44173.2171797103,62448.0027150551,31343.2082833019,23102.0758959106
8318671098,21574,0,0,44178.1207615299,61943.2136446586,40553.2543687041,57780.2065244445,70785.3329135286,51100.4573287667,44158.0927325594,62449.9495465468,31327.6823021558,23103.4508456516
8318671098,21574,0,0,44182.1361014815,61942.5930921206,40550.4557984348,57783.5526410708,70783.9092930003,51091.2098791813,44159.2486637576,62451.0446392609,31330.5295432124,23100.9929708934
8318686421,21575,0,0,44178.3641154664,61942.7147690888,40547.4260419259,57784.4165475452,70780.1981454693,51090.3581404037,44159.5406884813,62441.3956556803,31326.8183956814,23100.7739523505
8318686421,21575,0,0,44175.1275081115,61946.7666121309,40551.4535495743,57785.7063234084,70784.6028517192,51097.6830938911,44161.0859859778,62436.1878814400,31330.6268847870,23102.6842807517
8318686421,21575,0,0,44158.1535710435,61940.6340929321,40557.4157210176,57783.1267716820,70775.6717622512,51097.2572245023,44161.7065385158,62430.6029085983,31341.8820043482,23097.2088171814
8318686421,21575,0,0,44145.5478371349,61930.7295877182,40552.2687852615,57771.6404658811,70765.9984432770,51093.2418845507,44152.7997844414,62421.8543345826,31334.6178893449,23097.0141340323
8318686421,21575,0,0,44159.1999929703,61932.0923697624,40545.0533410455,57769.3042680911,70776.2436440019,51099.5934222923,44142.4694098387,62423.0102657808,31322.4015217347,23110.2890912661
8318686421,21575,0,0,44166.6587911227,61938.6872614404,40551.9889282345,57780.8027415888,70773.0922105247,51099.3257329622,44148.0543826805,62429.5078158843,31329.9819968554,23112.4184382101
8318686421,21575,0,0,44165.5636984087,61939.1131308292,40556.1989513353,57785.9496773449,70767.0935359910,51099.2648944781,44156.7421182120,62433.0121125693,31330.2861892760,23112.7347983275
8318686421,21575,0,0,44170.3577709569,61940.4394097829,40556.4301375749,57783.1389393788,70780.0643008043,51110.5930202202,44153.5055108571,62433.4501496549,31329.2397673492,23113.7690525574
8318715224,21576,0,0,44166.6709588196,61935.3411448141,40561.3093840009,57776.5683830944,70777.5212521683,51105.7867799752,44148.3950781915,62433.9003544373,31338.7549062647,23113.0998292322
8318715224,21576,0,0,44149.9282079912,61922.9300940547,40560.0074404409,57769.5597897244,70761.3747184843,51087.3527192884,44149.3684939373,62422.5478933015,31346.2137044172,23104.8866338767
8318715224,21576,0,0,44144.9759553843,61917.9535060541,40551.1736925474,57766.0554930394,70758.4423035499,51085.7465833078,44148.9669599422,62413.9696670414,31335.4452927289,23109.7172095154
8318715224,21576,0,0,44151.6560209400,61922.1878645485,40549.1538548748,57767.4547781740,70760.8515075209,51091.4045623304,44147.9570411059,62414.8944119999,31327.7309729431,23110.9826499850
8318715224,21576,0,0,44147.1418054187,61922.7475786024,40555.0065170466,57766.4813624282,70747.9172457981,51090.6623328242,44147.9813764995,62415.9895047140,31333.8148213546,23107.1254900921
8318715224,21576,0,0,44154.5397650871,61917.1504380638,40542.8266525269,57758.7548749456,70745.9095758223,51095.7362623994,44138.4297344935,62419.7493230323,31321.2212551429,23120.0475841181
8318715224,21576,0,0,44182.2821138434,61932.8954377527,40543.0091679792,57769.1339203356,70775.6474268576,51117.7962967394,44137.2251325080,62439.8381904869,31324.0198254121,23137.7637506923
8318715224,21576,0,0,44184.2776161224,61951.0739768062,40565.7870964317,57790.2448743234,70792.0373144781,51122.6390400749,44156.1337333709,62451.7260302829,31355.3638124280,23131.1323559238
8318741702,21577,0,0,44163.2640037091,61949.3583315541,40571.3112307894,57792.3742212674,70767.0083621133,51107.3807482590,44165.3933506531,62438.8526070443,31362.1655549521,23121.5685462210
8318741702,21577,0,0,44159.5163530877,61938.4195721103,40558.6324906999,57779.4034564542,70769.0890382700,51109.5344305966,44153.8705417618,62429.1184495859,31344.2425375319,23127.3968729991
8318741702,21577,0,0,44156.4500934883,61933.1996301733,40563.1223708275,57774.6458869964,70772.9340304660,51115.7886267636,44147.9692088027,62430.2622130873,31349.9126842514,23127.3482022118
8318741702,21577,0,0,44141.1552985818,61926.1910368033,40566.5171582411,57770.9834102527,70766.8015112673,51103.2437313392,44148.6505998248,62427.2081211847,31354.2565520172,23116.4094427680
8318741702,21577,0,0,44140.4130690757,61925.6799935367,40554.3372937214,57766.9315672106,70766.0957848516,51092.7065058905,44144.7812722351,62422.5600609984,31335.9198329050,23113.4891955305
8318741702,21577,0,0,44157.3870061437,61937.5800010295,40552.7798285280,57776.1546814024,70773.7005953659,51097.3910691673,44149.8673695071,62431.3694734982,31330.6998909679,23114.7789713937
8318741702,21577,0,0,44158.6037758259,61943.2258123554,40560.3116328614,57779.4277918478,70761.8249232667,51097.1477152309,44158.0683971657,62434.9102732736,31339.8986697661,23110.3620974470
8318741702,21577,0,0,44160.7817935573,61938.3830690198,40551.7577419949,57773.3439434363,70761.2165384255,51100.7250180968,44150.5365928323,62432.6105785741,31328.0108299701,23117.6748832376
8318782427,21578,0,0,44189.5462288467,61947.1316430355,40550.9181709141,57780.7905738920,70783.3860820370,51117.1392411110,44147.0201284505,62447.9540442678,31326.5385386545,23137.4473905749
8318782427,21578,0,0,44191.6999111843,61959.7860477314,40573.9394533031,57801.8771924861,70800.3721868018,51123.6124558208,44163.7628792789,62457.5908601516,31354.3903966822,23123.2720237762
8318782427,21578,0,0,44170.3942740474,61957.5715269096,40582.5176795633,57802.1692172099,70786.9755525997,51108.0134684938,44174.0567507911,62443.2329779005,31362.0073748934,23101.5770203409
8318782427,21578,0,0,44165.2108352008,61951.4998461950,40571.0070383688,57791.8266749104,70780.6970210391,51104.5091718087,44168.6056226144,62431.5884920410,31348.3308836644,23100.2507413872
8318782427,21578,0,0,44168.9341504286,61950.6724428110,40570.0701257134,57788.6995768269,70780.4536671026,51110.3131631933,44163.8358854598,62433.7300066818,31348.4768960263,23102.0150574265
8318782427,21578,0,0,44166.6587911227,61947.6670216957,40571.2990630925,57786.6189006702,70773.9561169992,51109.6074367776,44162.0472340268,62433.0486156597,31350.6792491512,23105.1421555100
8318782427,21578,0,0,44180.3717854422,61948.4214188988,40560.3603036487,57782.7374053836,70764.9885244407,51107.2712389876,44155.2819945933,62434.7034224276,31335.7616528463,23121.2886891940
8318782427,21578,0,0,44197.0050269992,61958.6787873205,40559.3990555997,57792.5202336293,70788.0828130106,51110.8972126408,44161.8282154840,62447.7350257250,31336.1145160541,23126.9588359135
8318820093,21579,0,0,44189.6679058149,61962.1100778246,40568.4031512487,57799.9181932976,70784.0553053622,51101.7714400236,44174.4826201799,62451.5313471338,31348.1118651216,23119.9380748467
8318820093,21579,0,0,44177.1473457841,61955.2596645133,40563.8159295464,57789.5391479077,70785.5640997683,51098.7173481210,44168.1797532256,62441.0306247756,31346.3110459918,23115.4481947190
8318820093,21579,0,0,44172.9373226834,61949.8815425175,40558.6689937903,57779.9631705080,70786.6956955728,51105.1662274372,44159.5163530877,62434.0098637087,31343.8653389304,23111.7492148848
8318820093,21579,0,0,44166.3667663990,61945.9392087469,40562.6599983483,57782.5792253249,70775.5135821925,51102.9882097059,44163.1544944377,62429.9215175762,31353.0397823349,23103.6941995880
8318820093,21579,0,0,44164.9309781739,61943.5786755632,40560.6279929788,57786.1686958877,70767.5437407735,51097.8047708593,44167.7538838368,62421.7934960985,31344.6197361334,23103.2926655929
8318820093,21579,0,0,44174.7746449036,61945.5498424486,40551.2101956379,57785.0005969927,70769.7460938984,51100.0922978620,44161.1954952492,62421.9516761572,31332.0870084058,23112.1142457895
8318820093,21579,0,0,44177.2811904492,61947.6548539989,40555.2498709831,57785.2682863228,70767.4585668957,51100.3113164048,44160.6236134986,62426.4172208912,31338.2438629982,23114.5112820636
8318820093,21579,0,0,44179.7025621169,61943.6151786537,40555.9677650956,57781.4597972172,70763.1268668268,51102.2216448060,44155.3428330774,62429.9458529699,31338.1708568172,23124.5374642458
8318832522,21580,0,0,44193.2573763777,61947.1559784292,40554.6171507483,57785.8158326798,70777.5334198651,51109.2302381760,44149.9038725975,62432.8417648137,31330.5782139997,23134.0769385549
8318832522,21580,0,0,44201.4462363395,61957.8392162397,40566.2494689110,57799.8816902072,70781.8894553277,51113.6349444259,44157.2896645691,62443.1599717196,31340.3002037612,23139.0900296460
8318832522,21580,0,0,44185.2023610809,61957.3038375795,40576.8231974502,57804.2863964571,70774.8930296545,51106.2126493640,44167.4375237194,62436.7719308875,31351.8595157430,23123.2476883825
8318832522,21580,0,0,44173.6917198864,61946.7179413436,40568.9263622121,57793.1894569545,70767.0083621133,51099.0337082384,44161.5970292444,62423.6064829251,31342.5512276735,23116.3607719807
8318832522,21580,0,0,44173.5700429182,61942.1307196413,40560.0804466218,57781.6909834569,70769.7339262016,51099.6785961700,44149.7578602357,62419.6519814577,31333.6201382054,23117.2246784552
8318832522,21580,0,0,44171.5867083360,61940.3177328147,40560.6523283725,57781.8004927283,70755.7775779457,51091.6479162669,44148.5167551597,62420.0900185433,31337.4651304015,23112.1507488800
8318832522,21580,0,0,44173.9594092165,61941.3641547415,40554.7023246261,57783.0415978042,70759.6955763227,51095.0913744678,44147.3121531743,62419.8831676973,31331.7706482884,23112.5522828752
8318832522,21580,0,0,44179.2401896377,61949.9788840921,40558.9488508173,57787.5071425382,70768.4928211257,51111.2865789391,44151.4856731845,62424.6529048519,31332.9509148802,23118.1615911105
8318893573,21581,0,0,44178.3397800728,61953.8360439850,40572.0777956892,57793.7856740989,70767.3855607148,51115.1559065288,44158.4820988577,62432.2212122758,31344.8874254635,23114.5964559414
8318893573,21581,0,0,44173.8255645515,61948.3240773242,40577.6749362278,57792.1308673309,70764.1367856631,51112.0288084453,44158.7862912783,62427.4271397275,31347.6981634296,23111.6275379166
8318893573,21581,0,0,44177.1716811778,61943.2136446586,40570.4716597086,57786.4728883083,70763.6257423965,51098.8633604829,44147.9813764995,62419.6519814577,31332.1600145867,23115.1074992080
8318893573,21581,0,0,44182.3551200243,61940.8652791717,40567.3688970187,57786.8744223034,70760.8028367336,51100.1166332557,44150.4149158641,62422.1706947000,31332.3060269486,23116.2877657998
8318893573,21581,0,0,44171.5502052456,61936.9229454011,40573.2337268874,57787.5558133255,70754.3539574174,51102.0026262632,44155.0386406568,62415.5879707188,31343.0257678496,23107.2836701508
8318893573,21581,0,0,44171.9882423312,61928.0161913267,40554.9700139562,57775.8991597691,70741.7482235088,51101.8444462045,44144.4284090272,62407.9466571140,31328.5827117207,23118.3927773502
8318893573,21581,0,0,44188.0130990470,61932.9562762368,40550.9060032173,57775.5584642581,70759.5617316576,51115.6669497954,44140.1940505328,62422.1463593064,31332.5737162787,23132.1909455474
8318893573,21581,0,0,44183.7179020685,61937.4461563645,40565.5680778889,57785.3412925037,70767.3977284116,51119.2564203581,44151.1449776735,62430.7610886570,31355.7896818168,23128.3337856545
8318898951,21582,0,0,44176.4416193684,61933.7958473176,40563.7429233655,57787.3854655700,70758.3449619753,51111.9071314771,44155.7321993757,62423.9106753457,31350.1073674005,23123.0773406270
8318898951,21582,0,0,44182.9756725623,61936.2658897727,40562.7695076197,57790.9384330423,70765.2440460739,51115.6426144017,44160.9886444032,62426.5875686467,31343.7801650526,23122.5419619668
8318898951,21582,0,0,44174.8841541750,61934.4407352492,40570.5203304959,57791.2669608565,70758.4423035499,51110.4591755552,44163.1423267409,62424.3608801281,31350.6670814544,23114.1827542494
8318898951,21582,0,0,44164.2739225454,61925.9111797763,40564.7893452923,57779.1479348209,70748.9515000280,51100.2383102239,44155.0751437473,62414.4685426111,31342.8189170036,23118.2954357756
8318898951,21582,0,0,44173.3023535881,61928.1378682949,40553.0718532518,57773.5142911918,70757.6635709533,51097.5614169228,44143.4549932814,62413.7506484985,31326.7575571973,23131.8137469459
8318898951,21582,0,0,44182.5376354767,61938.0423735088,40557.6834103477,57782.7860761709,70766.3391387880,51100.5546703413,44146.0345450078,62420.7227387781,31334.6908955259,23137.3013782130
8318898951,21582,0,0,44178.5709663124,61942.7634398761,40564.5338236590,57788.2007012571,70765.4387292231,51103.0368804932,44156.3284165201,62420.5158879321,31344.1816990478,23134.0282677676
8318898951,21582,0,0,44178.5344632219,61940.3177328147,40557.5739010763,57780.7662384983,70766.0714494579,51104.8011965325,44151.7168594242,62417.0724297312,31335.0924295210,23134.4663048533
8318929080,21583,0,0,44181.9292506355,61938.0058704183,40555.7122434624,57777.0794263610,70767.1665421720,51103.9981285422,44144.0633781225,62419.6519814577,31334.4597092862,23131.8745854300
8318929080,21583,0,0,44172.7669749279,61934.1730459191,40561.2850486073,57777.2011033292,70764.2584626313,51095.7727654899,44145.4383278635,62420.4793848416,31344.4250529842,23118.3562742597
8318929080,21583,0,0,44166.1234124625,61930.2550475421,40553.9844305135,57772.8450678666,70764.2097918440,51093.9111078760,44141.5933356675,62415.4176229633,31334.6300570417,23110.3742651438
8318929080,21583,0,0,44177.1230103905,61937.2879763058,40553.6193996088,57781.7153188505,70766.8623497514,51106.2491524544,44147.4216624457,62422.4383840301,31329.6899721316,23109.7050418186
8318929080,21583,0,0,44179.4957112709,61940.9017822622,40565.1787115906,57791.7049979421,70771.7537638742,51114.6326955654,44156.3527519137,62427.4636428180,31343.1717802115,23106.6387822192
8318929080,21583,0,0,44177.8165691094,61935.6940080220,40563.7915941528,57785.9496773449,70757.5053908946,51111.9314668707,44151.7411948178,62420.6619002940,31340.4340484263,23114.0975803717
8318929080,21583,0,0,44195.8977665883,61938.5169136849,40555.5175603132,57780.2673629286,70768.6753365780,51121.0694071848,44139.3788148457,62430.1283684222,31328.2785193002,23135.6587391419
8318929080,21583,0,0,44202.7238445059,61952.9234667233,40569.3887346913,57793.8830156735,70785.8561244920,51132.4705391079,44150.3784127736,62447.1266408839,31347.4913125836,23135.3058759341
8318961466,21584,0,0,44185.4822181078,61955.7098692957,40581.6294376952,57800.5995843197,70781.1350581247,51120.4975254341,44164.2617548486,62444.0725489813,31362.6279274313,23121.3251922845
8318961466,21584,0,0,44179.3375312122,61951.3538338331,40575.4239123155,57797.3021384807,70780.7578595232,51113.1969073403,44164.9309781739,62436.6502539193,31356.6900913817,23118.0642495359
8318961466,21584,0,0,44176.1982654319,61942.7756075729,40575.5455892837,57793.7735064020,70775.4162406179,51114.3163354480,44164.6267857533,62434.4357330975,31359.0262891717,23115.3508531444
8318961466,21584,0,0,44169.0071566096,61932.3235560020,40578.2711533721,57788.2128689540,70766.1201202452,51111.6637775406,44164.0427363058,62429.5199835811,31360.5107481841,23109.8023833932
8318961466,21584,0,0,44175.8332345272,61930.2550475421,40569.2670577231,57782.2872006012,70767.6897531354,51118.3316753996,44157.4478446278,62427.8286737227,31347.7711696105,23119.2931869151
8318961466,21584,0,0,44187.6845712328,61939.3929878561,40564.6798360209,57786.2660374623,70772.6906765296,51115.6669497954,44155.2819945933,62433.8760190437,31341.2371164166,23125.7542339280
8318961466,21584,0,0,44187.6359004455,61943.1284707808,40565.8357672190,57787.7869995652,70759.9389302591,51102.9760420091,44159.3460053321,62434.6425839435,31339.6309804360,23122.7853159032
8318961466,21584,0,0,44191.3227125828,61944.9779606979,40563.0858677371,57786.3755467337,70773.1165459184,51109.5222628998,44157.3383353564,62436.4434030733,31333.4741258436,23128.4676303196
8319018897,21585,0,0,44199.0370323686,61948.5430958670,40562.5383213800,57788.1398627730,70785.8804598857,51114.6570309591,44154.2720757570,62440.9454508978,31334.7760694036,23133.3590444424
8319018897,21585,0,0,44191.4078864606,61949.5895177938,40576.2878187899,57798.6284174344,70786.8417079347,51115.7399559763,44165.2595059881,62442.5880899689,31355.9356941787,23122.2499372430
8319018897,21585,0,0,44177.7192275348,61939.7580187608,40577.6019300468,57797.6306662949,70771.6199192092,51111.1405665772,44172.1342546931,62431.4546473759,31358.4057366338,23112.0169042149
8319018897,21585,0,0,44178.5953017060,61932.1653759433,40567.9529464662,57790.0623588710,70768.1399579178,51112.4060070468,44166.0260708879,62425.1761158153,31343.0744386369,23114.5842882446
8319018897,21585,0,0,44187.2343664503,61933.2239655669,40573.7082670635,57791.3764701279,70771.1697144267,51115.5939436144,44163.5316930392,62429.6903313366,31347.4426417963,23114.2314250367
8319018897,21585,0,0,44189.2542041229,61927.8701789648,40571.6640939972,57786.2295343718,70755.3517085569,51095.5780823407,44156.4865965788,62426.6605748277,31341.9793459228,23120.8993228957
8319018897,21585,0,0,44202.2614720267,61932.0680343687,40561.1755393359,57785.8645034671,70767.7140885290,51103.9129546644,44151.9237102702,62431.2112934395,31331.2352696281,23138.5181478953
8319018897,21585,0,0,44219.1258998233,61949.3461638573,40568.0259526472,57802.1813849067,70782.2909893229,51121.8968105687,44163.9332270344,62447.8810380869,31341.2249487198,23155.2974018141
8319023338,21586,0,0,44213.7477778275,61957.2673344890,40582.7975365902,57814.0083862186,70781.7677783595,51118.6845386075,44179.8850775693,62449.1099754660,31361.0582945412,23148.1914668695
8319023338,21586,0,0,44192.9166808666,61943.2136446586,40573.4770808238,57797.0344491506,70772.4594902900,51106.2004816671,44169.9075661745,62434.2653853420,31353.4291486332,23131.5825607062
8319023338,21586,0,0,44185.0563487190,61928.1378682949,40560.1656204996,57781.5206357013,70767.7749270131,51100.7006827032,44154.7101128426,62425.2126189058,31342.2957060402,23116.5311197363
8319023338,21586,0,0,44180.6759778628,61922.1270260644,40560.1777881964,57781.4354618236,70761.8492586604,51098.9607020575,44156.0607271899,62424.3608801281,31348.9879392928,23098.1578975336
8319023338,21586,0,0,44182.4889646894,61924.1225283434,40560.0561112281,57786.8987576971,70761.7032462985,51099.1797206003,44163.4951899488,62423.9958492235,31347.5886541582,23093.6923527996
8319023338,21586,0,0,44192.1501159668,61932.3478913957,40554.8118338975,57787.1542793304,70772.1066270821,51110.4226724647,44160.9034705255,62429.7876729112,31340.6652346659,23100.5549338077
8319023338,21586,0,0,44195.4475618058,61938.7967707118,40562.1489550817,57789.8555080251,70766.8988528419,51112.2843300786,44159.7840424178,62437.2221356700,31349.4868148626,23104.5337706688
8319023338,21586,0,0,44191.9554328176,61931.0702832293,40561.8569303579,57785.0005969927,70771.5104099378,51109.7047783521,44157.5695215960,62436.6137508288,31351.3241370828,23107.5148563905
8319052458,21587,0,0,44192.6976623238,61925.8990120795,40555.3350448608,57780.3647045032,70776.1584701241,51102.1486386251,44150.4027481673,62435.0927887260,31340.8112470278,23113.6352078924
8319052458,21587,0,0,44192.3691345096,61932.0315312783,40560.4698129201,57788.6144029491,70782.3396601102,51102.7570234662,44157.1923229945,62438.8039362570,31346.3840521727,23115.3630208413
8319052458,21587,0,0,44180.4812947136,61934.3190582810,40569.3765669945,57794.2480465781,70773.1773844025,51100.7006827032,44168.0702439542,62436.3095584083,31355.2178000662,23104.5581060625
8319052458,21587,0,0,44176.7093086985,61927.3834710919,40560.2994651646,57785.3169571101,70766.9110205387,51095.9917840327,44159.8813839924,62424.7259110328,31338.7427385679,23101.8203742773
8319052458,21587,0,0,44185.6525658633,61924.2563730084,40553.1570271295,57779.7806550557,70773.6762599722,51096.6488396611,44149.2224815755,62425.0666065439,31331.1135926599,23104.6676153339
8319052458,21587,0,0,44188.1226083184,61922.4920569691,40549.5918919604,57780.5350522587,70757.2255338676,51085.1990369507,44145.2923155016,62426.2347054389,31332.1600145867,23106.6266145224
8319052458,21587,0,0,44196.6521637913,61927.7971727839,40547.5598865910,57781.6788157600,70752.8938337987,51090.2242957386,44145.1463031398,62429.5321512779,31320.9535658128,23118.7456405580
8319052458,21587,0,0,44218.3836703171,61945.8662025660,40557.1480316875,57796.9736106665,70787.6934467123,51120.8260532483,44154.6492743585,62450.1198943023,31328.1081715447,23132.8966719631
8319082550,21588,0,0,44213.5895977688,61957.0118128558,40580.6073511621,57811.3314929175,70796.6002007867,51130.4993722225,44171.6962176074,62458.5521082006,31358.4300720274,23123.2111852920
8319082550,21588,0,0,44195.0338601138,61951.8527094028,40585.2189082580,57809.8226985115,70788.2653284629,51120.6922085833,44179.1306803663,62449.8643726690,31374.3089163814,23115.9714056824
8319082550,21588,0,0,44192.1501159668,61941.6683471620,40571.2747276989,57796.2557165539,70781.7556106627,51115.7521236731,44167.9242315923,62437.2951418509,31361.8005240474,23117.1881753647
8319082550,21588,0,0,44191.2862094924,61937.6530072105,40567.3810647156,57793.8830156735,70777.0102089017,51102.2946509870,44164.2739225454,62432.4645662122,31355.0352846138,23111.0313207723
8319082550,21588,0,0,44180.2622761708,61931.2406309848,40566.2616366078,57791.3399670375,70763.3702207632,51095.1157098614,44163.3005067996,62423.2414520204,31350.9347707845,23101.8082065805
8319082550,21588,0,0,44178.2181031045,61922.4920569691,40552.3052883519,57777.2619418133,70745.8000665509,51089.4455631419,44145.0854646557,62410.9155751388,31325.2122597008,23099.6545242428
8319082550,21588,0,0,44199.4629017574,61924.3293791893,40546.5256323610,57772.9667448348,70760.0849426210,51105.5677614323,44136.4707353050,62422.6574025729,31317.9846477880,23110.2890912661
8319082550,21588,0,0,44199.1465416400,61931.0581155324,40563.5117371259,57781.4354618236,70772.1431301726,51112.7223671642,44145.4018247731,62432.6835847550,31340.2880360644,23101.4066725853
8319132653,21589,0,0,44191.3105448860,61935.6210018410,40566.1521273364,57782.6765668995,70771.1453790331,51110.2644924060,44151.9602133606,62429.5564866715,31343.6219849939,23096.5152584625
8319132653,21589,0,0,44194.1821213362,61944.6129297932,40569.5712501437,57790.3543835948,70779.7722760805,51117.8814706172,44158.6402789164,62432.3915600313,31346.2137044172,23097.8537051130
8319132653,21589,0,0,44189.9599305387,61946.6084320721,40577.9669609515,57797.0952876347,70774.1873032388,51111.9558022644,44166.6587911227,62430.2135423000,31355.6071663645,23094.8726193914
8319132653,21589,0,0,44183.8517467336,61939.1983047070,40574.0611302714,57789.2349554871,70766.3756418785,51109.8386230172,44162.8259666235,62425.2977927835,31350.9712738750,23098.4012514701
8319132653,21589,0,0,44197.4187286911,61936.8742746138,40563.2075447053,57782.1655236330,70765.5482384945,51106.4195002099,44150.0620526562,62424.5190601868,31336.1145160541,23108.4396013490
8319132653,21589,0,0,44211.0952199201,61941.3033162573,40562.2949674436,57789.3931355458,70766.8745174482,51102.4893341361,44152.4955920208,62433.0607833565,31333.8391567483,23114.6329590319
8319132653,21589,0,0,44211.5575923994,61946.2068980770,40568.8411883343,57797.1561261188,70765.0493629248,51103.5114206693,44162.0107309364,62435.2266333910,31341.5534765340,23113.6352078924
8319132653,21589,0,0,44208.2236434699,61946.6205997690,40570.2161380753,57793.2381277418,70775.3554021338,51115.8372975509,44164.4686056946,62433.3649757771,31343.3299602702,23116.4216104648
8319145215,21590,0,0,44197.5160702657,61946.3042396516,40576.3486572741,57788.6387383428,70775.7569361290,51121.8968105687,44163.6290346138,62433.7543420755,31354.8162660710,23118.7334728612
8319145215,21590,0,0,44184.4479638779,61941.9117010985,40581.5929346047,57785.9861804354,70772.0944593853,51115.3992604653,44165.1013259294,62430.1283684222,31364.3435726834,23111.4936932516
8319145215,21590,0,0,44182.4402939021,61938.5777521690,40569.8024363833,57781.9951758774,70769.4053983874,51104.6308487770,44160.7087873763,62422.6574025729,31352.0055281049,23111.6518733103
8319145215,21590,0,0,44191.1645325241,61941.3519870446,40562.9155199815,57784.8180815404,70772.7393473169,51103.8277807867,44160.6114458017,62424.0688554044,31340.6652346659,23108.7559614664
8319145215,21590,0,0,44187.4777203868,61939.0522923451,40568.1476296154,57786.9960992717,70764.6721643233,51099.5204161113,44164.6389534501,62422.1098562159,31343.8288358399,23099.6910273333
8319145215,21590,0,0,44184.3262869097,61928.3325514441,40557.4765595017,57773.6481358569,70747.0533393237,51091.2707176654,44152.1913996003,62416.1963555600,31330.2010153982,23105.3855094464
8319145215,21590,0,0,44204.7558498754,61932.2018790338,40553.8019150612,57772.1880122381,70771.6564222996,51104.4361656278,44143.3576517068,62428.0355245687,31322.1460001014,23121.1305091353
8319145215,21590,0,0,44205.0235392055,61938.7359322277,40569.8754425643,57784.9640939022,70781.7191075722,51108.7070272127,44153.9192125491,62436.3095584083,31343.4638049352,23112.0290719118
8319190278,21591,0,0,44189.8625889641,61938.0667089024,40577.3099053231,57787.3611301764,70767.0326975069,51104.9350411975,44162.4244326284,62430.6150762951,31347.2479586471,23101.0781447711
8319190278,21591,0,0,44189.9599305387,61937.9937027215,40572.3211496257,57783.4918025867,70769.7582615953,51104.5091718087,44159.5163530877,62424.4460540059,31338.1221860299,23105.5315218083
8319190278,21591,0,0,44191.1036940400,61938.3709013230,40572.2116403543,57782.8225792614,70761.8127555699,51098.6321742433,44153.2378215270,62420.0291800592,31339.4849680741,23108.1110735348
8319190278,21591,0,0,44191.2740417956,61929.1964579185,40563.9619419083,57777.3227802974,70756.3251243027,51094.9088590154,44151.7655302115,62421.2946205288,31337.3191180396,23113.7690525574
8319190278,21591,0,0,44201.9572796061,61932.3235560020,40561.0295269740,57778.5882207670,70771.8389377520,51098.6321742433,44148.1882273455,62420.1508570274,31331.6976421074,23119.1106714627
8319190278,21591,0,0,44204.3543158802,61938.1883858707,40562.8060107101,57782.0681820584,70763.6744131838,51093.3392261253,44149.8917049007,62419.0070935261,31331.2231019313,23110.9339791977
8319190278,21591,0,0,44200.8865222857,61939.0279569515,40568.8168529407,57784.9154231149,70758.2476204008,51099.2648944781,44157.0341429358,62422.5843963920,31339.0834340789,23104.3999260038
8319190278,21591,0,0,44191.4078864606,61936.5092437091,40571.9682864178,57778.7585685225,70763.2485437950,51111.2987466359,44154.4789266030,62420.2847016925,31343.2812894829,23103.5481872262
8319211728,21592,0,0,44187.9644282597,61934.6719214888,40571.4694108481,57772.6260493238,70769.3810629938,51122.1644998988,44147.3486562647,62424.7989172138,31346.7490830774,23112.6739598434
8319211728,21592,0,0,44180.0310899312,61932.2627175179,40576.7623589660,57772.6868878079,70770.0989571063,51112.1383177167,44148.4072458883,62426.9647672483,31359.7928540716,23110.1674142979
8319211728,21592,0,0,44168.4961133430,61923.6236527736,40571.7371001782,57769.9734914164,70757.5540616818,51096.9286966880,44150.1350588372,62417.9850069929,31356.1060419342,23105.7627080480
8319211728,21592,0,0,44178.3884508601,61923.0152679325,40563.9254388178,57769.2921003943,70759.4643900831,51102.2338125029,44148.8087798835,62416.1355170758,31342.7580785195,23112.5644505720
8319211728,21592,0,0,44182.3064492370,61923.8061682260,40568.0259526472,57770.9834102527,70748.1362643409,51096.7218458421,44146.3265697316,62418.0336777802,31341.9793459228,23116.1539211347
8319211728,21592,0,0,44185.8350813157,61919.5231389443,40567.1742138696,57768.8175602182,70753.2345293097,51098.3279818227,44146.6672652426,62424.2878739472,31340.9937624801,23123.4302038349
8319211728,21592,0,0,44193.8292581284,61921.8228336438,40565.0083638351,57768.3551877389,70771.1818821235,51103.8277807867,44144.0755458194,62428.0720276591,31337.4286273110,23131.2540328920
8319211728,21592,0,0,44193.4763949205,61931.5326557085,40573.9516209999,57778.9775870653,70779.2977359044,51108.6461887285,44152.5564305049,62432.9877771756,31349.7788395863,23124.5131288521
8319252636,21593,0,0,44177.1960165714,61931.9706927942,40581.4712576365,57783.6864857358,70763.2120407045,51104.1928116913,44162.8259666235,62427.0012703387,31360.9001144825,23112.8564752957
8319252636,21593,0,0,44173.3753597690,61926.0815275318,40570.8366906133,57773.5021234950,70756.0087641853,51106.8332019019,44155.2454915028,62417.8876654183,31351.3363047796,23112.8321399021
8319252636,21593,0,0,44186.6138139124,61927.8945143585,40564.1079542702,57768.3065169516,70769.9042739571,51115.5452728271,44144.9516199906,62424.4460540059,31343.9626805049,23122.4567880890
8319252636,21593,0,0,44183.8639144304,61928.7705885297,40569.2670577231,57770.2655161401,70766.5094865435,51104.1928116913,44141.1066277946,62423.7768306806,31354.0253657775,23113.9150649193
8319252636,21593,0,0,44176.6728056080,61927.5903219379,40565.8966057032,57768.5255354944,70766.1322879420,51104.8620350166,44145.4261601667,62424.7380787297,31351.1659570241,23117.2368461520
8319252636,21593,0,0,44180.5543008945,61931.6421649799,40559.3868879029,57768.0874984088,70775.1850543783,51113.1847396435,44142.3355651737,62428.9967726177,31343.5246434193,23126.1922710137
8319252636,21593,0,0,44188.9500117024,61942.5322536365,40572.9417021636,57775.6923089231,70781.5730952103,51119.9743144707,44152.0697226320,62439.7408489123,31358.2597242719,23127.3603699087
8319252636,21593,0,0,44188.1712791057,61943.1649738713,40586.7763734513,57779.2939471827,70780.7578595232,51120.9477302165,44159.2243283639,62443.2086425069,31366.9839628940,23127.0683451849
8319268955,21594,0,0,44195.4718971995,61941.8995334017,40580.9602143700,57778.7829039162,70785.0773918953,51119.6092835660,44155.6226901043,62443.5980088052,31357.1037930737,23131.8015792490
8319268955,21594,0,0,44200.5458267746,61945.6106809327,40578.7578612450,57787.5679810223,70792.2198299304,51116.8228809936,44161.2806691270,62445.5326726001,31363.7960263263,23117.2368461520
8319268955,21594,0,0,44183.5718897066,61942.3254027905,40580.7046927367,57792.5810721134,70780.2224808630,51106.7601957210,44172.3776086295,62437.9035266921,31371.2061536915,23094.1425575820
8319268955,21594,0,0,44176.7579794858,61934.3798967651,40567.3567293219,57783.0415978042,70772.1918009598,51103.6939361216,44165.7462138610,62427.4879782116,31355.9356941787,23095.3349918707
8319268955,21594,0,0,44194.2307921235,61935.1099585745,40564.2296312384,57780.1943567476,70782.6681879244,51114.7908756241,44155.9877210090,62432.8174294201,31346.7125799869,23111.4693578579
8319268955,21594,0,0,44204.7071790881,61939.6606771862,40575.1318875918,57787.4584717509,70787.9976391329,51117.8571352235,44160.5749427113,62440.2397244821,31358.2718919687,23121.1305091353
8319268955,21594,0,0,44205.4859116847,61940.8774468685,40574.2071426332,57788.4805582841,70772.7271796201,51108.0864746747,44161.7187062126,62437.5749988779,31354.6337506187,23129.8912508478
8319268955,21594,0,0,44220.5495203515,61951.1956537744,40569.5955855373,57794.4427297273,70793.6921212460,51125.6931319775,44164.7362950247,62447.6133487568,31350.8860999972,23141.6574136756
8319304991,21595,0,0,44213.5165915879,61956.1844094718,40580.2058171669,57797.8010140504,70787.3892542917,51122.5295308035,44173.6430490991,62453.3199985667,31363.9420386882,23135.9750992593
8319304991,21595,0,0,44193.5859041919,61946.2312334706,40578.4415011276,57786.2295343718,70775.2945636497,51111.7002806311,44169.8710630840,62445.1068032113,31362.6765982186,23129.5992261241
8319304991,21595,0,0,44189.5097257562,61937.8355226628,40564.8258483827,57775.8383212850,70785.4545904969,51108.7800333936,44156.9124659676,62440.6777615677,31348.9271008087,23134.3324601882
8319304991,21595,0,0,44184.9225040540,61939.9527019100,40570.4473243149,57782.3967098726,70786.9390495093,51107.5510960145,44163.8723885503,62441.2009725311,31357.8703579736,23128.2121086863
8319304991,21595,0,0,44172.9129872897,61937.5191625454,40574.6573474157,57788.6630737364,70775.4770791020,51103.8521161803,44175.5412098035,62432.5132369995,31362.8226105805,23116.4337781617
8319304991,21595,0,0,44183.6327281907,61935.3898156014,40567.0525369013,57785.6454849243,70760.8515075209,51099.6055899891,44171.6353791233,62426.7700840991,31347.5034802804,23123.0773406270
8319304991,21595,0,0,44207.6030909319,61936.4240698313,40560.9200177026,57782.5183868408,70782.3396601102,51110.9458834281,44163.6655377043,62435.3239749656,31343.7801650526,23134.1256093422
8319304991,21595,0,0,44198.4773183147,61931.9463574005,40568.5248282169,57780.8757477697,70783.6172682766,51101.2847321507,44163.4100160710,62436.7962662812,31360.7054313333,23121.8849063383
8319335188,21596,0,0,44183.9369206113,61923.7331620450,40559.2652109347,57771.8838198176,70769.2228829350,51092.9620275238,44155.7200316789,62427.1107796101,31352.0907019827,23118.3076034724
8319335188,21596,0,0,44190.6413215608,61929.2572964026,40559.6910803235,57773.7454774315,70778.5311710046,51105.3122397991,44155.4280069552,62431.8196782806,31349.4138086816,23124.0507563728
8319335188,21596,0,0,44189.2177010325,61934.3433936746,40574.4504965697,57782.6400638091,70777.6064260461,51113.9269691497,44167.9242315923,62436.3582291956,31367.5801800383,23118.3927773502
8319335188,21596,0,0,44184.7156532080,61928.1378682949,40575.7524401297,57776.9455816959,70768.8213489399,51102.9638743122,44165.7462138610,62427.7921706322,31364.9519575245,23117.1151691838
8319335188,21596,0,0,44197.8324303831,61925.5218134780,40561.7839241770,57767.8684798660,70765.1223691057,51100.5425026445,44154.3815850284,62429.7146667302,31345.1916178841,23132.8845042663
8319335188,21596,0,0,44211.2533999788,61932.3235560020,40564.1566250575,57777.7364819894,70784.5906840224,51104.9958796817,44157.0463106326,62443.5006672306,31347.6494926423,23141.4505628296
8319335188,21596,0,0,44198.9883615813,61934.9396108189,40574.9980429267,57787.6288195065,70782.8507033767,51103.7791099994,44170.9661557981,62442.8436116022,31360.8149406047,23129.0638474639
8319335188,21596,0,0,44190.5074768957,61931.5813264958,40568.9993683930,57783.6378149485,70776.2679793955,51101.3942414221,44169.3843552111,62435.5916642957,31349.4746471657,23123.3815330476
8319367512,21597,0,0,44194.1212828521,61929.9143520311,40560.8105084312,57778.6490592511,70770.3788141332,51099.0702113289,44161.2563337333,62434.3748946134,31343.7436619621,23123.9899178887
8319367512,21597,0,0,44188.1834468025,61922.3095415167,40566.0061149746,57772.2610184191,70766.2417972134,51098.2914787322,44156.4865965788,62428.1450338401,31350.6427460607,23107.8555519015
8319367512,21597,0,0,44180.0432576280,61914.6560602151,40560.2386266805,57760.7260418309,70762.3116311396,51095.4807407661,44148.7114383089,62417.0724297312,31342.7824139131,23098.5472638319
8319367512,21597,0,0,44186.2366153109,61920.7399086266,40555.7487465528,57764.2668416064,70766.6676666022,51100.6885150063,44149.1616430913,62418.9949258292,31341.7116565927,23102.7451192359
8319367512,21597,0,0,44182.6349770513,61925.9720182604,40563.3292216735,57772.3461922968,70763.1633699172,51102.3433217743,44159.0174775179,62421.7934960985,31353.6846702665,23106.1399066495
8319367512,21597,0,0,44175.4195328353,61920.3505423282,40558.9853539077,57764.1573323350,70746.3111098175,51096.7583489325,44153.1404799524,62413.8358223763,31348.1483682120,23115.2900146603
8319367512,21597,0,0,44191.9797682113,61915.4712959022,40548.1196006448,57756.7228695762,70746.0190850937,51096.8678582039,44139.1354609092,62418.7272364991,31327.4632836130,23138.4938125017
8319367512,21597,0,0,44206.6540105797,61917.8804998732,40558.8515092427,57769.6936343894,70768.3833118543,51101.7471046299,44147.3729916584,62431.6128274346,31338.8279124457,23135.2085343595
8319403925,21598,0,0,44197.6499149308,61920.3018715409,40567.5270770774,57781.7883250314,70764.6113258392,51093.6069154554,44163.2396683155,62428.7777540749,31351.0929508432,23117.7600571154
8319403925,21598,0,0,44194.0847797616,61917.8074936922,40558.2552920984,57780.1700213540,70760.6811597653,51093.1323752793,44164.0062332153,62420.6010618099,31340.7747439373,23113.3553508655
8319403925,21598,0,0,44189.3150426071,61917.8439967827,40557.3913856239,57775.2056010502,70757.4688878041,51098.0359570989,44163.8237177630,62418.8245780737,31343.5124757225,23110.0700727233
8319403925,21598,0,0,44177.9260783808,61914.3883708850,40560.2507943773,57767.6981321105,70750.4116236468,51098.3279818227,44161.3780107016,62416.5978895551,31350.1317027942,23106.7117884001
8319403925,21598,0,0,44183.1095172274,61913.8894953153,40552.0375990218,57759.9108061438,70756.9578445375,51100.6155088254,44151.4613377909,62415.5514676283,31341.1032717516,23119.1836776437
8319403925,21598,0,0,44200.7283422270,61924.3050437957,40553.6559026993,57769.9004852354,70761.5572339366,51100.7980242777,44150.8651206466,62427.4149720307,31344.1086928668,23126.2531094978
8319403925,21598,0,0,44205.2182223546,61929.1599548281,40562.7451722260,57779.5007980287,70749.1826862677,51091.8425994161,44160.3437564716,62432.4037277281,31345.1307793999,23125.5352153852
8319403925,21598,0,0,44211.2899030693,61929.8170104565,40562.5018182896,57779.8779966302,70759.0993591784,51101.6254276617,44162.0472340268,62435.0197825450,31338.9617571107,23132.5438087552
8319419541,21599,0,0,44215.5364292605,61930.6444138404,40565.4829040112,57781.8613312124,70774.0899616642,51114.0851492084,44159.4311792099,62438.4145699586,31342.6972400354,23133.1765289900
8319419541,21599,0,0,44201.0447023444,61929.6223273073,40576.4581665455,57785.9131742544,70775.7691038258,51114.9733910765,44165.2230028976,62438.1347129317,31364.3679080770,23114.7424683033
8319419541,21599,0,0,44179.7755682979,61920.5573931742,40572.1994726574,57779.9753382048,70759.2453715402,51102.8178619504,44169.0436597000,62424.2878739472,31366.2660687814,23100.9808031965
8319419541,21599,0,0,44180.4447916231,61919.5961451252,40560.4089744360,57773.0762541062,70758.4301358531,51106.0909723957,44163.6412023106,62419.1287704943,31350.3263859433,23105.6897018670
8319419541,21599,0,0,44188.1712791057,61928.4907315028,40568.3301450677,57775.5097934708,70767.2152129593,51115.5087697367,44167.4740268099,62426.1982023484,31355.7045079391,23111.7857179753
8319419541,21599,0,0,44190.4953091989,61930.4375629945,40574.0854656650,57773.4656204046,70756.9943476280,51111.8097899025,44165.0769905358,62431.6371628283,31356.7387621690,23119.0498329786
8319419541,21599,0,0,44213.9059578862,61934.8179338507,40567.9894495567,57775.9599982533,70777.6550968333,51121.0450717911,44161.7187062126,62443.8048596512,31347.3574679185,23139.6254083062
8319419541,21599,0,0,44226.3170086456,61947.2168169133,40581.7024438762,57793.1894569545,70796.1499960042,51130.3898629511,44172.0369131185,62455.3155008457,31362.4210765853,23144.6750024877
8319485091,21600,0,0,44213.4192500133,61945.3916623899,40589.8791361412,57799.6383362707,70772.7880181042,51117.7841290426,44185.4578827142,62446.6886037982,31371.4008368407,23138.6641602572
8319485091,21600,0,0,44197.6377472339,61935.7183434156,40585.1215666834,57787.5923164160,70768.4684857320,51124.1356667841,44179.5322143614,62434.7399255181,31365.6211808498,23138.1409492938
8319485091,21600,0,0,44194.0847797616,61929.9873582120,40580.8750404922,57776.3493645516,70774.2359740261,51130.5845461003,44167.2671759639,62432.2820507599,31366.6310996861,23135.8777576847
8319485091,21600,0,0,44188.8648378246,61923.4533050181,40580.9967174604,57772.3340246000,70761.7032462985,51113.1604042499,44159.7232039337,62426.1373638643,31373.0313082150,23120.9479936830
8319485091,21600,0,0,44190.5683153798,61915.8849975942,40565.6532517667,57767.1627534503,70746.1285943651,51103.8764515740,44157.5451862024,62422.7182410570,31350.1073674005,23120.5464596878
8319485091,21600,0,0,44206.6661782766,61928.6854146520,40563.6090787004,57773.6359681601,70771.1088759426,51116.3726762111,44156.8272920898,62433.0851187502,31339.3876264995,23123.5153777126
8319485091,21600,0,0,44197.8324303831,61935.2073001490,40580.0233017146,57778.3935376178,70774.1264647547,51113.4280935800,44164.1522455772,62434.9832794546,31354.8649368583,23109.1088246743
8319485091,21600,0,0,44178.7291463711,61926.1423660160,40585.6691130404,57772.4922046587,70762.2142895650,51105.9206246402,44165.7340461642,62426.5875686467,31362.1412195584,23103.9862243118
8319495137,21601,0,0,44181.0410087675,61918.8052448317,40571.8587771464,57760.7990480119,70760.2066195893,51102.0999678378,44155.1603176251,62421.3676267097,31346.8707600456,23117.0056599123
8319495137,21601,0,0,44194.5593199377,61925.6921612335,40565.6289163731,57766.7733871519,70770.5978326760,51107.1252266257,44156.1337333709,62431.3329704077,31347.4061387058,23124.8903274536
8319495137,21601,0,0,44194.8513446615,61929.5614888232,40570.2526411658,57778.7950716130,70770.0502863190,51107.4780898335,44169.3235167270,62435.2022979974,31356.7144267754,23116.3242688903
8319495137,21601,0,0,44195.6179095613,61928.9409362852,40562.2706320499,57775.5827996517,70769.2958891160,51109.1693996919,44166.3789340958,62429.5808220652,31348.8419269309,23118.7578082549
8319495137,21601,0,0,44204.1109619437,61933.3334748383,40564.7650098986,57774.2321853044,70781.1715612152,51121.6777920259,44159.7597070241,62435.7620120512,31350.9834415718,23128.7961581338
8319495137,21601,0,0,44198.4529829211,61933.9053565890,40575.7767755234,57774.3538622726,70778.1174693126,51119.7674636247,44160.1490733225,62440.3857368440,31365.4873361847,23127.0926805786
8319495137,21601,0,0,44191.2983771892,61930.2185444516,40575.0223783204,57771.5066212161,70777.0953827795,51108.9990519364,44160.4897688335,62439.4366564918,31362.2142257394,23131.7164053713
8319495137,21601,0,0,44197.1023685737,61933.8810211954,40569.8511071706,57773.3926142236,70784.7853671716,51114.9247202892,44158.2630803149,62440.9454508978,31356.0330357533,23137.7272476018
8319525130,21602,0,0,44200.5579944715,61940.0500434846,40580.0598048051,57782.1655236330,70785.2112365604,51127.7494727406,44168.2405917097,62447.6255164536,31369.0889744443,23136.1697824085
8319525130,21602,0,0,44202.0789565743,61937.8111872692,40589.2220805127,57782.4088775694,70781.5609275135,51122.8215555273,44170.1022493236,62442.1500528833,31370.3300795203,23135.8169192006
8319525130,21602,0,0,44215.3417461113,61932.4208975766,40576.7988620565,57774.4633715440,70777.6550968333,51121.3614319085,44158.7011174005,62443.2329779005,31348.8540946278,23154.1414706160
8319525130,21602,0,0,44222.2773333004,61940.7314345067,40585.6691130404,57781.5936418823,70795.3347603171,51125.7174673711,44159.0174775179,62449.6818572167,31356.5684144135,23151.2455587721
8319525130,21602,0,0,44210.6085120472,61945.0387991820,40595.2085873496,57791.6928302453,70787.4622604726,51120.2663391945,44173.0711673484,62445.3501571477,31374.7956242543,23138.8588434064
8319525130,21602,0,0,44209.5499224236,61940.9626207463,40580.3153264383,57784.7937461467,70759.0263529974,51103.4505821851,44170.9661557981,62432.5375723932,31360.9244498761,23140.8300102917
8319525130,21602,0,0,44221.4864330069,61938.7237645309,40563.7307556687,57777.0185878769,70764.3679719027,51105.5434260387,44164.6024503597,62437.7696820270,31348.6107406913,23140.1121161791
8319525130,21602,0,0,44218.4566764980,61933.9783627699,40570.3864858308,57775.2299364439,70769.1133736636,51106.8332019019,44166.5006110640,62440.4830784185,31358.6855936607,23125.2553583583
8319553255,21603,0,0,44208.7711898269,61923.9643482847,40568.8655237280,57768.5985416754,70762.4454758047,51102.3189863806,44161.6213646380,62433.7786774691,31350.3993921243,23115.5820393841
8319553255,21603,0,0,44209.4769162427,61923.3924665340,40565.2395500747,57772.3826953873,70775.0147066228,51110.4226724647,44164.5416118755,62433.8030128627,31349.0244423833,23108.6829552855
8319553255,21603,0,0,44199.0735354591,61924.5970685194,40572.6618451367,57783.7351565231,70770.2449694682,51108.8895426650,44178.9481649139,62431.1626226522,31366.1443918132,23094.7144393327
8319553255,21603,0,0,44177.0378365127,61910.5677140826,40560.8591792185,57771.6769689716,70754.3904605079,51092.7673443746,44174.1175892752,62414.8700766062,31360.3890712159,23091.6968505206
8319553255,21603,0,0,44179.7512329042,61902.5613695731,40546.0267567913,57757.4650990824,70759.6225701417,51098.3523172163,44157.4356769309,62411.6456369482,31344.4128852874,23106.4927698573
8319553255,21603,0,0,44195.0338601138,61910.3973663271,40553.4003810660,57762.6363702321,70768.8578520304,51100.2748133144,44155.4280069552,62423.8985076489,31349.9978581291,23116.7866413695
8319553255,21603,0,0,44196.1289528279,61911.6871421903,40557.3062117462,57763.1474134987,70755.4855532220,51090.1999603450,44157.7277016547,62421.9030053699,31347.8076727010,23115.6307101714
8319553255,21603,0,0,44209.5742578173,61918.3550400493,40551.3805433934,57763.3055935574,70757.4202170168,51099.9341178033,44154.1382310919,62425.1152773312,31331.2839404154,23125.6082215662
8319600059,21604,0,0,44220.0384770850,61929.9265197279,40562.0637812039,57770.3506900179,70774.1629678452,51114.3893416290,44155.0873114441,62435.1779626037,31339.2294464408,23128.4189595323
8319600059,21604,0,0,44205.1208807801,61929.9508551215,40578.8065320323,57774.1470114266,70774.3698186911,51113.0265595848,44161.7917123936,62434.7034224276,31360.9487852698,23118.2102618978
8319600059,21604,0,0,44192.8680100793,61920.9467594726,40573.3067330683,57765.1794188681,70767.0813682942,51099.4960807177,44159.6623654495,62425.2856250867,31353.7941795379,23118.1372557169
8319600059,21604,0,0,44196.3479713707,61917.2599473352,40563.8159295464,57764.7657171762,70770.2693048618,51099.1918882971,44157.8737140166,62424.6894079424,31343.9626805049,23123.1260114143
8319600059,21604,0,0,44193.5007303141,61916.7124009782,40567.6487540457,57770.4115285020,70764.2097918440,51101.6375953585,44166.5127787609,62425.5046436295,31351.4336463542,23123.8317378300
8319600059,21604,0,0,44184.9225040540,61906.6618834024,40557.5739010763,57756.2848324906,70739.3268518411,51084.8705091365,44153.2621569207,62412.7407296622,31338.6819000838,23125.0728429060
8319600059,21604,0,0,44199.5115725447,61904.8367288790,40542.7536463459,57745.6137623768,70747.9780842822,51096.7461812357,44137.6875049873,62416.7925727043,31320.6493733922,23146.5366601016
8319600059,21604,0,0,44204.0379557628,61915.2766127531,40559.0826954823,57752.3546664168,70767.3977284116,51110.5930202202,44138.7095915204,62430.1040330286,31340.3488745485,23147.2788896078
8319646411,21605,0,0,44188.3294591644,61917.6006428463,40573.5500870048,57757.0392296936,70759.0628560879,51100.7006827032,44146.9836253600,62426.3563824071,31352.5530744619,23134.7583295770
8319646411,21605,0,0,44187.5750619614,61917.6249782399,40569.3765669945,57757.2095774491,70757.9799310706,51104.6795195643,44151.9602133606,62421.4771359811,31346.9681016202,23128.8083258306
8319646411,21605,0,0,44189.4610549689,61917.5641397558,40572.1994726574,57761.3830974594,70756.2886212123,51106.7966988115,44157.8128755325,62422.7912472380,31353.0032792444,23124.2941103093
8319646411,21605,0,0,44181.7467351832,61905.6884676566,40569.9727841388,57758.4750179187,70744.3034398417,51094.3491449616,44160.2950856843,62416.0625108949,31353.5873286919,23116.3972750712
8319646411,21605,0,0,44183.9977590954,61892.7177028433,40552.9866793740,57747.5727615653,70735.2263380118,51085.9047633665,44147.2513146901,62406.2310118620,31335.4331250321,23121.7632293701
8319646411,21605,0,0,44205.2790608388,61897.7916324185,40545.6495581898,57753.4010883435,70749.0123385121,51094.7385112599,44146.5699236681,62418.1796901421,31325.3704397595,23134.0404354645
8319646411,21605,0,0,44206.1064642227,61907.9881623561,40559.5207325679,57767.1992565407,70754.5851436571,51093.8015986046,44159.1513221830,62424.3852155218,31344.3763821969,23123.7587316491
8319646411,21605,0,0,44191.2497064019,61903.1089159301,40560.8348438248,57762.4295193861,70746.2867744238,51092.7065058905,44159.7110362368,62414.1400147969,31346.6274061092,23116.2147596189
8319651276,21606,0,0,44188.6823223723,61898.3878495628,40552.9866793740,57749.5560961475,70741.5413726629,51096.4541565120,44146.0467127047,62409.5284577010,31337.6963166411,23121.9457448225
8319651276,21606,0,0,44186.1392737363,61894.0804848875,40554.3372937214,57745.6867685578,70739.3390195379,51095.2860576170,44140.5712491344,62408.4211972901,31344.8509223730,23117.3950262107
8319651276,21606,0,0,44182.2456107529,61889.7487848185,40553.3273748851,57745.0783837166,70725.0541434678,51091.1612083940,44139.0746224251,62404.4423604290,31340.9085886024,23119.4757023674
8319651276,21606,0,0,44196.7738407595,61900.5171965068,40551.2223633347,57753.1942374975,70745.6662218858,51105.3974136768,44142.7857699561,62412.8380712368,31334.1920199561,23135.1355281785
8319651276,21606,0,0,44200.9716961634,61911.1760989237,40564.8745191700,57766.9315672106,70756.0574349726,51107.5510960145,44153.9800510332,62422.0246823381,31347.2357909503,23136.0967762275
8319651276,21606,0,0,44183.5475543130,61904.7880580917,40563.6577494877,57762.4051839925,70743.5368749418,51091.2585499686,44153.9192125491,62414.6997288507,31350.2047089751,23125.5352153852
8319651276,21606,0,0,44180.8463256183,61892.9367213862,40545.8320736421,57749.0937236682,70737.3070141685,51087.3405515916,44141.9340311785,62406.9854090650,31332.6223870660,23128.5893072878
8319651276,21606,0,0,44193.9022643093,61897.0128998218,40546.7689862975,57755.8832984954,70747.6252210743,51100.3843225858,44143.1142977703,62414.4928780047,31334.0338398974,23130.7308219286
8319679288,21607,0,0,44194.7661707837,61905.8223123216,40560.0196081377,57769.3529388784,70743.9505766338,51098.0237894021,44156.3892550042,62420.0535154528,31348.1727036057,23119.9502425435
8319679288,21607,0,0,44194.3037983045,61907.9516592657,40556.9290131446,57769.4381127562,70746.6518053285,51092.4874873477,44156.9976398453,62416.5857218583,31342.0280167101,23115.8132256237
8319679288,21607,0,0,44204.8410237531,61911.7236452808,40552.0132636282,57767.2357596312,70750.8374930356,51097.7926031625,44151.8750394829,62422.6087317856,31335.5669696971,23128.4432949259
8319679288,21607,0,0,44207.9802895334,61917.6493136335,40563.7794264560,57771.4944535192,70758.7829990610,51106.3099909385,44152.4347535367,62427.5609843926,31348.3552190580,23131.1810267111
8319679288,21607,0,0,44203.5390801931,61917.9291706605,40570.0214549261,57770.8617332844,70755.0110130458,51103.3167375201,44152.4590889304,62422.6208994825,31350.8982676940,23126.1679356200
8319679288,21607,0,0,44213.1028898959,61920.7642440202,40564.4729851749,57772.2488507223,70749.5355494755,51102.0269616569,44149.6361832674,62420.3698755702,31338.0370121522,23128.1269348085
8319679288,21607,0,0,44226.2561701615,61927.2252910332,40564.9110222605,57779.5616365129,70743.5247072450,51099.9219501065,44152.5564305049,62425.9791838056,31336.1023483573,23130.2319463589
8319679288,21607,0,0,44228.3246786214,61928.3447191409,40566.0061149746,57779.9023320239,70744.3399429321,51106.2856555449,44156.1580687645,62430.1162007254,31338.5115523283,23136.0724408339
8319724822,21608,0,0,44233.7758067981,61932.2627175179,40566.6875059966,57778.7950716130,70763.4188915505,51116.6038624507,44150.4270835609,62434.5574100658,31341.0302655706,23145.6484182336
8319724822,21608,0,0,44229.1155789149,61938.7724353182,40580.0476371082,57785.2196155355,70781.6461013913,51119.6944574438,44155.7078639821,62438.2928929904,31362.2628965266,23137.7272476018
8319724822,21608,0,0,44202.0181180902,61937.7260133914,40584.7200326882,57784.7450753594,70768.0547840400,51108.0621392810,44166.7926357878,62425.3951343581,31373.2016559705,23116.8718152473
8319724822,21608,0,0,44191.3835510670,61933.6376672589,40579.4270845703,57778.1745190750,70758.4301358531,51108.6096856381,44166.9994866338,62411.1710967721,31359.8293571621,23115.4360270222
8319724822,21608,0,0,44201.5922487014,61935.9616973521,40577.5654269564,57776.4345384294,70764.2827980249,51117.0662349300,44162.1080725110,62418.3865409881,31351.9325219240,23124.6104704267
8319724822,21608,0,0,44205.9361164672,61932.7615930876,40582.1161455681,57778.4665437988,70763.7352516679,51111.8097899025,44163.3613452837,62425.3099604803,31361.0339591475,23127.1170159722
8319724822,21608,0,0,44214.0641379449,61927.9310174489,40574.3044842078,57776.3858676421,70753.2466970065,51095.6754239153,44159.5771915718,62424.2270354631,31349.7666718895,23135.1841989658
8319724822,21608,0,0,44235.1872596295,61932.7129223004,40563.4022278545,57779.5616365129,70770.6830065538,51099.1797206003,44157.5695215960,62431.8805167647,31336.4552115652,23149.3960688550
8319745013,21609,0,0,44232.1575031206,61936.7769330392,40574.1098010586,57787.5558133255,70769.7582615953,51102.0512970505,44166.8899773624,62435.1414595133,31348.7445853564,23140.8543456853
8319745013,21609,0,0,44212.4945050548,61928.6124084710,40581.2157360032,57779.9875059016,70761.3503830906,51099.0580436321,44166.6344557291,62425.0422711502,31354.1348750489,23126.7641527643
8319745013,21609,0,0,44202.8820245646,61919.5839774284,40568.9020268184,57764.8873941444,70761.2530415160,51103.0855512805,44151.9602133606,62416.2693617409,31341.8698366514,23126.6181404025
8319745013,21609,0,0,44201.1785470094,61917.2112765479,40561.9177688421,57761.9549792101,70762.5793204697,51100.0071239843,44146.4239113062,62419.1652735847,31343.4881403288,23123.7465639523
8319745013,21609,0,0,44196.7616730627,61917.4424627876,40562.6113275610,57767.6372936264,70756.2642858186,51091.1855437876,44153.2986600111,62419.6884845481,31346.9802693170,23120.2909380545
8319745013,21609,0,0,44200.4971559873,61916.3960408608,40555.2620386799,57768.0266599247,70753.4292124589,51092.6213320127,44150.1837296245,62417.1819390026,31334.5813862545,23125.4622092043
8319745013,21609,0,0,44210.4259965949,61919.2554496142,40558.6811614871,57767.5156166581,70756.4589689678,51099.0093728448,44147.6163455948,62421.3676267097,31333.2916103912,23129.2098598258
8319745013,21609,0,0,44208.6008420714,61915.7024821419,40564.1931281479,57763.8044691271,70742.3322729564,51090.5163204624,44144.1485520003,62422.0490177318,31337.4529627047,23125.6690600503
8319774032,21610,0,0,44210.8640336805,61912.0278377013,40558.8636769395,57759.7282906915,70751.8109087814,51090.8570159734,44140.1940505328,62422.5235579079,31330.9919156917,23122.4202849986
8319774032,21610,0,0,44218.0308071092,61919.8638344553,40557.4278887144,57770.0708329910,70768.8700197272,51100.4573287667,44145.4869986508,62428.4978970479,31332.9630825770,23118.0277464455
8319774032,21610,0,0,44211.1925614947,61927.8336758743,40565.4950717080,57783.3457902248,70754.2931189333,51093.5217415776,44156.0728948868,62425.2247866026,31345.3984687301,23107.5026886936
8319774032,21610,0,0,44208.0289603207,61923.5993173800,40560.3724713455,57780.1213505667,70748.6959783948,51104.1198055104,44160.4776011367,62426.4415562849,31342.5147245830,23112.4549413006
8319774032,21610,0,0,44216.6315219746,61926.6169061921,40561.1755393359,57776.6170538817,70766.0471140643,51113.0508949784,44154.8074544172,62430.5664055078,31340.4827192136,23120.9966644703
8319774032,21610,0,0,44213.6504362529,61923.9278451942,40566.8700214490,57774.9500794170,70764.4653134773,51106.1761462735,44152.9336291065,62429.2401265541,31348.4890637231,23113.3066800782
8319774032,21610,0,0,44199.2560509114,61916.2500284989,40565.2517177715,57770.5940439543,70741.6873850247,51089.2022092055,44156.2797457328,62419.5911429735,31347.3087971313,23100.7739523505
8319774032,21610,0,0,44202.4683228727,61911.6993098871,40551.2223633347,57765.8608098902,70736.7229647210,51088.1679549755,44152.4225858399,62415.8921631394,31325.2244273976,23105.7383726543
8319804381,21611,0,0,44219.5882723025,61918.1238538096,40555.4080510418,57773.6724712505,70751.7865733878,51106.6020156623,44154.7952867204,62429.4226420065,31325.3704397595,23118.1250880201
8319804381,21611,0,0,44215.5972677446,61920.2775361473,40570.9705352783,57780.6688969237,70764.4774811741,51116.1658253651,44162.8989728044,62436.6502539193,31352.3583913128,23116.2025919220
8319804381,21611,0,0,44203.9284464914,61914.9115818484,40572.6253420462,57774.1470114266,70765.0371952280,51110.5200140393,44161.7917123936,62430.9801071998,31357.6026686435,23115.4968655063
8319804381,21611,0,0,44204.0257880660,61915.0210911198,40569.7294302024,57772.7112232015,70758.6126513054,51108.9990519364,44160.9034705255,62429.5443189747,31353.4656517237,23119.0985037659
8319804381,21611,0,0,44208.8198606142,61921.7863305533,40578.4293334308,57779.8901643271,70756.7631613884,51110.4348401615,44171.1486712504,62433.2432988089,31359.0749599590,23121.6172170082
8319804381,21611,0,0,44207.8099417779,61923.0517710229,40576.1783095185,57777.6878112021,70757.6635709533,51108.7556979999,44171.3433543996,62427.7556675417,31357.1281284674,23125.1336813901
8319804381,21611,0,0,44207.5300847510,61919.1094372523,40567.0525369013,57770.1560068687,70762.0439418095,51114.1216522989,44162.0472340268,62423.4726382601,31348.2457097866,23129.2220275226
8319804381,21611,0,0,44207.4205754796,61915.3982897213,40568.5126605201,57770.9347394654,70756.3859627869,51112.2721623818,44158.6767820069,62425.5289790231,31352.3948944032,23127.8835808721
8319845447,21612,0,0,44214.1979826100,61915.5321343864,40570.5811689800,57778.0285067132,70750.1682697103,51115.1315711352,44165.7583815578,62427.6096551799,31353.4778194205,23135.1720312690
8319845447,21612,0,0,44226.9375611836,61919.4014619760,40571.9804541146,57782.9442562296,70763.2242084013,51120.7895501578,44168.9828212159,62429.7876729112,31347.9536850629,23139.7835883649
8319845447,21612,0,0,44223.1047366844,61921.4456350423,40584.1724863312,57784.1123551246,70762.7983390125,51117.8936383140,44172.6209625660,62426.7822517959,31355.7775141200,23135.6830745356
8319845447,21612,0,0,44205.5710855625,61911.5898006157,40591.5704459996,57775.1690979598,70746.2989421206,51109.3884182347,44168.3014301938,62413.7993192858,31359.6346740129,23132.7506596012
8319845447,21612,0,0,44208.1871403794,61902.0138232161,40574.9615398362,57762.4295193861,70741.9915774453,51100.8953658523,44153.9557156396,62404.0164910402,31343.9748482018,23139.0900296460
8319845447,21612,0,0,44220.5981911388,61904.1675055537,40561.0781977613,57763.5854505843,70746.3232775143,51101.1022166983,44146.5090851839,62407.7398062680,31337.0514287095,23143.3487235340
8319845447,21612,0,0,44224.3580094571,61911.6749744935,40564.3999789939,57773.3682788300,70731.5760289649,51097.7317646784,44154.2842434538,62415.6244738093,31340.5192223041,23140.6474948393
