steady_timestamp,sequence,battery,flags,EEG-ch1,EEG-ch2,EEG-ch3,EEG-ch4,EEG-ch5,EEG-ch6,EEG-ch7,EEG-ch8,EEG-ch9,EEG-ch10
8492635878,8852,-2,0,56152.5580558332,59397.7436369959,39750.6244154756,57521.9836624680,57032.0513498922,62870.9883597111,65878.4171449535,58705.4260231642,68409.9673074507,28300.4931772729
8492635878,8852,-2,0,56136.4723606332,59309.3209841836,39700.6151815333,57440.1924044242,56936.5836006194,62874.4804886992,65836.3169139461,58603.5215622720,68400.6590193812,28303.3404183295
8492635878,8852,-2,0,56140.9865761545,59271.4916147611,39691.0513718305,57423.9485291655,56889.5919554892,62892.4765123004,65840.9163033452,58576.9959831980,68414.4206844879,28298.4611719035
8492635878,8852,-2,0,56152.5458881363,59328.7284606162,39729.5134614878,57486.9771987084,56942.3754243071,62897.4287649073,65877.5167353886,58652.1436787765,68428.2553557756,28293.0100437268
8492635878,8852,-2,0,56150.2218580432,59403.0974235980,39765.4933409932,57541.9630206513,57021.1004227516,62877.9604499906,65890.2928170527,58730.1872861988,68419.7501356964,28291.4160754430
8492635878,8852,-2,0,56133.7711319385,59390.0171495133,39745.9276845019,57510.3391766084,57014.6515434354,62860.7918297734,65855.2985209899,58700.6076152223,68393.0663765636,28293.1560560887
8492635878,8852,-2,0,56129.8409658647,59304.6607563004,39698.2668160465,57434.0842206191,56925.9490335962,62884.1051368862,65819.7080077828,58600.3336257044,68390.1217939325,28300.8460404808
8492635878,8852,-2,0,56150.8910813684,59272.4041920228,39696.2834814643,57429.6430112787,56886.3431804375,62916.6293904939,65842.1087376339,58579.6363734086,68419.9691542392,28306.5283548971
8492657838,8853,-2,0,56171.1137934881,59338.8884874633,39743.5549836214,57505.5086009697,56951.3916876529,62918.3450357459,65892.7141887205,58669.3853051746,68441.7493315522,28299.1182275319
8492657838,8853,-2,0,56166.8916026906,59409.1569366158,39771.9057172189,57555.7733565453,57033.5358089046,62891.5882704323,65905.3685934163,58743.8759451247,68428.4622066216,28293.2533976633
8492657838,8853,-2,0,56148.6887282435,59400.2015117541,39753.2769733830,57526.1693501751,57033.0125979412,62868.6886650115,65875.1805375986,58718.5549680361,68404.5405146677,28300.0916432778
8492657838,8853,-2,0,56133.7589642417,59319.6878618767,39704.9103785118,57452.6521259709,56951.9514017068,62869.1875405813,65837.0226403619,58627.3702480450,68394.2953139428,28305.6279453322
8492657838,8853,-2,0,56137.7743041933,59260.9543893124,39681.1225312229,57416.8790973114,56885.2237523298,62891.5639350386,65836.2682431588,58577.0689893789,68409.8456304825,28303.0362259089
8492657838,8853,-2,0,56152.5823912268,59302.8721048674,39716.6643736427,57469.6625661293,56922.8219355127,62905.3986063263,65874.9250159653,58636.7515422955,68431.6501431892,28296.1614772040
8492657838,8853,-2,0,56154.8699182295,59387.1820761536,39761.5510072226,57540.1135307342,57015.3572698512,62888.5950170139,65902.2779984233,58729.8830937783,68428.5595481962,28291.1118830224
8492657838,8853,-2,0,56139.9401542278,59398.1573386879,39750.8312663216,57526.6682257448,57035.1541125821,62866.8878458817,65875.0588606304,58726.5004740615,68401.6202674302,28293.9469563822
8492686742,8854,-2,0,56129.4515995664,59324.2385804885,39701.9414604870,57448.2474197210,56955.1880090617,62879.7734368172,65832.8977911389,58628.4896761527,68392.0564577273,28303.1579028772
8492686742,8854,-2,0,56141.9478242036,59270.9805714945,39686.8900195170,57418.2418793556,56892.6582150886,62908.0024934464,65838.6896148266,58580.2204228561,68415.8321373194,28306.3093363543
8492686742,8854,-2,0,56158.9339289684,59313.4214980129,39726.4837049789,57471.7432422861,56930.6579322667,62914.7677328800,65879.5244053644,58640.2193358900,68438.0260163244,28304.2164925008
8492686742,8854,-2,0,56153.9573409678,59382.4975128768,39761.4414979512,57526.1936855687,57007.7159562463,62884.5796770623,65894.0648030678,58715.0871744416,68425.6514686555,28295.3340738200
8492686742,8854,-2,0,56134.7567153812,59391.4894408289,39751.3666449818,57515.7294663010,57026.0648430553,62858.8815013722,65867.3932116319,58716.7541489063,68398.6878524958,28289.9681195211
8492686742,8854,-2,0,56120.3379946460,59325.2484993248,39707.2222409081,57450.9486484157,56961.0893420208,62858.8815013722,65829.2596497888,58638.3211751856,68384.6219949685,28296.7090235610
8492686742,8854,-2,0,56125.7282843386,59254.9557147787,39675.9390923764,57406.6582319801,56882.3643435764,62893.5837727113,65822.8351058663,58569.5615204392,68401.2795719191,28303.7906231119
8492686742,8854,-2,0,56148.1655172801,59283.2577775888,39708.2078243508,57457.4583662159,56902.0151739454,62915.4126208116,65870.0092664489,58616.5775009630,68430.7984044116,28304.0461447452
8492736914,8855,-2,0,56157.9483455257,59373.6150941960,39759.6285111246,57543.1067841526,56996.6433521375,62893.4255926526,65910.8318892898,58722.9596742860,68435.3977938107,28298.8262028082
8492736914,8855,-2,0,56140.9135699736,59399.4227791575,39757.4869964837,57545.2117957030,57032.8057470953,62864.9410143901,65891.9354561238,58740.5784992856,68405.7816197436,28291.7567709541
8492736914,8855,-2,0,56122.9783848566,59328.7771314035,39707.6602779938,57462.7391466371,56962.1722670381,62860.3902957783,65837.9838884109,58645.5609547953,68384.5368210908,28289.5057470418
8492736914,8855,-2,0,56128.2104944904,59257.3284156592,39678.2266193791,57408.7510758337,56883.3742624127,62890.1768176008,65826.3759056418,58572.2870845275,68398.4688339530,28296.2223156881
8492736914,8855,-2,0,56147.6909771040,59280.0698410212,39709.4976002140,57448.4907736574,56896.8439027957,62912.5532120582,65864.2417781548,58611.1263727863,68427.1845984552,28301.4300899283
8492736914,8855,-2,0,56162.7667534676,59370.2933129633,39764.4104159760,57526.4735425957,56989.1480508945,62914.7677328800,65901.8886321250,58709.2831830570,68439.6078169114,28302.9875551216
8492736914,8855,-2,0,56161.6229899663,59422.1033660354,39783.2946814452,57551.9526997429,57050.1082119775,62896.6013615233,65900.4893469903,58754.6808599034,68429.8249886658,28312.2715077975
8492736914,8855,-2,0,56145.7441456123,59369.1860525525,39740.1966992983,57493.4625811150,57001.2792446270,62867.5814046006,65858.4499544671,58686.2619006680,68403.6036020123,28312.9528988196
8492741813,8856,-2,0,56133.9779827845,59272.4528628101,39681.1955374039,57415.2364582403,56898.8637404683,62872.9960296868,65822.1050440569,58582.3010990128,68391.6305883385,28301.2962452632
8492741813,8856,-2,0,56146.5715489963,59266.0769896748,39692.9860356253,57433.4880034747,56886.3431804375,62900.8478877146,65850.4071068671,58592.2907781044,68413.9704797055,28294.5553412233
8492741813,8856,-2,0,56160.5278972522,59352.2364508781,39748.8844348299,57520.3775264874,56975.7027459052,62895.5306042029,65893.8944553123,58698.8067960925,68425.5419593841,28288.9582006848
8492741813,8856,-2,0,56151.8279940238,59404.5088764295,39766.7344460691,57548.7160923880,57040.1307005827,62871.6575830363,65889.7817737861,58745.1778886847,68409.2615810350,28291.3065661716
8492741813,8856,-2,0,56137.9081488583,59357.5293989961,39728.5765488324,57489.4107380730,56999.2715746512,62869.9419377843,65851.1371686765,58680.4092384962,68391.4602405830,28293.8496148076
8492741813,8856,-2,0,56140.9500730641,59281.6273062146,39692.2316384223,57431.0179610197,56918.5024031405,62898.9253916165,65839.4196766360,58602.7549973722,68404.3093284280,28295.4679184851
8492741813,8856,-2,0,56162.2922132915,59280.8972444052,39707.7819549620,57451.3015116235,56908.9020903472,62924.4410518542,65872.8443398086,58618.2566431246,68430.8349075021,28294.9325398248
8492741813,8856,-2,0,56178.9619579389,59358.7705040720,39757.0611270949,57522.9692459106,56985.8992758428,62921.5329723136,65913.5696210750,58708.2732642207,68448.3563909271,28295.7477755120
8492776785,8857,-2,0,56170.3837316788,59420.1808699374,39781.9075640074,57557.1239708926,57052.3835712834,62888.0596383536,65912.6570438133,58763.1252414985,68432.1490187589,28297.2200668276
8492776785,8857,-2,0,56145.1722638616,59383.9698041923,39744.9299333624,57505.4112593951,57017.0729151032,62856.1437695871,65867.2837023605,58710.5607912234,68401.5350935524,28296.9037067102
8492776785,8857,-2,0,56126.1419860306,59285.1194352028,39681.6335744895,57417.3658051843,56911.6398221324,62859.3438738515,65825.4876637737,58597.7419062811,68388.9171919470,28295.0785521867
8492776785,8857,-2,0,56133.6251195767,59251.4757534873,39672.2401125422,57409.9435101223,56868.7851939220,62882.8396964166,65841.5490235800,58577.2271694376,68407.9718051718,28291.9879571937
8492776785,8857,-2,0,56147.6179709230,59321.6225256716,39721.5192846751,57491.1628864155,56938.8102891380,62885.2123972971,65888.1878055023,58674.3132223879,68424.2643512177,28288.0699588167
8492776785,8857,-2,0,56146.5837166931,59390.2240003593,39751.9871975197,57538.7750840837,57017.2554305555,62866.4619764929,65895.3910820215,58740.9435301903,68412.2426667566,28287.7414310025
8492776785,8857,-2,0,56131.6052819041,59365.1220418136,39725.3399414775,57497.8916227586,56999.4905931940,62856.1924403744,65857.9997496846,58696.7139522389,68391.2898928275,28290.8320259955
8492776785,8857,-2,0,56122.5890185583,59287.6138130515,39682.3271332084,57428.4870800805,56917.0666149154,62868.1654540481,65828.4687494953,58602.3899664675,68389.3673967295,28294.7743597662
8492810539,8858,-2,0,56132.7368777086,59256.7443662117,39678.3969671346,57417.6456622113,56878.1664881725,62895.8347966235,65843.9460598541,58577.2758402249,68409.6509473333,28297.5972654291
8492810539,8858,-2,0,56153.2029437648,59323.3381709236,39729.6594738496,57487.0137017989,56943.3731754466,62922.8105804800,65891.1810589208,58658.1666887038,68434.2661980061,28299.1547306224
8492810539,8858,-2,0,56166.0520316098,59413.1479411738,39779.9120617284,57556.3330705992,57042.3452214044,62900.4341860226,65916.6723837648,58751.4564202453,68436.4077126470,28304.1921571071
8492810539,8858,-2,0,56150.1366841654,59407.2466082146,39759.2756479167,57525.9259962386,57043.9148542946,62866.7905043071,65879.5244053644,58728.7149948833,68409.7847919984,28312.5513648245
8492810539,8858,-2,0,56131.3740956644,59314.6747707857,39697.0500463642,57434.9967978808,56947.8508878775,62868.7616711925,65828.0428801065,58618.9380341467,68393.5165813461,28315.8244752698
8492810539,8858,-2,0,56138.2975151567,59267.0747408143,39680.2829601421,57413.6546576533,56887.5234470293,62900.8357200177,65837.0834788460,58579.1496655357,68414.8952246640,28316.9804064680
8492810539,8858,-2,0,56156.7315758434,59324.3359220631,39725.7658108663,57482.5846601553,56943.0689830261,62910.6063805666,65883.8561054334,58656.5848881169,68437.8313331752,28313.8168052941
8492810539,8858,-2,0,56158.7027427287,59401.4912876174,39766.1625643185,57543.7151689938,57027.8048237010,62889.7266128184,65904.8818855434,58737.4148981117,68429.2166038246,28311.2129181739
8492864264,8859,-2,0,56143.8338172111,59396.3930226486,39749.8091797884,57519.3067691669,57029.0094256865,62863.8702570696,65874.9371836622,58715.2088514098,68400.5130070193,28307.7207891858
8492864264,8859,-2,0,56130.5101891900,59318.5927691627,39702.0266343647,57446.1910789579,56949.7247131882,62864.0162694315,65835.2339889289,58624.7906963185,68389.4160675168,28309.7771299488
8492864264,8859,-2,0,56132.5908653467,59258.5938561287,39676.3406263715,57408.6050634718,56880.8555491704,62885.0785526320,65829.4178298475,58568.8801294171,68400.9997148922,28308.2683355428
8492864264,8859,-2,0,56148.2750265515,59299.7571744808,39712.5760275102,57460.6341350867,56914.5235662794,62906.4693636467,65869.1088568840,58624.7298578344,68421.5022840389,28301.5274315029
8492864264,8859,-2,0,56162.5964057121,59395.6142900519,39766.9412969151,57542.1577038004,57019.2509328345,62900.4828568099,65905.8796366829,58730.0777769274,68423.7168048606,28299.2155691065
8492864264,8859,-2,0,56154.8577505327,59419.3412988566,39765.5785148710,57540.0161891596,57053.8193595085,62872.8986881123,65888.0052900500,58737.9381090751,68399.6491005449,28302.2696610091
8492864264,8859,-2,0,56143.5539601842,59340.7379773804,39714.4011820337,57458.7481420792,56974.4981439197,62873.4705698629,65842.8144640496,58640.2193358900,68385.2060444160,28308.5238571761
8492864264,8859,-2,0,56152.2538634126,59273.0369122576,39688.2284661675,57417.1589543383,56897.0629213385,62901.0304031669,65839.0546457313,58578.1275790025,68405.0393902374,28309.9474777044
8492870478,8860,-2,0,56167.2809689889,59307.1551341491,39721.7018001274,57468.1172686328,56925.5718349947,62912.8330690852,65875.7645870461,58634.3545060213,68431.5771370083,28296.9888805879
8492870478,8860,-2,0,56167.7190060745,59388.8125475279,39763.2301493841,57531.5231367772,57010.1373279141,62892.6103569654,65897.7272798115,58720.7451534642,68429.4477900642,28284.3466435889
8492870478,8860,-2,0,56152.3512049872,59411.3349543471,39760.0543805133,57528.1283493636,57042.5885753409,62874.9063580880,65876.3243011000,58732.3288008397,68408.3976745605,28288.2524742691
8492870478,8860,-2,0,56141.9113211131,59355.2662073870,39722.3466880591,57465.6228907841,56986.3129775348,62876.9261957607,65841.8897190910,58663.1554444013,68398.5540078308,28302.5251826424
8492870478,8860,-2,0,56146.7418967518,59283.5254669189,39692.5845016301,57416.0273585338,56909.7173260344,62902.6122037539,65831.9000399994,58594.2619449898,68412.0114805170,28310.4706886677
8492870478,8860,-2,0,56166.8916026906,59299.5381559379,39719.9374840881,57453.0901630565,56919.5853281578,62925.9741816539,65871.5667316422,58628.1854837321,68438.3788795323,28309.1444097140
8492870478,8860,-2,0,56180.6897708878,59388.8612183152,39777.3568453956,57541.3181327196,57015.0652451274,62913.4414539263,65917.1590916378,58737.2810534466,68446.8110934306,28305.4697652735
8492870478,8860,-2,0,56170.4810732534,59426.7635939186,39786.4582826191,57558.4745852400,57065.4516776712,62887.3660796347,65908.5443622871,58766.1671657043,68423.9358234034,28305.1412374593
8492917160,8861,-2,0,56156.7437435403,59371.0598778632,39743.6644928929,57490.8100232076,57009.4437691952,62888.8505386471,65865.0448461451,58684.3880753573,68407.5459357829,28313.3787682084
8492917160,8861,-2,0,56159.7126615650,59301.4484843391,39712.7463752658,57436.5664307709,56930.6944353571,62908.2580150797,65851.8672304858,58608.9483550550,68419.0079061901,28321.4216158084
8492917160,8861,-2,0,56170.8582718549,59309.9293690247,39732.3972056348,57460.7193089645,56932.1302235822,62920.7299043232,65880.3274733547,58631.2760787251,68439.6321523050,28315.5324505461
8492917160,8861,-2,0,56170.6757564025,59378.2996574728,39771.0418107445,57521.8498178029,57003.1409022409,62905.2039231772,65903.1905756850,58707.7135501669,68439.2914567940,28303.1092320899
8492917160,8861,-2,0,56152.1565218380,59413.5738105625,39778.3910996255,57535.6844890906,57046.2875551751,62880.8563618345,65892.6046794491,58735.8330975247,68418.6307075886,28295.0542167931
8492917160,8861,-2,0,56131.5809465104,59364.3068061265,39741.2674566187,57480.0416115193,57000.8168721477,62871.9496077601,65853.5828757379,58672.3785585930,68401.8757890635,28293.8861178981
8492917160,8861,-2,0,56128.9527239966,59283.4159576475,39697.8896174449,57417.4631467589,56912.3820516386,62900.6532045654,65830.1843947474,58581.5345341130,68409.1520717636,28303.9001323834
8492917160,8861,-2,0,56155.1862783469,59286.3605402787,39714.2795050654,57442.1757390063,56903.3171175055,62933.5668244714,65865.0935169324,58595.0650129801,68443.8786784962,28313.9628176559
8492933353,8862,-2,0,56173.4499912782,59374.3208206117,39768.0728927197,57529.1017651094,56990.7663545720,62919.4766315505,65909.3230948838,58701.8608879950,68455.4014873876,28308.5846956602
8492933353,8862,-2,0,56164.4823987196,59425.5711596300,39782.5159488485,57557.3186540418,57052.9067822468,62881.8176098835,65901.7547874599,58751.2374017025,68429.2896100055,28300.0673078841
8492933353,8862,-2,0,56145.3669470108,59375.6592672623,39739.7464945159,57494.9713755211,57012.1936686772,62871.3777260094,65855.9555766184,58683.9378705748,68400.9145410144,28300.7000281189
8492933353,8862,-2,0,56141.7896441449,59291.0694389492,39695.8576120755,57428.3775708091,56923.0774571460,62892.2088229703,65832.9342942294,58596.4764658115,68405.2097379929,28307.9276400318
8492933353,8862,-2,0,56158.8730904843,59285.8373293153,39710.2519974171,57444.0617320139,56908.2572024156,62926.4487218300,65864.4242936071,58608.2791317298,68437.1621098500,28313.2327558466
8492933353,8862,-2,0,56175.2143073175,59363.0170302632,39763.3639940492,57515.3887707900,56982.4801530356,62924.3315425828,65908.5686976808,58700.8388014619,68457.1536357301,28312.3688493721
8492933353,8862,-2,0,56168.0110307983,59425.1696256348,39785.1320036654,57552.8166062173,57051.3736524471,62893.4742634398,65911.1725848009,58762.6020305352,68441.5546484031,28304.6058587991
8492933353,8862,-2,0,56147.5814678326,59397.8044754800,39753.5689981067,57510.5338597576,57028.2793638771,62872.6309987822,65873.5865693148,58720.5139672246,68409.5536057587,28303.1213997867
8492997126,8863,-2,0,56145.0140838029,59314.6504353920,39705.5187633529,57437.2478217930,56940.3799220282,62889.8604574834,65839.0546457313,58620.3008161909,68404.9055455724,28305.3845913958
8492997126,8863,-2,0,56163.0831135850,59287.4799683864,39706.9302161844,57433.9990467413,56903.4387944737,62918.0408433254,65855.9555766184,58598.9708436602,68429.1192622500,28304.9952250974
8492997126,8863,-2,0,56177.7938590439,59357.4807282088,39758.5577538041,57513.1985853618,56973.5733989612,62914.6947266991,65900.9273840760,58688.5859307612,68447.6263291177,28295.8451170866
8492997126,8863,-2,0,56171.4058182119,59422.7482539671,39783.5015322912,57558.3894113622,57052.6999314008,62886.1614776493,65903.7137866484,58755.4474248033,68433.5483038936,28287.8387725771
8492997126,8863,-2,0,56153.3611238235,59395.5777869614,39753.1552964147,57516.1310002962,57035.1541125821,62871.3047198284,65865.8965849227,58715.5860500113,68410.0281459348,28291.0023737510
8492997126,8863,-2,0,56142.3128551082,59312.7036039004,39708.0618119889,57443.7088688060,56951.6228738926,62893.3404187748,65830.4642517743,58627.5527634973,68414.5788645466,28300.8947112681
8492997126,8863,-2,0,56152.8379128601,59275.4947870158,39704.2654905802,57430.3487376944,56904.5338871878,62919.7443208806,65842.5102716290,58604.2759594750,68439.2792890972,28307.2705844033
8492997126,8863,-2,0,56167.1592920207,59332.6221235995,39748.8722671331,57490.2138060633,56959.4345352529,62936.5114071026,65881.8241000639,58678.6084193664,68461.2541495594,28305.2629144275
8493002473,8864,-2,0,56167.8406830428,59416.6157347683,39792.5908018179,57554.6904315281,57048.6359206619,62913.1007584153,65903.7259543452,58765.6804578314,68455.6448413240,28298.6801904463
8493002473,8864,-2,0,56150.6963982192,59415.4598035701,39776.7849636449,57534.7354087384,57055.5593401542,62878.8486918587,65874.7425005130,58748.7065207634,68428.2310203820,28297.6702716100
8493002473,8864,-2,0,56134.3795167797,59326.6112813690,39715.8369702588,57450.5957852078,56962.8293226665,62876.0014508021,65829.7463576617,58639.4041002029,68407.9474697781,28297.5485946418
8493002473,8864,-2,0,56142.1181719591,59270.9927391913,39694.0689606425,57423.5104920799,56895.7488100816,62905.1674200867,65835.2096535352,58591.9135795029,68425.4932885968,28301.4179222315
8493002473,8864,-2,0,56162.7910888613,59327.3900139657,39739.0164327065,57494.3873260736,56949.4813592517,62925.4509706905,65883.0773728367,58674.7877625640,68450.4370670838,28304.4476787404
8493002473,8864,-2,0,56167.1227889302,59413.4643012911,39782.4672780612,57559.0099639002,57044.3163882898,62904.6442091233,65908.3375114411,58766.8120536359,68447.9913600224,28303.3039152390
8493002473,8864,-2,0,56152.8622482537,59417.5891505141,39769.5816871257,57537.5096436141,57058.8811213868,62884.0808014925,65881.5199076434,58756.6520267887,68427.0872568806,28301.3814191410
8493002473,8864,-2,0,56143.2497677636,59346.9556704569,39728.6495550133,57467.5332191853,56987.6757595790,62892.1114813957,65843.8243828859,58671.1861243044,68420.4680298089,28303.4134245104
8493031049,8865,-2,0,56150.4043734955,59288.2343655894,39709.9234696028,57431.9670413719,56923.0896248428,62917.9313340540,65839.4318443328,58617.5387490120,68437.3324576055,28305.1534051561
8493031049,8865,-2,0,56172.1358800213,59324.7131206646,39745.6964982623,57484.0569514709,56958.4732872039,62940.7701009906,65880.9601935895,58675.2379673464,68465.8413712617,28301.8072885298
8493031049,8865,-2,0,56180.8114478560,59410.9455880488,39792.0067523704,57562.7211114312,57054.0627134449,62919.4401284600,65914.1780059161,58777.0937574513,68467.4475072423,28293.9712917758
8493031049,8865,-2,0,56167.1592920207,59431.1683001685,39784.9616559099,57565.2519923704,57086.3314454194,62889.6414389406,65899.5280989413,58790.9284287390,68441.4694745253,28289.4570762545
8493031049,8865,-2,0,56152.8622482537,59358.8800133434,39729.1119274926,57489.7636012808,57011.8529731661,62893.2430772002,65858.8514884622,58698.7094545179,68424.2278481272,28294.5310058297
8493031049,8865,-2,0,56160.3088787094,59296.2407100989,39702.4281683599,57450.4497728459,56937.7395318176,62926.6555726760,65857.4035325403,58633.2472456105,68445.7160007165,28300.0064694000
8493031049,8865,-2,0,56176.1025491856,59329.8843918144,39733.8573292536,57500.2278205486,56964.0095892583,62938.1662138705,65895.6466036548,58684.8139447461,68470.5624376290,28295.0298813994
8493031049,8865,-2,0,56175.7253505840,59407.5142975447,39778.5127765938,57566.0915634512,57048.5020759968,62920.3283703281,65917.5484579361,58772.7377219887,68467.8125381470,28291.5864231985
8493102928,8866,-2,0,56163.0587781914,59432.5189145159,39780.4474403886,57567.1379853779,57082.7541425534,62901.4076017684,65898.7615340415,58787.7891629586,68445.4726467801,28295.2002291550
8493102928,8866,-2,0,56147.2529400184,59373.4812495310,39739.6248175476,57501.8461242260,57023.1445958178,62895.3724241442,65862.3192820568,58714.4422865099,68428.9975852818,28301.4422576251
8493102928,8866,-2,0,56142.9090722526,59294.3912201818,39702.4646714504,57437.7466973628,56937.0581407955,62913.6483047723,65839.7847075407,58629.7551166223,68435.8723339868,28307.2097459192
8493102928,8866,-2,0,56157.9726809194,59303.8698560069,39724.0258302206,57460.4151165439,56937.4961778811,62943.6173420472,65866.8821683654,58652.3870327129,68465.2451541173,28313.1354142720
8493102928,8866,-2,0,56170.3837316788,59392.3533473033,39779.8512232443,57540.7584186658,57028.2428607866,62930.0868631801,65901.5722720076,58753.7804503385,68475.6363672041,28311.6752906532
8493102928,8866,-2,0,56156.8775882053,59429.7203442466,39786.6407980715,57555.7855242421,57075.9402323326,62888.7897001630,65886.5451664312,58782.8734134422,68446.3730563449,28306.7108703495
8493102928,8866,-2,0,56138.9180676946,59368.8088539509,39739.2719543398,57487.0988756766,57018.4965356315,62879.6517598490,65842.4616008417,58697.6021941070,68419.3972724885,28310.1299931567
8493102928,8866,-2,0,56136.1681682127,59285.8373293153,39696.8918663055,57426.8079379189,56925.1216302122,62898.3170067754,65825.6458438324,58608.3034671234,68422.1228365768,28309.3755959537
8493111888,8867,-2,0,56147.0582568692,59288.2465332862,39712.2231643024,57454.7814729149,56917.1031180059,62918.8804144062,65857.5738802958,58629.3900857176,68441.9075116109,28301.1989036887
8493111888,8867,-2,0,56155.4661353738,59364.2216322487,39759.1174678580,57526.7047288353,56994.1003035015,62911.5311255251,65893.8336168282,58718.7253157916,68448.8430988000,28295.8816201770
8493111888,8867,-2,0,56148.9077467863,59408.9135826794,39772.1247357617,57552.4029045253,57051.2641431757,62885.4192481431,65891.0228788621,58759.2315785152,68429.9223302403,28298.1691471797
8493111888,8867,-2,0,56135.7422988239,59369.7457666063,39734.4048756106,57503.1480677861,57016.5983749271,62872.4363156330,65856.1989305548,58706.8739790861,68409.7726243015,28308.0371493032
8493111888,8867,-2,0,56131.3862633612,59285.1437705964,39684.3591385778,57433.4758357779,56927.5430018800,62887.6094335712,65828.7607742191,58616.6870102344,68411.9263066392,28314.4251901352
8493111888,8867,-2,0,56150.2096903463,59275.4704516222,39694.9937056011,57444.7066199455,56908.7439102885,62924.5505611256,65857.8172342323,58620.5806732178,68444.0246908581,28317.3089342822
8493111888,8867,-2,0,56164.0321939372,59354.9985180569,39748.3612238665,57523.5167922677,56988.3814859947,62916.7510674621,65903.1054018073,58720.3679548627,68459.4168273391,28310.4585209709
8493111888,8867,-2,0,56151.0857645176,59407.7211483907,39766.6371044946,57555.9923750881,57054.6102598020,62885.6626020795,65897.1067272736,58773.5407899790,68437.0891036690,28304.1678217135
8493123217,8868,-2,0,56129.7801273806,59362.6641670554,39729.3917845195,57497.4535856729,57016.6348780176,62873.6409176185,65850.0907467497,58710.2809341965,68408.7505377684,28305.9321377528
8493123217,8868,-2,0,56124.7913716832,59277.8066494122,39686.6223301869,57430.3487376944,56928.8571131369,62891.7221150973,65819.8783555383,58616.7113456281,68410.3566737490,28310.9573965407
8493123217,8868,-2,0,56140.7918930054,59263.3879286770,39692.2559738159,57439.8760443068,56904.9475888798,62918.6370604697,65841.9992283624,58612.3188070750,68434.7407381822,28314.1088300178
8493123217,8868,-2,0,56156.7924143275,59334.8488121181,39738.9190911319,57506.8957184075,56971.0425180220,62919.4522961568,65879.8042623913,58691.6156872701,68448.1373723843,28309.5946144965
8493123217,8868,-2,0,56154.5657258089,59402.1726786395,39767.7443649055,57551.0766255716,57045.4114810038,62896.8568831566,65887.9444515659,58756.7372006665,68435.0327629060,28305.8834669655
8493123217,8868,-2,0,56140.8527314895,59383.4344255321,39744.8812625751,57519.0390798368,57035.4583050027,62877.3764005431,65860.4332890492,58729.3477151181,68412.8510515978,28306.0781501147
8493123217,8868,-2,0,56134.9513985304,59295.4984805927,39694.0081221584,57440.7399507812,56944.7846282781,62884.7013540305,65827.7873584732,58632.8335439185,68406.5481846435,28303.6446107501
8493123217,8868,-2,0,56151.9131679015,59256.4888445784,39685.4663989887,57425.7615159922,56897.1845983067,62917.4081230906,65842.7657932623,58603.6189038466,68433.7916578300,28303.5837722660
8493174516,8869,-2,0,56171.2111350627,59327.2805046942,39738.2011970193,57499.8384542502,56965.0195080946,62926.3392125586,65889.2585628228,58692.4309229572,68458.4069085028,28304.3138340753
8493174516,8869,-2,0,56170.9191103390,59406.3461986497,39777.4420192733,57557.2456478609,57054.4399120464,62904.0114888885,65901.0247256505,58770.3406857145,68448.0400308097,28307.8911369413
8493174516,8869,-2,0,56153.2394468552,59392.2803411224,39755.3698172365,57518.3455211179,57046.2632197814,62879.9802876632,65860.9078292253,58729.7979199005,68420.6018744740,28310.1786639440
8493174516,8869,-2,0,56139.9644896214,59310.3552384135,39706.8328746098,57442.9058008157,56959.2520198006,62886.8915394586,65821.8981932109,58632.8700470089,68411.2814187076,28312.6730417927
8493174516,8869,-2,0,56152.3268695935,59270.6033728930,39697.7071019926,57428.7426017138,56906.6023956477,62916.7510674621,65833.1411450754,58600.8933397583,68431.9300002161,28311.3345951422
8493174516,8869,-2,0,56174.3747362367,59325.2850024153,39737.1912781830,57492.3309853105,56954.8473135507,62929.4663106421,65881.2765537069,58668.2293739764,68451.5199921010,28307.2705844033
8493174516,8869,-2,0,56181.8822051765,59406.5165464052,39774.4122627644,57558.9734608097,57042.1748736489,62905.5324509914,65908.3740145316,58754.2184874242,68444.7912557580,28304.5693557086
8493174516,8869,-2,0,56162.2922132915,59406.9545834909,39757.1706363663,57540.9531018150,57051.8968634104,62869.4552299114,65881.0210320736,58743.5352496136,68414.7127092117,28303.1822382708
8493212928,8870,-2,0,56141.4367809370,59317.8748750501,39698.6318469511,57456.6674659224,56964.5328002217,62868.7008327083,65835.2704920194,58639.6717895330,68394.7455187252,28305.3480883053
8493212928,8870,-2,0,56143.9189910889,59257.0850617227,39676.3771294620,57421.2107973804,56893.2300968393,62905.6419602628,65836.1100631001,58586.2921035707,68414.1529951578,28308.0979877873
8493212928,8870,-2,0,56161.5743191790,59307.1551341491,39722.0668310321,57485.6874228452,56939.1266492554,62922.4212141816,65885.2918936585,58661.6223146016,68442.5767349362,28305.1655728529
8493212928,8870,-2,0,56165.8816838543,59393.5822846825,39766.9291292183,57555.3353194597,57034.1076906553,62903.3909363505,65911.8783112166,58756.5668529110,68440.3135433271,28300.2254879428
8493212928,8870,-2,0,56154.5048873248,59405.5674660531,39754.2625568256,57541.7805051989,57054.5980921051,62879.0190396142,65887.8106069008,58749.0107131839,68417.5356148746,28298.3638303289
8493212928,8870,-2,0,56146.3281950598,59338.8033135856,39707.6602779938,57475.1623650933,56987.2985609774,62879.4449090030,65853.5098695569,58664.6155680200,68406.8767124577,28304.0339770484
8493212928,8870,-2,0,56154.6995704740,59280.4592073196,39681.4023882499,57437.4546726390,56920.0355329402,62906.3355189817,65849.6527096641,58607.9871070060,68423.7046371638,28309.2660866823
8493212928,8870,-2,0,56180.1787276212,59315.5265095633,39718.3070127138,57486.8311863465,56949.5056946454,62936.4384009217,65893.4199151362,58661.3302898778,68456.7034309476,28315.1309165509
8493226718,8871,-2,0,56191.8962196617,59404.4480379453,39774.2419150089,57563.9257134167,57044.4380652580,62923.7474931353,65930.0203471796,58762.3343412051,68462.5804285131,28312.5391971276
8493226718,8871,-2,0,56176.8447786918,59427.3963141534,39778.3667642319,57568.9144691141,57078.7388026019,62893.8879651318,65911.0752432263,58781.9608361805,68438.1841963831,28310.0813223694
8493226718,8871,-2,0,56156.4395511197,59351.3482090100,39725.3764445680,57488.9727009873,57004.2481626518,62881.4890820693,65861.4675432792,58685.9090374602,68415.8199696225,28310.6045333328
8493226718,8871,-2,0,56154.6265642931,59274.0224957002,39687.0238641821,57431.4559981053,56918.5145708374,62911.4337839505,65845.4305188665,58607.7559207664,68430.7740690179,28311.8213030151
8493226718,8871,-2,0,56170.9069426422,59303.2736388626,39718.7693851931,57476.6711594994,56941.5601886200,62934.4550663395,65886.6303403090,58656.9620867184,68461.0351310166,28308.7428757189
8493226718,8871,-2,0,56179.7771936261,59389.5912801245,39769.5695194289,57550.2248867940,57036.2005345089,62925.4509706905,65918.5218736819,58754.4861767543,68467.6786934819,28299.7022769794
8493226718,8871,-2,0,56173.0606249798,59428.0290343882,39778.6831243493,57563.3538316660,57084.2872723531,62908.5378721067,65908.1306605951,58782.3745378724,68452.1770477295,28302.3670025837
8493226718,8871,-2,0,56160.5278972522,59378.0441358396,39742.1678661836,57507.1634077376,57034.9107586456,62902.4418559984,65872.6131535690,58717.5572168966,68438.0138486276,28308.0736523936
8493251773,8872,-2,0,56159.7004938682,59304.5512470290,39703.0973916852,57452.4939459122,56950.2114210611,62921.3261214676,65854.1304220949,58634.3545060213,68444.9981066040,28314.6442086780
8493251773,8872,-2,0,56175.5306674349,59306.8266063349,39716.7252121269,57476.1601162328,56939.7472017934,62934.1508739189,65883.9899500984,58645.8164764286,68465.2573218142,28313.3057620275
8493251773,8872,-2,0,56182.1255591129,59384.1644873415,39760.4315791149,57550.6750915765,57017.1459212841,62918.0773464158,65919.4101155500,58735.0056941407,68465.3424956919,28304.1799894103
8493251773,8872,-2,0,56165.2854667100,59425.5833273268,39768.4865944117,57567.9897241555,57069.8442162243,62885.0663849352,65908.3861822284,58773.1027528934,68439.7416615765,28299.1425629256
8493251773,8872,-2,0,56143.8216495143,59370.4514930220,39724.4395319126,57497.1737286460,57020.5407086977,62877.9117792033,65861.2728601300,58696.4827659993,68414.2138336419,28305.9686408433
8493251773,8872,-2,0,56139.1614216311,59288.6724026751,39684.7606725730,57431.7723582227,56931.1324724427,62902.6243714507,65838.6531117361,58609.4715660184,68420.3341851439,28313.1597496656
8493251773,8872,-2,0,56154.3588749630,59289.9378431446,39704.1803167024,57456.8621490716,56925.4623257233,62924.1368594337,65869.5712293632,58630.2296567984,68445.0711127849,28313.8411406877
8493251773,8872,-2,0,56167.0254473556,59367.3243949386,39753.1066256274,57528.6150572365,57006.2436649308,62919.6104762155,65904.1274883404,58725.2593689855,68452.9801157198,28309.1200743204
8493274577,8873,-2,0,56162.8640950422,59421.8600120990,39772.9643068425,57559.6791872255,57069.1384898086,62900.3246767512,65903.9206374944,58773.7233054313,68438.7195750433,28308.8037142030
8493274577,8873,-2,0,56150.4408765860,59389.3479261881,39744.1755361594,57516.1918387803,57041.5786565046,62890.7973701388,65870.3134588694,58724.8213318999,68420.0299927233,28308.8158818998
8493274577,8873,-2,0,56147.7396478913,59304.0402037624,39698.5831761638,57447.2618362783,56953.0586621177,62904.7658860915,65843.2768365289,58632.4928484074,68422.2080104546,28309.6554529806
8493274577,8873,-2,0,56157.9240101321,59277.5146246884,39695.5047488676,57442.9666392998,56916.2635469251,62922.7497419958,65857.9632465942,58616.5531655694,68443.0756105059,28308.2440001491
8493274577,8873,-2,0,56167.6703352873,59349.4500483056,39742.4477232106,57515.3522676995,56986.1791328697,62917.0187567922,65901.0977318315,58709.4170277221,68458.0418775982,28307.2949197970
8493274577,8873,-2,0,56157.6928238924,59409.2542781904,39761.9038704304,57555.3231517629,57060.3290773088,62884.3363231258,65905.5389411718,58772.7133865950,68438.2815379577,28303.2795798454
8493274577,8873,-2,0,56140.4511974943,59376.3528259812,39726.5567111598,57506.3116689600,57035.6286527582,62874.4318179119,65866.3346220083,58721.5968922418,68412.3765114217,28308.9010557776
8493274577,8873,-2,0,56135.7422988239,59295.1334496880,39684.8823495412,57435.6660212060,56949.1893345280,62894.7883746967,65835.2583243225,58628.4653407590,68415.8929758035,28316.8343941061
8493329727,8874,-2,0,56150.1488518622,59277.5267923852,39696.1009660120,57436.3717476218,56920.2545514830,62928.1278639916,65854.0817513076,58621.0430456970,68442.8809273568,28321.2391003560
8493329727,8874,-2,0,56164.2512124800,59346.1647701635,39746.0615291670,57499.4490879519,56982.3949791578,62934.4063955522,65891.7772760651,58701.2768385475,68463.9310428605,28317.2967665854
8493329727,8874,-2,0,56160.7590834918,59414.2673692815,39778.0990749018,57543.6908336001,57053.7950241148,62907.4549470894,65899.8201236651,58765.8021347996,68452.7367617834,28311.2250858708
8493329727,8874,-2,0,56139.5386202326,59395.5534515678,39752.8389362973,57508.5748605691,57043.0509478202,62879.8342753013,65864.4121259103,58734.0566137885,68424.0818357653,28309.6797883743
8493329727,8874,-2,0,56127.0667309891,59309.3696549709,39697.8531143545,57432.3685753670,56954.7499719761,62888.5828493170,65826.3028994608,58637.7492934350,68413.9339766150,28311.7604645310
8493329727,8874,-2,0,56145.0262514998,59272.4163597196,39692.6453401143,57422.5614117277,56907.6244821808,62932.3135516987,65844.1650783969,58608.0601131870,68444.4262248533,28313.0137373037
8493329727,8874,-2,0,56170.9556134294,59347.4667137235,39748.4220623506,57503.5009309939,56975.5445658465,62938.3974001102,65898.8467079192,58699.4395163273,68470.1122328465,28315.7393013921
8493329727,8874,-2,0,56171.0407873072,59428.5400776548,39787.5777107269,57564.5219305610,57061.1199776022,62909.6938033048,65919.0572523421,58781.6688114567,68460.8647832611,28317.5036174314
8493339874,8875,-2,0,56152.0105094761,59416.5792316778,39762.6582676335,57528.9922558380,57054.8901168289,62882.5963424801,65883.8074346461,58748.3414898587,68427.8903248709,28316.3355185364
8493339874,8875,-2,0,56144.8802391379,59332.8168067487,39708.6215260428,57456.7891428907,56968.9253387748,62887.2200672729,65846.7811332139,58651.8273186591,68418.1196643221,28318.1485053630
8493339874,8875,-2,0,56152.8500805569,59282.9657528651,39692.2924769064,57435.2036487268,56913.8543429542,62914.1106772516,65852.6581307793,58611.6617514466,68436.2738679819,28320.9105725418
8493339874,8875,-2,0,56166.0641993066,59326.8181322150,39729.9636662702,57489.6784274031,56952.9126497558,62932.2405455177,65889.3559043973,58671.9040184169,68457.1171326396,28320.4482000626
8493339874,8875,-2,0,56168.7045895172,59407.3196143956,39774.6799520945,57554.3010652297,57038.9626016877,62911.7014732806,65916.3073528602,58761.3122546719,68457.6281759062,28321.9569944686
8493339874,8875,-2,0,56146.0848411234,59411.1402711980,39762.9867954477,57537.8990099124,57050.3515659139,62876.8531895797,65888.2729793801,58759.6817832977,68429.0219206754,28322.0421683464
8493339874,8875,-2,0,56129.0500655712,59328.4607712861,39706.2609928591,57455.0491622450,56964.9586696105,62875.1132089340,65840.9893095261,58662.5592272569,68408.8965501303,28320.8740694514
8493339874,8875,-2,0,56139.9888250151,59263.0228977723,39678.3969671346,57417.6334945144,56888.8497259830,62905.7149664437,65838.1420684696,58599.5305577141,68426.4302012522,28322.4680377352
8493385637,8876,-2,0,56164.1660386022,59305.6950105303,39715.3137592954,57480.2241269717,56926.7764369801,62918.8925821030,65887.5550852675,58664.2627048121,68451.2401350741,28320.7888955736
8493385637,8876,-2,0,56169.6171667789,59389.0559014643,39756.7082638870,57554.2402267456,57018.0584985458,62898.9375593134,65917.5727933297,58758.6596967645,68447.8453476605,28318.6108778423
8493385637,8876,-2,0,56157.3034575941,59404.1925163121,39745.8303429273,57546.3798945980,57038.9747693845,62876.2448047386,65896.4861747356,58758.9273860946,68422.2566812419,28318.6473809328
8493385637,8876,-2,0,56144.7463944728,59335.2868492037,39698.6440146480,57475.5030606044,56968.6576494447,62870.8423473492,65856.0164151025,58672.8165956787,68405.8424582277,28319.1340888057
8493385637,8876,-2,0,56151.4629631191,59274.6308805414,39675.6714030463,57433.3298234160,56899.7763177300,62904.0479919790,65850.3949391703,58612.1362916227,68422.5973767529,28323.7456459016
8493385637,8876,-2,0,56176.9907910536,59306.1452153128,39711.4809347962,57476.1601162328,56928.2973990830,62936.5479101931,65890.0129600258,58656.8769128406,68457.2266419110,28325.9358313297
8493385637,8876,-2,0,56187.0899794167,59393.6066200761,39763.9602111935,57549.1176263832,57020.0540008248,62913.8186525278,65921.6976425527,58752.7583638054,68463.0306332956,28320.5212062435
8493385637,8876,-2,0,56166.2102116685,59418.9519325583,39761.5753426162,57552.2082213762,57058.3457427266,62874.1519608850,65897.3135781195,58773.0297467124,68432.1490187589,28306.0659824178
8493400237,8877,-2,0,56143.5661278810,59349.2431974597,39705.8716265608,57476.2696255042,56990.3526528800,62866.1334486787,65848.3507661040,58685.2641495285,68405.6234396849,28306.9298888923
8493400237,8877,-2,0,56145.4277854949,59270.2870127756,39666.4847919449,57421.6731698597,56905.4464644495,62892.0993136989,65837.2538266015,58605.7360830938,68417.0854100921,28315.3864381842
8493400237,8877,-2,0,56167.5364906222,59295.0239404166,39696.6728477626,57469.3948767992,56924.4524068870,62923.5649776830,65883.6370868906,58648.7002205756,68447.7115029955,28322.8695717303
8493400237,8877,-2,0,56182.1498945066,59385.8071264126,39750.8921048057,57550.2492221877,57016.9269027413,62910.8497345030,65922.4398720589,58745.3482364402,68455.6326736272,28325.9601667234
8493400237,8877,-2,0,56171.5031597865,59419.8645098200,39757.6086734519,57559.7156903159,57058.6986059345,62879.0920457951,65909.8219704535,58762.4560181733,68432.7452359033,28327.8339920341
8493400237,8877,-2,0,56156.1718617896,59369.3442326112,39721.4827815846,57498.7190261425,57006.3166711117,62875.3322274768,65870.5446451091,58692.7837861651,68414.4815229720,28335.8403365436
8493400237,8877,-2,0,56153.5071361853,59295.1212819912,39687.0238641821,57438.9999701355,56920.8872717178,62899.9839812401,65852.6216276889,58615.1660481316,68423.8141464352,28339.8800118888
8493400237,8877,-2,0,56169.6171667789,59293.9531830962,39704.6426891817,57457.1785091890,56913.7326659859,62928.9430996787,65884.6348380300,58630.6676938840,68452.6880909961,28334.5262252867
8493450302,8878,-2,0,56178.0737160709,59369.3077295207,39752.8876070846,57530.9269196329,56992.2994843717,62910.4968712951,65925.2627777218,58724.8456672936,68459.2829826741,28322.2855222828
8493450302,8878,-2,0,56164.9569388957,59415.8735052621,39764.6416022156,57558.3285728781,57055.4498308827,62879.4814120935,65919.0085815549,58773.7233054313,68436.7849112485,28318.2336792408
8493450302,8878,-2,0,56144.5638790205,59365.5844142929,39716.8103860046,57493.2192271786,57012.3761841295,62864.0649402188,65869.6320678473,58702.2380865965,68407.5094326925,28320.4116969721
8493450302,8878,-2,0,56141.1812593037,59285.6791492566,39670.6096411679,57425.3721496938,56924.8782762758,62893.4255926526,65843.8243828859,58613.8032660874,68412.8023808105,28324.1106768063
8493450302,8878,-2,0,56163.2412936437,59291.2884574920,39691.7449305494,57453.3091815993,56922.1892152779,62927.1422805489,65877.3585553299,58638.4671875475,68447.5411552400,28323.4171180874
8493450302,8878,-2,0,56180.6411001005,59373.2987340786,39745.0029395434,57530.8052426646,57006.6938697132,62928.9917704660,65919.7021402738,58735.4315635295,68465.1356448459,28318.0754991821
8493450302,8878,-2,0,56180.1057214403,59431.7523496160,39768.6326067735,57565.0938123117,57074.9546488899,62908.7325552558,65921.3447793449,58787.7161567777,68453.0896249912,28316.3355185364
8493450302,8878,-2,0,56165.3706405877,59401.0410828349,39737.1182720021,57519.6109615875,57047.9423619430,62889.1060602804,65883.2355528954,58737.4027304148,68430.1170133895,28317.6983005806
8493489702,8879,-2,0,56158.8974258779,59314.8086154507,39692.3168123000,57445.9112219310,56955.0663320935,62894.6058592444,65849.8595605101,58638.3698459729,68423.7898110416,28319.6572997691
8493489702,8879,-2,0,56168.7045895172,59284.9612551441,39691.3068934637,57436.1162259885,56911.2747912277,62917.3229492128,65863.0615115630,58612.7081733733,68442.6132380267,28317.1264188299
8493489702,8879,-2,0,56179.7771936261,59356.5438155534,39741.5229782520,57508.0029788184,56977.3697203699,62919.4157930664,65907.7412942968,58701.5201924840,68458.8692809821,28313.7072960226
8493489702,8879,-2,0,56174.2043884812,59426.4959045885,39773.2806669599,57557.4159956164,57056.5692589905,62892.1236490925,65916.8792346108,58773.5407899790,68442.3333809997,28314.2305069860
8493489702,8879,-2,0,56158.0943578876,59399.5079530352,39744.5283993673,57513.7704671125,57038.2082044846,62877.7049283573,65879.8651008754,58731.4405589716,68416.5013606446,28317.4062758568
8493489702,8879,-2,0,56157.5833146210,59317.7045272946,39699.7147719684,57443.0031423903,56949.3353468899,62894.0339774937,65849.9082312974,58638.1994982174,68416.3553482828,28321.2512680529
8493489702,8879,-2,0,56177.4896666234,59294.5615679374,39700.6030138365,57447.5295256084,56918.7944278643,62925.8768400793,65871.5302285517,58630.5581846126,68445.6551622324,28323.3076088159
8493489702,8879,-2,0,56196.1427458529,59358.9530195244,39744.0538591912,57517.3234345848,56980.0831167614,62924.8669212430,65914.6282106986,58712.3616103532,68465.8048681712,28322.4558700383
8493503397,8880,-2,0,56186.1165636708,59422.4805646369,39766.4545890422,57561.1758139347,57049.7796841633,62890.9312148039,65920.1766804498,58774.8427335390,68449.0377819492,28314.2061715924
8493503397,8880,-2,0,56160.4305556776,59406.0906770164,39741.7419967948,57530.1238516425,57041.7855073506,62873.1785451392,65886.8128557613,58748.7673592475,68420.7600545327,28314.1575008051
8493503397,8880,-2,0,56147.8126540722,59322.9366369285,39693.4362404077,57455.7062178734,56953.8982331985,62880.1019646314,65847.9248967152,58648.5542082137,68410.7947108347,28314.5346994066
8493503397,8880,-2,0,56157.8388362543,59274.3266881208,39680.9035126801,57430.8111101737,56895.8948224435,62914.6582236086,65856.9533277578,58603.7040777244,68431.9786710034,28314.3765193479
8493503397,8880,-2,0,56184.8511232012,59338.4382826809,39735.1106020263,57506.2508304759,56956.2587663821,62927.4586406663,65912.7543853879,58688.2087321597,68463.0184655987,28320.5698770308
8493503397,8880,-2,0,56182.9772978905,59417.5769828173,39775.1544922706,57565.2276569767,57043.8540158105,62894.4841822762,65930.4583842652,58772.7377219887,68451.3253089519,28320.0101629769
8493503397,8880,-2,0,56159.5788169000,59408.0496762049,39752.2548868498,57528.6272249333,57041.7246688665,62870.9153535301,65892.2518162412,58742.1116290853,68420.5288682930,28320.2778523070
8493503397,8880,-2,0,56147.6666417103,59328.0470695941,39702.0996405457,57451.0459899902,56959.5075414338,62883.5210874387,65851.2223425542,58646.4856997538,68412.5833622676,28319.4504489231
8493519894,8881,-2,0,56157.2061160195,59281.5177969432,39684.9066849349,57427.0391241586,56901.4676275884,62906.6640467959,65852.9258201094,58605.2493752209,68429.7398147880,28319.9736598865
8493519894,8881,-2,0,56174.8614441096,59322.1457366350,39715.8004671683,57477.7784199102,56934.8071168833,62912.1638457599,65887.1413835756,58660.6854019462,68450.2302162378,28312.1619985261
8493519894,8881,-2,0,56177.1003003250,59399.9338224240,39757.1219655790,57539.5051458930,57016.8417288636,62890.2498237818,65908.0698221110,58744.3018145134,68442.4307225743,28305.7009515132
8493519894,8881,-2,0,56159.5301461127,59413.3426243229,39755.1142956032,57530.8417457551,57039.1816202305,62867.7882554466,65885.9489492869,58748.3171544650,68418.3995213490,28309.3999313473
8493519894,8881,-2,0,56144.5760467173,59341.3220268279,39710.3493389916,57453.9662372277,56965.9320853564,62867.8612616276,65842.4981039322,58659.6024769290,68401.9001244571,28320.2048461261
8493519894,8881,-2,0,56150.4165411923,59271.4794470642,39681.3658851594,57407.7776600879,56888.2170057482,62899.8258011814,65836.6332740635,58593.0451753075,68417.9371488697,28326.9214147724
8493519894,8881,-2,0,56173.3648174004,59310.5620892595,39719.1952545819,57468.5066349312,56919.5001542800,62921.1436060152,65884.5618318491,58653.9323302095,68447.4438136654,28329.9390035845
8493519894,8881,-2,0,56180.6532677973,59395.0424083012,39765.1283100885,57547.8643536104,57009.8818062808,62897.5869449660,65916.2951851633,58749.9232904457,68445.7160007165,28320.8253986641
8493562001,8882,-2,0,56167.9136892237,59411.0185942297,39757.4018226059,57544.5304046809,57037.5146457657,62876.4273201909,65896.3766654642,58749.9476258393,68420.3463528407,28318.1363376662
8493562001,8882,-2,0,56156.3908803324,59344.4612926082,39707.8914642334,57479.6887483114,56974.5711501007,62867.8855970212,65859.7884011176,58665.9661823674,68404.6865270296,28318.1606730598
8493562001,8882,-2,0,56155.3687937993,59269.2770939393,39669.5753869380,57431.8575321005,56893.6437985313,62883.0587149594,65847.9735675025,58592.7166474932,68410.8555493188,28317.2845988886
8493562001,8882,-2,0,56167.5364906222,59282.7467343223,39687.9729445342,57461.4250353802,56900.0561747570,62899.9109750592,65878.3563064694,58621.6514305382,68430.2751934482,28312.1741662230
8493562001,8882,-2,0,56171.6370044515,59367.1905502735,39735.2687820850,57531.3406213248,56987.2985609774,62893.7906235572,65908.3496791379,58717.7032292585,68436.8214143389,28303.3890891168
8493562001,8882,-2,0,56156.7194081466,59409.1812720095,39746.3413861939,57543.8611813556,57039.2181233209,62870.1122855398,65895.0625542073,58753.9142950036,68420.2246758725,28303.7297846278
8493562001,8882,-2,0,56140.7675576117,59355.1080273283,39709.0838985220,57474.9920173378,56988.1746351487,62868.9198512512,65849.6892127545,58679.6791766868,68404.7230301200,28312.1863339198
8493562001,8882,-2,0,56143.9676618762,59279.3032761214,39679.1148612471,57414.5307318246,56903.2197759309,62899.1200747657,65829.8315315395,58598.4598003937,68418.7158814664,28319.9006537055
8493614686,8883,2,0,56162.2313748074,59293.8193384312,39705.7256141989,57451.2041700489,56910.7394125675,62920.9610905629,65865.8600818322,58633.7704565738,68446.6529133719,28323.1737641509
8493614686,8883,2,0,56174.1070469066,59378.7620299521,39754.2260537352,57533.5064713593,57002.0579772237,62913.7578140437,65903.3244203501,58737.6704197450,68451.2279673773,28321.9813298622
8493614686,8883,2,0,56167.1349566270,59423.1741233559,39763.6681864698,57555.2744809756,57055.3159862177,62892.0141398211,65897.7759505988,58774.1370071233,68434.7894089695,28326.5563838677
8493614686,8883,2,0,56151.1100999112,59374.0409635848,39725.8266493504,57499.8992927343,57011.4027683837,62874.9671965722,65860.9808354062,58713.9312432434,68415.0169016322,28330.3405375796
8493614686,8883,2,0,56138.3705213376,59286.2388633105,39678.4699733155,57430.2148930294,56918.6240801088,62881.2700635264,65833.8347037943,58625.8614536389,68412.9727285660,28324.3053599554
8493614686,8883,2,0,56146.5350459058,59270.2748450788,39682.5461517512,57439.6570257640,56894.5807111866,62903.6221225902,65855.3350240804,58623.0385479760,68434.1445210379,28313.8533083845
8493614686,8883,2,0,56159.2867921762,59346.7974903982,39736.8505826720,57513.2350884523,56975.5932366338,62904.4130228837,65896.3644977674,58717.0461736301,68444.7304172739,28306.5770256844
8493614686,8883,2,0,56156.2692033642,59407.0032542782,39765.8583718979,57548.5944154198,57048.6845914492,62890.4445069309,65898.5790185891,58779.7949861460,68433.5604715904,28315.6541275143
8493644702,8884,2,0,56142.2033458368,59367.4947426941,39732.0321747301,57491.6252588947,57015.6857976654,62871.0005274079,65853.2543479237,58717.4477076252,68406.9618863354,28323.1007579700
8493644702,8884,2,0,56135.9613173667,59279.6804747229,39684.4929832429,57415.9056815656,56919.8651851847,62885.9059560160,65821.8860255141,58617.3805689533,68408.8600470398,28328.0773459705
8493644702,8884,2,0,56151.0249260335,59268.9242307314,39693.4849111950,57429.6186758850,56899.9588331824,62910.4603682047,65847.2921764804,58623.2088957315,68432.8182420842,28326.2521914471
8493644702,8884,2,0,56163.1804551596,59343.6582246179,39741.0971088632,57503.9511357764,56977.2602110985,62907.8808164782,65886.9832035169,58714.6978081432,68447.0666150639,28318.8055609915
8493644702,8884,2,0,56161.0024374283,59405.5066275689,39768.0607250228,57546.9152732582,57049.0861254444,62892.9632201733,65895.9507960754,58777.2884406004,68435.9331724709,28319.7911444341
8493644702,8884,2,0,56149.1145976323,59383.1424008084,39745.4166412354,57515.1332491567,57032.2703684350,62877.3885682399,65867.4905532065,58743.6690942787,68418.8253907378,28321.9813298622
8493644702,8884,2,0,56144.3570281745,59302.3853969945,39702.0874728489,57449.0748231049,56950.3574334230,62886.9888810332,65838.0812299855,58655.4654600092,68417.4626086936,28329.2941156528
8493644702,8884,2,0,56153.8478316964,59265.3590955623,39692.9008617475,57432.9769602082,56901.1512674710,62905.0214077248,65846.5742823679,58625.3260749787,68436.7970789453,28329.1359355941
8493677067,8885,2,0,56163.7158338198,59327.0493184546,39734.8550803930,57499.8262865534,56960.1159262750,62901.9429804286,65887.5550852675,58701.7513787236,68447.8331799637,28325.5464650314
8493677067,8885,2,0,56158.7270781224,59398.9239035877,39765.3716640250,57554.4714129852,57041.0189424507,62877.7170960541,65903.3487557437,58774.9887459009,68432.1855218494,28325.9114959361
8493677067,8885,2,0,56138.7720553328,59373.4934172278,39734.5387202756,57512.5780328239,57023.8989930209,62858.9058367659,65865.7384048640,58727.4252190200,68401.7297767016,28327.2986133739
8493677067,8885,2,0,56131.5079403295,59287.9910116530,39684.8823495412,57435.8850397488,56935.2086508784,62870.3069686890,65831.9852138772,58627.6257696783,68398.5905109213,28329.1967740783
8493677067,8885,2,0,56142.4223643797,59254.5663484803,39679.5042275455,57428.8886140757,56891.4292777095,62898.3291744722,65847.3165118741,58603.8014192989,68420.8087253199,28323.8916582634
8493677067,8885,2,0,56158.5323949732,59317.7531980819,39722.3710234527,57492.5865069438,56950.3209303325,62902.7095453285,65886.9223650327,58678.9004440901,68438.6830719529,28316.9195679839
8493677067,8885,2,0,56158.8244196970,59392.4993596652,39756.4040714665,57543.1311195463,57030.9440894813,62878.0942946557,65900.4041731126,58749.7164395997,68426.8439029441,28317.9173191234
8493677067,8885,2,0,56143.4687863064,59390.7593790195,39742.4233878169,57519.8664832208,57034.5213923473,62858.4556319834,65869.9605956616,58729.6032367513,68402.0339691221,28325.5464650314
8493679395,8886,2,0,56131.8729712342,59312.1803929370,39697.8409466576,57442.6259437888,56955.0419966998,62866.7540012167,65828.2740663462,58636.7272069018,68390.0974585388,28331.5086364746
8493679395,8886,2,0,56141.5949609957,59261.2950848234,39684.8945172380,57414.5550672182,56895.1769283310,62903.8898119203,65832.3989155692,58592.6558090091,68412.9240577787,28334.9277592819
8493679395,8886,2,0,56165.4314790718,59316.9136270011,39734.3683725201,57484.7505101898,56946.8653044348,62923.8935054972,65882.4568202987,58674.7147563830,68445.7768392006,28335.5969826071
8493679395,8886,2,0,56168.9966142410,59400.0433316954,39779.1819999190,57555.5178349120,57042.6980846123,62901.0669062574,65907.6196173286,58774.1005040328,68444.9494358167,28333.8448342646
8493679395,8886,2,0,56150.3191996177,59395.5534515678,39760.4680822053,57530.7444041805,57047.2488032241,62874.3588117310,65873.6595754957,58756.5425175173,68419.4216078821,28332.1535244062
8493679395,8886,2,0,56134.7688830780,59309.3453195772,39704.9712169959,57448.7462952907,56962.8414903633,62874.6995072420,65829.6368483903,58656.8890805374,68405.0272225406,28329.6469788607
8493679395,8886,2,0,56139.5142848390,59248.6163447339,39680.8305064992,57413.6668253502,56892.3661903649,62896.1876598314,65826.8991166052,58601.9154262914,68418.1318320189,28325.5342973345
8493679395,8886,2,0,56154.5048873248,59281.1527660385,39709.4367617299,57460.9139921136,56917.8210121185,62908.9759091923,65863.2805301058,58649.6493009278,68434.8015766663,28319.0245795343
8493715762,8887,2,0,56165.2854667100,59365.0490356327,39754.3720660970,57531.3041182344,57006.6573666227,62898.1831621103,65893.9309584028,58737.9746121655,68437.0404328818,28321.5311250798
8493715762,8887,2,0,56159.3597983572,59393.6917939539,39760.0300451197,57541.5858220497,57045.8008473022,62878.5566671349,65884.5131610618,58761.2392484910,68419.3607693980,28331.2652825382
8493715762,8887,2,0,56149.0415914513,59327.5725294180,39709.8869665124,57476.6103210152,56983.0033639989,62866.3646349183,65848.5211138595,58677.9270283443,68399.5760943639,28335.4022994580
8493715762,8887,2,0,56153.2394468552,59255.2964102897,39671.7655723661,57428.7669371074,56900.9444166250,62885.9181237128,65842.4981039322,58604.6166549861,68407.3390849370,28331.8980027729
8493715762,8887,2,0,56167.7190060745,59280.9702505861,39697.3420710879,57476.2331224137,56921.0089486861,62898.0736528389,65887.2630605438,58652.4235358034,68426.2720211935,28329.5374695893
8493715762,8887,2,0,56168.0110307983,59365.1220418136,39741.9001768535,57546.6597516249,57009.8331354935,62878.1429654429,65915.9544896523,58746.9543724208,68420.6505452612,28329.5983080734
8493715762,8887,2,0,56147.7639832849,59383.3735870480,39737.7509922369,57537.8625068219,57037.1252794674,62858.9545075532,65890.3293201432,58754.6321891161,68396.0231268916,28332.1900274967
8493715762,8887,2,0,56130.6683692487,59321.1236501018,39696.0887983151,57467.9225854837,56975.7879197829,62861.7044070351,65848.3629338008,58673.6805021531,68387.9437762012,28330.8394131493
8493749461,8888,2,0,56135.2190878605,59256.4401737911,39670.3662872314,57421.9651945834,56901.8934969772,62894.9587224522,65840.1984092326,58611.7590930211,68410.3201706586,28330.3527052764
8493749461,8888,2,0,56157.9848486162,59278.2811895883,39701.5277587950,57460.0257502456,56916.2635469251,62920.5352211741,65876.4216426746,58644.9890730446,68443.6596599534,28332.6280645823
8493749461,8888,2,0,56170.6149179184,59363.8566013440,39755.9903697745,57534.1026885036,57004.3698396200,62916.8970798240,65912.1094974562,58742.0021198139,68453.8805252847,28330.7055684843
8493749461,8888,2,0,56159.5666492032,59407.7211483907,39767.6713587245,57550.1518806131,57055.6445140319,62882.0731315168,65899.1752357334,58776.8382358180,68431.5649693114,28331.4964687778
8493749461,8888,2,0,56138.4921983058,59347.4545460267,39717.8689756282,57477.6080721547,56997.3369108564,62864.2109525807,65843.1794949543,58692.1997367176,68401.5229258556,28330.7420715748
8493749461,8888,2,0,56135.0487401049,59258.9223839430,39669.4780453634,57404.5775558234,56897.5861323019,62887.6216012680,65814.0743641538,58592.0230887743,68402.8978755966,28330.6325623034
8493749461,8888,2,0,56154.3467072661,59268.7417152791,39689.9927822068,57435.1914810299,56895.8948224435,62910.1683434809,65848.4967784659,58617.2710596819,68432.2341926367,28326.3130299312
8493749461,8888,2,0,56167.2444658985,59352.8326680224,39741.2187858314,57516.5325342913,56983.5387426592,62895.6279457775,65889.4897490624,58717.3625337475,68437.5636438451,28321.0444172069
8493812012,8889,2,0,56157.0966067481,59396.5877057977,39749.7970120916,57537.1932834967,57038.1595336973,62869.3700560336,65884.9146950570,58752.6123514435,68414.0678212800,28325.3152787917
8493812012,8889,2,0,56143.4687863064,59353.8547545556,39712.2109966055,57485.1642118818,57001.3035800207,62861.9477609716,65850.0664113561,58694.2317420870,68394.4048232142,28333.8691696583
8493812012,8889,2,0,56143.6634694556,59278.3785311628,39675.7200738335,57423.9606968624,56917.5898258788,62880.8441941376,65829.2109790015,58613.5964152414,68399.3084050338,28341.5834894440
8493812012,8889,2,0,56160.8320896728,59270.0801619296,39686.8778518202,57433.9990467413,56896.4180334069,62912.9425783566,65853.2665156205,58615.2633897062,68424.7997298779,28339.3689686222
8493812012,8889,2,0,56175.3968227698,59347.5397199044,39738.6270664082,57510.8623875718,56971.3223750489,62909.3774431874,65896.0481376500,58706.7644698147,68443.4041383202,28328.5883892371
8493812012,8889,2,0,56165.7478391892,59409.3151166745,39762.3175721224,57550.7115946670,57045.2898040356,62880.4791632330,65897.3987519973,58766.6660412740,68427.8659894773,28318.0268283948
8493812012,8889,2,0,56143.6026309715,59372.7268523279,39726.0578355901,57496.6018468953,57014.5907049513,62862.9576798079,65850.1759206275,58707.6527116827,68401.6202674302,28323.2224349382
8493812012,8889,2,0,56137.8716457679,59284.7787396917,39679.7354137851,57418.7164195317,56921.6051658304,62884.5310062750,65817.9436917435,58605.9794370302,68404.1146452789,28329.6713142543
8493818190,8890,2,0,56152.7892420728,59271.5159501547,39688.4474847103,57429.4118250390,56897.4401199400,62912.5897151487,65845.6860404998,58605.2858783113,68435.1422721774,28332.5915614919
8493818190,8890,2,0,56164.3363863578,59345.0696774494,39734.8794157867,57502.4545090672,56970.5314747554,62910.4360328110,65886.0462908615,58693.2218232507,68451.4348182233,28329.9146681908
8493818190,8890,2,0,56159.3111275699,59404.0586716470,39758.0953813249,57541.8170082894,57038.2203721815,62886.5143408571,65889.4775813656,58753.0503885291,68435.3126199329,28331.6181457460
8493818190,8890,2,0,56141.4367809370,59378.5308437125,39730.3773679622,57505.1679054587,57021.4654536563,62868.8711804639,65857.2453524816,58718.7374834884,68412.5346914804,28335.4874733357
8493818190,8890,2,0,56132.8342192832,59294.8779280548,39680.8548418928,57436.6029338614,56934.2352351326,62877.0600404257,65827.4101598717,58630.4000045539,68407.2660787560,28339.5514840746
8493818190,8890,2,0,56145.5494624631,59253.8849574583,39670.6218088647,57420.7240895075,56882.2913373955,62900.4220183257,65838.4705962838,58599.1655268094,68424.8484006652,28335.0981070374
8493818190,8890,2,0,56162.3287163820,59314.2123983064,39720.5823720197,57489.8001043713,56939.0049722872,62907.0534130943,65882.4081495114,58679.0342887552,68442.6984119044,28328.1381844547
8493818190,8890,2,0,56156.1353586991,59390.8080498068,39760.6384299609,57543.4109765732,57024.1301792605,62881.3065666169,65896.0846407404,58759.9008018405,68432.8547451747,28321.1295910846
8493844689,8891,2,0,56128.5146869110,59373.1892248072,39736.9357565498,57500.9943854484,57014.0553262911,62853.3330316210,65854.2277636695,58723.3247051907,68400.4643362320,28316.3598539300
8493844689,8891,2,0,56115.1302204058,59284.4380441807,39680.0274385089,57415.7961722942,56920.2788868767,62858.4677996802,65813.5146500999,58617.4779105279,68388.7955149788,28315.1309165509
8493844689,8891,2,0,56125.6552781576,59242.1066269337,39666.4117857640,57400.9880852607,56869.7829450615,62884.0321307052,65826.2420609767,58585.4160293995,68407.2174079687,28316.2381769618
8493844689,8891,2,0,56150.1610195590,59299.6841682998,39710.1303204488,57471.5120560464,56926.4600768627,62898.3778452595,65872.2846257547,58662.4010471982,68429.8614917562,28320.4116969721
8493844689,8891,2,0,56157.0236005672,59377.4235833016,39746.8159263700,57531.6813168359,57009.4072661047,62875.1618797213,65892.7871949014,58739.0697048796,68424.0209972812,28323.7821489920
8493844689,8891,2,0,56139.4899494453,59377.0463847001,39729.7081446369,57512.1521634351,57016.5618718366,62847.1761770286,65863.5482194359,58725.2106981983,68398.8703679482,28327.5419673103
8493844689,8891,2,0,56127.4560972874,59303.8090175228,39679.6380722105,57441.2266586541,56941.6210271041,62857.2997007852,65825.6458438324,58635.5104372195,68390.9248619228,28337.8236711257
8493844689,8891,2,0,56135.9126465794,59248.6041770371,39657.7970564134,57407.8141631783,56877.8744634487,62890.2133206913,65826.4975826100,58582.0942481668,68412.5833622676,28344.8200967989
8493872011,8892,2,0,56151.4507954223,59293.9531830962,39697.4272449657,57466.5719711363,56915.2171249983,62899.3512610053,65868.8533352507,58645.5244517048,68436.1035202264,28336.0228519959
8493872011,8892,2,0,56147.8613248595,59376.2068136193,39741.6568229171,57532.9589250023,57002.6541943680,62871.0126951047,65889.1612212482,58737.4027304148,68426.5397105236,28317.5644559155
8493872011,8892,2,0,56124.5601854436,59377.6547695412,39722.8333959320,57506.3968428378,57014.0309908975,62839.5835342110,65852.0010751509,58716.8758258745,68391.2777251307,28307.4044290684
8493872011,8892,2,0,56109.3018936276,59299.6598329062,39668.9548344000,57427.9760368139,56935.0504708197,62844.0855820355,65809.2559562119,58616.9668672614,68376.3236257353,28314.5103640130
8493872011,8892,2,0,56119.6566036239,59244.0899615158,39649.2431655468,57396.9605776123,56872.5450122403,62871.8766015791,65812.9062652588,58570.3159176422,68394.6238417570,28327.2256071929
8493872011,8892,2,0,56138.8693969074,59278.2325188010,39682.0472761815,57443.4655148695,56899.8371562141,62890.7973701388,65849.3363495467,58623.1602249442,68418.5211983172,28328.1260167578
8493872011,8892,2,0,56149.7108147766,59362.8101794172,39729.1119274926,57512.7605482762,56986.9943685569,62883.7279382847,65879.7920946945,58717.1921859919,68419.5189494567,28323.7456459016
8493872011,8892,2,0,56144.2231835094,59394.5191973378,39734.0033416154,57521.2901037491,57029.7638228895,62862.3736303604,65867.2350315732,58741.9656167234,68400.5981808970,28323.6848074175
8493918673,8893,2,0,56127.6386127398,59329.9695656921,39687.8025967787,57452.5304490026,56967.7815752735,62852.8219883544,65821.9590316951,58662.4740533792,68379.7792516330,28326.5320484740
8493918673,8893,2,0,56131.1185740311,59257.6447757765,39654.9498153568,57402.7767366936,56887.0489068532,62879.0798780983,65815.1086183837,58588.5552951798,68391.6670914290,28330.6690653938
8493918673,8893,2,0,56145.2452700426,59278.9260775199,39681.0373573452,57446.2884205325,56900.2995286934,62896.3215044964,65857.4887064181,58629.9376320746,68416.0876589526,28326.3373653249
8493918673,8893,2,0,56148.8225729085,59365.6330850802,39731.5576345540,57525.8773254513,56992.7131860637,62887.4512535125,65897.2649073323,58735.5410728009,68422.5365382688,28321.7258082290
8493918673,8893,2,0,56137.0807454744,59396.9770720961,39741.6203198266,57533.1171050610,57036.1761991152,62866.9608520627,65885.8272723187,58757.9661380456,68405.1367318120,28326.1791852662
8493918673,8893,2,0,56121.7251120838,59336.4184450083,39700.2744860222,57463.3962022655,56977.1993726144,62863.5295615586,65843.2281657416,58679.1924688139,68392.4701594193,28331.4112949000
8493918673,8893,2,0,56117.4177474085,59258.8128746716,39662.7858121108,57405.5874746597,56892.7068858759,62879.2258904602,65821.8981932109,58601.3313768439,68399.5274235766,28330.9854255112
8493918673,8893,2,0,56133.0289024323,59268.4496905553,39682.9111826559,57428.1098814790,56893.6681339249,62910.0101634222,65849.4580265149,58623.4279142743,68423.8384818289,28332.5307230077
8493935332,8894,2,0,56145.9509964583,59354.4996424872,39738.0916877479,57502.7587014877,56978.7811732014,62906.5423698277,65887.6402591453,58716.1944348525,68434.9719244219,28331.2287794477
8493935332,8894,2,0,56137.8108072838,59404.0100008597,39754.8831093636,57529.2964482586,57036.5412300199,62871.7792600045,65883.7465961620,58760.4605158943,68414.8100507862,28331.4964687778
8493935332,8894,2,0,56122.5646831646,59355.1810335093,39708.2443274413,57471.2565344131,56990.3161497895,62854.7809875429,65839.2736642741,58690.4354206783,68386.8851865776,28340.3910551554
8493935332,8894,2,0,56124.9860548324,59270.8953976167,39660.7294713477,57403.8961648013,56901.8204907963,62883.4602489546,65817.9801948340,58596.8171613226,68391.8982776686,28345.5014878210
8493935332,8894,2,0,56146.5350459058,59276.3586934902,39680.9886865579,57431.9062028878,56900.5915534172,62918.5032158046,65854.8483162075,58620.3129838877,68427.0507537901,28346.8399344715
8493935332,8894,2,0,56162.3895548661,59369.9282820587,39747.0957833969,57519.8299801303,56996.6068490470,62924.9642628176,65905.1009040862,58733.1440365268,68449.9016884236,28353.1549691226
8493935332,8894,2,0,56149.0294237545,59418.7572494091,39764.7267760934,57541.0504433895,57053.9167010831,62883.8617829497,65893.9187907059,58773.1270882870,68430.8835782893,28347.5699962809
8493935332,8894,2,0,56125.1198994974,59372.9215354771,39726.7878973994,57479.1655373481,57011.8286377725,62869.4065591241,65845.2845065046,58707.3241838685,68407.0592279100,28341.8390110773
8493964779,8895,2,0,56120.3623300397,59290.9599296778,39683.9089337954,57413.7641669247,56923.8926928331,62884.4580000940,65815.5344877725,58618.0984630659,68408.4828484383,28336.4487213847
8493964779,8895,2,0,56137.0685777776,59272.9152352893,39684.5781571206,57418.9841088618,56898.2066848399,62907.3819409085,65836.5237647921,58609.2525474756,68427.7199771154,28336.5338952625
8493964779,8895,2,0,56152.3633726840,59342.6483057816,39728.7712319816,57493.6085934769,56969.2660342859,62917.5054646652,65881.4469014624,58695.7770395836,68442.9782689314,28335.5118087294
8493964779,8895,2,0,56155.7338247039,59418.3800508076,39763.1084724159,57549.6530050434,57054.6102598020,62906.1043327421,65897.9341306575,58772.5552065363,68439.0481028575,28341.9850234392
8493964779,8895,2,0,56144.6003821110,59395.0424083012,39736.5585579483,57511.8358033177,57033.0977718190,62879.0068719174,65865.8357464386,58726.6951572107,68414.9560631481,28347.9228594888
8493964779,8895,2,0,56136.1803359095,59299.1122865491,39681.9255992132,57431.1153025943,56929.3438210098,62886.6360178254,65828.0550478034,58616.5653332662,68408.4950161351,28354.9436205556
8493964779,8895,2,0,56148.4210389134,59266.6002006382,39681.0616927388,57430.9084517483,56889.4702785210,62911.6771378870,65847.6815427788,58599.0316821443,68428.7420636485,28354.2013910494
8493964779,8895,2,0,56160.2237048316,59332.8289744455,39730.9614174097,57503.0385585147,56959.0451689546,62917.7366509048,65890.9377049843,58686.6877700568,68443.5258152884,28350.9039452104
8493997059,8896,2,0,56156.4638865133,59398.0356617197,39765.7245272328,57547.0612856201,57038.1717013942,62901.5292787366,65898.4573416209,58751.9796312087,68432.4775465732,28346.4992389605
8493997059,8896,2,0,56138.2853474598,59381.2077370135,39745.6721628686,57511.3977662320,57030.9319217845,62883.6062613164,65864.4851320912,58719.5892222661,68412.8753869914,28348.3000580903
8493997059,8896,2,0,56127.6751158302,59303.5169927990,39698.6683500416,57439.4623426148,56949.9680671247,62887.0253841237,65829.9653762046,58630.3269983730,68408.8965501303,28346.0490341780
8493997059,8896,2,0,56139.4169432644,59261.6357803345,39684.9553557222,57419.3613074633,56897.6956415733,62912.7965659947,65836.5846032762,58592.7774859774,68430.1413487831,28342.3865574343
8493997059,8896,2,0,56157.8753393448,59320.8681284686,39728.4913749546,57482.8036786981,56953.8130593207,62926.6190695855,65881.0453674673,58671.1982920012,68454.2820592799,28341.1089492679
8493997059,8896,2,0,56157.4738053496,59400.8950704730,39770.7254506271,57545.4673173363,57043.2821340598,62899.9109750592,65901.0612287410,58758.1486534980,68446.6650810687,28344.7957614053
8493997059,8896,2,0,56139.9523219246,59392.3046765160,39750.5270739010,57516.5933727754,57042.1748736489,62881.2335604360,65868.1232734413,58731.4527266684,68418.5942044982,28351.6583424134
8493997059,8896,2,0,56130.0599844075,59310.1240521739,39700.9437093475,57439.1581501942,56955.1028351839,62893.9244682223,65828.1888924684,58632.3468360456,68412.6198653581,28357.9368739740
8494038330,8897,2,0,56137.2510932299,59263.7772949753,39689.1653788229,57418.5095686857,56897.0264182480,62918.2598618682,65833.3966667086,58595.9045840609,68434.7164027886,28361.7210276860
8494038330,8897,2,0,56147.8248217690,59308.5787546774,39727.0190836391,57472.4246333081,56936.7904514654,62919.5253023378,65869.0480183998,58659.2982845084,68450.8872718663,28360.3825810355
8494038330,8897,2,0,56143.4444509128,59379.4312532774,39762.3540752129,57521.3266068396,57013.0697428484,62897.3435910295,65879.6460823326,58730.9295157050,68441.4938099189,28358.3262402724
8494038330,8897,2,0,56130.0113136202,59383.8724626177,39753.1674641116,57507.9543080311,57028.4010408453,62877.3398974526,65853.8383973712,58724.6996549317,68420.0421604201,28361.8183692606
8494038330,8897,2,0,56114.8016925916,59306.5589170048,39703.4380871962,57435.8242012647,56956.4169464408,62876.0987923767,65812.7724205937,58637.0679024129,68404.9785517533,28357.0121290155
8494038330,8897,2,0,56119.3645789002,59240.6221679213,39675.4037137161,57397.0700868837,56881.2084123782,62906.4693636467,65809.5358132388,58576.2294182981,68417.4869440873,28355.9413716951
8494038330,8897,2,0,56142.9820784335,59280.6295550751,39713.1114061704,57459.3443592235,56914.2923800398,62921.0462644406,65857.5860479926,58637.8709704032,68443.7570015280,28357.0729674996
8494038330,8897,2,0,56146.0605057297,59365.3288926596,39756.5865869188,57538.5073947535,57004.9295536739,62892.5130153908,65889.5627552433,58736.2102961262,68436.5780604025,28350.6605912739
8494058741,8898,2,0,56128.4538484269,59376.1459751352,39742.7640833280,57523.9426616565,57024.7142287080,62860.2442834164,65862.8059899297,58732.2801300524,68403.9808006138,28344.1630411705
8494058741,8898,2,0,56114.2054754472,59300.6819194393,39689.0071987642,57443.9887258329,56948.9459805915,62855.3163662031,65819.9878648098,58635.3887602513,68386.2768017364,28343.0679484564
8494058741,8898,2,0,56114.9355372566,59236.8988526934,39659.2571800321,57400.8785759892,56873.8834588908,62877.8144376287,65813.6728301586,58571.2163272071,68397.6414305691,28339.3933040159
8494058741,8898,2,0,56130.7778785201,59265.7849649511,39687.2185473312,57444.4997690995,56897.0750890353,62898.9010562229,65851.2466779479,58614.8983588015,68419.1660862488,28333.4554679663
8494058741,8898,2,0,56140.1470050738,59351.2021966482,39736.7897441879,57515.1089137630,56987.1890517060,62890.1281468135,65883.1868821081,58706.9956560543,68422.6825506307,28332.5915614919
8494058741,8898,2,0,56131.9216420215,59383.4222578353,39744.0660268880,57525.5244622435,57032.1000206795,62869.3943914272,65869.4617200918,58731.7082483017,68405.2219056898,28333.4798033599
8494058741,8898,2,0,56120.0459699223,59326.9398091832,39705.1050616610,57462.4714573070,56978.7446701109,62861.1446929813,65827.7751907764,58660.8314143081,68389.7080922405,28340.7439183632
8494058741,8898,2,0,56118.2694861861,59245.7812713742,39665.1585129912,57400.6960605369,56887.8398071467,62880.3818216584,65808.6719067644,58574.5381084398,68396.9235364565,28342.0945327106
8494097606,8899,2,0,56130.0478167107,59254.4568392089,39685.5394051697,57434.4005807365,56890.9060667461,62894.9465547554,65843.7027059177,58604.2029532941,68420.6505452612,28333.7231572964
8494097606,8899,2,0,56132.8342192832,59334.4716135166,39730.3286971749,57511.4464370193,56977.4670619445,62880.7468525631,65880.7290073499,58701.4836893935,68421.6604640976,28322.6262177939
8494097606,8899,2,0,56115.7629406406,59363.4428996520,39729.9514985734,57517.2869314943,57015.0530774306,62846.2757674637,65862.4166236313,58718.3602848869,68394.1979723682,28319.0854180184
8494097606,8899,2,0,56097.5357307998,59304.5025762417,39682.0837792719,57448.5881152320,56955.4556983918,62841.2261732821,65815.4006431075,58634.3058352341,68371.7972425171,28320.5333739403
8494097606,8899,2,0,56100.3951395532,59235.4873998620,39650.4842706228,57397.1674284582,56877.2904140012,62868.6643296179,65802.8070768958,58558.3672393621,68384.3421379416,28326.8970793787
8494097606,8899,2,0,56126.3245014829,59251.7921136047,39677.3992159951,57430.7624393864,56885.3332616012,62909.5599586398,65839.4683474233,58585.6228802455,68420.1029989042,28336.8867584704
8494097606,8899,2,0,56144.9775807125,59340.2634372043,39733.4679629552,57507.8813018502,56973.6342374453,62905.7879726247,65881.0210320736,58683.3903242178,68436.3712095565,28340.7439183632
8494097606,8899,2,0,56136.5210314205,59393.9838186776,39751.1719618326,57536.1590292667,57038.3177137560,62873.5435760439,65877.0543629093,58734.9205202630,68419.4581109726,28342.2648804661
8494124478,8900,2,0,56113.8404445426,59343.8894108576,39706.9788869717,57473.1668628143,56994.6721852522,62856.8494960028,65825.5850053483,58671.7093352678,68392.2146377860,28341.7781725932
8494124478,8900,2,0,56111.8206068700,59255.9291305245,39658.4784474354,57396.8632360377,56899.1557651921,62877.8874438097,65791.8074789678,58577.1298278630,68394.3926555173,28343.2869669992
8494124478,8900,2,0,56127.3952588033,59247.4725812326,39667.7380647177,57410.5518949635,56879.9186365150,62903.7072964679,65815.4858169853,58583.7247195411,68421.7213025817,28338.9309315366
8494124478,8900,2,0,56138.9424030883,59327.6212002053,39717.4917770267,57492.4769976724,56960.4322863924,62895.7252873521,65858.1822651370,58680.7621017041,68432.6235589350,28329.7564881321
8494124478,8900,2,0,56130.2546675567,59380.4290044169,39732.9812550823,57524.0400032311,57022.0981738911,62858.5043027707,65856.0894212834,58725.2958720760,68409.0303947954,28322.3098576765
8494124478,8900,2,0,56114.2784816282,59342.6726411753,39695.5290842613,57478.0582769372,56991.6180933496,62848.2347666522,65823.4799937979,58669.0811127540,68384.0136101274,28321.5919635639
8494124478,8900,2,0,56110.4456571290,59261.7209542122,39652.4067667208,57415.6623276291,56905.8236630510,62856.1194341934,65803.5006356147,58583.6517133601,68383.0888651688,28326.9822532565
8494124478,8900,2,0,56120.3136592524,59235.9741077349,39652.4676052049,57409.8218331541,56872.2529875165,62878.7026794968,65821.3993176412,58569.0261417790,68404.9907194501,28324.6217200728
8494159669,8901,2,0,56129.9139720457,59298.8811003095,39695.3222334153,57475.4057190298,56935.1964831816,62883.7036028910,65862.2097727854,58651.4014492703,68418.7037137696,28318.8298963851
8494159669,8901,2,0,56124.3898376880,59363.6862535885,39724.6463827586,57525.1229282483,57014.0431585943,62855.3893723840,65873.9881033100,58721.2196936403,68403.7496143742,28314.4738609225
8494159669,8901,2,0,56102.9138527956,59335.0799983578,39693.2415572586,57479.9807730352,56992.2143104939,62831.4676804301,65832.2894062977,58675.5299920702,68373.5615585565,28315.1309165509
8494159669,8901,2,0,56092.8024967357,59242.5203286256,39641.0299701913,57393.6631317732,56893.9723263455,62846.6286306715,65792.3550253248,58564.4389200767,68366.5894682769,28323.2832734223
8494159669,8901,2,0,56099.2148729614,59207.1975047486,39641.7843673944,57383.2962540801,56849.4020528830,62880.4669955361,65801.8214934531,58540.5050604260,68391.7035945195,28326.9944209533
8494159669,8901,2,0,56115.3857420391,59277.5267923852,39697.5854250244,57456.9108198589,56921.3009734098,62894.0218097969,65845.9172267394,58633.9286366325,68416.0389881654,28330.2431960050
8494159669,8901,2,0,56122.1631491694,59355.9719338027,39736.1083531658,57512.0183187700,57010.0034832491,62881.5134174629,65859.3016932447,58714.1380940894,68414.9438954513,28335.6334856976
8494159669,8901,2,0,56110.6403402781,59347.5275522076,39716.1776657698,57482.9618587568,57008.1661610288,62852.6759759925,65826.0352101308,58690.1433959545,68391.3872344021,28335.2927901865
8494198317,8902,2,0,56094.8345021051,59267.0382377239,39666.7889843655,57406.2080271977,56924.2333883441,62856.8738313964,65781.7569613921,58598.0339310049,68380.7161642884,28326.3738684153
8494198317,8902,2,0,56099.0566929027,59221.1660207014,39655.1323308091,57378.3318337763,56870.2696529344,62892.3548353321,65783.6429543996,58559.7543567999,68402.5328446919,28320.9714110259
8494198317,8902,2,0,56118.1599769147,59282.2356910557,39706.3583344337,57444.7552907328,56925.3406487550,62918.8925821030,65833.8225360974,58637.9196411905,68435.3004522361,28322.7357270653
8494198317,8902,2,0,56120.3501623428,59369.6240896381,39754.9682832414,57513.7339640220,57017.2189274651,62893.5229342271,65859.1678485796,58732.2314592651,68432.8547451747,28326.0575082979
8494198317,8902,2,0,56101.4902322673,59366.8498547625,39737.2034458799,57487.7802666987,57021.5992983213,62868.5061495592,65824.2222233041,58712.0939210231,68402.3259938459,28325.7411481805
8494198317,8902,2,0,56092.4496335278,59286.7134034866,39684.7363371793,57407.6316477260,56935.1478123943,62876.0136184989,65783.5821159155,58608.5589887567,68390.1217939325,28328.1625198483
8494198317,8902,2,0,56106.0652862727,59240.0989569579,39670.6339765616,57387.0439047016,56876.3413336490,62903.4031040474,65793.6813042786,58569.1113156567,68412.3400083312,28332.9930954870
8494198317,8902,2,0,56127.2005756541,59292.7120780203,39712.9653938086,57454.0879141960,56927.7620204228,62915.8993286845,65842.4129300544,58645.9624887904,68434.0715148570,28334.1490266852
8494216438,8903,2,0,56138.2731797630,59376.5840122208,39756.5865869188,57523.7358108105,57020.1878454899,62900.0934905115,65870.1674465076,58737.4027304148,68433.6456454682,28331.5694749587
8494216438,8903,2,0,56126.7868739622,59386.8170452489,39748.7140870744,57514.4761935282,57040.0576944017,62867.4232245419,65850.0907467497,58736.7700101801,68409.0547301890,28331.4843010810
8494216438,8903,2,0,56108.3893163659,59310.6715985309,39696.4659969167,57438.3064114166,56963.6202229600,62863.5295615586,65804.3767097859,58646.8994014458,68388.2479686218,28330.5473884256
8494216438,8903,2,0,56111.9787869286,59245.2580604108,39668.6019711921,57390.8037230199,56887.9493164181,62898.6455345896,65798.8647431251,58580.1109135847,68404.9785517533,28328.7830723863
8494216438,8903,2,0,56131.5809465104,59282.7102312318,39706.6990299447,57438.1603990547,56916.8354286758,62921.5694754040,65840.1862415358,58634.0746489944,68435.6654831408,28326.2400237503
8494216438,8903,2,0,56134.0023181782,59371.6317596139,39754.2868922193,57513.6366224474,57009.7966324031,62900.1178259052,65868.9141737348,58736.3441407912,68436.2008618010,28324.1715152904
8494216438,8903,2,0,56111.9179484445,59383.1789038988,39739.1624450684,57503.1967385734,57030.9197540877,62863.2010337444,65839.0668134281,58739.4225680875,68402.5450123887,28325.4734588504
8494216438,8903,2,0,56092.0846026231,59305.0136195083,39682.4366424798,57424.2648892829,56951.8297247386,62856.0950987998,65790.4446969236,58641.3265963009,68381.7504185183,28328.5032153593
8494278616,8904,2,0,56094.8953405892,59235.8037599794,39651.9443942415,57380.0961498157,56873.0803909005,62880.1506354187,65785.6992951627,58574.7571269826,68391.7887683972,28329.3184510465
8494278616,8904,2,0,56116.8702010515,59263.5096056452,39684.8336787539,57426.0657084127,56894.7388912453,62897.2949202423,65827.9455385319,58618.0254568850,68417.2435901508,28330.1580221273
8494278616,8904,2,0,56124.4263407785,59341.0178344074,39730.9492497129,57497.0398839810,56976.6639939542,62886.4778377667,65860.0804258413,58703.5400301566,68418.3265151681,28326.2521914471
8494278616,8904,2,0,56112.9522026745,59374.9778762402,39741.1822827410,57511.4707724130,57021.7453106832,62868.4088079846,65852.3417706620,58733.0953657395,68399.5882620607,28329.1359355941
8494278616,8904,2,0,56096.1364456652,59317.5463472359,39701.0532186189,57446.0207312024,56968.7428233225,62860.0130971768,65809.1707823342,58662.3767118046,68379.8522578139,28332.9809277902
8494278616,8904,2,0,56094.3721296259,59236.3756417300,39660.1697572938,57379.9744728474,56881.0502323195,62885.0055464511,65787.1107479942,58575.4750210951,68389.1727135803,28333.9908466265
8494278616,8904,2,0,56110.3239801607,59244.3576508459,39677.7764145966,57407.3882937895,56878.8843822850,62905.5446186882,65817.4813192642,58600.2241164330,68417.1827516667,28327.5906380976
8494278616,8904,2,0,56121.0802241522,59331.6365401569,39729.2336044608,57489.0822102588,56971.7969152250,62897.4774356946,65855.8825704374,58706.1560849735,68428.3648650470,28320.7037216958
8494294890,8905,2,0,56108.9003596324,59372.7025169343,39738.2620355035,57502.9047138496,57024.3613655001,62863.7850831919,65843.1673272575,58737.6095812608,68406.5116815530,28318.4161946931
8494294890,8905,2,0,56089.0183430238,59317.9600489279,39694.7138485742,57432.7092708781,56973.3178773279,62858.9545075532,65796.3825329732,58663.2649536727,68386.1916278587,28321.2391003560
8494294890,8905,2,0,56090.2837834933,59245.6960974964,39661.5082039443,57376.7256977957,56894.8849036072,62888.4611723488,65780.7227071621,58588.0199165196,68401.4134165842,28335.9255104213
8494294890,8905,2,0,56107.9512792803,59246.4626623963,39676.0242662541,57398.2381857787,56886.7568821295,62908.1241704147,65808.5502297962,58603.4607237879,68427.1602630615,28337.7506649448
8494294890,8905,2,0,56123.2825772772,59324.9199715106,39726.3985311011,57475.8072530249,56963.9487507742,62911.1295915299,65852.2809321778,58693.7693696078,68442.4793933616,28332.8349154283
8494294890,8905,2,0,56118.3424923670,59383.2762454734,39751.7073404928,57515.1575845503,57033.2072810904,62890.0673083294,65859.7275626335,58752.4906744753,68427.1115922742,28333.2972879076
8494294890,8905,2,0,56103.5222376367,59349.9002530881,39723.0767498684,57470.6846526625,57006.0124786911,62870.5746580191,65830.1235562633,58703.5035270661,68403.4089188631,28344.2603827451
8494294890,8905,2,0,56098.5699850298,59265.3712632591,39673.7854100387,57397.0579191868,56913.4163058685,62887.7311105394,65804.5470575414,58603.5702330593,68400.1358084178,28351.0864606627
8494348665,8906,2,0,56114.4244939901,59252.4735046268,39680.1856185676,57409.2986221907,56888.2048380514,62912.8695721756,65831.3524936424,58600.9055074551,68424.0331649780,28346.7912636842
8494348665,8906,2,0,56123.5746020009,59325.5405240486,39726.5810465534,57485.8821059943,56960.5296279670,62898.8523854356,65872.1872841802,58692.3700844731,68432.1368510621,28334.6722376486
8494348665,8906,2,0,56110.8715265178,59374.8440315751,39742.3990524233,57516.1918387803,57022.6213848545,62867.1677029086,65865.8114110449,58738.8506863368,68409.8456304825,28324.7555647379
8494348665,8906,2,0,56096.0391040906,59341.3828653120,39711.5539409771,57470.5021372101,56998.0426372721,62857.4092100566,65829.8071961459,58687.8315335582,68388.3331424995,28330.1580221273
8494348665,8906,2,0,56095.7349116700,59265.3955986528,39671.1328521313,57407.1692752467,56918.5632416247,62874.0911224009,65805.3257901381,58605.9307662430,68392.0686254242,28341.7051664122
8494348665,8906,2,0,56118.4520016385,59242.6055025034,39671.7169015788,57408.3860449290,56888.4360242910,62902.8433899935,65826.1568870990,58596.6103104766,68418.3265151681,28346.6087482319
8494348665,8906,2,0,56138.2610120662,59305.9383644668,39713.6102817402,57477.8757614848,56950.5277811785,62909.2801016129,65869.3278754268,58678.1703822808,68434.5582227299,28331.8249965920
8494348665,8906,2,0,56140.7310545213,59382.2663266371,39749.9430244535,57534.7597441321,57033.5114735110,62894.4355114889,65887.3847375120,58760.2293296547,68428.9610821913,28331.9101704698
8494351932,8907,2,0,56122.2848261377,59367.5799165718,39727.3841145438,57498.2931567537,57025.8093214221,62863.9432632506,65849.5675357863,58728.9096780324,68400.0019637527,28340.9751046029
8494351932,8907,2,0,56105.6637522775,59274.2536819399,39668.9670020968,57409.5419761272,56926.5087476500,62864.4056357298,65804.9972623239,58617.4535751343,68387.6517514774,28341.6321602313
8494351932,8907,2,0,56116.3104869976,59231.9466000865,39658.2107581053,57394.0159949811,56875.9032965634,62894.1069836746,65816.6295804866,58585.8540664851,68406.8158739736,28339.2716270476
8494351932,8907,2,0,56135.2312555573,59295.8148407101,39708.0618119889,57469.0906843787,56937.7516995144,62903.4031040474,65866.3589574020,58671.6484967837,68429.4234546706,28335.2441193993
8494351932,8907,2,0,56132.4570206817,59368.8940278287,39743.6036544087,57523.7966492946,57019.4577836805,62878.3741516826,65880.0962871151,58745.3604041370,68419.0565769775,28331.8614996825
8494351932,8907,2,0,56111.0905450606,59354.2806239444,39720.0348256627,57489.7392658872,57012.0841594058,62851.5565478848,65842.7536255655,58716.0362547938,68389.6837568469,28328.9290847481
8494351932,8907,2,0,56096.2702903302,59275.3852777444,39670.5001318965,57413.0584405090,56929.8061934891,62856.4966327949,65803.0504308322,58625.9831306072,68381.4948968850,28324.8894094029
8494351932,8907,2,0,56105.4203983411,59227.8095831667,39656.3612681882,57382.1159874883,56871.9609627928,62896.1633244377,65805.9220072824,58580.7436338195,68405.6234396849,28329.5496372861
8494408815,8908,2,0,56131.8608035373,59283.1482683174,39705.5430987466,57441.0319755050,56922.1283767938,62924.3802133701,65851.0884978892,58652.5817158621,68441.0679405301,28339.6974964365
8494408815,8908,2,0,56138.1393350980,59372.2279767582,39756.6839284934,57512.0304864668,57019.1657589567,62907.6496302386,65876.6284935205,58750.9697123724,68445.9958577434,28346.4992389605
8494408815,8908,2,0,56120.2893238587,59374.3329883086,39744.1998715531,57492.1728052518,57034.5700631346,62879.7856045140,65844.0190660350,58744.7398515991,68421.6969671880,28353.5078323305
8494408815,8908,2,0,56104.6781688349,59289.4633029685,39690.5768316544,57411.2697890760,56951.4646938339,62886.4413346762,65797.3924518095,58650.1968472848,68408.0448113527,28356.7322719886
8494408815,8908,2,0,56113.8891153298,59234.2827978765,39672.1549386644,57386.6667061000,56887.9736518118,62917.1282660636,65802.4663813847,58603.9352639640,68429.6424732134,28354.2257264430
8494408815,8908,2,0,56131.9459774151,59281.2987784003,39709.5706063950,57450.4132697554,56929.2343117384,62925.3901322064,65851.8793981827,58669.3122989937,68452.4934078469,28344.5767428624
8494408815,8908,2,0,56136.3020128777,59362.7250055395,39747.5459881794,57516.3743542326,57011.6947931074,62904.7780537884,65880.4613180198,58750.8723707978,68445.8498453816,28337.9088450035
8494408815,8908,2,0,56126.0568121528,59380.3438305391,39742.7640833280,57514.4396904378,57035.9571805724,62877.6319221764,65866.9186714558,58755.1675677763,68422.3905259069,28336.8137522894
8494424679,8909,2,0,56114.9112018630,59315.6360188347,39699.1428902177,57449.3911832223,56971.1885303839,62871.3655583126,65832.7639464738,58673.8143468181,68406.0979798610,28340.0503596443
8494424679,8909,2,0,56115.0815496185,59240.3179755007,39661.9219056363,57396.9484099154,56887.9736518118,62891.8802951560,65822.1050440569,58599.3602099586,68414.5423614561,28340.7560860600
8494424679,8909,2,0,56133.2965917624,59263.7772949753,39688.6421678595,57438.5862684435,56903.3292852023,62911.9934980044,65862.6356421742,58640.1098266186,68441.2382882857,28338.1887020304
8494424679,8909,2,0,56139.6481295040,59352.2729539686,39736.2908686181,57517.0314098611,56993.7109372031,62893.0362263542,65895.0747219041,58742.0021198139,68440.4230525985,28337.2882924655
8494424679,8909,2,0,56122.6133539519,59374.4303298832,39728.8320704657,57515.0967460662,57026.0770107522,62863.4322199840,65871.5788993390,58756.8588776347,68410.5635245950,28337.5924848861
8494424679,8909,2,0,56107.5132421946,59305.3178119288,39681.3537174626,57439.9733858814,56960.2011001528,62868.1654540481,65824.4412418469,58670.0545284999,68394.7576864220,28342.3987251311
8494424679,8909,2,0,56114.0472953885,59238.0304484980,39658.9894907020,57393.3832747463,56886.7325467358,62898.0371497485,65814.3907242712,58604.2516240814,68411.6342819155,28346.5600774446
8494424679,8909,2,0,56128.5511900015,59258.7763715811,39685.8192621966,57430.8476132642,56900.3603671775,62913.0034168407,65846.1727483727,58639.0512369950,68434.0715148570,28336.8624230767
8494432027,8910,2,0,56131.7512942659,59337.4648669350,39729.1362628863,57499.4247525583,56982.1394575245,62897.2705848486,65873.1485322292,58724.2737855429,68435.6898185344,28322.4437023415
8494432027,8910,2,0,56120.0338022254,59377.7034403285,39736.2787009213,57516.3621865358,57030.8345802099,62874.2127993691,65864.2052750643,58759.9373049309,68418.5698691045,28321.0322495101
8494432027,8910,2,0,56111.2243897256,59332.6221235995,39703.6936088295,57465.1970213953,56990.7420191783,62871.7549246109,65831.7175245471,58702.8829745282,68405.9397998023,28333.9421758392
8494432027,8910,2,0,56116.1766423326,59255.9656336150,39666.2779410989,57406.5608904056,56903.9376700435,62889.7874513025,65814.0013579729,58617.2102211978,68415.1264109036,28345.6475001829
8494432027,8910,2,0,56129.9383074393,59255.1017271406,39680.6114879564,57424.7515971559,56890.9425698366,62910.6428836570,65842.5467747195,58629.7916197127,68434.4973842458,28342.1310358010
8494432027,8910,2,0,56137.8229749806,59337.8785686270,39732.9447519918,57504.3161666811,56975.6662428147,62904.8510599693,65881.5564107338,58728.1309454358,68443.8421754058,28334.9277592819
8494432027,8910,2,0,56125.7891228227,59382.2541589403,39746.7185847954,57526.7290642289,57034.2293676235,62882.8640318102,65875.4847300192,58767.8341401690,68422.0619980927,28337.4586402210
8494432027,8910,2,0,56112.9765380681,59336.7348051257,39708.5241844682,57468.5188026280,56992.2873166749,62874.5048240929,65838.0203915013,58701.3498447285,68405.0028871470,28346.9737791366
8494461806,8911,2,0,56112.1613023810,59261.7331219091,39668.1882695001,57408.5442249877,56908.4640532616,62886.5265085540,65820.8517712842,58618.8771956626,68409.8091273920,28351.6826778070
8494461806,8911,2,0,56128.9162209062,59254.8218701136,39677.2288682396,57423.3888151117,56896.6735550402,62908.3188535638,65845.9902329204,58625.3504103724,68431.9665033066,28347.0346176207
8494461806,8911,2,0,56143.3714447318,59326.1732442834,39722.1155018194,57492.8176931834,56969.4607174350,62903.9506504044,65880.6925042594,58704.8784768071,68440.3013756303,28339.4054717127
8494461806,8911,2,0,56134.7202122907,59381.2929108913,39742.9222633867,57529.4911314077,57034.1563614426,62872.9716942932,65879.6582500294,58756.4330082459,68420.2490112661,28328.9899232323
8494461806,8911,2,0,56112.6601779507,59343.5000445592,39708.2443274413,57481.3435550794,57003.4207592679,62858.5894766485,65839.7360367534,58702.0920742347,68391.8374391845,28327.2012717993
8494461806,8911,2,0,56104.3861441111,59254.4203361185,39660.9971606778,57405.8429962930,56907.0647681270,62879.2988966411,65808.2095342851,58599.5183900173,68391.1317127688,28333.7718280837
8494461806,8911,2,0,56122.4308384996,59236.8745172998,39668.8818282190,57412.6447388170,56880.3931766911,62917.2134399414,65837.0469757555,58594.3471188675,68422.2931843323,28339.0526085048
8494461806,8911,2,0,56140.4633651912,59316.0618882235,39723.9893271302,57495.9447912669,56959.9090754290,62920.0728486948,65886.8493588518,58695.1078162583,68441.3843006476,28338.0426896685
8494536616,8912,2,0,56136.6427083888,59384.8093752731,39751.2206326199,57536.6700725333,57036.6507392913,62898.7793792547,65891.7772760651,58762.0179810877,68429.3869515801,28341.3401355075
8494536616,8912,2,0,56122.9540494629,59362.3721423316,39723.6607993159,57491.9902897994,57017.5839583698,62883.0952180499,65857.7685634450,58719.6135576597,68411.0502324680,28347.8741887015
8494536616,8912,2,0,56116.2374808167,59285.7886585280,39680.1612831739,57422.0016976739,56936.7174452845,62893.4864311367,65826.8017750306,58632.1278175027,68410.1376552062,28351.6096716261
8494536616,8912,2,0,56127.5899419525,59254.3473299375,39674.1747763370,57411.0142674428,56896.6248842529,62916.5320489193,65838.3124162251,58609.8852677104,68429.9101625435,28349.5898339535
8494536616,8912,2,0,56141.3272716656,59311.3651572498,39716.8955598824,57474.1767816506,56951.9148986163,62918.6492281665,65876.7014997015,58683.0009579195,68446.3487209513,28340.5005644268
8494536616,8912,2,0,56136.9103977189,59382.3515005149,39749.7605090011,57529.4546283173,57031.8201636526,62890.7000285642,65890.8160280161,58761.8476333321,68432.0638448812,28332.3482075554
8494536616,8912,2,0,56119.9242929540,59367.3365626354,39728.2236856245,57499.9479635216,57028.0116745470,62869.0901990067,65856.6613030341,58737.3297242339,68404.2484899439,28332.3117044649
8494536616,8912,2,0,56110.7863526400,59279.4979592706,39676.5961480048,57416.5505694972,56936.0603896560,62883.9469568275,65815.8630155868,58633.6609473024,68398.6756847990,28341.4861478694
8494548217,8913,2,0,56127.8332958889,59239.0525350311,39672.5564726596,57401.9858364001,56882.6320329065,62920.7055689296,65828.9067865810,58601.9640970787,68425.7488102301,28343.6519979039
8494548217,8913,2,0,56146.2916919693,59301.3389750677,39721.0812475895,57469.9302554594,56939.0658107713,62927.3369636981,65874.9128482685,58683.2199764623,68450.7534272012,28340.7074152728
8494548217,8913,2,0,56139.9036511373,59375.5619256877,39755.0169540287,57518.8322289908,57016.7443872890,62904.0601596758,65884.2819748222,58754.8998784462,68438.3302087450,28343.7493394785
8494548217,8913,2,0,56121.1167272427,59368.2248045035,39733.7843230726,57488.0479560288,57017.1215858905,62872.6553341758,65849.8473928132,58728.7149948833,68411.1719094362,28348.5190766331
8494548217,8913,2,0,56103.2302129130,59283.3551191634,39677.0828558777,57411.8538385235,56933.0428008439,62861.8747547907,65803.5858094924,58633.9408043294,68390.7301787736,28343.8345133563
8494548217,8913,2,0,56105.1283736173,59217.8807425592,39643.9745528225,57374.7788663040,56863.0663764152,62884.1659753703,65795.7863158289,58573.8810528113,68397.4224120263,28337.5924848861
8494548217,8913,2,0,56126.4826815416,59259.5551041778,39678.8715073107,57432.0278798560,56899.6303053682,62906.2625128008,65835.9518830414,58631.4950972680,68420.9304022882,28336.4608890815
8494548217,8913,2,0,56137.1050808680,59351.6402337338,39730.3895356590,57512.8700575476,56996.1444765677,62890.2741591754,65869.9849310552,58730.4306401353,68422.8528983862,28335.4022994580
8494565947,8914,2,0,56123.0878941280,59367.5434134814,39722.7725574479,57506.6280290774,57016.4280271716,62858.1757749565,65847.2313379963,58727.8024176215,68393.7842706762,28337.5559817956
8494565947,8914,2,0,56112.1613023810,59292.9067611694,39670.6218088647,57431.9913767655,56936.8877930400,62865.7440823804,65807.1387769647,58631.0448924855,68378.9153451586,28345.1607923100
8494565947,8914,2,0,56124.9738871356,59238.0426161948,39651.2386678258,57400.0511726053,56871.4255841326,62898.3900129563,65816.7269220612,58577.7382127042,68402.4598385110,28354.8341112842
8494565947,8914,2,0,56140.3173528293,59279.5344623610,39687.9364414438,57452.8224737264,56905.0814335448,62910.3265235396,65859.0705070050,58639.8178018948,68427.9633310518,28355.1139683111
8494565947,8914,2,0,56139.3804401739,59359.0625287958,39731.4602929794,57515.4982800614,56990.1944728213,62886.7090240063,65883.2720559859,58728.8123364578,68423.9723264939,28348.9814491124
8494565947,8914,2,0,56121.3357457855,59376.9003723382,39729.8906600893,57507.4919355519,57016.8660642572,62860.0009294799,65859.2286870637,58736.8186809673,68399.8194483004,28347.8376856110
8494565947,8914,2,0,56104.8363488936,59310.8541139833,39687.6687521137,57441.5065156811,56954.0929163476,62852.9193299290,65817.6029962325,58660.8922527922,68383.6850823132,28353.6660123892
8494565947,8914,2,0,56107.7322607374,59236.9840265712,39653.8060518554,57388.5405314108,56875.6234395365,62881.9027837612,65804.2550328177,58587.9104072482,68395.4147420505,28351.3784853865
8494629604,8915,2,0,56133.8319704227,59262.2076620852,39686.3668085536,57430.1175514548,56893.5707923503,62916.9822537018,65845.3453449888,58629.7307812286,68427.0142506996,28346.5844128382
8494629604,8915,2,0,56151.5116339064,59358.8070071625,39749.0304471918,57515.7781370883,56995.9011226313,62907.9903257496,65887.5550852675,58741.5762504251,68441.2261205888,28347.6064993714
8494629604,8915,2,0,56137.1537516553,59391.7084593717,39754.4694076716,57520.9372405412,57039.1329494432,62876.3299786163,65868.8168321602,58766.0211533424,68417.5112794809,28350.3442311565
8494629604,8915,2,0,56116.6025117214,59324.9929776915,39704.4966768198,57444.2685828599,56974.8631748244,62871.4385644935,65818.8806043989,58679.3749842662,68397.8847845055,28359.8837054657
8494629604,8915,2,0,56115.1058850121,59246.3653208217,39666.5212950354,57388.1633328093,56888.6185397434,62888.7045262853,65804.4132128764,58601.5260599930,68406.6333585212,28366.4055909628
8494629604,8915,2,0,56125.8986320941,59249.5410896925,39683.7750891303,57416.3802217417,56888.0466579927,62897.6477834501,65834.6864425719,58627.3702480450,68424.6902206065,28361.3073259940
8494629604,8915,2,0,56130.7778785201,59323.8857172806,39729.1605982799,57484.3246408010,56963.5350490822,62885.8937883192,65866.6144790353,58710.1349218346,68427.2819400298,28349.2856415329
8494629604,8915,2,0,56117.1743934720,59360.4496462336,39736.9357565498,57499.7654480693,57008.2878379970,62857.7620732645,65856.1745951612,58740.3473130460,68401.2309011318,28333.8813373551
8494638758,8916,2,0,56097.9616001886,59308.1893883791,39694.8963640265,57442.8449623316,56962.6346395173,62845.1928424464,65816.4470650343,58674.5930794148,68376.4696380971,28328.1990229388
8494638758,8916,2,0,56097.4748923157,59223.7942432151,39648.9146377326,57376.8108716735,56872.9952170227,62869.3700560336,65793.9368259118,58581.7170495653,68378.7328297062,28334.3193744407
8494638758,8916,2,0,56117.6489336481,59219.1218476351,39660.4739497144,57397.5081239693,56861.3385634664,62898.4021806531,65827.1546382385,58593.2641938503,68408.4585130447,28342.4352282216
8494638758,8916,2,0,56134.0996597528,59305.1961349606,39713.4764370751,57485.4805719992,56950.2965949389,62893.6446111954,65874.1219479750,58701.1186584888,68420.4315267184,28346.5114066573
8494638758,8916,2,0,56128.6120284856,59359.6465782433,39728.3331948959,57517.9074840323,57015.0409097338,62865.1235298424,65871.8952594564,58751.6146003040,68402.7883663252,28348.1053749411
8494638758,8916,2,0,56113.6944321807,59314.4435845460,39687.7174229010,57462.1307617959,56976.3354661400,62852.3474481783,65830.9996304345,58686.9797947806,68379.7792516330,28349.8575232836
8494638758,8916,2,0,56110.4943279162,59233.4188914021,39642.8672924116,57397.1917638519,56888.3386827165,62866.1577840723,65809.4871424515,58598.6666512397,68382.6264926896,28348.0202010633
8494638758,8916,2,0,56121.9441306266,59218.7689844273,39646.6514461235,57405.4049592074,56862.9933702343,62882.8761995071,65831.7661953343,58595.5760562466,68405.0880610247,28339.4541425000
8494652173,8917,2,0,56135.0122370145,59290.1568616875,39693.9351159775,57475.9532653868,56932.2640682473,62887.9014582949,65872.8321721118,58679.3384811758,68418.2900120776,28334.7209084359
8494652173,8917,2,0,56134.3430136892,59356.2517908297,39727.6518038739,57522.2635194949,57009.0178998064,62865.3547160820,65883.1503790176,58741.7344304838,68407.6797804480,28335.9133427245
8494652173,8917,2,0,56115.6290959755,59329.8600564207,39704.1073105215,57481.8424306491,56988.9655354422,62846.1175874050,65845.6860404998,58700.7657952810,68383.4173929831,28343.1287869405
8494652173,8917,2,0,56107.6105837692,59240.5004909530,39653.6357040999,57404.4072080679,56900.2873609966,62862.7143258714,65807.0170999965,58600.1146071616,68380.6431581074,28349.6993432249
8494652173,8917,2,0,56120.0459699223,59211.8820680255,39648.8903023390,57398.5545458961,56861.9226129139,62894.6301946380,65824.5994219056,58583.6882164506,68407.6554450543,28346.8034313810
8494652173,8917,2,0,56139.0275769661,59289.9500108415,39702.0144666679,57478.2042892990,56939.2483262236,62902.3566821206,65874.8155066939,58687.6246827122,68431.2972799813,28341.9363526519
8494652173,8917,2,0,56137.8594780710,59364.6718370312,39735.1227697231,57524.4780403167,57019.6889699201,62877.9482822938,65885.1580489934,58762.3343412051,68422.1715073641,28338.7362483874
8494652173,8917,2,0,56122.5525154678,59345.3008636890,39708.4633459841,57480.7473379350,57003.4937654488,62857.2023592107,65846.8054686075,58721.1831905499,68398.0064614738,28338.5902360256
8494699987,8918,2,0,56109.0950427816,59259.5916072682,39657.0669946040,57404.7357358821,56915.0224418492,62860.4024634751,65808.5867328866,58626.7375278102,68390.3164770817,28338.5293975414
8494699987,8918,2,0,56115.8481145183,59220.7279836157,39648.0994020455,57391.3999401642,56870.7320254137,62892.8293755082,65816.3497234597,58597.7297385843,68409.9673074507,28340.5735706077
8494699987,8918,2,0,56135.0244047113,59278.9869160040,39695.1153825693,57457.3975277318,56929.5263364621,62915.5708008703,65863.5482194359,58671.7458383582,68436.2617002851,28343.2504639087
8494699987,8918,2,0,56136.2290066968,59357.1156973041,39736.6802349165,57518.0413286974,57017.1337535873,62889.4832588819,65884.3063102158,58754.6443568130,68430.1900195704,28345.0026122513
8494699987,8918,2,0,56120.2649884651,59355.8989276218,39723.2714330176,57495.1417232766,57023.8138191431,62872.8865204154,65857.1480109070,58739.3252265129,68407.9474697781,28350.2590572788
8494699987,8918,2,0,56107.0995405026,59274.1320049716,39671.4005414614,57411.5618137998,56934.7462783992,62873.9329423422,65814.6097428140,58634.5370214737,68394.2588108523,28353.9337017193
8494699987,8918,2,0,56114.6556802297,59221.4093746378,39652.3945990240,57382.2498321533,56869.6491003964,62898.3656775627,65819.3429768781,58587.4845378594,68411.7924619742,28351.7921870785
8494699987,8918,2,0,56133.3209271561,59274.7890606001,39692.5723339333,57446.6534514372,56915.5456528126,62906.1408358325,65861.9664188489,58660.8922527922,68431.1025968322,28343.6154948134
8494718328,8919,2,0,56134.4768583543,59350.9101719244,39729.3674491259,57506.3116689600,56999.5392639813,62881.3309020106,65877.2612137553,58741.6005858188,68422.5852090561,28333.9786789297
8494718328,8919,2,0,56113.5362521220,59347.8195769314,39711.9919780627,57482.0492814951,57005.2702491849,62860.4754696560,65842.5954455068,58720.8424950388,68395.4269097473,28329.2332771687
8494718328,8919,2,0,56101.0765305753,59277.3686123265,39668.1517664097,57413.4843098978,56934.2839059199,62870.4286456572,65803.9751757908,58639.1607462664,68388.3939809836,28332.6158968855
8494718328,8919,2,0,56110.8593588209,59226.7509935431,39650.9223077084,57382.9190554786,56876.4630106173,62908.6230459844,65807.4308016885,58593.6778955422,68409.3710903064,28336.1323612673
8494718328,8919,2,0,56140.5363713721,59278.9382452167,39696.7336862468,57442.9544716030,56922.6880908476,62935.1851281489,65857.9632465942,58656.9255836279,68445.6673299292,28343.6154948134
8494718328,8919,2,0,56151.0735968208,59374.9535408465,39752.6320854514,57523.1274259693,57022.7308941259,62921.2531152866,65894.9530449359,58756.6520267887,68453.0896249912,28344.5524074688
8494718328,8919,2,0,56138.9667384819,59397.7314692991,39751.3666449818,57521.6916377442,57052.0915465596,62884.5431739718,65878.8673497360,58763.0522353176,68427.0872568806,28345.8908541193
8494718328,8919,2,0,56121.6156028124,59321.4643456129,39698.7170208289,57440.7399507812,56974.5103116165,62884.4214970036,65831.9487107867,58663.8490031202,68405.8911290150,28347.7646794301
8494745896,8920,2,0,56125.5092657958,59252.4856723236,39670.7921566202,57395.7924787173,56896.9534120671,62907.6009594513,65823.8328570058,58597.0361798654,68418.3508505617,28347.3996485254
8494745896,8920,2,0,56142.8847368589,59284.1703548506,39700.8463677729,57444.7066199455,56921.6295012240,62925.1954490573,65864.9718399642,58651.2189338179,68442.2238717283,28342.2040419820
8494745896,8920,2,0,56152.3268695935,59367.2878918481,39744.3823870054,57515.4982800614,57010.9525636012,62913.9281617992,65895.8412868040,58742.2698091440,68443.6231568630,28341.5956571408
8494745896,8920,2,0,56139.9523219246,59391.5502793130,39743.9443499198,57515.7781370883,57046.8716046226,62889.7022774247,65879.6825854231,58756.4451759427,68419.7258003027,28341.4861478694
8494745896,8920,2,0,56123.0270556439,59330.6996275015,39702.2821559980,57447.6512025766,56987.5540826107,62879.2137227634,65837.6553605967,58679.6548412932,68402.0704722126,28341.9971911360
8494745896,8920,2,0,56122.1753168663,59255.3937518643,39671.5952246106,57392.9330699639,56906.6997372223,62907.6374625418,65821.1559637047,58605.8334246684,68414.3598460038,28342.5325697962
8494745896,8920,2,0,56138.9424030883,59264.8602199926,39695.1883887502,57423.1941319625,56907.6001467872,62924.4532195511,65853.9114035521,58631.3490849061,68440.8489219873,28340.5492352141
8494745896,8920,2,0,56148.4453743070,59350.4356317483,39748.6897516807,57505.6059425443,56996.9597122549,62918.8317436189,65894.0769707646,58736.0399483707,68449.5853283062,28343.8466810531
8494778024,8921,2,0,56134.4646906574,59388.2406657772,39756.0025374713,57519.3797753479,57043.8418481137,62878.5444994381,65879.1958775502,58766.5565320026,68420.6992160485,28344.6740844370
8494778024,8921,2,0,56113.4997490315,59323.6788664347,39705.9081296513,57444.3537567376,56981.8352651039,62862.1546118176,65826.8261104242,58678.1338791903,68393.5530844366,28344.0778672927
8494778024,8921,2,0,56109.4357382927,59241.3157266402,39663.5767124042,57380.8140439282,56890.8573959588,62878.3498162889,65805.3866286222,58590.8914929698,68397.4710828135,28341.1332846616
8494778024,8921,2,0,56122.4186708027,59247.1318857215,39679.3703828804,57409.5541438240,56889.0930799195,62904.2548428250,65836.1952369779,58613.7059245128,68422.7920599021,28331.3626241127
8494778024,8921,2,0,56135.5111125842,59329.9208949048,39729.4282876100,57484.2394669232,56972.2714554011,62908.0754996274,65873.4648923466,58709.5873754776,68437.1012713659,28327.5906380976
8494778024,8921,2,0,56131.6782880850,59382.8260406910,39751.3788126786,57514.3423488632,57032.4772192810,62892.0993136989,65873.6960785862,58758.1973242852,68425.1282576921,28336.5338952625
8494778024,8921,2,0,56115.7142698533,59342.6604734784,39716.2993427381,57463.0311713608,56995.6212656043,62870.2582979017,65836.7306156381,58701.4958570903,68400.9023733176,28344.9174383735
8494778024,8921,2,0,56108.5839995150,59254.9070439914,39668.3099464684,57390.4265244183,56904.8745826988,62880.8076910472,65807.2969570234,58607.9262685219,68399.5030881830,28349.4073185012
8494810012,8922,2,0,56118.5493432130,59239.1377089089,39673.3838760435,57396.7658944631,56882.1209896399,62904.9240661502,65831.8392015153,58605.5657353383,68420.9912407723,28344.5402397720
8494810012,8922,2,0,56130.8752200947,59318.3494152262,39729.2579398545,57481.8667660428,56966.1632715960,62905.2039231772,65881.6294169148,58705.7058801911,68439.1089413417,28338.3225466955
8494810012,8922,2,0,56120.9463794872,59375.5497579909,39752.0602037007,57518.4185272989,57037.1374471642,62878.3984870762,65882.9921989589,58761.2270807942,68423.9723264939,28337.2882924655
8494810012,8922,2,0,56101.6970831133,59333.7293840104,39714.7905483320,57460.8653213264,57001.7781201968,62866.6566596421,65838.7747887044,58700.0844042589,68401.2552365255,28341.7660048964
8494810012,8922,2,0,56094.0922725989,59251.8164489984,39673.1526898039,57390.4143567215,56912.7349148465,62880.1506354187,65807.7349941090,58612.3309747718,68404.3214961249,28343.6763332976
8494810012,8922,2,0,56107.7079253438,59237.7505914710,39680.7088295310,57393.6509640764,56887.9614841150,62908.4770336225,65825.9257008593,58611.4914036910,68426.4910397363,28341.0724461774
8494810012,8922,2,0,56126.4096753607,59312.3385729957,39730.6085542018,57466.5841388331,56955.2488475458,62910.9349083808,65869.4495523950,58696.9573061754,68443.8056723153,28341.8876818646
8494810012,8922,2,0,56122.6255216487,59378.6525206807,39756.6595930998,57514.3301811664,57027.4154574027,62885.9302914096,65877.2977168458,58761.1905777037,68430.0318395117,28340.6222413950
8494887248,8923,2,0,56104.7511750158,59356.4221385852,39730.8762435319,57481.1975427175,57014.1526678657,62862.5196427223,65846.3552638251,58726.4153001837,68401.4499196746,28340.4762290331
8494887248,8923,2,0,56093.1066891563,59264.3735121196,39675.3550429289,57399.0290860722,56919.9746944561,62866.3037964342,65807.4186339916,58622.3936600444,68390.0366200547,28339.1621177762
8494887248,8923,2,0,56102.9381881892,59224.2079449071,39664.4162834850,57383.7951296498,56869.6612680932,62898.1953298072,65818.3452257387,58589.3461954733,68409.0790655826,28338.7119129938
8494887248,8923,2,0,56121.6156028124,59290.3028740493,39713.2330831387,57458.0302479666,56935.3181601498,62905.3986063263,65863.4752132549,58676.5155755128,68428.5960512866,28336.4000505974
8494887248,8923,2,0,56122.3456646218,59364.0756198868,39747.4121435143,57510.4365181830,57019.5672929519,62884.6891863337,65874.4139726988,58751.9796312087,68418.7402168601,28334.7452438295
8494887248,8923,2,0,56103.9359393287,59344.6924788479,39720.8622290467,57466.4624618649,57007.6429500654,62858.2001103501,65832.9221265325,58713.2863553118,68392.6648425685,28334.6357345581
8494887248,8923,2,0,56087.1566854098,59260.3095013808,39671.3275352805,57386.3746813763,56921.4591534685,62861.1933637686,65792.2576837503,58617.0885442296,68384.1474547924,28337.2031185877
8494887248,8923,2,0,56090.7704913663,59216.1650973071,39659.0989999734,57364.7770195156,56869.7342742742,62887.4999242998,65797.5384641714,58584.4304459568,68400.7198578653,28338.8822607493
8494905851,8924,2,0,56105.1527090110,59265.9309773130,39697.6462635085,57424.1067092242,56917.0544472186,62898.7672115578,65836.7062802445,58651.1459276370,68418.5333660141,28332.0561828316
8494905851,8924,2,0,56113.5362521220,59347.9899246869,39741.6811583107,57493.9371212911,57009.7357939190,62883.8131121624,65864.5094674849,58740.2134683809,68419.4337755790,28333.0782693648
8494905851,8924,2,0,56102.2324617735,59352.1756123940,39729.5986353655,57483.8622683217,57025.3956197301,62859.8062463308,65842.5589424163,58732.5843224730,68395.8527791361,28340.8169245442
8494905851,8924,2,0,56093.5933970292,59273.6209617051,39678.1657808950,57408.0818525084,56946.6584535888,62866.6688273389,65802.9287538640,58635.0115616498,68385.3277213843,28352.2788949514
8494905851,8924,2,0,56109.3505644149,59223.1858583740,39660.0724157192,57379.6459450332,56883.8244671951,62900.4585214162,65809.5114778452,58591.5363809014,68410.2836675681,28353.0089567608
8494905851,8924,2,0,56132.4326852880,59276.6385505172,39704.1316459151,57444.7796261264,56931.4244971665,62909.9858280286,65857.3913648435,58666.8909273259,68435.5559738694,28343.7858425690
8494905851,8924,2,0,56131.0090647597,59356.7506663994,39742.1435307900,57503.1115646956,57017.4622814015,62889.6049358502,65874.5356496670,58752.6610222308,68426.7830644600,28334.7209084359
8494905851,8924,2,0,56110.3604832512,59360.8755156224,39730.9979205002,57481.2827165952,57029.3987919848,62871.6089122490,65844.3232584556,58741.4545734569,68400.4643362320,28332.8227477315
8494915104,8925,2,0,56096.6961597190,59292.1766993601,39690.8566886813,57411.6834907680,56961.6125529842,62879.3597351252,65805.1067715953,58659.2496137211,68391.6792591258,28342.1553711947
8494915104,8925,2,0,56107.1360435931,59237.9209392266,39674.3694594862,57380.2299944807,56901.2364413488,62912.4437027868,65806.5790629109,58609.7879261358,68416.1971682241,28353.5321677241
8494915104,8925,2,0,56128.0888175222,59270.4938636216,39706.9545515780,57426.4429070143,56930.6335968730,62924.9642628176,65843.4228488907,58655.5749692806,68441.3234621634,28351.9138640467
8494915104,8925,2,0,56128.5268546079,59349.0241789168,39750.7704278375,57496.0056297510,57017.1945920714,62904.4738613678,65869.9605956616,58746.9178693304,68439.5226430336,28340.8047568473
8494915104,8925,2,0,56111.5894206303,59372.4226599074,39749.7848443948,57498.3661629347,57051.2398077820,62878.1064623525,65850.1150821434,58760.6308636498,68413.8122996468,28337.2517893750
8494915104,8925,2,0,56096.0512717874,59299.5016528475,39695.1883887502,57422.3058900944,56975.9217644480,62870.6963349873,65803.8656665193,58662.8755873743,68390.6328371991,28340.1963720062
8494915104,8925,2,0,56102.5123188004,59226.7023227558,39659.5492047559,57372.8563702060,56892.5000350299,62896.7595415820,65799.8746619614,58589.4800401383,68400.5616778066,28343.1531223342
8494915104,8925,2,0,56123.7327820596,59255.1260625342,39691.1487134050,57422.9264426324,56915.3266342697,62910.2656850555,65845.6738728030,58639.5014417775,68426.7465613696,28344.0048611118
8494937056,8926,2,0,56126.8963832336,59334.2282595801,39732.9812550823,57489.1430487429,56994.6843529490,62885.7112728668,65873.2337061069,58727.6564052597,68420.5775390803,28339.4541425000
8494937056,8926,2,0,56107.9147761898,59356.4464739788,39729.3917845195,57486.4539877450,57023.5948006003,62855.2676954158,65853.8505650680,58741.0530394617,68393.7721029794,28338.8822607493
8494937056,8926,2,0,56086.0980957862,59291.9090100300,39681.7309160641,57417.7065006954,56963.3403659331,62844.8278115417,65807.5403109599,58662.2672025332,68370.9211683459,28342.2527127693
8494937056,8926,2,0,56083.9322457518,59210.7504722209,39643.6338573114,57359.1798789770,56879.3102516738,62869.1510374908,65786.7822201799,58581.2546770860,68377.5403954176,28346.6939221096
8494937056,8926,2,0,56101.3807229959,59218.7811521241,39664.3676126977,57385.8758058066,56880.5878598402,62899.3512610053,65819.2212999099,58602.4994757389,68406.4508430689,28344.4794012879
8494937056,8926,2,0,56118.1234738242,59310.2457291421,39724.0745010079,57474.6148187363,56975.8730936607,62901.6144526144,65866.0912680719,58710.8284805535,68423.6194632861,28333.7109895996
8494937056,8926,2,0,56113.1955566109,59361.2892173144,39742.5085616947,57503.4035894194,57040.0698620985,62871.0978689825,65863.1345177439,58759.8156279627,68406.8280416704,28330.5960592129
8494937056,8926,2,0,56090.5758082171,59305.0501225987,39693.0468741094,57431.8696997973,56984.8041831287,62852.0189203641,65811.7138309701,58680.1780522565,68378.0392709873,28335.5361441230
8494981152,8927,2,0,56084.2242704755,59221.5432193029,39646.9434708473,57363.8036037697,56892.3418549712,62873.8964392517,65785.5411151040,58592.6923120996,68382.6021572959,28342.7515883390
8494981152,8927,2,0,56099.1053636900,59223.7942432151,39661.6177132158,57390.5603690834,56886.8785590977,62899.7406273037,65815.5344877725,58614.6063340777,68408.5071838320,28345.1729600068
8494981152,8927,2,0,56115.7264375501,59302.5679124469,39713.4155985910,57466.5111326522,56968.0005938163,62893.6689465890,65855.6148811073,58705.9614018244,68419.9934896328,28338.6267391160
8494981152,8927,2,0,56109.3505644149,59353.4653882572,39732.2390255761,57492.1119667677,57025.9188306935,62869.6985838478,65852.5851245984,58750.2518182599,68401.6202674302,28334.2950390471
8494981152,8927,2,0,56098.0832771568,59320.4909298670,39705.0685585705,57446.0937373833,56994.8181976140,62859.3317061547,65819.2699706972,58702.6761236822,68384.3786410321,28342.3257189502
8494981152,8927,2,0,56093.9584279339,59237.3612251727,39661.0579991619,57376.1903191355,56907.3202897603,62871.9861108505,65793.4014472516,58609.8487646199,68386.6174972475,28348.2027165157
8494981152,8927,2,0,56110.5308310067,59220.1074310778,39665.3653638372,57380.8262116250,56882.1574927304,62905.4107740232,65816.9581083008,58604.9573504971,68415.8321373194,28346.1707111463
8494981152,8927,2,0,56125.0955641038,59301.1442919186,39718.4530250757,57461.2060168374,56963.3160305394,62908.3918597448,65863.1953562280,58703.4791916725,68435.0084275123,28338.6389068129
8494985513,8928,2,0,56118.3668277607,59368.4316553494,39746.8037586732,57502.2354905244,57040.9094331793,62885.4922543240,65868.2692858032,58769.9634871130,68421.5631225230,28336.3148767197
8494985513,8928,2,0,56101.3320522086,59336.5401219765,39714.3525112464,57450.7174621760,57014.7367173132,62870.7815088651,65829.5881776030,58715.6712238891,68400.5981808970,28340.3423843681
8494985513,8928,2,0,56097.7182462522,59255.2964102897,39670.1107655982,57382.2254967597,56929.0882993765,62891.3935872831,65806.7372429696,58624.9853794677,68403.1290618362,28351.2081376310
8494985513,8928,2,0,56114.7165187138,59236.3269709428,39673.7002361609,57391.9961573085,56901.0782612901,62920.4865503868,65834.5282625132,58619.9601206798,68428.1701818978,28357.7786939153
8494985513,8928,2,0,56134.2943429019,59303.5413281927,39719.1465837946,57466.7179834982,56965.6643960263,62923.7839962258,65879.9137716627,58702.5057759266,68444.9737712103,28353.5078323305
8494985513,8928,2,0,56133.9779827845,59372.4956660883,39747.7163359349,57516.6298758659,57042.6615815218,62894.3381699143,65891.1445558303,58769.7809716607,68433.2319437762,28347.0711207112
8494985513,8928,2,0,56116.0427976675,59355.2297042965,39723.4904515604,57483.6067466884,57030.8224125131,62865.3182129916,65853.6680496156,58739.1913818478,68404.4796761836,28344.7227552243
8494985513,8928,2,0,56102.3663064385,59266.7948837874,39668.5654681017,57400.7690667178,56939.6376925220,62874.1397931882,65812.0666941780,58637.2139147747,68392.3606501479,28343.2747993024
8495022102,8929,2,0,56116.7850271737,59229.7199115679,39664.0755879740,57385.1700793908,56892.1715072157,62912.7357275106,65827.2641475099,58606.4904802968,68419.3729370948,28345.0877861290
8495022102,8929,2,0,56137.0929131712,59300.0857022950,39713.0505676863,57460.8653213264,56957.9257408469,62919.0507621617,65875.5820715938,58693.3435002190,68443.5379829852,28340.1842043094
8495022102,8929,2,0,56135.4989448874,59381.4145878595,39750.6852539597,57520.0489986731,57047.6381695224,62898.9983977975,65891.0350465589,58775.8526523753,68434.4000426712,28340.1355335221
8495022102,8929,2,0,56119.8026159858,59366.6673393101,39725.7658108663,57486.5513293196,57041.5664888078,62878.8243564650,65857.1601786038,58743.5960880977,68404.9420486628,28342.3135512534
8495022102,8929,2,0,56113.2928981855,59285.0342613250,39675.8052477113,57415.6379922355,56955.1150028808,62886.2223161334,65824.5264157247,58649.2721023263,68396.8505302756,28347.4118162222
8495022102,8929,2,0,56126.7017000844,59236.7893434220,39658.4297766481,57397.2404346392,56899.2531067666,62909.0854184637,65834.1023931244,58611.4183975101,68416.1728328304,28342.6420790676
8495022102,8929,2,0,56146.6932259645,59284.1095163665,39693.6065881633,57453.1266661470,56941.2316608058,62918.0651787190,65872.4793089039,58677.0022833858,68434.7772412727,28333.8570019614
8495022102,8929,2,0,56148.7617344244,59365.2315510850,39734.6603972439,57517.3477699784,57026.8800787425,62895.7374550489,65892.7750272046,58763.9039740952,68428.4987097120,28328.2233583324
8495068373,8930,2,0,56128.2104944904,59371.7777719757,39722.4440296336,57504.2066574097,57041.9801904998,62865.0018528742,65865.9817588005,58760.1319880801,68399.5882620607,28325.5708004250
8495068373,8930,2,0,56109.6060860482,59288.7454088560,39666.7403135782,57423.4253182022,56959.2155167101,62865.1356975392,65822.5065780521,58659.3469552957,68380.5823196233,28326.9335824692
