steady_timestamp,sequence,battery,flags,EEG-ch1,EEG-ch2,EEG-ch3,EEG-ch4,EEG-ch5,EEG-ch6,EEG-ch7,EEG-ch8,EEG-ch9,EEG-ch10
7817571136,18423,-2,0,48137.3797984439,63875.5412417163,44221.0483959213,59539.1931125626,73801.2547511535,53346.7601746437,40318.3326461436,68989.5512102179,30096.2870482805,18511.8609402430
7817571136,18423,-2,0,48133.2184461304,63879.4714077901,44223.5914445573,59546.5910722310,73794.5503502041,53344.7768400615,40329.9649643063,68985.0978331807,30108.3452358320,18507.6022463550
7817571136,18423,-2,0,48146.4203971833,63888.3416587741,44230.4418578686,59553.0277838503,73807.7766366506,53346.8210131278,40331.5589325901,68993.1163453870,30101.6651702762,18519.1372229431
7817571136,18423,-2,0,48152.3460655361,63893.1357313223,44249.0949370982,59556.5564159289,73813.6414665193,53353.1968862630,40333.1407331771,69000.3682926935,30107.1649692402,18521.7411100632
7817571136,18423,-2,0,48138.7182450944,63891.2132352243,44238.4238669844,59552.0908711949,73802.9217256182,53342.2459591224,40334.1871551039,68992.3862835777,30116.3759157351,18512.4814927810
7817571136,18423,-2,0,48131.9043348735,63883.0243752624,44210.9978783455,59536.0538467823,73797.1542373242,53324.1160908562,40318.5638323832,68984.2095913126,30097.2482963295,18511.6054186097
7817571136,18423,-2,0,48139.3266299355,63886.6138458252,44204.9261976309,59536.1025175696,73803.7977997895,53336.0160983490,40310.5818232674,68986.3632736503,30083.8638298242,18513.5279147078
7817571136,18423,-2,0,48135.2261161062,63893.4520914397,44211.9956294850,59543.7681665680,73797.2029081115,53342.0391082764,40319.8657759433,68984.0514112539,30091.3712987640,18503.4043909511
7817615083,18424,-2,0,48133.5713093383,63889.1447267644,44214.9280444194,59541.5293103526,73798.3831747033,53344.1076167363,40325.1830594549,68981.8733935226,30088.7795793407,18503.0636954400
7817615083,18424,-2,0,48145.6781676771,63885.4092438397,44219.7221169676,59542.0525213160,73812.2908521719,53347.7822611768,40319.5859189163,68992.7026436951,30083.2067741958,18512.8221882920
7817615083,18424,-2,0,48145.8241800390,63883.5840893163,44223.8591338874,59546.7614199865,73805.6594574034,53338.7903332246,40321.9464521000,68990.7558122034,30092.5393976590,18503.9884403986
7817615083,18424,-2,0,48129.9210002914,63877.1108746065,44208.8563637047,59539.3634603181,73786.0451301248,53311.6320339158,40317.0793733708,68970.9954725629,30080.6028870757,18491.9667559375
7817615083,18424,-2,0,48129.8601618073,63878.0842903523,44199.3655601828,59533.4256242685,73775.1307060746,53310.1597426003,40305.5808998731,68961.9548738235,30055.6226054982,18498.6224860997
7817615083,18424,-2,0,48138.1220279501,63880.6030035947,44205.5710855625,59538.1466906358,73792.1411462331,53331.9520876102,40310.8373449006,68976.3857622555,30061.6821185160,18510.8631891035
7817615083,18424,-2,0,48128.4730443695,63876.6971729145,44208.5156681937,59540.2638698830,73791.4840906047,53333.2783665638,40319.4764096449,68973.5263535021,30078.1328446206,18506.2881350981
7817615083,18424,-2,0,48128.3270320076,63870.8688461363,44201.9816149997,59535.9443375109,73786.1668070930,53331.8304106419,40318.3083107499,68975.1811602700,30073.6551321898,18511.7514309716
7817638514,18425,-2,0,48146.5664095452,63882.9270336878,44209.7689409664,59552.7357591265,73804.3940169338,53349.6074157002,40328.7238592304,68989.1253408291,30083.8273267338,18522.4103333885
7817638514,18425,-2,0,48139.2901268451,63889.2420683390,44210.3529904139,59557.7853533081,73798.8577148794,53338.1089422026,40338.8230475934,68988.3101051420,30098.7570907355,18515.1705537789
7817638514,18425,-2,0,48123.9953319386,63879.1063768854,44199.7427587843,59538.8037462643,73791.0460535191,53330.8448271993,40329.7946165508,68980.8756423832,30090.5925661673,18516.7888574563
7817638514,18425,-2,0,48130.0548449565,63873.9959442198,44204.0501234596,59529.5562966788,73802.4228500485,53348.4271491084,40317.1037087645,68990.2326012400,30090.0328521135,18526.4378410369
7817638514,18425,-2,0,48128.3026966140,63874.6773352419,44223.4332644986,59531.0894264785,73795.8766291578,53353.8417741946,40321.3867380461,68991.3520293477,30110.0487133872,18520.6338496524
7817638514,18425,-2,0,48120.9899108234,63872.8886838089,44222.2895009972,59530.8095694516,73790.6080164334,53345.2757156313,40325.2073948485,68984.8301438506,30111.0099614362,18520.5486757746
7817638514,18425,-2,0,48136.3090411235,63878.8751906458,44212.5675112357,59537.5018027042,73801.4859373931,53345.5555726582,40326.2538167753,68995.4403754802,30101.9328596063,18530.4166778980
7817638514,18425,-2,0,48141.1274490653,63886.8450320648,44213.9911317640,59546.5180660500,73802.0091483565,53352.8440230551,40330.0988089714,68998.6769828351,30110.9491229521,18531.5482737025
7817670201,18426,-2,0,48135.9805133092,63880.5056620201,44214.0276348545,59545.7149980597,73798.8698825762,53351.0675393190,40329.8554550349,68994.6129720962,30112.4579173582,18527.1557351495
7817670201,18426,-2,0,48146.5785772420,63881.3452331009,44218.0064717155,59547.1264508912,73810.4048591644,53357.9179526303,40325.4507487850,69001.8040809186,30101.2027977969,18537.2914266030
7817670201,18426,-2,0,48162.0558876008,63894.8757119680,44228.8843926753,59561.5573393232,73822.3778728381,53368.6255258345,40330.1353120618,69010.8446796581,30106.6295905800,18535.6731229255
7817670201,18426,-2,0,48149.5231598732,63900.6310325652,44231.1475842843,59561.2044761153,73807.8009720442,53349.2910555828,40333.9803042579,68998.8351628938,30110.1217195682,18516.4116588548
7817670201,18426,-2,0,48138.5844004293,63895.3867552345,44222.8248796574,59547.3819725244,73802.1916638089,53340.5789846576,40325.0613824867,68991.9725818857,30092.1743667543,18519.8186139652
7817670201,18426,-2,0,48148.4158994623,63899.1100704624,44230.8555595606,59549.5721579526,73802.0456514470,53357.8936172367,40320.8878624764,68996.7179836466,30089.3757964850,18530.3071686266
7817670201,18426,-2,0,48154.9012818689,63903.7702983455,44243.1571010486,59559.9268679489,73819.4211225101,53368.3821718980,40335.3309186052,69009.3237175552,30106.3984043403,18531.5847767930
7817670201,18426,-2,0,48154.4389093896,63908.2601784732,44243.7411504961,59559.8416940711,73822.9619222856,53358.8548652857,40339.8086310361,69008.2651279316,30104.9504484184,18531.5482737025
7817721291,18427,-2,0,48161.6908566961,63913.6991389531,44241.7091451266,59557.4811608875,73832.1485333869,53362.6755220881,40332.5201806391,69011.3800583183,30091.3712987640,18536.4883586127
7817721291,18427,-2,0,48160.0725530187,63920.3792045089,44239.7258105445,59560.4865820028,73827.9628456799,53361.6291001613,40333.9438011674,69008.0582770856,30097.3213025104,18527.9831385334
7817721291,18427,-2,0,48146.4569002738,63913.0785864151,44228.8965603721,59553.2102993026,73813.0574170717,53353.1117123852,40333.1650685707,68996.6571451625,30097.6011595373,18521.8019485474
7817721291,18427,-2,0,48156.3127347004,63908.4183585319,44224.9420589046,59551.8718526521,73820.9785877035,53358.7088529238,40327.2637356116,69001.6337331631,30088.6457346757,18534.3225085782
7817721291,18427,-2,0,48170.5367722864,63917.8969943570,44238.0710037766,59562.5915935531,73829.0214353035,53371.3510899228,40334.0289750452,69013.3268898099,30099.8643511464,18535.8556383779
7817721291,18427,-2,0,48162.1532291754,63924.0660166462,44243.0354240803,59566.7407781697,73820.9055815225,53365.7904524748,40345.7464670857,69007.3038798826,30107.3718200862,18523.0917244106
7817721291,18427,-2,0,48163.7958682465,63920.9875893500,44238.6185501336,59567.2518214363,73827.3544608387,53358.3559897159,40344.3106788606,69009.1898728901,30094.5470676348,18529.4554298490
7817721291,18427,-2,0,48174.8076338712,63919.5883042154,44243.2909457136,59572.9098004590,73833.3287999788,53378.3961863833,40345.7586347825,69020.4328247545,30100.7160899240,18537.1210788474
7817730732,18428,-2,0,48162.2992415373,63911.7279720678,44240.8209032586,59572.1189001655,73821.8546618747,53373.1762444463,40350.3093533943,69014.5558271890,30116.0960587082,18528.1048155016
7817730732,18428,-2,0,48153.4654936438,63900.7770449271,44227.1930828169,59559.4158246823,73809.8694805041,53348.9503600718,40340.7577113883,69000.5508081458,30100.5092390780,18523.1160598042
7817730732,18428,-2,0,48163.4551727354,63902.2371685459,44221.9853085767,59553.1129577281,73816.3548629108,53344.7768400615,40330.5125106633,68998.8473305906,30082.9755879562,18526.6325241861
7817730732,18428,-2,0,48160.8877887058,63908.7103832557,44226.4873564011,59556.7876021686,73810.4291945580,53352.9048615393,40333.5057640818,68995.9027479595,30092.7584162018,18519.0763844590
7817730732,18428,-2,0,48150.7034264650,63905.7171298372,44227.5094429343,59551.2634678110,73800.3056708013,53346.6384976754,40333.1407331771,68990.2204335432,30096.8467623343,18513.7225978569
7817730732,18428,-2,0,48163.2361541926,63903.1619135044,44230.4661932622,59549.0732823828,73814.5540437810,53356.2753135592,40327.0812201593,69001.4755531044,30090.3735476245,18531.7794599422
7817730732,18428,-2,0,48168.3587545551,63909.2579296127,44241.5509650679,59558.6127566920,73824.0935180902,53365.6444401129,40334.2844966785,69013.7527591987,30103.3199770441,18540.2360092341
7817730732,18428,-2,0,48155.0959650181,63916.2056844986,44235.5157874438,59564.5992635289,73819.7009795371,53356.6525121607,40347.5716216091,69010.6134934184,30114.9157921164,18534.3711793655
7817772502,18429,-2,0,48153.1734689200,63917.7023112078,44229.4684421228,59559.0872968681,73823.1444377380,53359.0495484348,40341.5851147722,69012.3534740641,30105.4128208977,18534.9673965098
7817772502,18429,-2,0,48168.4560961297,63926.4022144362,44242.4878777233,59566.7042750793,73836.2977180036,53384.3705255234,40341.3904316231,69024.1074691951,30114.1248918229,18537.3766004807
7817772502,18429,-2,0,48168.0910652250,63928.8357538008,44254.0715250987,59572.2284094369,73831.6739932108,53384.3948609170,40348.2043418439,69022.3674885494,30132.7171325684,18530.0638146901
7817772502,18429,-2,0,48168.1762391027,63922.9952593258,44247.3671241493,59564.3072388052,73811.4756164848,53358.2708158382,40341.5729470754,69010.6256611152,30115.7553631972,18529.7109514823
7817772502,18429,-2,0,48179.4678617544,63923.6401472574,44241.2467726474,59563.2851522720,73830.9439314015,53358.7088529238,40339.8816372170,69019.6054213706,30098.0391966230,18539.9318168135
7817772502,18429,-2,0,48177.3750179009,63935.0899499678,44245.2377772053,59570.2450748548,73830.2017018953,53362.6876897849,40349.4819500103,69020.8343587497,30109.8296948444,18532.8258818690
7817772502,18429,-2,0,48168.9914747899,63931.0746100162,44240.6992262903,59567.0571382871,73824.6410644472,53356.8350276131,40350.5770427244,69013.6797530178,30107.2014723307,18530.2706655361
7817772502,18429,-2,0,48176.6814591820,63924.4432152477,44235.4549489596,59562.6524320372,73835.5433208005,53369.3190845534,40342.6923751831,69021.4670789845,30101.5069902175,18533.6532852529
7817798543,18430,-2,0,48175.1970001696,63924.8569169397,44239.1174257034,59567.7628647029,73834.9714390499,53381.3407690145,40346.4400258046,69023.8276121681,30117.3006606937,18525.7321146212
7817798543,18430,-2,0,48165.5966873763,63926.8280838250,44238.1926807448,59568.5781003900,73826.6974052103,53367.2870791840,40352.9375759080,69014.9086903969,30119.0893121267,18517.6162608403
7817798543,18430,-2,0,48168.3100837678,63924.7352399715,44231.8168076096,59562.8836182769,73827.0989392054,53357.1392200336,40344.7487159462,69011.5504060738,30095.5813218647,18527.1070643622
7817798543,18430,-2,0,48170.9869770688,63922.6180607243,44234.7857256344,59559.7443524966,73823.9718411219,53351.5055764046,40337.3142531874,69011.9884431594,30091.8945097274,18529.3215851839
7817798543,18430,-2,0,48154.9256172625,63912.7743939945,44228.2030016532,59551.5676602315,73791.2894074555,53336.0647691363,40334.8807138228,68995.3673692993,30095.2892971410,18523.0430536233
7817798543,18430,-2,0,48158.2108954047,63904.5855340327,44219.6612784835,59547.0899478007,73807.4359411396,53335.7362413221,40330.7923676903,68999.7964109428,30085.2022764748,18527.5451014478
7817798543,18430,-2,0,48175.4890248933,63914.5995485180,44225.2584190220,59558.0287072445,73826.3688773960,53355.3384009038,40335.2457447275,69012.6333310910,30089.4122995755,18530.5261871694
7817798543,18430,-2,0,48171.2546663989,63923.7983273161,44231.9628199715,59567.3248276172,73820.3215320750,53357.0540461559,40349.6279623722,69011.0636982009,30108.1383849860,18513.4549085268
7817841803,18431,-2,0,48163.4916758259,63916.8140693397,44228.6167033452,59559.8660294648,73808.2633445235,53343.5965734697,40345.3327653937,68997.2290269132,30100.1807112638,18510.1574626878
7817841803,18431,-2,0,48168.1762391027,63909.7081343951,44234.9804087836,59551.9935296203,73820.4553767401,53355.7521025958,40337.0222284636,69009.0195251346,30091.9310128179,18523.9556308850
7817841803,18431,-2,0,48164.7449485987,63912.2755184248,44236.2823523436,59559.0021229904,73823.3391208871,53366.2041541667,40341.6946240436,69012.4994864260,30107.3231492989,18524.8195373595
7817841803,18431,-2,0,48151.5186621521,63907.4936135734,44226.7672134281,59555.9845341783,73810.7698900690,53354.0121219501,40340.0763203662,69001.0861868061,30108.7711052208,18514.5013304536
7817841803,18431,-2,0,48158.9166218205,63909.3552711873,44220.9632220435,59551.6041633220,73800.7680432806,53345.1540386630,40329.2714055874,68995.3308662088,30091.2617894926,18515.9492863755
7817841803,18431,-2,0,48172.3740945066,63915.0984240877,44232.1088323333,59555.5343293958,73819.7009795371,53362.3469942739,40332.1064789471,69011.2218782596,30096.3113836741,18520.6216819555
7817841803,18431,-2,0,48168.5291023106,63916.5220446160,44239.6771397572,59557.7245148239,73815.7586457664,53356.4943321020,40336.7423714367,69006.0141040193,30110.4745827760,18517.1173852705
7817841803,18431,-2,0,48169.6606981151,63908.5278678033,44235.5766259279,59554.0011995961,73813.1547586463,53352.2478059108,40332.9703854216,69005.7464146892,30103.1739646823,18524.7465311785
7817881990,18432,-2,0,48181.7918918476,63915.9866659558,44237.6694697814,59564.4532511670,73828.0358518608,53366.1433156826,40338.0686503904,69014.1664608907,30106.2523919785,18531.5117706121
7817881990,18432,-2,0,48169.2469964231,63919.6856457900,44233.4229435902,59568.3469141504,73816.4643721822,53356.3604874370,40348.9100682596,69007.1943706112,30114.8671213291,18521.9236255156
7817881990,18432,-2,0,48159.2086465442,63912.7865616913,44221.2674144641,59560.1580541885,73813.4346156733,53344.8620139393,40345.2110884255,68999.9059202142,30102.7359275966,18517.8961178672
7817881990,18432,-2,0,48168.3465868583,63907.2259242433,44221.8879670021,59555.3761493371,73825.5293063153,53351.1527131968,40334.2358258912,69009.9564377900,30094.9729370236,18527.7032815065
7817881990,18432,-2,0,48165.4506750144,63907.8829798717,44226.8158842154,59555.2909754594,73819.8713272926,53345.1905417535,40334.6981983704,69011.3678906214,30105.1329638708,18521.7289423664
7817881990,18432,-2,0,48153.8791953358,63903.2592550790,44217.9334655346,59548.1850405148,73809.7721389296,53332.3414539085,40331.8874604043,68999.0541814366,30096.9197685153,18516.0466279501
7817881990,18432,-2,0,48161.5691797279,63908.0898307177,44219.4179245470,59549.4869840748,73816.5982168472,53346.9791931865,40326.9230401006,68999.4435477350,30082.9999233498,18524.0894755501
7817881990,18432,-2,0,48165.7913705254,63917.6901435110,44231.3300997367,59559.3914892887,73819.1290977864,53360.3271566013,40334.3818382530,69002.5828135153,30097.1266193613,18521.3760791586
7817898523,18433,-2,0,48151.2266374284,63908.7103832557,44229.2129204895,59553.7821810533,73805.0754079559,53353.0508739011,40337.6671163952,68992.6296375141,30104.8044360565,18511.3864000669
7817898523,18433,-2,0,48156.4222439718,63901.1420758318,44228.0204862008,59548.8907669305,73799.5391059015,53350.3496452064,40331.0965601108,68990.9748307462,30096.6155760947,18521.2057314030
7817898523,18433,-2,0,48175.0631555045,63905.3886020230,44238.7645624955,59559.5983401347,73824.2760335425,53365.5714339319,40337.6914517889,69010.3093009978,30105.5588332596,18531.4509321280
7817898523,18433,-2,0,48171.0964863402,63914.3561945815,44243.3882872882,59566.5460950206,73822.1953573858,53367.9197994188,40346.5130319855,69015.3467274825,30124.2849186701,18522.2034825425
7817898523,18433,-2,0,48159.2938204220,63912.0930029724,44234.4206947297,59557.1282976796,73819.1412654832,53355.6425933244,40342.4733566403,69012.2561324895,30112.5187558423,18522.5806811440
7817898523,18433,-2,0,48157.3469889303,63908.3818554414,44232.4738632380,59551.1296231459,73828.4252181591,53358.8426975889,40331.7657834361,69015.2493859080,30103.8796910980,18527.9709708366
7817898523,18433,-2,0,48148.0265331639,63905.6197882626,44234.3233531551,59547.1264508912,73813.6901373065,53347.7335903895,40329.6486041889,69005.9654332320,30110.9369552553,18518.0664656227
7817898523,18433,-2,0,48143.6096592172,63900.8378834112,44217.1790683316,59539.9961805529,73803.5909489435,53323.5077060150,40326.1564752007,68993.3475316267,30095.7029988330,18509.6829225117
7817926048,18434,-2,0,48158.7462740650,63904.7558817882,44215.8162862874,59541.0669378733,73808.0443259807,53327.1093442746,40321.4110734398,68994.8198229422,30076.3320254908,18515.4139077153
7817926048,18434,-2,0,48163.5160112195,63913.2367664738,44223.7982954033,59550.9471076936,73806.4503576969,53335.9187567744,40333.3110809326,68995.4038723897,30084.6060593305,18511.6540893970
7817926048,18434,-2,0,48148.3915640686,63906.4836947371,44212.7865297785,59543.8776758394,73781.8107716304,53325.3571959321,40333.3354163263,68978.8071339233,30086.6380646999,18502.8446768972
7817926048,18434,-2,0,48157.6633490477,63900.3268401447,44211.1195553138,59540.1543606116,73800.4760185568,53345.4582310836,40328.0546359051,68992.4714574554,30079.0940926697,18522.5076749631
7817926048,18434,-2,0,48175.8540557980,63915.9988336526,44234.6883840598,59555.6316709704,73828.8632552448,53371.9716424608,40333.7612857151,69019.6784275515,30103.7093433425,18527.4964306605
7817926048,18434,-2,0,48168.5899407947,63929.2737908864,44245.0917648434,59564.3315741988,73826.6609021198,53362.2374850025,40346.8172244061,69021.0777126862,30124.6134464843,18512.2624742382
7817926048,18434,-2,0,48162.7859494102,63929.0791077373,44242.3905361487,59557.8340240954,73832.5135642916,53352.6736752996,40340.2588358185,69014.3246409494,30111.6426816710,18509.7437609958
7817926048,18434,-2,0,48165.0856441097,63926.4995560108,44241.9403313663,59553.0034484566,73839.5099899648,53355.0342084833,40333.5666025659,69016.6365033458,30104.3542312741,18514.9758706297
7817959468,18435,-2,0,48156.7507717860,63921.1944401960,44240.2855245984,59552.7600945202,73826.5027220611,53356.7011829480,40338.8717183807,69012.3048032768,30110.0365456904,18512.1651326636
7817959468,18435,-2,0,48156.2275608226,63913.7964805276,44231.0624104066,59550.0710335223,73821.7694879970,53347.5875780276,40340.8915560533,69007.7905877555,30097.2604640263,18514.3674857885
7817959468,18435,-2,0,48173.9437273968,63918.6513915600,44231.2570935557,59556.6172544131,73832.4648935043,53351.6759241601,40337.4846009429,69014.6410010668,30085.4577981081,18519.9159555398
7817959468,18435,-2,0,48173.9437273968,63928.2760397470,44235.0655826613,59562.7376059150,73827.4152993228,53348.6705030449,40344.0551572273,69012.4021448514,30099.9251896305,18510.5468289861
7817959468,18435,-2,0,48158.3325723730,63920.0993474819,44223.8956369779,59552.0178650140,73813.8726527589,53341.0656925305,40341.7797979214,69002.0109317646,30102.1518781491,18509.7315932990
7817959468,18435,-2,0,48167.3001649315,63916.3881999509,44218.1524840774,59548.6109099036,73828.1210257386,53348.4636521989,40336.1218188987,69011.7329215261,30094.7782538744,18526.0484747386
7817959468,18435,-2,0,48175.6715403457,63913.0055802342,44222.1434886354,59550.6794183635,73828.0723549513,53342.3919714842,40333.4084225072,69009.8712639122,30097.3091348136,18525.8294561958
7817959468,18435,-2,0,48165.0369733224,63912.6527170263,44219.5152661216,59547.9051834878,73816.8902415710,53329.8470760598,40334.9780553974,69003.3250430215,30096.5790730042,18512.2868096318
7817996168,18436,-2,0,48159.9752114441,63908.6252093779,44214.6846904829,59540.7870808464,73813.6049634288,53322.5342902692,40326.5093384086,68996.2677788642,30071.6352945172,18511.5080770352
7817996168,18436,-2,0,48164.7449485987,63913.1880956865,44221.7054515497,59547.3211340403,73820.0538427449,53341.6132388876,40324.5868423106,69002.2542857011,30073.7281383707,18514.5500012409
7817996168,18436,-2,0,48156.1180515512,63913.3949465325,44225.0028973887,59555.2423046721,73814.4445345096,53355.5817548403,40337.2534147032,69000.6359820236,30097.7350042024,18513.1750514999
7817996168,18436,-2,0,48160.7539440407,63911.9104875201,44220.7077004102,59560.1215510981,73817.6446387740,53351.4082348300,40341.2079161707,69001.1713606838,30101.0567854351,18526.9367166066
7817996168,18436,-2,0,48175.7567142234,63915.9014920780,44229.0790758244,59566.7286104729,73826.4905543643,53360.3514919949,40337.8009610603,69011.2462136532,30097.7228365056,18534.9673965098
7817996168,18436,-2,0,48168.3465868583,63919.7829873645,44234.5423716979,59566.2175672064,73817.1944339915,53359.8404487283,40338.4701843855,69003.9212601658,30110.7179367125,18525.9998039513
7817996168,18436,-2,0,48149.6570045382,63907.1529180623,44216.4976773095,59550.6064121825,73796.1321507910,53337.2085326377,40326.9717108879,68987.1420062470,30101.6286671857,18520.0376325080
7817996168,18436,-2,0,48150.1680478048,63893.7927869507,44202.6873414155,59538.0006782740,73799.0645657254,53333.3635404416,40307.6615760299,68986.1077520170,30082.9755879562,18522.1183086648
7818019790,18437,-2,0,48149.6570045382,63889.7409439087,44203.6972602518,59535.5793066062,73782.8328581636,53330.8326595024,40303.0986897213,68980.6687915372,30086.3217045825,18518.7478566448
7818019790,18437,-2,0,48145.0697828360,63890.0938071166,44208.5400035873,59539.5581434673,73793.0415557980,53333.5582235908,40305.5687321763,68982.0559089750,30085.3361211398,18512.4328219937
7818019790,18437,-2,0,48149.6448368414,63896.4210094645,44215.8892924684,59544.0236882013,73803.5301104594,53343.7182504379,40306.1771170175,68986.7891430391,30079.5808005426,18510.8023506194
7818019790,18437,-2,0,48155.7165175560,63904.5733663359,44225.9641454378,59554.5244105595,73808.6162077314,53356.8228599162,40317.0185348867,68992.9338299347,30091.0914417371,18503.2097078019
7818019790,18437,-2,0,48143.3663052808,63897.8811330832,44221.5594391878,59555.9480310878,73792.4453386537,53342.2094560319,40327.8599527559,68983.8080573175,30104.6949267851,18494.6314815417
7818019790,18437,-2,0,48137.6353200771,63879.8729417853,44203.6364217677,59546.9682708325,73785.3637391027,53323.3616936532,40319.0505402561,68975.8747189889,30086.7719093649,18499.3403802122
7818019790,18437,-2,0,48155.3636543482,63885.2267283874,44206.4471597338,59560.0120418267,73804.5035262052,53341.9782697923,40319.5007450386,68986.6309629804,30082.0751783913,18511.7392632748
7818019790,18437,-2,0,48160.9486271899,63900.5336909906,44217.7631177791,59578.1054070024,73802.3376761707,53349.6195833971,40337.0708992509,68990.6463029320,30097.6254949310,18512.1529649668
7818079857,18438,-2,0,48159.6345159330,63899.6576168194,44219.3205829724,59575.2946690363,73796.0348092164,53346.5776591913,40336.3895082288,68985.3898579045,30094.2672106079,18513.3332315586
7818079857,18438,-2,0,48168.3709222519,63894.3159979141,44223.9199723715,59569.2351560184,73802.5323593199,53361.9576279755,40323.8324451075,68993.2623577489,30089.5948150279,18525.8294561958
7818079857,18438,-2,0,48163.4916758259,63897.6499468436,44235.4306135660,59571.5348507180,73807.3142641713,53378.7003788039,40328.8090331081,69002.2664533979,30111.5818431869,18522.4346687822
7818079857,18438,-2,0,48150.3140601667,63897.2362451516,44232.2061739079,59569.1378144439,73801.1209064884,53361.6899386454,40334.7833722482,68996.1461018959,30115.1956491433,18510.2913073529
7818079857,18438,-2,0,48154.2198908468,63897.2970836357,44225.8181330759,59567.2639891331,73805.3674326796,53356.9810399749,40332.7148637883,68998.1902749622,30098.8544323101,18511.6054186097
7818079857,18438,-2,0,48166.1320660365,63907.1164149719,44232.4860309349,59577.7647114913,73815.1502609253,53363.1743976578,40345.4666100587,69006.9266812811,30107.9802049273,18514.3309826981
7818079857,18438,-2,0,48155.4974990132,63902.7603795092,44229.6144544846,59574.7349549824,73797.4462620479,53356.4578290116,40350.0051609737,68997.8252440575,30115.1348106592,18509.8289348736
7818079857,18438,-2,0,48155.6435113751,63890.7630304418,44225.1367420538,59564.2220649274,73797.4584297447,53352.9535323266,40337.0952346446,68993.0190038124,30102.2248843301,18519.7577754811
7818083872,18439,-2,0,48169.5511888437,63890.2033163880,44231.6586275509,59569.1013113534,73802.4471854421,53355.0220407864,40331.4615910155,68997.3872069719,30099.0734508529,18524.4910095452
7818083872,18439,-2,0,48162.4209185055,63894.0726439777,44236.0511661040,59575.2825013395,73790.9487119445,53345.6042434455,40338.0808180872,68989.5268748243,30108.0532111083,18508.5878297976
7818083872,18439,-2,0,48151.8836930568,63887.4655846028,44222.1069855449,59565.3171576415,73779.9247786229,53328.9588341917,40329.0037162573,68978.6124507741,30094.0603597619,18506.3368058854
7818083872,18439,-2,0,48155.5096667101,63882.4646612086,44205.6075886530,59556.4590743544,73785.4489129805,53339.6664073959,40318.4178200213,68983.9053988921,30085.2022764748,18512.7735175047
7818083872,18439,-2,0,48149.7056753255,63879.8242709980,44201.8234349410,59557.0431238019,73781.8594424177,53353.0752092948,40319.6589250973,68985.3290194203,30101.1419593128,18507.0303646043
7818083872,18439,-2,0,48145.2036275010,63877.7192594476,44200.5701621683,59556.3130619925,73780.8373558846,53344.8011754552,40324.4895007360,68983.3335171414,30104.0865419440,18506.1056196458
7818083872,18439,-2,0,48154.4510770865,63880.8463575311,44205.5954209562,59557.1769684669,73797.3489204733,53345.9206035629,40322.0072905841,68990.5002905701,30092.5880684463,18512.2503065414
7818083872,18439,-2,0,48155.6921821624,63888.2686525931,44219.3084152756,59561.6668485946,73796.7770387226,53349.8751050303,40325.4264133914,68987.1055031565,30097.5403210532,18509.2205500324
7818111980,18440,-2,0,48149.1581289685,63884.7156851208,44221.4255945228,59555.8993603005,73785.3150683154,53339.2770410976,40326.6310153768,68978.2717552630,30096.6155760947,18512.4571573873
7818111980,18440,-2,0,48158.8922864268,63881.5885870373,44213.8694547957,59550.9106046031,73795.4629274658,53340.4573076894,40319.9022790337,68983.6742126524,30082.5618862642,18515.1462183852
7818111980,18440,-2,0,48171.2668340958,63889.3880807008,44215.1957337495,59560.1093834012,73805.1727495305,53350.5321606588,40324.3434883741,68991.8752403111,30090.9575970720,18508.8555191278
7818111980,18440,-2,0,48166.8377924522,63896.3966740708,44217.3737514808,59567.1788152554,73794.4165055390,53346.1152867121,40336.0001419305,68988.1397573864,30106.7512675482,18500.6423237723
7818111980,18440,-2,0,48164.9761348383,63898.6598656799,44214.0398025513,59564.9034559495,73793.6377729423,53340.4451399926,40337.1560731287,68987.3366893961,30096.1045328281,18511.0457045559
7818111980,18440,-2,0,48173.8585535191,63903.2349196853,44223.4332644986,59564.7209404971,73812.3151875655,53358.7575237111,40337.7887933635,69000.5751435395,30094.0481920651,18524.8682081467
7818111980,18440,-2,0,48167.7868728044,63902.1398269713,44231.2084227684,59564.7209404971,73807.4724442300,53357.7111017843,40345.4909454524,68997.6548963020,30111.2411476759,18511.0822076464
7818111980,18440,-2,0,48159.3181558156,63892.1744832733,44225.1732451443,59557.9800364572,73799.9528075934,53346.5533237977,40343.7874678972,68989.1131731323,30104.7801006629,18507.1520415725
7818139620,18441,-2,0,48178.4822783118,63893.2452405937,44226.2318347679,59561.2774822962,73808.6892139123,53345.5555726582,40338.9325568648,68997.8374117543,30087.8183312917,18532.9962296245
7818139620,18441,-2,0,48182.3881089919,63905.8144714118,44236.4892031896,59571.7417015640,73819.7983211117,53356.0562950164,40342.3638473689,69009.9807731836,30097.4916502659,18528.7983742206
7818139620,18441,-2,0,48158.0648830429,63901.4219328587,44230.9650688320,59563.1513076070,73802.4228500485,53342.8056731762,40340.3075066058,68993.4692085949,30102.2005489364,18510.1087919005
7818139620,18441,-2,0,48152.0662085092,63888.9500436152,44225.5504437458,59551.0687846618,73800.0866522585,53340.1531152688,40328.4440022034,68990.0257503940,30090.2762060499,18512.2746419350
7818139620,18441,-2,0,48159.1721434538,63891.2619060116,44224.5283572127,59555.1936338848,73806.7667178143,53348.3419752307,40331.3399140473,68999.9302556079,30098.6354137673,18513.6009208887
7818139620,18441,-2,0,48158.4299139476,63896.8468788533,44221.2187436768,59563.3338230593,73806.5963700588,53349.7047572748,40341.2809223516,68997.4358777592,30111.9590417884,18507.0912030884
7818139620,18441,-2,0,48167.2393264474,63902.2371685459,44219.5030984248,59565.0981390986,73809.8573128073,53348.2811367465,40343.8848094718,69000.6968205077,30102.6994245062,18516.7523543658
7818139620,18441,-2,0,48180.4534451971,63908.6373770747,44224.2363324889,59569.0039697788,73809.2489279662,53344.6064923060,40343.6414555353,69005.3327129973,30093.9630181873,18522.1548117552
7818198834,18442,-2,0,48176.4867760328,63904.6098694263,44227.9718154135,59568.5902680868,73811.9501566609,53346.5046530104,40346.7563859220,69003.1303598723,30098.3312213467,18510.8023506194
7818198834,18442,-2,0,48172.7877961986,63902.6873733283,44226.5481948853,59563.3094876657,73809.8938158978,53346.7723423405,40346.2696780491,69000.6481497204,30095.5813218647,18514.0632933680
7818198834,18442,-2,0,48184.1402573344,63906.1551669228,44228.4098524992,59563.8326986291,73817.8758250136,53347.6849196022,40341.2930900485,69003.8482539849,30087.4776357807,18525.0385559023
7818198834,18442,-2,0,48179.2001724243,63904.5611986390,44229.1034112181,59564.1247233528,73804.1263276037,53342.7448346921,40341.7554625277,68997.7157347861,30092.3690499035,18516.3994911580
7818198834,18442,-2,0,48158.9409572141,63892.8923773858,44217.9212978378,59553.0642869408,73788.2961540371,53326.5252948271,40337.7157871825,68981.7760519481,30085.4943011985,18510.6320028639
7818198834,18442,-2,0,48164.5502654495,63887.6481000552,44215.4634230796,59548.0390281529,73802.2646699898,53337.4153834837,40327.8964558464,68988.8454838022,30075.1152558086,18520.8041974079
7818198834,18442,-2,0,48173.3231748588,63893.3425821683,44224.3701771539,59557.2864777383,73801.7414590264,53340.8953447750,40331.8266219202,68993.1771838711,30085.9445059810,18522.1183086648
7818198834,18442,-2,0,48166.7282831808,63891.7486138845,44222.8857181416,59560.9732898757,73800.5490247378,53325.5883821718,40337.0222284636,68985.7913918996,30087.7331574139,18510.3034750497
7818205237,18443,-2,0,48167.1784879633,63891.1645644370,44218.2498256520,59558.0652103350,73799.8189629284,53322.8628180834,40332.4106713677,68982.0437412781,30073.1684243169,18515.9371186787
7818205237,18443,-2,0,48177.3506825072,63900.9838957731,44228.2395047436,59565.1954806732,73807.4967796237,53345.6772496264,40338.9933953489,68994.7224813677,30084.3870407876,18526.3283317655
7818205237,18443,-2,0,48165.8278736159,63899.5846106385,44229.8456407243,59564.8182820717,73796.6066909671,53338.6443208628,40345.7464670857,68990.9626630494,30100.6917545304,18516.0101248596
7818205237,18443,-2,0,48159.2329819379,63887.9036216884,44220.5860234420,59553.2711377868,73791.9099599935,53330.0417592090,40336.5963590748,68986.2659320757,30089.6069827247,18515.8519448009
7818205237,18443,-2,0,48169.8675489611,63886.7355227934,44223.3237552272,59550.6185798793,73799.7216213538,53338.4009669263,40328.6021822621,68994.4426243407,30078.9480803078,18523.9069600977
7818205237,18443,-2,0,48169.0158101835,63897.2605805453,44241.7578159139,59556.7997698654,73784.1834725109,53345.8110942915,40335.0632292751,68989.8675703353,30094.9120985395,18522.0696378775
7818205237,18443,-2,0,48164.9152963542,63897.7351207214,44236.7082217324,59554.8894414642,73799.7946275347,53347.7700934800,40339.1272400140,68993.3231962330,30099.9251896305,18529.4797652426
7818205237,18443,-2,0,48177.6670426246,63899.9374738463,44234.1895084901,59556.3617327798,73819.7618180212,53359.6214301855,40335.7567879940,69007.9244324206,30103.5268278901,18546.3441930392
7818233248,18444,-2,0,48178.1294151039,63900.3998463256,44233.5202851648,59560.5960912742,73818.4720421580,53360.6191813250,40338.6405321411,69010.2606302106,30117.9212132317,18542.1341699385
7818233248,18444,-2,0,48168.4439284328,63900.7892126239,44228.2030016532,59563.7961955386,73808.1173321616,53349.5344095193,40343.9213125622,69001.4147146203,30116.6436050653,18534.4320178496
7818233248,18444,-2,0,48176.1095774313,63901.0812373477,44221.7297869434,59564.0273817782,73807.8618105284,53337.8534205693,40336.9735576763,68997.0100083704,30090.7020754387,18534.5536948178
7818233248,18444,-2,0,48182.5341213538,63905.0844096024,44223.6766184350,59563.6501831767,73809.1880894820,53351.6272533728,40332.4593421550,68998.6648151383,30088.1225237123,18529.8447961473
7818233248,18444,-2,0,48164.8179547796,63900.3268401447,44226.0371516187,59555.5951678799,73793.7229468201,53347.0278639738,40334.9415523069,68991.8387372206,30103.1861323791,18516.6306773976
7818233248,18444,-2,0,48155.3514866514,63888.4390003486,44218.8947135836,59540.5802300004,73788.7828619100,53344.7525046679,40325.6819350246,68986.3389382567,30095.0946139918,18514.5378335441
7818233248,18444,-2,0,48173.4570195239,63898.1123193229,44229.7239637560,59553.5023240264,73806.5598669683,53359.5727593982,40330.0014673968,69000.4169634808,30099.2681340021,18528.4698464063
7818233248,18444,-2,0,48176.7422976661,63908.9659048889,44238.4116992876,59565.4266669129,73805.0632402591,53359.3050700681,40338.2511658427,69001.4633854076,30110.8274459839,18523.9921339755
7818261535,18445,-2,0,48168.9184686089,63908.5157001065,44230.6852118051,59558.3937381492,73801.6562851487,53348.1351243847,40334.9050492164,68994.6251397931,30100.5335744717,18514.8663613583
7818261535,18445,-2,0,48173.6517026731,63907.6639613289,44227.5702814184,59551.4824863538,73810.3926914675,53356.1901396815,40322.3479860951,68999.2610322826,30090.1423613849,18520.1349740826
7818261535,18445,-2,0,48168.6751146725,63906.8365579449,44229.6874606656,59551.6528341093,73809.4192757217,53351.8706073093,40324.3799914646,69001.0740191092,30100.9472761637,18523.3959168312
7818261535,18445,-2,0,48152.5164132916,63893.0992282318,44218.6026888599,59542.2472044652,73794.2826608740,53332.2441123339,40323.0537125109,68989.0766700418,30096.9076008184,18520.4513342000
7818261535,18445,-2,0,48157.6633490477,63887.9766278694,44214.2588210941,59540.3855468513,73800.0136460776,53339.0336871611,40317.9311121484,68992.2889420031,30083.0242587435,18531.0493981328
7818261535,18445,-2,0,48165.2438241684,63897.5161021786,44228.1178277754,59551.1539585396,73806.7667178143,53358.5263374715,40325.9252889611,68997.4115423655,30094.3402167888,18533.9453099767
7818261535,18445,-2,0,48159.8291990822,63897.5526052690,44235.1872596295,59554.3175597135,73796.0469769133,53348.2324659592,40336.1218188987,68991.7170602524,30103.4051509219,18532.9232234435
7818261535,18445,-2,0,48159.1843111506,63888.6945219819,44226.6698718535,59545.2891286709,73796.4485109084,53339.7637489705,40323.9906251662,68989.3443593719,30089.5948150279,18533.4829374974
7818317712,18446,-2,0,48168.2370775868,63890.9212105005,44223.2750844399,59550.4725675175,73802.6053655008,53345.4825664773,40322.0924644619,68994.5643013090,30093.0869440160,18530.1733239615
7818317712,18446,-2,0,48162.4574215960,63896.4453448581,44225.3679282934,59560.6812651519,73793.6377729423,53340.9926863496,40337.3994270651,68989.4295332497,30108.4790804971,18524.2963263961
7818317712,18446,-2,0,48160.3645777424,63893.1722344128,44220.5373526547,59558.5032474206,73791.3624136365,53330.1269330867,40338.1051534809,68983.4430264128,30097.4429794787,18529.8204607537
7818317712,18446,-2,0,48168.9793070930,63890.1059748134,44220.1114832659,59553.5144917232,73801.3642604249,53341.6619096749,40331.7536157393,68990.3664459050,30090.1180259912,18536.5735324904
7818317712,18446,-2,0,48165.0491410192,63885.7377716539,44225.0880712665,59555.2301369752,73797.1177342337,53351.2257193777,40338.1538242681,68992.5201282427,30104.3663989709,18525.1602328705
7818317712,18446,-2,0,48159.0261310919,63879.9094448758,44218.0186394124,59551.2026293269,73791.9342953871,53333.4852174098,40337.9104703317,68985.3290194203,30101.5069902175,18519.6604339065
7818317712,18446,-2,0,48173.3475102525,63885.2753991747,44214.2466533973,59551.1417908427,73804.8807248067,53334.5073039430,40330.5125106633,68992.2037681253,30085.9566736778,18532.9597265340
7818317712,18446,-2,0,48176.4381052455,63900.5945294748,44223.8591338874,59558.6492597825,73808.4701953695,53347.2103794261,40336.7302037399,68998.8838336811,30098.6597491609,18533.4342667101
7818331197,18447,-2,0,48158.1378892238,63898.8058780418,44223.9564754620,59553.8916903247,73792.7008602870,53342.5379838461,40341.1349099898,68986.5457891026,30104.5367467264,18519.3927445764
7818331197,18447,-2,0,48159.9387083536,63890.5926826863,44220.5981911388,59548.2215436052,73794.1488162089,53351.3473963459,40333.4814286881,68984.2825974936,30094.5348999380,18524.8682081467
7818331197,18447,-2,0,48172.7756285018,63892.9897189604,44228.8235541911,59552.5289082805,73802.6418685913,53361.7751125232,40332.0943112503,68993.3231962330,30099.0734508529,18532.8258818690
7818331197,18447,-2,0,48165.3289980462,63892.4543403002,44230.0038207830,59551.9448588330,73790.1578116510,53348.9260246782,40335.5621048449,68985.5602056600,30104.0257034599,18526.8028719416
7818331197,18447,-2,0,48165.4750104080,63890.5805149895,44222.6058611146,59548.0390281529,73788.2231478561,53340.4329722957,40333.7612857151,68983.1023309017,30084.1436868512,18531.2562489788
7818331197,18447,-2,0,48181.1835070065,63896.6278603105,44229.4927775164,59552.4315667060,73806.4381900001,53353.6470910455,40334.7833722482,68994.0045872551,30077.7191429287,18539.3355996692
7818331197,18447,-2,0,48172.0212312988,63897.4674313913,44235.8808183485,59557.0796268923,73804.1628306942,53360.6191813250,40347.0240752521,68996.5598035879,30095.4718125933,18531.0372304360
7818331197,18447,-2,0,48160.2429007742,63893.0992282318,44234.5545393948,59552.0543681045,73802.1429930216,53347.3928948785,40354.0691717126,68990.7679799002,30096.3722221582,18528.3968402254
7818353113,18448,-2,0,48169.5025180564,63893.8901285253,44231.5612859763,59552.5167405837,73813.9456589398,53344.9350201202,40350.1876764260,68998.5188027764,30084.9710902351,18537.2305881189
7818353113,18448,-2,0,48171.3885110640,63904.2083354312,44234.0434961282,59559.8416940711,73814.1768451795,53347.4537333626,40355.3954506663,69001.2078637743,30093.2937948620,18531.0615658296
7818353113,18448,-2,0,48162.6277693515,63904.4030185803,44233.9461545536,59559.0629614745,73809.1029156043,53350.0089496954,40357.7316484563,68995.5498847516,30095.2284586569,18519.5874277256
7818353113,18448,-2,0,48172.4592683844,63901.5314421301,44235.1507565391,59555.9601987846,73815.6856395855,53348.8895215877,40348.5693727486,69001.0618514124,30084.5817239368,18530.9885596487
7818353113,18448,-2,0,48180.7819730113,63902.2006654554,44229.8334730275,59558.5884212984,73814.8095654143,53354.7665191532,40346.2453426554,69004.2254525864,30090.3127091404,18535.9894830429
7818353113,18448,-2,0,48175.1239939886,63900.2416662669,44222.8978858384,59562.0318794993,73805.1484141368,53346.6263299786,40355.2981090917,68999.6503985810,30096.1775390091,18531.1589074042
7818353113,18448,-2,0,48179.6625449036,63904.1109938566,44218.7973720090,59562.4820842817,73809.6504619613,53336.5393093124,40355.2737736980,68998.6648151383,30082.9025817752,18528.6036910714
7818353113,18448,-2,0,48184.4201143614,63910.1826745712,44221.7297869434,59562.4577488881,73816.8172353900,53341.0900279242,40351.1975952623,69003.6900739262,30081.5032966406,18523.7609477359
7818384138,18449,-2,0,48174.8563046585,63906.6783778862,44227.1200766359,59561.1314699344,73808.6770462155,53341.6862450685,40356.2593571407,68999.6625662778,30095.3379679283,18517.1538883610
7818384138,18449,-2,0,48168.6872823693,63896.4210094645,44230.5878702305,59552.0787034981,73804.3818492370,53342.9881886286,40349.5671238881,68993.0920099934,30091.1279448275,18519.6239308161
7818384138,18449,-2,0,48182.2542643269,63902.7360441156,44237.6451343878,59558.6492597825,73821.4044570923,53356.7620214321,40347.3769384599,69004.6999927625,30089.1081071549,18533.8114653116
7818384138,18449,-2,0,48189.1411807287,63917.1791002444,44244.9700878752,59574.7714580729,73821.5017986669,53361.8724540978,40361.6253114396,69006.3547995304,30106.9459506974,18534.8335518447
7818384138,18449,-2,0,48180.3317682289,63915.9379951685,44237.9979975956,59569.6245223168,73792.8347049520,53339.5082273372,40360.2746970923,68989.9527442131,30104.3542312741,18525.1845682641
7818384138,18449,-2,0,48184.0794188503,63906.0821607419,44229.0669081276,59556.7510990781,73809.4071080249,53335.2617011460,40346.8415597997,68996.1704372896,30083.7543205528,18532.4121801770
7818384138,18449,-2,0,48181.7432210603,63906.2525084974,44234.0434961282,59556.8849437432,73816.5860491504,53346.4194791326,40343.5927847480,69000.8671682632,30090.1910321722,18528.7740388269
7818384138,18449,-2,0,48165.7061966477,63904.4273539740,44236.8055633070,59555.7411802418,73801.1939126694,53342.6718285112,40350.1511733356,68990.6706383256,30101.2027977969,18515.4260754121
7818445335,18450,-2,0,48169.3808410882,63904.6828756073,44234.0921669155,59553.8916903247,73805.1605818337,53343.8520951030,40348.6423789295,68989.3321916751,30093.8291735222,18520.2444833540
7818445335,18450,-2,0,48184.2132635154,63915.5242934765,44238.1805130480,59560.3162342472,73818.0705081628,53359.3294054618,40351.7086385289,69001.0496837156,30102.7602629903,18528.0926478048
7818445335,18450,-2,0,48175.4038510156,63917.3129449095,44236.4405324023,59556.3130619925,73809.5044495995,53349.5465772161,40353.6919731110,68994.9293322137,30118.1889025618,18524.0408047628
7818445335,18450,-2,0,48166.9594694204,63903.5877828932,44221.5716068847,59542.5513968857,73799.4904351142,53333.4122112289,40340.2345004249,68985.5358702663,30103.0036169267,18524.7465311785
7818445335,18450,-2,0,48179.8815634464,63905.8996452896,44223.7252892223,59549.4748163780,73808.5066984600,53353.4037371090,40339.3219231632,68991.8995757047,30095.8368434980,18536.1233277080
7818445335,18450,-2,0,48193.1930237707,63924.3337059763,44245.8704974401,59571.1819875101,73821.3436186082,53370.3655064802,40360.0313431558,69006.2939610463,30115.7796985908,18537.8024698695
7818445335,18450,-2,0,48185.0041638089,63926.2927051648,44250.6158992010,59570.1842363706,73817.9123281041,53352.6615076028,40362.4892179140,68998.4822996859,30113.2609853485,18530.3193363234
7818445335,18450,-2,0,48183.5440401901,63918.9190808901,44243.4126226819,59556.2157204179,73818.2651913120,53345.6164111423,40349.3116022548,68998.2024426590,30096.0193589504,18536.3180108571
7818451268,18451,-2,0,48173.2745040715,63908.4061908351,44239.9934998746,59549.3896425002,73811.9379889640,53349.1207078273,40342.4490212466,68992.3984512745,30098.9517738847,18533.2030804705
7818451268,18451,-2,0,48163.0049679530,63902.9672303552,44240.0786737524,59549.6694995272,73801.2669188503,53348.7435092258,40346.9632367680,68986.4119444376,30102.5777475379,18527.9831385334
7818451268,18451,-2,0,48173.6395349762,63906.5080301307,44244.0331752198,59553.5144917232,73812.2056782942,53354.3771528548,40345.0650760636,68990.5002905701,30094.0846951555,18539.4694443343
7818451268,18451,-2,0,48188.6301374621,63920.0871797851,44255.0327731478,59566.1567287222,73817.3526140503,53359.6822686696,40348.7275528073,68998.0442626003,30100.7769284081,18541.5379527942
7818451268,18451,-2,0,48184.6391329042,63919.7586519709,44253.2441217148,59565.4388346097,73812.4125291401,53350.2279682382,40354.6897242505,68994.2722765852,30107.7125155972,18531.5847767930
7818451268,18451,-2,0,48178.2267566785,63909.5012835492,44243.9723367357,59551.7258402902,73813.7753111843,53350.1914651477,40347.0119075553,68990.2569366336,30094.9851047204,18532.3513416929
7818451268,18451,-2,0,48186.9023245132,63908.1993399891,44256.1278658618,59553.2346346963,73821.6721464224,53361.3492431344,40342.0718226451,69000.2831188157,30093.9751858841,18539.1409165201
7818451268,18451,-2,0,48182.1325873586,63913.7843128308,44249.5694772743,59563.6623508735,73816.8172353900,53359.0738838285,40355.7118107837,69000.0762679698,30109.3429869715,18533.6776206466
7818478184,18452,-2,0,48178.9446507910,63914.2953560974,44232.8875649300,59568.9187959011,73812.0596659323,53340.6398231417,40361.7713238015,68995.9879218372,30101.0446177382,18532.3148386024
7818478184,18452,-2,0,48187.0605045719,63907.3597689083,44220.1114832659,59563.3338230593,73813.8483173652,53332.4387954831,40349.8591486118,68993.3596993235,30081.1869365232,18540.0413260850
7818478184,18452,-2,0,48179.7477187813,63898.3313378657,44223.1290720780,59556.1792173274,73802.9338933151,53345.2878833281,40342.3881827625,68987.5435402421,30088.6579023725,18533.4220990133
7818478184,18452,-2,0,48165.9252151905,63891.8946262464,44226.3778471297,59550.3995613365,73794.4043378422,53349.3883971574,40341.2809223516,68982.0315735813,30099.9616927210,18527.8614615652
7818478184,18452,-2,0,48173.7855473381,63897.6742822373,44230.8677272574,59550.4847352143,73800.1839938331,53344.7768400615,40337.9104703317,68986.9108200073,30090.8359201038,18539.1165811264
7818478184,18452,-2,0,48182.8748168648,63909.8784821507,44239.1539287938,59560.6204266678,73804.3696815402,53360.5826782345,40346.2940134427,68995.5742201453,30096.0923651313,18546.7578947312
7818478184,18452,-2,0,48181.8770657254,63915.7798151098,44242.8529086280,59570.9508012705,73810.0276605628,53359.5240886109,40360.3233678796,68998.4336288987,30106.1185473134,18541.4162758259
7818478184,18452,-2,0,48183.4223632219,63908.0898307177,44235.3576073851,59565.5848469716,73812.8627339226,53349.6804218812,40353.3756129937,68997.2898653973,30097.6376626278,18541.4284435228
7818516057,18453,-2,0,48187.4012000830,63903.7094598614,44233.2404281379,59560.5109173964,73820.1876874100,53350.8363530794,40345.3814361810,69001.3052053489,30092.0405220893,18537.2914266030
7818516057,18453,-2,0,48175.5376956806,63907.0799118814,44230.4296901718,59557.2134715574,73807.2412579904,53345.9814420470,40345.9533179317,68993.3110285362,30096.6277437915,18523.3594137407
7818516057,18453,-2,0,48167.7138666235,63908.8320602239,44224.0781524302,59547.4549787054,73803.5909489435,53340.3356307212,40340.0398172757,68986.1929258948,30082.7809048070,18524.6613573008
7818516057,18453,-2,0,48177.7035457151,63913.2976049579,44225.4165990807,59547.8321773069,73813.4954541574,53353.5862525613,40333.9316334706,68994.6373074899,30077.1959319653,18535.2837566272
7818516057,18453,-2,0,48179.8693957496,63916.5220446160,44236.3431908277,59555.9115279973,73798.2614977351,53357.2852323955,40340.1006557598,68991.9482464920,30096.8102592439,18535.3324274145
7818516057,18453,-2,0,48182.9964938331,63908.9294017985,44240.9669156204,59556.4590743544,73806.0731590954,53355.4114070848,40345.1624176382,68994.9901706978,30098.3433890435,18543.3752750144
7818516057,18453,-2,0,48198.2304502554,63916.4368707382,44250.7984146534,59561.4599977486,73823.9718411219,53369.2339106756,40342.5220274276,69005.6369054178,30090.5682307737,18551.2842779494
7818516057,18453,-2,0,48201.1263620993,63935.4549808725,44265.0346199362,59574.8444642538,73830.0191864429,53373.5047722605,40353.3391099032,69012.5724926069,30105.0721253866,18541.4041081291
7818552603,18454,0,0,48189.4575408461,63939.3121407654,44253.2684571084,59574.2117440190,73821.3801216986,53357.0905492463,40363.7059875963,69002.6558196962,30112.4944204486,18534.4441855464
7818552603,18454,0,0,48189.5670501175,63930.1133619672,44237.3166065736,59564.4167480766,73821.9763388430,53350.5078252651,40355.2007675171,69001.5972300726,30098.5989106768,18543.4726165890
7818552603,18454,0,0,48198.9970151552,63928.5923998643,44238.4968731654,59563.1634753038,73829.9340125652,53359.4632501268,40352.8767374239,69008.2286248411,30104.0987096408,18546.8065655185
7818552603,18454,0,0,48188.5814666748,63927.2296178202,44238.1075068671,59563.5528416021,73818.6910607008,53352.5398306346,40358.8632442608,69003.6170677452,30115.8283693781,18533.2030804705
7818552603,18454,0,0,48188.8734913986,63926.1345251061,44236.8664017911,59563.7961955386,73818.3138620993,53354.2919789771,40362.0025100411,69003.6657385325,30103.4294863155,18537.5226128426
7818552603,18454,0,0,48201.5522314881,63932.5225659382,44248.3162045015,59568.2009017885,73833.0002721646,53369.7692893359,40360.4815479383,69012.9861942989,30098.3920598308,18550.8949116510
7818552603,18454,0,0,48193.4607131008,63931.9385164907,44258.6709144978,59567.4951753728,73815.3327763776,53374.6728711555,40361.3211190190,69007.1335321271,30119.6855292710,18546.4293669170
7818552603,18454,0,0,48184.0064126694,63919.5518011249,44257.1499523950,59556.6050867162,73812.9479078003,53368.0293086902,40352.6090480938,68998.9203367716,30118.2132379554,18543.4847842858
7818581388,18455,0,0,48192.2682788122,63920.2210244502,44264.5600797601,59554.2932243199,73825.7848279485,53369.6232769740,40344.2255049828,69004.5296450069,30103.9526972789,18546.0278329218
7818581388,18455,0,0,48198.5833134633,63932.2792120017,44261.1044538624,59568.1643986980,73827.6221501688,53363.4177515943,40356.1255124756,69008.8248419854,30110.7179367125,18537.7294636886
7818581388,18455,0,0,48189.3236961810,63932.4982305445,44243.4977965596,59569.8800439501,73818.0461727692,53346.9426900960,40366.2612039291,69000.2831188157,30107.9802049273,18527.2652444209
7818581388,18455,0,0,48194.2637810911,63927.9475119327,44231.5856213700,59564.0760525655,73823.0714315570,53346.0057774407,40359.9096661876,69005.4422222687,30094.1211982460,18535.4419366859
7818581388,18455,0,0,48200.2381202312,63927.1201085488,44237.3531096640,59565.6943562430,73830.0556895334,53358.6601821365,40359.4107906178,69015.9551123237,30104.2568896995,18542.2436792099
7818581388,18455,0,0,48189.5913855111,63923.9078365875,44239.8231521191,59567.7506970060,73823.1201023443,53359.2077284935,40363.9371738360,69010.1511209391,30120.9509697406,18538.4595254980
7818581388,18455,0,0,48194.0569302451,63926.0493512284,44239.4094504271,59567.3978337982,73820.7352337670,53350.7390115048,40362.0755162221,69008.6179911395,30111.0342968299,18548.8020677975
7818581388,18455,0,0,48204.0709447304,63926.7185745536,44243.5221319533,59568.5050942091,73825.7726602517,53346.1639574993,40359.3134490432,69006.6589919510,30098.2095443785,18551.6371411572
7818605337,18456,0,0,48187.5228770512,63918.5297145918,44239.7379782413,59559.7443524966,73805.8176374621,53342.9395178413,40357.7803192436,68997.7765732702,30102.4804059633,18540.3941892928
7818605337,18456,0,0,48170.6097784673,63903.7946337392,44227.3269274819,59542.3323783429,73799.5756089919,53337.8290851756,40349.0439129247,68989.3686947656,30093.7074965540,18535.9043091652
7818605337,18456,0,0,48176.1825836122,63901.5557775238,44224.4553510317,59541.8335027732,73810.7942254627,53343.2315425650,40341.5851147722,68997.3020330941,30087.4898034775,18541.8421452147
7818605337,18456,0,0,48176.0000681599,63910.7423886251,44228.4098524992,59550.9471076936,73808.4215245822,53343.7060827411,40350.2728503038,68998.8594982875,30099.6088295131,18532.1566585437
7818605337,18456,0,0,48162.5912662610,63907.8343090844,44218.5905211631,59547.6009910673,73795.1222319547,53323.0696689294,40354.7018919473,68987.5313725453,30092.1743667543,18523.7366123422
7818605337,18456,0,0,48167.9328851663,63906.0821607419,44215.2200691431,59539.6554850419,73805.6107866161,53333.1080188083,40346.5982058633,68992.6904759982,30077.1350934812,18531.8889692136
7818605337,18456,0,0,48169.9283874452,63909.6472959110,44226.8037165185,59543.2206202110,73812.8627339226,53360.3636596917,40345.5274485429,69000.7698266887,30092.1013605734,18530.4531809885
7818605337,18456,0,0,48169.0888163645,63913.7234743467,44240.7235616840,59551.6284987157,73811.0375793991,53359.0495484348,40355.1520967298,69000.2587834221,30110.2312288396,18530.7817088027
7818635465,18457,0,0,48182.6192952316,63918.2620252617,44244.8362432101,59558.2842288778,73820.3336997719,53363.8071178926,40356.0525062947,69010.5161518438,30103.7093433425,18551.4667934017
7818635465,18457,0,0,48200.4084679867,63936.6352474643,44258.2328774122,59574.2117440190,73835.5554884974,53377.0090689455,40364.6429002517,69024.1439722855,30114.4047488498,18561.8215033980
7818635465,18457,0,0,48185.4665362881,63936.0998688041,44258.5735729232,59570.4397580039,73818.0705081628,53362.5416774230,40369.2179542571,69012.4386479419,30127.5823645091,18545.5654604426
7818635465,18457,0,0,48168.8576301248,63918.6878946505,44244.5807215769,59552.5410759774,73807.2047548999,53348.2689690497,40355.6266369059,68999.3705415540,30113.7963640087,18542.0246606671
7818635465,18457,0,0,48178.3971044340,63915.6338027479,44246.6370623399,59551.4459832633,73808.7865554869,53361.7629448264,40349.7009685531,69006.6103211637,30105.7291810151,18552.5862215094
7818635465,18457,0,0,48186.0505857356,63925.8181649887,44261.8101802781,59562.0318794993,73822.0615127207,53375.7314607791,40358.1818532387,69014.2272993748,30119.6855292710,18549.4591234259
7818635465,18457,0,0,48187.7662309877,63939.1296253130,44271.0819652572,59565.0129652209,73828.3887150687,53374.1009894048,40364.6429002517,69017.6464221821,30124.1875770955,18551.0287563161
7818635465,18457,0,0,48196.7338235462,63943.9358655581,44271.1306360445,59562.6037612499,73840.1427101996,53373.2370829304,40360.3720386668,69024.6185124616,30116.4610896129,18556.7719092165
7818671575,18458,0,0,48192.7549866851,63944.3860703405,44269.3176492179,59560.4379112155,73840.6537534662,53376.8873919773,40361.6374791364,69025.6284312979,30125.9032223475,18549.0697571276
7818671575,18458,0,0,48176.0609066440,63936.1120365009,44257.8191757202,59551.2999709014,73824.5802259631,53364.9752167876,40362.3188701585,69012.1952940054,30123.9685585527,18537.6077867204
7818671575,18458,0,0,48186.0870888261,63935.6983348089,44249.6789865457,59551.6406664125,73828.3643796750,53356.8836984004,40356.7825681041,69013.3755605972,30105.5831686532,18552.8539108395
7818671575,18458,0,0,48196.6973204557,63940.1030410589,44252.5748983895,59557.4081547066,73831.6861609077,53363.1987330515,40360.5545541192,69018.7171795025,30099.4506494544,18561.1887831632
7818671575,18458,0,0,48181.7675564540,63935.3333039043,44256.6632445220,59557.8340240954,73813.8969881525,53362.3226588802,40367.5388120956,69008.9708543473,30105.6683425310,18548.9602478562
7818671575,18458,0,0,48177.4480240818,63924.9420908175,44252.5140599054,59548.7204191750,73809.2367602693,53357.8327787525,40360.2746970923,69005.9410978384,30091.7971681528,18556.6015614610
7818671575,18458,0,0,48191.7085647583,63923.9808427685,44255.1787855096,59555.1814661880,73834.6429112357,53374.8553866078,40356.1863509598,69021.3332343194,30094.1333659428,18564.4253905181
7818671575,18458,0,0,48188.9708329731,63933.4838139872,44262.2238819701,59567.6411877346,73829.7149940224,53372.7017042702,40371.4324750789,69021.2115573512,30116.1812325860,18550.9435824383
7818711358,18459,0,0,48176.4137698519,63931.7438333415,44259.6930010310,59562.9687921546,73819.7009795371,53353.6105879550,40375.1314549131,69007.0483582493,30105.9603672547,18537.8268052632
7818711358,18459,0,0,48182.6071275347,63932.2183735176,44248.6325646189,59560.7056005456,73826.0768526723,53360.9842122297,40368.8894264429,69008.8370096823,30089.2784549105,18544.0688337333
7818711358,18459,0,0,48184.1037542440,63934.3477204616,44247.6956519635,59565.8160332112,73827.1719453864,53369.1487367979,40371.0674441742,69010.3701394820,30103.9161941885,18546.2225160710
7818711358,18459,0,0,48173.7368765508,63926.4387175267,44242.7920701439,59559.1359676554,73816.5860491504,53359.0008776476,40366.4193839878,69001.8162486154,30107.6760125067,18538.4960285884
7818711358,18459,0,0,48180.5142836812,63921.9610050958,44242.9989209899,59553.5388271169,73816.5738814536,53353.5740848645,40352.7793958493,68999.9545910015,30091.7484973655,18547.4271180565
7818711358,18459,0,0,48186.8779891196,63929.0182692532,44249.7276573330,59560.7907744233,73823.9840088187,53360.7286905964,40354.6775565537,69002.6071489089,30092.6854100209,18550.1891852353
7818711358,18459,0,0,48178.4457752213,63931.9385164907,44251.9908489420,59570.4762610944,73813.2034294336,53357.1392200336,40366.9912657385,68997.0465114608,30103.0401200172,18545.1639264474
7818711358,18459,0,0,48179.3461847862,63921.2066078928,44240.0300029651,59565.1346421891,73813.5197895510,53341.6010711907,40362.0998516157,68998.5431381701,30090.6899077419,18551.0774271034
7818741462,18460,0,0,48181.8770657254,63911.2899349821,44233.9583222504,59562.5672581595,73820.5648860115,53347.4659010594,40353.2904391159,69003.7874155007,30088.1833621964,18546.0765037091
7818741462,18460,0,0,48168.8332947312,63910.3043515395,44235.6374644120,59562.4090781008,73808.8838970615,53354.7543514563,40358.8875796544,69000.2587834221,30103.8431880075,18528.2751632572
7818741462,18460,0,0,48165.5845196794,63914.6968900925,44237.6207989941,59561.6790162914,73810.5143684358,53355.2775624197,40360.3355355764,68996.1217665023,30102.8454368680,18530.8547149836
7818741462,18460,0,0,48181.1470039160,63925.0272646952,44247.8659997190,59566.3027410841,73825.2129461979,53373.1397413558,40360.3598709700,69006.7441658287,30098.6110783737,18543.9349890683
7818741462,18460,0,0,48183.4466986155,63928.0691889010,44259.3158024294,59571.8755462290,73820.8325753416,53380.9879058066,40364.3873786184,69006.6224888605,30116.6192696716,18540.4185246865
7818741462,18460,0,0,48168.2249098900,63912.0443321851,44251.4067994945,59558.4910797238,73802.0334837502,53364.0383041322,40353.4242837809,68989.3200239783,30112.1902280281,18534.0304838544
7818741462,18460,0,0,48172.4471006876,63903.4539382282,44241.1981018601,59553.1981316058,73806.2921776382,53353.1968862630,40339.4922709187,68989.2348501005,30093.6831611604,18547.7921489612
7818741462,18460,0,0,48180.9523207668,63916.9965847921,44248.1215213523,59566.6799396856,73815.4057825586,53367.1775699126,40349.9078193991,69002.3394595788,30107.7733540813,18553.5596372552
7818768680,18461,0,0,48172.5444422622,63925.3314571158,44251.6623211278,59575.0026443125,73811.9866597513,53369.1365691011,40364.7402418263,69003.6049000484,30120.0262247820,18548.7412293134
7818768680,18461,0,0,48178.2389243753,63924.9055877270,44250.2995390836,59572.0580616814,73820.8204076448,53374.6485357619,40365.3729620611,69007.0118551588,30112.4214142677,18558.4145482876
7818768680,18461,0,0,48188.2164357701,63924.6257307001,44257.4906479060,59577.5943637358,73829.9948510493,53376.4615225885,40364.5820617676,69014.5679948859,30114.5264258181,18564.0238565230
7818768680,18461,0,0,48174.7711307808,63917.1060940635,44252.6965753578,59573.2504959700,73811.1470886706,53351.3352286491,40365.1417758214,69001.4755531044,30114.0883887324,18547.6096335088
7818768680,18461,0,0,48167.7868728044,63906.0821607419,44238.3265254099,59561.9467056215,73800.6463663123,53336.4663031315,40357.2692759770,68987.9694096309,30090.7385785292,18541.1607541927
7818768680,18461,0,0,48181.0131592509,63909.1970911286,44242.2445237869,59565.7916978176,73808.6527108218,53350.2279682382,40355.7848169646,68992.0212526730,30081.9535014230,18548.8629062816
7818768680,18461,0,0,48180.7454699208,63912.0443321851,44248.0606828682,59570.9994720578,73802.5566947136,53359.6579332760,40367.3441289464,68993.8099041059,30099.0612831561,18548.6803908292
7818768680,18461,0,0,48173.6395349762,63903.2835904726,44240.1760153269,59565.5970146684,73795.3412504975,53351.7976011284,40363.1827766329,68984.4286098554,30098.9761092783,18552.6713953872
7818792593,18462,0,0,48189.9685841126,63905.5467820817,44239.4459535176,59565.0007975241,73802.7148747723,53360.4488335695,40353.7041408079,68990.8774891716,30091.1036094339,18573.3929830766
7818792593,18462,0,0,48194.3854580593,63919.0772609488,44248.6934031030,59575.3920106109,73814.5905468714,53374.5146910968,40364.9105895818,69004.7486635498,30107.2014723307,18568.5745751348
7818792593,18462,0,0,48177.2411732358,63921.3647879515,44245.1769387212,59572.9584712463,73802.2525022930,53357.8814495398,40368.9624326238,68992.6783083014,30109.1604715191,18552.0265074556
7818792593,18462,0,0,48169.5876919342,63906.7878871576,44233.0457449887,59556.2278881147,73794.2948285708,53346.8818516119,40353.3026068127,68985.0126593029,30086.1635245238,18548.7412293134
7818792593,18462,0,0,48173.9437273968,63903.2714227758,44237.1827619085,59554.9502799483,73800.7072047965,53367.5791039077,40350.6257135117,68990.6463029320,30090.4830568959,18552.0386751524
7818792593,18462,0,0,48167.0811463887,63900.7040387462,44239.0200841288,59557.2986454351,73794.6233563850,53354.2554758866,40357.1719344024,68986.1564228043,30101.6408348826,18546.2103483742
7818792593,18462,0,0,48170.4515984086,63894.9487181489,44229.2129204895,59554.5730813468,73794.1731516025,53342.4528099684,40351.9519924654,68982.0924120654,30085.5551396826,18549.1914340958
7818792593,18462,0,0,48180.0519112019,63896.9807235183,44227.3025920883,59558.5884212984,73779.0365367548,53332.6091432386,40346.4035227141,68975.6435327493,30075.1395912022,18552.5740538126
7818833626,18463,0,0,48172.7512931082,63894.7418673029,44228.5071940737,59562.7254382182,73788.4543340958,53344.6064923060,40355.1885998203,68980.0604066960,30086.3095368857,18546.7943978217
7818833626,18463,0,0,48166.9351340268,63893.7197807698,44231.0502427097,59561.4843331422,73790.3038240129,53349.7169249716,40358.4495425688,68981.6665426766,30093.3424656493,18552.2333583015
7818833626,18463,0,0,48175.3673479251,63894.3890040951,44230.0159884798,59560.4500789123,73801.1817449726,53358.0761326890,40356.4297048962,68988.7724776212,30090.0693552039,18562.7705837502
7818833626,18463,0,0,48175.4281864092,63902.3831809077,44231.1110811939,59565.3901638224,73795.5724367372,53367.2749114872,40364.7889126136,68988.7968130149,30107.1162984529,18557.4167971481
7818833626,18463,0,0,48164.6111039336,63903.9771491915,44230.5757025336,59559.2333092300,73783.7089323348,53358.2343127477,40362.3067024617,68979.0626555565,30107.2623108148,18550.2743591130
7818833626,18463,0,0,48174.7711307808,63904.6585402136,44233.4959497712,59553.6970071755,73794.8423749278,53360.3758273885,40352.3778618542,68984.3799390682,30090.2518706563,18558.1468589575
7818833626,18463,0,0,48187.8149017750,63910.5963762632,44249.7033219393,59561.4356623549,73812.3760260497,53370.6818665976,40353.6919731110,69001.2200314711,30099.9130219337,18560.2031997206
7818833626,18463,0,0,48177.1316639644,63908.8807310112,44247.3914595430,59561.4478300518,73806.1705006700,53353.9147803756,40360.2016909113,68998.2997842336,30110.3407381110,18549.4956265164
7818856233,18464,0,0,48175.4160187124,63902.8333856902,44232.4495278444,59555.3274785498,73808.3363507045,53336.5028062219,40353.1444267540,68995.2091892406,30092.2960437225,18555.8106611675
7818856233,18464,0,0,48188.9951683668,63910.4990346886,44233.9096514631,59564.9277913431,73815.1380932285,53349.2910555828,40356.3323633216,69001.1591929870,30092.0161866956,18566.6642467336
7818856233,18464,0,0,48179.8815634464,63910.8762332901,44237.1219234244,59567.1058090744,73802.4593531390,53347.1860440325,40362.0998516157,68990.2691043305,30101.5799963985,18560.4343859602
7818856233,18464,0,0,48168.7967916407,63896.4575125550,44231.9506522746,59553.4049824518,73793.4430897932,53337.3180419091,40350.8447320545,68979.3425125835,30091.9188451210,18559.0107654319
7818856233,18464,0,0,48177.6183718373,63890.9090428037,44234.2625146710,59550.5820767889,73799.2714165714,53345.9327712597,40341.6581209532,68985.2803486331,30085.7741582254,18564.2063719753
7818856233,18464,0,0,48181.8283949381,63897.2605805453,44242.5122131170,59561.5086685359,73802.2403345962,53357.6380956034,40352.2805202796,68991.3641970445,30104.0500388535,18557.5871449036
7818856233,18464,0,0,48183.2033446791,63909.1240849476,44245.1647710244,59571.1698198133,73811.4269456975,53359.1103869190,40363.9980123201,68997.2046915195,30110.2312288396,18552.6105569031
7818856233,18464,0,0,48195.5292215607,63916.4368707382,44247.4036272398,59574.7957934665,73826.8555852690,53365.9729679271,40366.4193839878,69008.8856804696,30104.8896099343,18566.9927745478
7818892471,18465,0,0,48196.6851527589,63914.3196914910,44252.6844076609,59576.5357741122,73827.6464855625,53366.7030297365,40370.7754194505,69012.9618589052,30115.2199845370,18564.1698688848
7818892471,18465,0,0,48178.6404583705,63897.7959592055,44247.1359379097,59564.2220649274,73810.4413622548,53348.7921800131,40370.7875871473,68999.2731999794,30116.6801081557,18546.9282424867
7818892471,18465,0,0,48185.2596854421,63889.5219253659,44242.4635423297,59559.2819800173,73811.4999518784,53343.0125240222,40364.0345154105,68995.1361830596,30097.8931842611,18557.3194555735
7818892471,18465,0,0,48196.1376064019,63901.1420758318,44245.3959572640,59566.0107163604,73816.9997508424,53338.2549545644,40365.3729620611,69000.8428328696,30096.7494207597,18565.4109739608
7818892471,18465,0,0,48174.7346276903,63899.5967783353,44234.6153778789,59556.5077451417,73787.2010613230,53325.4423698099,40366.8817564671,68985.2073424521,30098.4650660118,18555.1901086295
7818892471,18465,0,0,48164.5259300559,63887.4534169060,44226.3535117361,59541.2129502352,73795.8644614609,53338.4374700168,40353.4972899619,68985.9982427456,30087.2342818442,18553.5231341648
7818892471,18465,0,0,48174.1749136364,63889.4245837913,44233.0700803824,59541.8091673795,73812.8140631353,53363.3447454133,40346.4278581078,68996.7058159498,30096.0193589504,18555.0684316613
7818892471,18465,0,0,48174.3452613920,63896.3358355867,44239.9813321778,59552.8574360948,73805.9149790367,53370.4385126611,40359.4594614051,68998.3362873241,30118.3470826205,18544.5920446967
7818916531,18466,0,0,48174.3330936951,63899.6089460321,44240.1151768428,59557.1769684669,73804.6617062639,53359.5362563078,40365.2634527897,68993.9680841646,30114.8427859355,18542.7790578701
7818916531,18466,0,0,48186.9509953005,63905.2304219643,44246.4667145844,59561.0827991471,73816.8415707837,53361.7142740391,40361.2846159286,69001.3903792266,30100.9594438605,18548.1693475627
7818916531,18466,0,0,48187.9000756527,63909.3431034905,44242.7312316598,59567.7020262188,73817.7784834390,53364.3789996433,40368.7069109906,69005.7950854765,30111.5210047028,18540.9539033467
7818916531,18466,0,0,48178.0685766198,63901.6774544920,44229.2007527927,59563.1026368197,73809.0542448170,53355.8737795641,40372.7222509421,68999.8572494269,30115.8405370749,18541.1242511022
7818916531,18466,0,0,48187.1700138433,63898.3800086530,44221.1822405863,59561.2653145994,73812.7532246512,53348.7678446195,40367.9281783939,69000.9158390505,30103.4659894060,18559.1811131874
7818916531,18466,0,0,48192.2682788122,63903.1740812012,44225.2949221125,59567.9332124584,73813.8239819716,53350.8120176857,40370.6780778759,69002.1204410360,30105.8995287706,18559.6556533635
7818916531,18466,0,0,48178.9324830942,63902.9550626584,44227.7406291739,59566.3270764778,73797.6531128939,53351.7976011284,40376.4577338668,68991.1330108049,30116.5827665811,18546.4171992202
7818916531,18466,0,0,48177.5940364437,63897.3092513326,44226.5116917948,59558.5640859047,73799.6364474760,53350.1427943605,40368.5122278414,68990.4637874796,30107.3961554798,18554.2166928837
7818954135,18467,0,0,48187.1578461465,63897.2484128485,44232.0844969397,59557.3716516161,73812.3638583528,53366.5326819809,40358.6563934148,69000.6116466300,30109.3916577588,18555.9566735294
7818954135,18467,0,0,48180.5994575590,63899.4264305798,44234.1895084901,59557.9922041540,73802.8730548310,53361.0328830170,40363.2679505107,68994.4182889471,30123.2628321369,18543.7038028287
7818954135,18467,0,0,48173.3231748588,63899.6089460321,44227.6067845089,59552.0178650140,73799.5147705078,53345.0080263012,40362.6473979727,68987.5800433326,30111.1681414949,18538.6177055567
7818954135,18467,0,0,48182.2420966301,63907.6031228448,44226.0493193155,59554.5730813468,73807.4116057459,53344.8133431520,40360.7492372684,68993.9315810742,30093.8656766127,18546.7092239439
7818954135,18467,0,0,48181.3173516715,63911.6549658868,44227.9474800199,59560.5717558805,73804.8077186258,53351.9679488839,40366.7235764084,68994.0532580424,30099.8765188432,18542.2315115131
7818954135,18467,0,0,48178.1415828007,63906.5323655244,44225.0515681760,59560.9124513916,73805.9514821272,53352.7223460869,40371.0552764774,68993.5787178663,30099.9860281146,18542.9372379288
7818954135,18467,0,0,48191.7450678488,63909.9514883316,44225.4409344744,59564.9886298272,73822.9375868920,53360.5096720536,40365.8596699340,69003.1668629628,30090.7507462260,18550.9314147415
7818954135,18467,0,0,48199.1795306076,63918.0308390220,44232.2426769984,59573.9440546889,73820.9177492194,53362.0914726406,40370.5198978172,69005.7950854765,30099.9981958115,18545.0179140855
7818985222,18468,0,0,48182.3881089919,63914.8915732417,44225.2584190220,59567.1666475586,73803.2137503420,53346.9670254897,40370.5198978172,68991.1330108049,30101.2271331906,18529.6987837855
7818985222,18468,0,0,48182.5097859602,63908.6130416811,44222.7275380829,59558.2842288778,73806.7180470270,53354.7786868500,40361.7956591951,68992.8973268442,30090.7507462260,18536.7317125491
7818985222,18468,0,0,48190.1267641713,63910.1948422681,44230.8555595606,59559.8051909807,73817.7419803486,53372.8355489352,40360.1651878209,69002.7531612708,30098.1852089849,18547.3784472692
7818985222,18468,0,0,48182.7774752903,63915.2931072369,44238.4725377717,59564.2464003210,73809.0542448170,53367.1775699126,40368.9867680175,68997.2046915195,30114.5872643022,18542.9007348383
7818985222,18468,0,0,48186.7563121514,63915.2687718432,44240.5045431412,59565.0007975241,73813.0695847686,53355.8494441704,40372.4667293088,68996.3529527419,30102.0545365745,18550.1283467512
7818985222,18468,0,0,48202.5378149307,63922.6545638148,44248.2797014110,59576.3289232662,73825.0304307455,53364.5128443083,40373.9146852308,69005.2475391195,30097.3821409945,18559.4366348207
7818985222,18468,0,0,48197.8654193507,63929.0791077373,44256.7240830061,59586.4037762356,73826.3932127897,53377.8243046326,40385.2063078825,69008.6544942299,30119.9897216916,18554.5087176074
7818985222,18468,0,0,48179.9789050210,63917.4832926650,44244.9822555720,59572.9949743367,73808.7378846996,53367.5304331204,40379.7916827963,68993.4448732013,30118.7242812220,18549.5808003941
7819030415,18469,0,0,48183.4710340092,63910.4868669918,44238.4116992876,59563.3338230593,73813.3859448860,53368.9540536487,40365.5554775134,68995.8905802627,30105.4736593818,18557.5384741163
7819030415,18469,0,0,48187.1456784497,63915.4269519019,44243.7289827992,59569.1621498375,73812.8383985289,53371.5092699815,40371.5541520471,68996.0730957150,30113.8328670992,18554.8737485121
7819030415,18469,0,0,48180.0762465956,63917.7144789046,44243.6073058310,59571.1454844196,73802.2403345962,53357.2243939114,40376.4942369572,68986.5701244963,30117.5926854174,18548.9237447657
7819030415,18469,0,0,48182.9721584394,63913.6869712562,44239.7014751509,59561.0706314503,73805.2700911051,53353.1360477789,40363.0489319679,68986.8743169169,30100.2537174448,18558.7430761018
7819030415,18469,0,0,48186.2817719753,63911.7158043709,44248.4378814697,59561.2653145994,73811.3417718197,53375.2204175125,40358.1453501482,68996.3407850451,30106.0698765261,18564.0116888262
7819030415,18469,0,0,48175.1970001696,63906.4228562529,44251.6136503405,59559.7686878902,73786.0207947312,53363.8192855894,40359.5811383734,68985.9982427456,30118.8094550997,18554.3262021551
7819030415,18469,0,0,48180.2465943511,63898.0393131419,44245.5541373227,59559.6956817093,73804.1263276037,53351.3473963459,40353.9718301380,68989.0888377386,30099.3533078799,18555.7133195929
7819030415,18469,0,0,48192.4751296581,63907.3597689083,44249.6668188488,59566.5217596269,73813.1669263432,53356.6646798575,40354.5315441918,68998.4579642923,30094.1942044269,18557.6601510846
7819042230,18470,0,0,48178.8959800037,63910.6815501410,44249.9831789662,59567.9332124584,73805.1605818337,53355.9102826545,40361.7834914983,68991.2668554699,30101.7746795476,18544.5312062126
7819042230,18470,0,0,48174.1992490301,63911.2169288012,44245.9556713178,59563.9908786878,73803.0555702833,53355.0585438769,40365.4703036357,68989.7458933671,30100.1320404765,18546.8065655185
7819042230,18470,0,0,48188.5449635843,63909.0267433731,44245.8339943496,59563.0783014260,73814.1890128763,53358.0396295985,40359.9096661876,68996.4381266197,30093.7561673413,18556.2365305563
7819042230,18470,0,0,48181.1226685223,63902.6143671474,44246.2720314352,59553.9403611120,73800.8288817647,53354.0121219501,40355.6144692091,68989.8432349417,30101.3123070683,18550.6880608050
7819042230,18470,0,0,48159.7075221140,63896.1654878312,44238.8984071605,59541.5049749590,73782.3218148970,53346.6506653723,40351.3679430179,68974.5971108225,30097.1752901485,18550.0188374798
7819042230,18470,0,0,48169.1131517581,63897.3457544230,44237.7424759624,59542.1011921033,73797.4705974416,53359.0738838285,40348.1921741471,68977.4078487886,30088.3050391646,18564.1942042785
7819042230,18470,0,0,48183.9212387916,63906.6905455831,44251.5771472500,59558.5032474206,73808.8717293647,53380.3308501782,40358.0601762705,68990.3786136019,30106.3984043403,18566.8589298827
7819042230,18470,0,0,48183.2398477695,63906.0821607419,44258.4153928645,59563.3824938466,73804.8685571099,53373.3709275954,40369.4369727999,68991.1695138954,30119.6125230901,18559.0716039160
7819069617,18471,0,0,48186.9144922101,63903.4782736218,44247.7199873572,59559.6835140124,73810.0398282597,53370.7670404753,40364.4238817089,68993.9437487710,30105.8508579833,18560.5925660189
7819069617,18471,0,0,48196.1984448860,63911.9956613979,44248.0241797777,59564.7209404971,73816.7928999964,53378.5543664420,40367.2711227655,69001.5363915885,30107.9193664432,18560.9941000141
7819069617,18471,0,0,48180.7698053145,63910.6328793537,44241.8186543980,59559.9755387362,73784.5971742029,53357.5650894224,40365.3972974547,68979.6953757913,30111.1194707076,18545.5897958362
7819069617,18471,0,0,48169.2348287263,63891.8337877622,44226.8402196090,59541.1886148416,73781.3240637575,53339.6420720023,40348.9709067437,68973.5871919862,30090.1301936881,18546.3685284329
7819069617,18471,0,0,48175.1239939886,63884.3506542161,44224.6865372713,59535.3724557602,73789.9874638954,53340.6033200513,40334.4426767372,68979.3303448866,30080.0675084155,18552.1968552111
7819069617,18471,0,0,48172.2402498416,63888.6458511946,44228.0326538977,59541.9673474382,73774.0599487542,53340.1531152688,40342.5828659117,68970.4844292964,30094.5227322411,18542.9615733225
7819069617,18471,0,0,48166.4240907602,63889.3272422167,44222.7153703860,59544.2062036537,73777.3330591996,53333.8380806177,40351.2462660496,68967.3816666065,30088.8404178248,18539.6154566962
7819069617,18471,0,0,48175.7323788298,63891.4079183734,44221.8757993052,59547.9295188815,73787.6390984086,53346.5411561009,40349.5914592817,68973.6845335608,30077.8164845032,18549.3617818513
7819111353,18472,0,0,48177.9103965611,63890.9090428037,44228.9330634626,59552.7114237329,73789.7562776558,53354.4501590358,40353.7041408079,68976.8968055220,30090.8359201038,18547.0255840613
7819111353,18472,0,0,48164.4285884813,63879.7147617266,44225.2340836284,59546.4085567786,73778.7201766374,53343.4262257142,40354.7383950378,68968.2334053841,30096.7494207597,18538.6298732535
7819111353,18472,0,0,48170.8531324038,63874.3244720340,44220.1601540532,59541.6996581081,73787.2497321103,53342.0877790637,40347.8149755456,68968.3550823523,30078.2423538920,18547.9868321103
7819111353,18472,0,0,48187.9365787432,63890.2884902657,44234.3598562456,59557.3229808288,73799.6729505665,53362.6146836040,40358.8875796544,68983.3578525350,30083.8394944306,18557.5628095100
7819111353,18472,0,0,48188.3137773447,63904.9383972405,44246.0895159829,59568.9066282042,73778.0752887058,53355.2897301166,40371.8583444677,68971.3970065581,30099.9738604178,18551.4546257049
7819111353,18472,0,0,48186.5981320927,63895.6909476551,44242.2080206964,59558.0043718509,73791.0338858222,53357.5772571193,40364.2291985597,68973.7697074386,30095.6178249552,18556.9544246688
7819111353,18472,0,0,48185.2353500485,63892.1136447892,44243.4247903787,59548.7447545686,73800.5855278282,53364.1478134037,40350.6500489053,68981.0824932291,30101.1662947065,18557.3437909672
7819111353,18472,0,0,48168.0423944377,63888.5120065296,44241.2954434347,59546.0313581771,73790.2551532256,53354.0121219501,40354.2760225586,68972.7841239959,30115.3903322925,18546.3685284329
7819167265,18473,0,0,48157.4199951113,63880.6516743820,44229.0669081276,59539.5581434673,73779.8031016546,53337.9020913566,40354.4342026172,68961.5655075251,30098.7814261292,18540.1995061437
7819167265,18473,0,0,48173.5543610985,63887.1248890918,44224.4918541222,59544.5468991647,73791.0338858222,53341.8565928240,40355.6631399964,68972.8571301768,30081.3086134914,18553.7543204044
7819167265,18473,0,0,48181.8405626349,63896.2749971026,44230.6487087146,59556.2522235084,73795.9496353387,53353.2455570503,40365.2147820024,68979.0991586470,30092.4542237812,18553.6326434362
7819167265,18473,0,0,48178.7256322482,63897.0415620025,44235.5401228374,59558.8317752348,73789.4520852352,53353.9026126787,40371.6636613185,68977.5781965441,30103.5024924965,18554.1680220964
7819167265,18473,0,0,48183.5440401901,63890.4953411117,44230.5513671400,59551.0566169650,73793.4309220963,53345.6407465360,40359.9583369749,68977.2375010331,30088.1225237123,18560.4100505666
7819167265,18473,0,0,48191.1366830076,63900.3146724478,44237.5234574195,59556.7145959876,73804.2115014815,53361.9454602787,40362.6108948823,68986.5944598899,30096.4817314296,18555.4821333533
7819167265,18473,0,0,48177.3141794168,63904.5125278517,44238.4360346813,59557.3351485256,73794.0758100280,53366.2649926508,40368.1471969367,68976.3492591650,30110.4624150792,18542.4018592686
7819167265,18473,0,0,48170.3299214404,63901.4462682524,44239.4702889112,59547.1751216785,73792.8103695584,53362.2496526993,40361.3819575031,68974.3172537956,30106.8729445164,18549.3982849418
7819178347,18474,0,0,48172.7512931082,63897.2970836357,44246.6370623399,59543.2206202110,73799.3809258428,53376.3276779234,40356.2958602312,68982.9319831462,30111.3263215536,18556.6502322483
7819178347,18474,0,0,48166.4484261539,63899.8522999686,44255.6289902921,59547.8321773069,73795.3777535880,53373.4439337764,40367.4901413083,68984.6597960951,30129.2858420643,18552.2455259984
7819178347,18474,0,0,48163.4551727354,63897.3944252103,44247.6348134794,59546.2017059326,73791.2894074555,53359.0982192221,40366.9304272544,68980.3767668134,30118.9798028553,18550.5420484432
7819178347,18474,0,0,48182.0595811777,63906.2160054070,44248.7055707998,59553.8430195374,73802.8243840437,53366.4110050127,40365.6041483007,68990.7558122034,30109.8418625412,18557.4167971481
7819178347,18474,0,0,48184.8946545375,63912.3606923025,44254.5582329717,59562.8471151864,73798.8090440921,53370.6940342944,40372.1990399787,68992.3254450935,30121.9730562737,18550.8584085606
7819178347,18474,0,0,48173.5908641889,63901.7382929761,44243.0840948676,59553.6605040851,73788.4299987021,53356.5064997988,40369.4734758904,68978.4055999281,30115.8527047718,18546.1008391028
7819178347,18474,0,0,48176.8639746343,63892.1379801828,44234.2990177615,59543.0016016682,73790.1578116510,53352.6980106933,40353.9596624411,68977.2496687299,30092.3812176003,18554.9954254803
7819178347,18474,0,0,48181.7067179698,63900.0104800273,44241.4536234934,59546.7857553801,73791.9221276903,53355.4235747816,40357.4031206420,68981.7517165544,30096.0193589504,18557.7209895687
7819210917,18475,0,0,48169.2469964231,63904.0501553725,44238.6185501336,59543.9263466267,73778.0631210090,53342.7813377826,40360.2016909113,68972.5772731499,30098.5259044959,18545.8453174695
7819210917,18475,0,0,48167.2271587505,63902.8698887806,44237.2922711799,59538.5360569342,73782.2853118065,53349.1815463114,40355.6023015122,68972.6502793308,30090.8724231943,18553.6204757394
7819210917,18475,0,0,48175.7932173139,63907.0069057005,44248.7785769808,59543.9020112331,73792.0559723554,53372.8355489352,40357.2814436738,68983.8688958016,30105.3276470199,18563.7561671929
7819210917,18475,0,0,48172.7634608050,63906.9582349132,44258.1112004440,59551.6284987157,73787.7486076800,53373.7602938938,40369.3152958317,68982.8103061780,30126.8279673061,18559.1202747033
7819210917,18475,0,0,48182.3516059015,63908.0168245368,44257.1377846981,59556.5685836258,73792.2263201109,53360.6070136282,40372.0165245264,68983.1266662954,30117.1303129382,18562.8557576280
7819210917,18475,0,0,48193.4850484945,63914.6725546989,44254.4000529130,59560.2918988536,73803.7126259117,53358.4411635937,40366.5653963497,68989.3443593719,30103.1009585013,18569.7670094234
7819210917,18475,0,0,48181.0983331287,63915.3904488115,44252.4045506340,59556.2643912052,73797.5801067130,53357.9422880240,40364.4968878898,68986.1564228043,30107.3109816021,18564.9972722688
7819210917,18475,0,0,48164.2339053321,63906.8852287322,44244.5442184864,59542.4662230080,73788.1866447657,53354.9977053928,40354.1300101967,68974.8526324558,30103.9283618853,18564.1942042785
7819256327,18476,0,0,48173.5300257048,63900.0104800273,44241.4049527061,59539.3634603181,73788.8071973036,53354.7300160627,40344.0551572273,68980.1942513611,30091.6998265782,18581.0829674687
7819256327,18476,0,0,48193.2173591644,63917.7023112078,44262.2360496669,59561.9710410152,73817.2066016884,53385.2465996946,40356.9407481628,69002.9600121168,30115.8040339845,18585.4511706282
7819256327,18476,0,0,48186.4034489435,63931.4518086177,44269.6948478194,59571.7417015640,73814.8460685047,53378.9193973467,40373.1846234214,69002.6314843026,30134.9681564806,18566.4695635844
7819256327,18476,0,0,48185.1015053834,63929.1399462214,44264.0612041904,59564.7939466781,73811.6946350276,53368.3335011107,40369.3517989222,68997.0951822481,30123.2384967433,18557.7939957496
7819256327,18476,0,0,48186.8658214228,63921.7784896435,44264.1463780681,59559.3428185014,73809.1880894820,53378.4448571706,40366.6262348338,68998.3362873241,30128.7017926168,18549.7754835433
7819256327,18476,0,0,48175.9757327662,63913.4801204103,44264.7912659998,59555.0354538261,73796.7892064195,53380.5498687210,40370.1670346093,68992.3132773967,30142.9379978996,18543.3631073176
7819256327,18476,0,0,48186.9996660878,63915.8163182003,44267.1761345771,59558.0165395477,73805.6472897066,53383.4944513521,40371.1161149615,68999.7234047619,30138.5089562561,18565.0459430561
7819256327,18476,0,0,48205.6162422269,63931.6708271606,44278.2730740796,59569.3811683803,73826.5878959389,53385.9766615040,40372.0773630105,69013.8014299860,30134.9803241774,18584.5264256696
7819264809,18477,0,0,48198.3764626173,63938.9592775575,44280.7552842315,59572.7881234907,73814.3593606318,53376.2790071361,40375.2287964877,69002.5463104248,30137.3286896643,18578.0775463535
7819264809,18477,0,0,48191.7572355456,63928.6410706516,44271.1306360445,59564.0517171719,73813.0939201622,53361.2884046503,40370.2765438807,68999.9910940920,30122.0217270610,18579.2578129453
7819264809,18477,0,0,48202.6108211117,63923.8835011939,44272.0432133062,59564.6844374067,73827.6708209561,53380.6228749019,40365.0566019437,69010.4188102693,30116.1812325860,18586.4245863740
7819264809,18477,0,0,48205.1417020508,63930.5027282656,44284.8679657576,59576.2194139948,73825.4806355280,53396.4287130749,40379.7308443121,69017.0867081282,30141.8307374887,18576.7147643093
7819264809,18477,0,0,48195.3710415020,63928.5923998643,44285.4155121146,59578.4339348166,73813.5806280351,53381.5962906478,40392.6407706413,69009.1777051933,30145.2255249023,18567.7958425381
7819264809,18477,0,0,48202.9271812291,63930.7460822020,44283.1036497183,59577.6552022199,73804.2358368751,53374.2956725540,40390.0977220053,69008.9951897410,30130.5634502307,18578.3939064709
7819264809,18477,0,0,48209.9601099927,63928.5315613802,44285.0869843004,59577.3510097993,73820.8934138257,53381.3772721049,40389.2338155309,69019.4472413119,30132.9118157175,18581.3263214052
7819264809,18477,0,0,48198.8388350965,63920.8659123818,44277.4091676052,59571.2793290847,73811.5607903625,53373.9671447398,40386.8611146504,69012.3413063673,30142.4147869362,18568.0878672618
7819295343,18478,0,0,48204.2534601828,63919.8073227582,44270.0842141177,59566.0958902381,73819.1777685737,53378.1528324469,40379.0859563805,69011.2948844405,30134.1772561871,18574.2690572479
7819295343,18478,0,0,48213.3427297095,63931.9871872779,44276.8007827640,59572.4717633734,73831.6131547267,53386.2200154405,40382.9187808798,69020.2016385149,30136.9271556691,18586.4002509804
7819295343,18478,0,0,48197.5125561428,63934.3477204616,44279.3316637032,59574.2604148063,73819.9565011704,53377.5809506962,40388.1630582104,69011.5990768611,30144.0817614010,18581.9347062463
7819295343,18478,0,0,48183.8238972170,63918.9677516774,44264.8034336966,59562.4942519785,73807.7523012569,53366.3379988318,40378.3072237839,69000.4169634808,30130.3809347784,18584.0762208872
7819295343,18478,0,0,48186.4642874276,63905.0114034215,44256.9431015490,59554.3418951072,73805.2579234083,53370.1343202405,40367.2711227655,69001.7189070408,30121.6323607627,18587.5683498754
7819295343,18478,0,0,48187.8635725623,63902.6021994505,44259.4374793977,59559.5253339537,73806.8032209048,53374.4173495222,40374.8272624925,69002.8139997549,30134.0920823094,18579.0022913120
7819295343,18478,0,0,48182.8991522585,63903.9649814947,44257.9895234757,59559.7808555870,73801.9726452661,53365.9121294430,40378.7817639600,68998.3484550209,30132.4251078446,18566.6885821272
7819295343,18478,0,0,48194.7018181767,63913.1880956865,44260.5569075054,59564.6601020130,73811.8893181767,53374.1861632826,40376.9809448302,69003.6170677452,30123.5305214670,18576.3375657078
7819325602,18479,0,0,48196.8555005144,63921.6446449784,44266.9449483374,59570.0990624929,73818.3016944024,53385.7576429612,40384.2207244398,69010.1511209391,30136.2822677375,18573.9040263432
7819325602,18479,0,0,48184.5661267232,63916.9844170953,44261.5789940385,59566.2905733873,73808.3241830076,53371.8986362799,40388.3699090564,69002.6679873930,30142.4512900267,18565.2527939021
7819325602,18479,0,0,48186.8049829387,63910.4381962045,44252.8669231133,59560.5717558805,73813.0330816781,53365.9608002303,40380.7042600580,69002.5219750312,30125.6355330174,18573.9040263432
7819325602,18479,0,0,48203.4868952829,63920.8294092913,44262.4794036034,59569.4176714708,73823.0349284666,53381.3529367113,40385.0481278238,69015.2858889984,30129.2250035802,18582.8107804176
7819325602,18479,0,0,48199.1551952139,63928.2030335660,44266.7502651883,59574.2725825031,73815.3327763776,53369.8544632136,40392.8232860936,69010.4796487534,30137.1340065151,18574.7557651208
7819325602,18479,0,0,48192.0857633598,63918.0916775061,44254.5217298812,59561.4234946581,73809.6626296582,53348.7921800131,40379.6821735249,68999.3948769477,30118.9919705521,18578.9171174343
7819325602,18479,0,0,48208.3539740121,63914.9280763322,44255.5194810207,59563.0052952451,73820.5405506179,53360.9598768360,40372.2233753724,69006.3061287431,30113.6503516468,18593.0924842330
7819325602,18479,0,0,48206.5044840950,63919.9533351201,44271.7633562793,59571.4010060529,73819.9078303831,53372.9450582066,40384.4762460731,69012.5846603037,30134.5057840013,18579.9757070578
7819385065,18480,0,0,48192.2926142058,63918.8947454965,44272.0188779126,59568.1887340917,73815.0894224412,53363.5394285625,40388.4307475405,69005.5030607528,30131.9140645780,18570.1563757217
7819385065,18480,0,0,48199.4958907250,63924.7109045778,44264.2680550364,59567.7385293092,73825.4928032248,53370.9008851404,40384.9142831587,69012.5603249101,30120.9753051342,18579.0266267057
7819385065,18480,0,0,48203.9614354590,63932.7902552683,44266.9571160342,59572.2527448305,73828.3278765845,53383.5431221394,40390.2680697608,69016.2593047443,30132.7049648715,18582.3727433320
7819385065,18480,0,0,48194.6288119958,63924.2120290081,44262.0657019114,59564.3680772893,73813.2034294336,53371.4484314974,40387.5181702788,69007.1335321271,30135.7712244709,18577.1162983045
7819385065,18480,0,0,48199.8244185392,63914.0033313736,44255.7141641698,59557.4446577970,73814.9799131698,53367.1410668221,40376.6280816223,69005.1015267576,30124.2605832764,18582.5430910875
7819385065,18480,0,0,48205.6162422269,63917.2399387285,44258.3423866836,59565.3779961256,73822.9010838015,53377.2889259724,40378.3558945711,69009.2628790711,30132.1330831209,18578.9171174343
7819385065,18480,0,0,48198.4129657077,63923.1291039908,44258.8655976470,59569.5393484390,73814.6513853556,53370.2194941183,40388.8079461421,69001.6702362536,30142.2079360903,18573.2469707148
7819385065,18480,0,0,48199.8730893265,63923.1777747781,44255.5194810207,59565.1833129764,73819.4576256006,53367.5182654236,40383.9286997161,69006.7319981319,30132.8509772334,18582.2023955764
7819391250,18481,0,0,48208.1836262566,63923.2751163527,44261.0192799846,59564.6235989226,73829.5203108732,53374.9770635761,40381.3248125960,69014.2272993748,30134.5057840013,18590.0992308145
7819391250,18481,0,0,48196.5756434875,63917.0574232762,44261.8831864591,59564.4045803797,73814.4567022064,53367.7372839664,40389.2459832277,69004.8825082148,30146.9168347607,18575.4128207492
7819391250,18481,0,0,48187.1821815402,63905.4737759008,44250.2508682963,59556.7145959876,73799.5391059015,53351.8341042188,40385.2671463666,68991.3276939541,30131.0744934973,18568.3798919856
7819391250,18481,0,0,48198.0235994094,63906.1186638324,44248.7542415871,59556.6780928972,73807.3142641713,53363.6976086212,40379.5604965566,68997.0951822481,30116.1568971923,18574.2812249447
7819391250,18481,0,0,48202.2457902070,63916.9479140048,44261.3478077989,59568.6267711773,73810.3318529834,53375.1352436348,40391.9107088319,69005.4178868750,30132.1939216050,18571.6286670373
7819391250,18481,0,0,48192.4994650518,63914.8063993640,44262.5402420875,59566.7164427761,73811.7676412085,53369.0148921328,40394.2104035314,69003.0816890850,30138.6428009211,18573.4781569544
7819391250,18481,0,0,48197.8167485634,63911.1682580139,44259.7538395151,59559.7443524966,73815.4666210427,53365.2064030273,40383.3446502686,69007.3160475794,30129.5170283039,18583.3218236842
7819391250,18481,0,0,48207.0885335425,63918.1038452030,44263.7813471635,59567.7263616124,73819.7253149307,53373.2979214145,40385.8998666014,69011.7572569198,30135.7347213804,18574.5975850621
7819418711,18482,0,0,48206.6991672442,63925.0272646952,44263.4771547429,59574.3090855936,73811.5121195752,53365.3524153891,40400.3429227302,69004.6878250656,30142.7676501441,18565.2406262053
7819418711,18482,0,0,48213.3183943159,63923.0560978099,44260.0458642388,59569.2838268057,73813.8118142748,53353.8539418914,40396.4127566564,69002.8626705422,30127.2538366949,18574.1717156733
7819418711,18482,0,0,48204.0101062463,63915.1349271782,44259.4253117008,59558.5397505111,73812.5950445925,53363.6854409244,40383.1864702099,69004.4201357355,30124.6742849684,18576.3375657078
7819418711,18482,0,0,48180.0397435051,63906.4471916466,44255.2517916906,59548.1363697275,73796.0104738228,53363.5637639562,40379.8525212804,68997.4480454560,30139.1903472782,18565.7638371687
7819418711,18482,0,0,48176.3164282773,63902.5413609664,44245.0430940561,59545.7393334533,73796.0469769133,53358.4411635937,40377.0296156175,68994.8684937295,30132.3642693605,18571.5313254627
7819418711,18482,0,0,48192.6211420200,63911.3142703758,44248.2310306237,59555.0354538261,73805.4161034669,53368.8445443773,40376.2387153240,68998.3971258082,30122.1069009388,18576.0942117713
7819418711,18482,0,0,48195.2615322306,63921.3526202547,44257.5514863901,59564.0152140814,73804.0533214228,53369.0270598297,40384.1233828652,68996.2799465610,30129.6143698785,18568.2460473205
7819418711,18482,0,0,48187.9609141368,63919.4179564599,44260.0580319356,59557.3351485256,73798.5900255493,53367.2627437903,40381.4829926546,68994.1019288297,30129.4075190325,18568.1973765332
7819449064,18483,0,0,48194.5193027244,63913.5896296817,44259.5591563659,59548.4162267544,73808.3120153108,53364.6466889734,40371.0674441742,68999.9424233047,30123.7252046162,18576.5200811601
7819449064,18483,0,0,48194.4584642403,63915.4147842051,44261.5424909480,59553.3076408772,73807.9591521029,53375.7679638696,40379.6943412217,69003.0451859945,30139.5918812733,18572.4682381181
7819449064,18483,0,0,48186.9388276037,63916.9235786111,44260.0215288452,59557.9800364572,73799.3809258428,53374.7458773364,40391.7403610764,68995.3552016024,30145.9555867117,18566.6642467336
7819449064,18483,0,0,48193.6553962500,63916.8019016429,44258.2085420186,59554.3175597135,73804.4913585084,53368.8323766805,40385.4861649094,69000.1249387570,30130.3322639911,18576.5565842506
7819449064,18483,0,0,48199.3377106663,63919.0772609488,44265.6308370805,59556.0575403592,73809.7478035359,53381.7788061001,40382.8092716083,69007.1335321271,30134.9438210870,18586.9112942469
7819449064,18483,0,0,48189.7008947825,63916.7775662493,44269.4758292766,59557.1526330733,73786.6778503596,53376.3033425298,40385.6565126649,68997.7400701797,30151.1876963456,18587.2519897580
7819449064,18483,0,0,48194.3367872721,63908.8563956175,44266.0688741662,59557.0552914987,73810.3075175898,53372.7747104511,40385.8025250268,69007.1091967334,30139.5188750924,18597.1808303655
7819449064,18483,0,0,48207.5509060218,63918.1038452030,44271.2279776191,59568.5172619059,73822.1345189017,53387.3394435482,40390.1342250958,69017.5490806075,30140.3949492636,18600.3079284490
7819498982,18484,0,0,48201.7590823341,63924.1755259176,44275.7300254436,59579.9062261322,73816.2331859425,53389.8824921842,40406.8648082273,69013.5824114432,30156.6631599159,18584.7697796061
7819498982,18484,0,0,48188.0339203178,63913.2002633833,44266.9084452470,59570.6952796372,73803.7491290022,53380.1848378163,40402.3749280996,69002.8261674517,30152.5383106929,18577.9071985979
7819498982,18484,0,0,48193.1443529834,63904.5003601549,44263.6596701952,59563.2608168784,73812.4611999274,53392.6323916662,40390.6331006655,69007.9609355110,30143.2178549266,18584.6481026379
7819498982,18484,0,0,48190.2971119268,63904.7680494850,44264.5965828506,59564.2585680179,73808.4458599759,53388.1060084480,40389.0756354722,69008.3503018093,30151.9785966391,18579.0266267057
7819498982,18484,0,0,48175.1361616855,63901.7504606729,44252.9886000815,59557.9070302763,73794.5138471136,53367.9076317219,40386.1797236283,68998.5309704732,30142.6703085695,18571.4826546754
7819498982,18484,0,0,48184.6878036915,63905.1087449961,44248.6325646189,59559.1481353522,73805.4526065574,53371.1564067737,40379.7551797058,69003.1181921755,30124.0050616431,18585.4755060218
7819498982,18484,0,0,48200.2016171407,63914.2466853101,44260.6177459895,59570.7804535150,73818.3016944024,53385.6116305993,40384.2815629239,69014.5679948859,30132.0722446367,18590.3790878415
7819498982,18484,0,0,48187.8270694718,63906.5080301307,44259.0481130993,59570.5005964880,73801.8266329042,53386.9622449467,40388.8809523230,69005.8559239607,30146.8438285798,18575.6683423825
7819523970,18485,0,0,48186.4277843371,63891.0307197719,44253.5239787417,59562.2265626484,73793.9906361502,53380.9392350193,40375.9345229034,68994.3452827661,30129.9063946023,18573.8675232527
7819523970,18485,0,0,48200.0191016884,63897.5891083595,44263.8178502539,59570.9021304832,73806.8883947825,53391.4399573775,40375.9466906002,69001.0010129283,30127.7648799614,18575.0112867541
7819523970,18485,0,0,48193.8135763087,63908.4305262287,44263.0634530509,59581.5853682937,73804.9050602004,53380.4646948432,40392.7746153063,68997.5697224242,30136.6838017326,18570.4605681423
7819523970,18485,0,0,48183.2276800727,63901.1420758318,44242.2931945741,59572.7759557939,73795.9739707323,53354.8151899405,40391.3996655653,68991.4493709223,30119.6733615742,18572.6385858736
7819523970,18485,0,0,48186.0140826452,63890.2519871753,44231.9506522746,59563.4311646339,73798.8333794857,53358.7940268016,40378.5140746298,68994.0654257392,30105.0112869025,18577.5056646028
7819523970,18485,0,0,48181.2686808842,63887.7089385393,44236.0998368913,59564.3802449861,73798.6508640334,53364.5250120052,40379.5604965566,68989.7945641544,30120.0505601757,18570.8377667438
7819523970,18485,0,0,48173.2501686779,63884.8495297859,44236.5865447642,59561.5938424136,73774.9603583191,53353.8296064978,40375.9953613875,68976.0328990476,30120.9996405279,18565.1189492370
7819523970,18485,0,0,48192.4386265677,63890.7751981386,44244.0210075230,59565.4875053970,73800.8532171583,53369.6719477613,40372.9412694849,68988.7481422276,30109.0996330350,18579.4524960945
7819542388,18486,0,0,48200.9316789501,63902.3101747268,44255.5194810207,59576.8886373201,73809.2245925725,53383.0929173570,40382.1400482831,68997.2533623068,30127.8013830519,18582.1172216987
7819542388,18486,0,0,48184.0915865471,63896.9077173374,44251.2121163454,59570.7926212118,73795.7062814022,53372.3975118496,40388.4794183278,68986.7526399486,30137.7910621435,18574.2082187638
7819542388,18486,0,0,48178.7986384292,63882.7080151450,44236.4648677960,59557.9191979731,73782.2488087161,53359.0373807380,40375.7885105415,68979.6710403977,30122.0095593642,18577.2623106663
7819542388,18486,0,0,48189.5548824206,63888.1956464122,44242.5730516011,59565.9620455731,73797.1420696273,53372.7382073606,40379.1589625615,68992.0820911571,30122.7639565672,18585.4876737186
7819542388,18486,0,0,48184.7608098724,63899.6697845162,44252.1976997880,59573.1044836081,73784.2078079046,53372.1541579132,40393.3464970570,68990.6463029320,30136.8298140945,18581.1438059529
7819542388,18486,0,0,48181.4998671239,63893.5981038016,44245.5054665354,59562.2508980421,73790.9365442476,53360.4488335695,40381.5681665324,68986.6431306772,30121.8027085182,18580.9247874100
7819542388,18486,0,0,48196.2106125828,63892.6246880557,44245.3107833862,59564.1855618369,73804.2236691783,53372.0324809449,40373.2941326928,68993.4448732013,30120.7806219851,18581.2898183147
7819542388,18486,0,0,48198.8875058838,63891.9311293368,44245.1161002371,59572.5326018575,73792.3236616855,53371.0103944118,40381.6776758038,68988.2249312642,30135.1020011457,18569.4871523965
7819581328,18487,0,0,48188.3259450415,63884.6670143335,44234.8100610280,59565.7673624239,73784.0496278459,53353.7931034073,40381.7628496816,68976.6777869792,30124.5647756970,18567.0171099414
7819581328,18487,0,0,48190.6378074379,63888.3173233804,44234.6397132725,59564.2707357147,73793.6864437296,53359.5605917014,40375.1192872163,68981.5570334052,30110.3042350205,18578.2113910185
7819581328,18487,0,0,48188.3381127383,63898.6476979831,44246.1990252543,59567.7020262188,73793.4795928836,53372.5070211210,40380.3513968501,68982.6642938161,30125.2705021127,18574.2447218542
7819581328,18487,0,0,48173.7612119445,63893.0627251414,44246.9899255478,59560.2675634599,73780.3263126180,53363.4299192911,40380.8016016326,68973.6723658640,30131.4273567051,18568.1000349587
7819581328,18487,0,0,48178.6891291578,63885.7864424412,44241.4171204029,59553.8673549311,73784.7431865648,53362.5660128167,40371.5176489567,68977.5903642410,30119.1744860044,18573.2469707148
7819581328,18487,0,0,48185.8193994960,63890.2154840848,44246.6492300368,59556.8606083495,73791.9951338712,53365.8756263525,40369.9966868538,68981.9585674004,30123.3358383179,18576.3010626173
7819581328,18487,0,0,48180.6724637399,63895.2164074790,44246.7830747018,59560.0363772203,73792.4818417442,53361.1545599852,40377.1512925857,68981.8490581290,30132.1817539082,18571.8233501865
7819581328,18487,0,0,48178.2997628594,63893.6589422857,44243.3396165009,59557.0552914987,73791.8126184189,53359.1347223126,40373.8903498371,68979.1356617375,30119.5395169091,18571.9206917611
7819617683,18488,0,0,48190.3336150173,63896.2871647994,44250.1291913281,59560.5474204869,73803.3475950070,53371.7526239180,40375.0219456417,68986.4241121344,30120.6467773200,18575.7535162603
7819617683,18488,0,0,48183.4466986155,63895.5327675964,44251.6501534310,59561.3018176899,73791.4597552110,53366.5083465873,40381.0449555690,68978.6489538646,30133.9217345538,18568.8665998585
7819617683,18488,0,0,48177.2898440231,63886.7598581871,44241.9403313663,59552.9912807598,73782.9423674350,53345.1783740567,40374.4622315878,68970.9833048661,30121.7662054277,18568.5137366506
7819617683,18488,0,0,48189.3845346651,63886.1758087396,44238.0953391702,59551.1417908427,73791.8369538125,53343.9129335871,40367.6726567606,68978.4907738059,30107.7368509909,18576.4592426760
7819617683,18488,0,0,48187.1456784497,63891.3592475861,44243.1571010486,59556.9336145305,73783.6602615475,53347.9404412355,40374.9246040671,68980.0604066960,30119.8802124202,18571.5799962500
7819617683,18488,0,0,48176.0974097345,63882.9878721720,44239.5919658795,59548.5135683290,73777.2965561091,53343.9981074649,40372.4423939152,68974.4876015511,30116.5340957938,18568.5015689538
7819617683,18488,0,0,48185.6490517405,63882.3673196340,44245.6393112005,59547.2359601626,73795.5602690404,53365.6444401129,40367.0642719195,68987.9815773278,30116.7652820335,18578.6007573169
7819617683,18488,0,0,48190.1024287777,63887.2952368473,44256.4198905856,59556.3008942957,73797.9938084049,53372.5313565147,40373.0386110595,68987.1176708533,30131.4273567051,18574.4272373066
7819648749,18489,0,0,48176.1582482186,63886.7476904903,44250.3360421741,59553.1372931217,73783.0032059191,53351.7124272506,40377.9543605760,68976.7994639475,30132.3764370573,18566.4452281907
7819648749,18489,0,0,48170.2812506531,63885.1902252969,44242.5000454201,59543.0989432428,73785.3759067996,53345.1905417535,40369.0111034111,68972.8084593895,30113.8693701896,18572.4560704213
7819648749,18489,0,0,48173.4205164334,63885.6891008667,44246.0895159829,59542.5027260984,73791.1068920032,53362.6268513008,40363.7911614741,68979.3425125835,30117.1911514223,18579.6593469405
7819648749,18489,0,0,48165.7305320413,63882.1969718785,44246.2476960416,59544.2792098346,73779.8639401388,53367.1167314285,40371.9313506486,68977.2740041236,30134.5544547886,18573.6728401036
7819648749,18489,0,0,48169.8067104770,63878.6561721030,44241.6969774298,59544.6564084361,73782.2853118065,53367.1045637316,40374.3162192259,68978.9653139819,30130.9771519227,18573.7823493750
7819648749,18489,0,0,48191.2096891886,63890.6535211704,44249.3626264283,59558.6979305698,73800.6828694028,53375.0135666665,40379.8890243708,68990.9383276557,30126.7549611251,18583.3096559873
7819648749,18489,0,0,48196.2349479764,63905.7901360182,44257.8678465075,59573.3356698478,73800.1231553490,53367.7494516632,40395.8895456930,68992.9338299347,30141.2101849508,18579.9270362706
7819648749,18489,0,0,48185.4300331977,63898.4165117435,44249.1801109759,59563.7840278418,73790.9243765508,53353.9756188597,40392.6042675508,68981.2528409847,30130.1740839324,18578.4547449550
7819672552,18490,0,0,48188.7761498240,63888.5485096201,44245.3716218703,59552.4437344028,73797.2637465956,53353.5497494709,40377.9908636665,68984.3191005840,30114.6359350895,18581.8617000654
7819672552,18490,0,0,48189.6035532079,63885.3849084461,44246.2355283448,59554.4635720754,73795.2682443166,53358.4289958969,40377.9665282728,68985.0856654839,30122.3867579657,18572.5655796927
7819672552,18490,0,0,48179.1636693339,63885.2753991747,44244.8849139974,59554.6947583150,73787.2253967166,53354.9733699992,40382.8944454861,68978.7462954391,30126.9253088806,18564.5835705768
7819672552,18490,0,0,48183.9455741853,63887.8306155075,44241.3562819188,59551.6893371998,73791.7882830252,53354.1824697057,40376.9079386492,68981.8125550385,30113.6016808595,18572.3465611499
7819672552,18490,0,0,48193.7162347341,63896.3966740708,44249.3991295187,59558.2477257873,73800.1109876521,53368.9662213455,40380.6434215739,68991.5832155873,30122.5084349339,18574.7435974240
7819672552,18490,0,0,48186.2087657943,63897.3335867262,44249.2531171569,59560.3405696409,73777.2965561091,53355.2288916324,40385.1576370952,68980.2064190579,30138.6671363148,18565.6543278972
7819672552,18490,0,0,48188.6788082494,63885.7621070476,44237.4504512386,59555.1814661880,73795.3899212848,53341.7957543399,40377.8570190014,68984.5137837332,30123.2749998338,18567.9661902936
7819672552,18490,0,0,48193.4363777072,63886.1149702555,44235.6983028961,59556.6902605940,73804.7225447480,53346.0179451375,40373.7078343848,68991.0600046240,30117.1059775445,18577.4083230282
7819703129,18491,0,0,48178.4701106149,63890.9942166815,44237.8276498401,59560.0607126140,73794.7206979596,53347.7214226927,40382.4077376132,68983.4308587160,30127.0104827584,18572.1883810912
7819703129,18491,0,0,48167.3853388092,63888.0739694440,44237.6573020846,59552.3585605250,73789.0018804528,53346.5289884040,40383.1377994226,68976.1789114095,30120.8414604692,18570.8377667438
7819703129,18491,0,0,48181.6945502730,63888.0496340503,44243.0475917772,59553.4536532391,73803.1529118579,53362.9797145087,40378.8669378377,68984.8179761538,30116.9112943954,18580.0365455420
7819703129,18491,0,0,48187.9122433495,63891.5782661290,44249.9223404821,59563.2364814847,73804.0654891196,53374.6242003682,40387.3964933106,68988.9671607704,30136.3066031311,18574.7557651208
7819703129,18491,0,0,48181.3416870652,63892.8923773858,44248.2188629269,59560.4622466091,73791.5814321793,53353.5375817740,40393.1761493015,68983.1144985986,30140.0177506621,18571.9936979420
7819703129,18491,0,0,48191.1975214917,63893.8901285253,44244.5563861832,59559.9633710394,73796.6553617544,53350.1184589668,40388.8566169293,68986.1077520170,30119.2474921854,18581.7156877035
7819703129,18491,0,0,48202.6838272926,63901.0447342572,44255.2396239938,59573.2261605764,73813.2277648273,53366.4231727095,40395.4393409106,68997.3263684878,30124.4552664256,18582.3240725447
7819703129,18491,0,0,48188.7639821272,63894.6931965156,44255.3613009620,59569.9165470405,73801.3520927281,53362.4686712421,40395.2811608519,68984.9274854252,30135.9659076201,18571.0081144993
7819736290,18492,0,0,48185.3935301072,63882.2821457562,44252.6600722673,59558.9899552935,73800.0744845617,53357.8206110557,40383.8435258383,68986.6187952836,30126.3290917363,18575.8265224412
7819736290,18492,0,0,48195.6387308321,63890.4588380213,44263.7570117698,59565.8768716953,73811.3782749102,53359.4875855205,40381.8601912562,68996.0487603214,30127.7527122646,18584.2587363395
7819736290,18492,0,0,48187.1213430561,63895.5814383837,44253.4753079544,59569.8192054660,73799.5147705078,53346.1517898025,40387.8832011835,68986.6066275867,30134.0555792189,18571.7868470960
7819736290,18492,0,0,48176.9491485121,63890.2519871753,44236.6473832483,59557.8705271858,73790.1699793478,53352.0652904585,40382.9796193639,68978.1744136885,30124.0902355209,18564.6322413641
7819736290,18492,0,0,48188.3989512225,63892.3691664225,44244.3860384277,59556.4104035671,73806.2556745477,53382.0464954302,40379.4753226789,68989.6728871861,30126.4020979173,18574.4880757907
7819736290,18492,0,0,48189.7495655698,63898.0758162324,44257.2107908791,59564.0882202623,73809.0420771202,53384.2366808583,40391.0711377511,68995.6107232357,30144.8118232104,18570.2902203868
7819736290,18492,0,0,48184.1037542440,63890.1668132975,44252.0273520325,59562.2143949516,73799.0645657254,53354.9246992119,40390.4870883036,68981.4231887402,30133.5080328619,18568.6354136189
7819736290,18492,0,0,48197.1961960254,63893.8657931317,44249.2287817632,59564.9034559495,73808.4945307631,53361.1788953789,40385.9120342982,68991.8874080079,30116.8991266985,18578.1748879281
7819788955,18493,0,0,48204.5333172097,63905.1452480865,44261.3113047084,59574.6376134078,73815.3449440745,53374.0036478302,40394.6241052234,68998.4214612018,30128.7991341914,18573.7458462845
7819788955,18493,0,0,48185.5882132564,63902.6143671474,44262.5037389971,59567.0693059840,73800.9992295202,53371.5457730720,40397.0698122848,68990.5489613574,30141.1006756794,18565.4353093544
7819788955,18493,0,0,48182.5827921411,63896.4210094645,44257.2959647568,59556.1792173274,73806.0244883081,53380.5863718114,40387.6763503375,68992.1794327317,30136.8419817913,18576.5687519474
7819788955,18493,0,0,48196.8433328176,63906.4228562529,44266.9206129438,59565.6335177589,73818.8370730626,53388.1546792353,40391.1076408416,69007.1213644302,30146.1015990736,18589.1014796751
7819788955,18493,0,0,48191.8545771202,63910.1096683903,44264.0977072809,59570.5370995785,73807.5941211983,53365.2429061177,40397.2401600404,68997.4845485465,30146.7221516116,18578.0775463535
7819788955,18493,0,0,48184.8338160533,63894.9730535426,44245.6149758068,59556.6294221099,73795.6454429181,53340.3721338116,40381.5803342292,68979.9874005151,30116.4610896129,18569.5236554869
7819788955,18493,0,0,48196.0402648273,63884.2776480352,44242.7677347502,59555.5343293958,73801.9848129629,53357.1757231241,40369.8506744919,68981.4353564370,30104.3177281836,18574.5245788812
7819788955,18493,0,0,48194.5923089053,63881.8806117611,44251.3702964041,59559.9147002521,73798.2614977351,53361.7994479168,40376.8349324683,68984.3556036745,30123.3966768020,18570.6309158978
7819799218,18494,0,0,48184.7851452660,63877.9017749000,44244.8362432101,59555.6681740609,73791.0460535191,53344.9350201202,40375.5329889082,68979.3425125835,30121.0118082247,18567.5281532080
7819799218,18494,0,0,48190.5891366506,63882.5376673895,44240.7965678649,59554.8651060706,73798.1154853732,53348.3176398370,40374.7055855243,68981.1189963196,30110.3772412014,18573.3686476830
7819799218,18494,0,0,48188.6909759462,63889.1933975517,44244.1791875817,59556.9822853177,73792.7130279838,53353.3307309281,40378.2828883902,68978.2595875662,30119.2839952758,18567.0657807287
7819799218,18494,0,0,48172.5566099590,63881.6129224310,44239.7014751509,59543.8290050521,73760.0184266205,53334.9818441191,40371.9435183455,68957.0877950943,30119.7585354519,18555.8836673484
7819799218,18494,0,0,48175.1726647759,63868.0459404734,44231.9749876683,59530.4567062437,73775.2402153460,53331.6843982800,40358.6685611116,68965.8242014132,30104.1717158217,18565.1432846307
7819799218,18494,0,0,48179.6747126004,63872.0369450313,44236.0511661040,59534.9952571587,73785.1447205599,53340.7493324131,40362.2458639776,68976.3614268618,30111.2898184632,18568.6597490125
7819799218,18494,0,0,48165.7913705254,63873.4849009532,44227.1809151201,59539.3147895308,73772.1252849594,53326.1967670129,40373.0386110595,68965.1793134816,30120.6589450168,18556.1513566785
7819799218,18494,0,0,48163.1753157085,63871.8057587917,44217.0817267570,59538.4022122691,73769.3632177806,53323.0575012326,40374.2310453482,68959.3023159161,30108.9657883700,18556.5650583705
7819852523,18495,0,0,48178.3971044340,63881.2722269199,44229.7482991497,59546.5910722310,73786.0451301248,53349.7534280621,40376.9444417397,68973.3195026561,30114.0275502483,18569.4141462155
7819852523,18495,0,0,48177.3141794168,63884.2776480352,44244.9822555720,59550.4725675175,73785.7287700074,53360.7165228996,40384.9142831587,68976.1667437127,30135.3088519916,18567.2117930906
7819852523,18495,0,0,48177.5940364437,63881.4912454627,44242.6095546915,59545.0336070376,73785.4124098900,53354.4136559453,40380.3757322438,68971.0076402597,30132.8874803239,18568.2947181078
7819852523,18495,0,0,48191.7572355456,63887.0397152140,44241.7578159139,59547.3089663435,73796.9595541750,53351.2987255586,40375.1801257004,68980.6079530530,30122.8004596577,18575.5466654143
7819852523,18495,0,0,48185.8193994960,63892.6246880557,44240.4558723539,59552.1273742854,73788.7950296068,53340.9196801687,40381.3978187769,68977.7972150869,30128.2272524407,18564.2793781563
7819852523,18495,0,0,48169.1739902422,63884.5088342748,44230.4296901718,59545.2404578836,73771.2613784849,53331.5505536150,40378.6844223854,68965.3618289339,30124.1875770955,18558.4267159844
7819852523,18495,0,0,48182.7044691093,63880.9802021962,44234.6153778789,59545.6663272724,73794.9275488056,53350.2766390255,40370.3130469712,68978.0162336298,30114.5994319990,18572.9306105974
7819852523,18495,0,0,48195.6143954385,63890.7873658355,44244.9579201784,59556.5807513226,73802.2159992025,53358.3924928064,40376.8836032556,68986.1929258948,30127.1321597266,18573.7580139813
7819859048,18496,0,0,48181.2808485810,63889.7774469992,44239.0809226129,59554.6095844373,73787.8094461641,53337.1841972440,40382.8701100925,68970.0828953012,30123.4818506797,18557.4167971481
7819859048,18496,0,0,48178.4457752213,63888.6093481042,44229.8091376338,59548.5500714194,73786.5440056946,53336.2351168918,40376.2022122335,68964.6317671245,30104.5854175137,18561.3712986156
7819859048,18496,0,0,48187.1700138433,63892.6611911462,44234.1773407932,59552.0787034981,73796.5945232703,53347.8917704482,40375.6668335733,68972.8814655705,30106.3497335530,18571.8111824897
7819859048,18496,0,0,48180.3561036225,63890.3249933562,44237.1097557276,59550.6794183635,73787.2253967166,53347.9282735387,40380.6920923612,68973.2951672625,30126.0857377999,18565.9341849242
7819859048,18496,0,0,48180.6481283462,63884.2046418543,44234.2381792774,59544.6199053456,73787.8094461641,53346.3708083453,40379.4996580725,68974.6214462162,30122.4840995403,18571.7138409151
7819859048,18496,0,0,48197.0015128763,63889.9842978452,44240.0908414492,59550.6915860603,73802.9338933151,53357.9666234176,40378.4654038426,68982.2505921241,30116.0108848305,18583.1636436255
7819859048,18496,0,0,48203.2435413465,63905.1209126929,44263.9638626158,59564.9764621304,73804.3696815402,53373.5899461383,40389.9882127339,68986.8256461296,30130.9528165290,18581.5210045544
7819859048,18496,0,0,48194.2272780007,63904.3178447026,44267.9426994769,59560.6447620614,73796.8500449036,53355.1802208451,40390.2193989735,68979.8170527596,30128.6774572231,18575.3398145683
7819889002,18497,0,0,48192.0492602693,63892.5030110875,44247.7929935381,59551.5068217474,73797.5679390161,53346.3464729517,40377.1391248889,68979.6588727008,30116.9477974858,18579.1483036739
7819889002,18497,0,0,48188.5814666748,63889.4245837913,44237.1827619085,59552.5654113710,73795.7062814022,53348.1594597783,40380.2418875787,68983.3213494446,30129.3710159421,18573.0644552624
7819889002,18497,0,0,48173.8707212159,63885.8959517126,44228.4463555896,59545.7880042406,73781.2145544861,53329.9565853312,40382.1035451926,68969.8395413647,30128.5436125581,18561.5173109774
7819889002,18497,0,0,48183.2763508600,63890.6291857768,44227.5581137216,59544.1088620791,73786.8847012056,53337.9142590534,40379.2684718329,68973.6115273798,30112.5917620232,18573.7823493750
7819889002,18497,0,0,48197.3543760841,63902.7968825997,44240.9425802268,59553.7456779628,73799.5269382046,53360.4001627822,40385.4861649094,68986.8378138264,30120.2574110217,18586.4732571613
7819889002,18497,0,0,48181.3903578524,63903.8068014360,44247.2454471811,59551.9326911362,73788.6611849418,53367.7494516632,40390.3897467290,68983.0171570240,30140.9546633175,18583.4069975619
7819889002,18497,0,0,48178.2024212848,63895.8977985011,44244.1670198849,59545.5568180010,73795.8887968546,53367.8832963283,40383.5515011145,68980.8634746863,30129.2615066706,18588.6391071958
7819889002,18497,0,0,48192.7428189883,63902.5291932696,44249.2531171569,59548.7812576591,73809.1515863916,53367.3479176681,40379.0007825028,68992.1916004285,30124.0415647336,18588.7851195577
7819918999,18498,0,0,48185.1015053834,63910.0975006935,44247.9268382032,59551.1539585396,73799.6851182633,53351.2135516809,40383.7583519605,68981.8977289163,30127.7162091741,18567.2604638779
7819918999,18498,0,0,48173.6760380667,63902.6021994505,44229.6387898783,59540.3368760640,73785.4975837678,53330.6379763533,40380.0837075200,68967.4911758779,30112.7621097787,18557.4898033291
7819918999,18498,0,0,48183.9334064884,63901.6774544920,44227.7284614771,59538.0128459708,73798.2980008255,53347.2347148198,40373.7321697784,68974.7066200939,30104.5489144232,18571.7990147928
7819918999,18498,0,0,48184.5417913296,63904.3786831867,44237.7546436592,59546.0191904803,73799.2957519650,53359.0982192221,40378.9764471091,68981.5326980116,30121.2794975548,18576.6174227347
7819918999,18498,0,0,48176.9369808153,63903.7094598614,44241.1250956791,59549.0732823828,73791.8491215094,53353.1360477789,40385.4861649094,68976.0328990476,30125.0514835699,18572.5655796927
7819918999,18498,0,0,48187.0605045719,63907.3962719988,44241.7699836108,59553.4901563296,73799.3200873586,53349.2423847956,40382.5659176719,68979.2208356152,30112.7986128692,18583.2853205937
7819918999,18498,0,0,48195.2736999274,63913.8329836181,44248.7177384967,59559.7930232838,73812.8627339226,53368.8080412868,40385.7295188459,68984.7693053665,30117.9455486253,18587.1059773961
7819918999,18498,0,0,48181.4876994270,63911.7523074614,44248.7907446776,59551.7501756839,73798.6873671239,53366.2163218636,40385.3644879412,68982.5304491511,30131.4395244020,18577.6881800551
7819974262,18499,0,0,48176.0852420376,63900.4363494161,44236.9759110625,59534.1435183811,73796.1321507910,53356.0562950164,40370.7267486632,68977.4200164854,30118.9919705521,18577.8950309011
7819974262,18499,0,0,48187.2916908116,63904.1961677343,44239.4581212144,59540.7627454528,73807.8496428315,53372.6286980892,40371.4689781694,68988.8576514990,30121.8270439118,18583.7355253761
7819974262,18499,0,0,48186.9144922101,63911.0587487425,44247.0507640319,59551.8475172585,73801.3399250313,53366.1798187731,40386.6664315012,68984.7571376697,30131.1961704655,18574.8287713017
7819974262,18499,0,0,48178.4944460086,63907.7004644194,44243.4491257723,59548.2093759084,73794.1244808153,53343.0003563254,40388.8809523230,68979.2695064025,30116.6801081557,18574.8774420890
7819974262,18499,0,0,48178.6891291578,63901.5192744333,44238.1075068671,59541.1034409638,73798.6265286397,53347.0887024579,40379.7916827963,68982.9684862367,30105.4979947754,18583.2244821096
7819974262,18499,0,0,48171.5466911227,63900.2903370542,44238.2900223194,59542.6487384603,73796.4241755148,53355.8737795641,40381.1544648404,68982.0802443686,30119.6003553932,18578.0532109598
7819974262,18499,0,0,48170.8653001006,63904.8045525755,44241.5631327648,59547.1507862848,73797.8842991335,53364.9022106067,40387.5181702788,68980.7539654149,30130.4296055656,18575.4736592334
7819974262,18499,0,0,48188.6301374621,63916.0718398335,44250.3968806582,59555.3518139435,73814.4201991159,53373.6386169255,40388.6862691738,68995.3430339056,30128.4706063772,18584.9644627553
7819985969,18500,0,0,48198.5954811601,63928.3612136247,44262.6984221462,59569.1743175343,73819.2751101483,53382.4358617285,40400.5376058794,69001.2321991679,30142.8528240219,18581.1316382560
7819985969,18500,0,0,48187.9365787432,63924.2485320986,44263.1364592318,59567.5073430696,73806.1826683668,53368.8445443773,40407.8625593668,68992.8729914506,30144.2156060660,18570.4362327487
7819985969,18500,0,0,48190.0659256872,63915.3052749337,44256.4563936760,59561.6181778073,73809.7599712327,53367.4452592427,40402.0585679822,68995.3430339056,30129.9063946023,18580.6814334736
7819985969,18500,0,0,48202.0511070578,63920.7929062008,44263.9151918285,59568.5537649964,73819.7496503244,53373.8576354684,40405.3195107308,69009.0438605283,30137.5963789944,18592.9708072648
7819985969,18500,0,0,48187.1213430561,63920.7685708072,44266.1540480439,59564.9521267368,73806.6937116334,53356.9080337940,40411.5372038073,68999.3948769477,30142.4999608140,18584.3439102173
7819985969,18500,0,0,48172.2280821448,63907.8343090844,44241.3076111315,59548.2702143925,73794.1609839057,53338.9728486770,40396.0233903581,68982.1167474591,30115.7918662876,18578.6494281041
7819985969,18500,0,0,48176.6206206979,63902.5048578760,44234.0678315218,59541.8821735605,73798.1519884637,53354.0121219501,40383.2838117844,68983.9175665889,30108.8562790986,18584.3682456109
