steady_timestamp,sequence,battery,flags,EEG-ch1,EEG-ch2,EEG-ch3,EEG-ch4,EEG-ch5,EEG-ch6,EEG-ch7,EEG-ch8,EEG-ch9,EEG-ch10
2062551910,16493,-2,0,27248.8756439565,55823.3610182885,27754.5772916148,52391.7784894951,60597.7340653713,42194.8713532682,46115.1450895614,50552.2295807122,53725.4919059546,2016.8565868868
2062551910,16493,-2,0,27168.3984971696,55822.2659255744,27754.0175775610,52375.5954527206,60599.2428597773,42205.1287216899,46090.7488574314,50538.2367293658,53724.8591857198,2025.1184530295
2062551910,16493,-2,0,27167.5102553015,55830.3452762648,27758.4466192045,52389.2476085559,60605.3023727951,42211.4072532505,46103.1964112812,50546.7784525356,53726.4896570940,2023.8286771663
2062551910,16493,-2,0,27258.7436460799,55832.2069338787,27763.6665611416,52414.8727780650,60600.8368280611,42202.8776977777,46140.6607497991,50570.5906352180,53729.7140967521,2011.0282601086
2062551910,16493,-2,0,27308.8988923841,55824.9306511786,27755.7575582066,52413.1449651162,60597.3081959825,42200.3468168385,46146.7689336042,50564.4216129288,53724.8713534166,2011.6001418592
2062551910,16493,-2,0,27254.9473246712,55824.8698126945,27746.3519285625,52395.1611092118,60604.2072800811,42211.5289302188,46118.8562370924,50544.3814162614,53722.5473233234,2023.5244847457
2062551910,16493,-2,0,27173.4359236543,55824.6751295453,27752.8373109691,52387.1791000960,60604.7548264381,42214.1936558230,46101.4442629387,50543.9190437822,53733.2670642244,2022.0278580365
2062551910,16493,-2,0,27169.1893974631,55822.5822856918,27759.8094012487,52393.5549732312,60602.0535977434,42206.7835284578,46110.9715695511,50556.1719144829,53736.3089884302,2016.9782638550
2062575765,16494,-2,0,27245.6025335112,55827.1816750909,27754.7719747640,52412.2445555513,60606.9571795631,42198.2296375913,46138.6895829138,50565.0908362541,53725.8326014656,2016.9539284613
2062575765,16494,-2,0,27304.4576830437,55827.1208366068,27747.0333195846,52420.8592849019,60602.6498148877,42190.3084669596,46150.7842735558,50568.9479961469,53720.6734980127,2015.9318419282
2062575765,16494,-2,0,27273.5882362039,55815.9508909233,27743.5655259901,52402.7780874230,60591.7962293217,42184.1151092767,46129.1744439982,50555.5026911576,53721.0871997047,2014.4838860063
2062575765,16494,-2,0,27182.5130254842,55811.1081475878,27739.3676705861,52382.3971952446,60591.5893784757,42192.0484476052,46097.0638920825,50533.0654582161,53717.6437415038,2021.8453425842
2062575765,16494,-2,0,27156.7418436132,55819.0414859163,27744.3564262835,52390.8537445365,60598.2816117283,42197.9132774739,46103.3789267336,50540.1348900702,53720.9655227364,2023.1351184474
2062575765,16494,-2,0,27231.1108065950,55818.4817718625,27749.0531572572,52409.1296251646,60590.9688259377,42183.8474199466,46136.8035899062,50561.3918564199,53722.5716587171,2010.3225336928
2062575765,16494,-2,0,27293.4702528126,55809.8427071182,27738.9296335005,52407.3409737316,60585.4933623674,42178.3597886794,46142.1087057210,50555.2106664338,53712.8009981682,2008.8259069836
2062575765,16494,-2,0,27261.6760610143,55810.1712349324,27730.4365811181,52390.3913720573,60589.4843669253,42192.9488571701,46116.8850702071,50535.1461343728,53707.3011992043,2017.1242762169
2062607270,16495,-2,0,27178.7653748627,55812.3005818764,27740.9251357795,52377.0677440361,60592.8669866421,42201.5635865208,46095.1170605908,50534.5620849253,53718.2156232544,2020.3122127845
2062607270,16495,-2,0,27151.2907154365,55813.7607054952,27752.9589879374,52381.1804255623,60592.0274155613,42202.0989651810,46097.0273889920,50541.2786535716,53721.8537646045,2020.0931942417
2062607270,16495,-2,0,27214.6722481872,55824.7846388167,27757.0229986762,52406.5014026508,60601.8345792006,42203.2670640760,46128.1888605556,50555.1741633434,53717.3152136895,2022.3077150634
2062607270,16495,-2,0,27288.7978572326,55826.2325947387,27753.9324036832,52421.6623528922,60600.1067662517,42190.5761562897,46151.5386707588,50566.4049475110,53714.1394448188,2012.9507562066
2062607270,16495,-2,0,27278.3336379649,55813.3226684095,27742.6894518188,52405.4184776336,60588.8151436000,42177.3620375399,46134.0293550306,50552.2904191963,53708.7004843389,2007.7916527537
2062607270,16495,-2,0,27188.0493275386,55808.4920927708,27730.9476243847,52380.3651898751,60588.1094171843,42187.0110211205,46097.2585752317,50526.9937775014,53703.1155114972,2015.9440096250
2062607270,16495,-2,0,27145.9977673185,55814.9288043902,27734.9386289426,52384.9159084869,60592.6601357961,42194.4941546667,46093.2310675833,50529.5611615311,53707.1065160551,2014.9097553951
2062607270,16495,-2,0,27205.3152893304,55814.8314628156,27741.7647068603,52403.7880062593,60585.2256730373,42178.2867824985,46122.2266891123,50552.0835683504,53708.8343290040,2002.8394001467
2062688995,16496,-2,0,27280.4386495152,55809.8670425118,27734.9751320331,52407.6086630617,60580.6749544255,42167.6035446879,46133.9563488496,50547.9465514306,53696.3016012763,2002.2310153056
2062688995,16496,-2,0,27272.1037771915,55807.5673478123,27727.3459861251,52396.1101895640,60581.3928485381,42174.0280886105,46119.2334356939,50532.3718994972,53690.7774669187,2011.6123095561
2062688995,16496,-2,0,27191.0425809571,55801.5443378849,27728.7817743502,52378.5765384422,60577.2193285278,42181.7424083962,46092.0873040819,50525.7161693350,53700.0979226851,2016.1143573806
2062688995,16496,-2,0,27142.9801785065,55800.3519035963,27732.7727789081,52372.6143669989,60576.1485712074,42184.7234941178,46082.1219603839,50525.7526724255,53705.0258398984,2018.5965675324
2062688995,16496,-2,0,27185.6157881740,55809.9522163896,27735.6200199647,52393.6036440185,60586.1382502990,42188.2521261965,46106.1044908219,50539.3561574736,53703.5413808860,2017.0391023391
2062688995,16496,-2,0,27271.6292370154,55813.1279852604,27738.0657270261,52411.9646985243,60585.9192317562,42177.3620375399,46133.3601317053,50555.7825481845,53706.0357587347,2005.0052501812
2062688995,16496,-2,0,27283.8699400193,55801.8120272150,27733.1864806001,52398.1908657208,60578.2657504546,42169.8545686002,46124.2343590881,50547.1069803498,53704.0280887589,1999.8583144251
2062688995,16496,-2,0,27196.5180445274,55797.1152962414,27723.3914846576,52370.5215231454,60579.4946878337,42181.7059053057,46083.8619410296,50519.0726068697,53699.1123392424,2008.2053544456
2062694049,16497,-2,0,27132.0535867595,55800.8751145597,27730.2905687562,52369.6332812773,60583.2788415456,42190.8681810134,46077.6929187404,50522.7350836134,53706.4007896394,2006.4410384063
2062694049,16497,-2,0,27166.1231378637,55800.2788974153,27736.4960941359,52384.2831882521,60574.9074661314,42176.2182740386,46102.8922188607,50541.5098398112,53707.2525284170,1992.7645471773
2062694049,16497,-2,0,27247.7805512425,55800.4614128677,27728.3802403550,52392.0826819156,60573.6906964491,42165.7662224677,46122.9080801344,50542.0938892587,53693.0406585278,1988.2503316560
2062694049,16497,-2,0,27263.6837309900,55800.1450527503,27716.6992514050,52389.1259315877,60574.4694290458,42164.8901482964,46118.9535786670,50531.9460301084,53685.5088541944,1993.8353044977
2062694049,16497,-2,0,27198.7447330460,55794.2437197912,27719.0719522855,52373.2957580210,60569.6631888007,42165.7053839836,46094.4600049624,50522.1875372564,53691.9942366010,2003.6059650466
2062694049,16497,-2,0,27136.1662682856,55792.4429006614,27724.1702172543,52364.6445255799,60569.5293441357,42170.9983321015,46076.5004844517,50513.9378388104,53694.8658130512,2014.5690598840
2062694049,16497,-2,0,27156.3889804053,55803.5398401639,27729.1589729517,52382.3850275478,60577.2436639214,42175.4760445324,46095.4212530114,50523.8666794180,53693.1136647087,2020.2513743004
2062694049,16497,-2,0,27248.5227807487,55807.5673478123,27733.3324929620,52406.1363717461,60574.0800627475,42165.0361606583,46132.2042005071,50545.4765089755,53695.3281855305,2012.4518806368
2062703331,16498,-2,0,27285.0015358238,55798.9282830680,27725.6303408730,52399.6753247332,60568.2152328788,42157.9302257137,46129.3691271474,50537.7500214929,53691.9820689042,2010.6875645975
2062703331,16498,-2,0,27215.5361546617,55794.1220428229,27715.3851401481,52374.2326706764,60570.9773000576,42171.9595801506,46092.3306580184,50511.0540946634,53687.5286918670,2017.9395119040
2062703331,16498,-2,0,27137.6872303885,55799.4514940314,27723.5740001100,52369.7671259424,60576.9881422882,42185.0641896289,46078.4716513370,50514.9234222531,53700.0127488073,2017.4406363343
2062703331,16498,-2,0,27152.6534974807,55800.9602884374,27734.2207348300,52380.9249039290,60573.1553177889,42182.8983395944,46094.5451788401,50533.1871351843,53706.7414851504,2007.3779510617
2062703331,16498,-2,0,27235.9778853242,55803.9170387654,27731.1909783211,52395.8059971435,60576.0755650264,42179.5522229681,46121.2289379728,50540.9866288478,53701.2051830960,2007.2806094871
2062703331,16498,-2,0,27276.0339432653,55805.6691871079,27726.9322844331,52399.6023185522,60580.0300664939,42180.5986448949,46128.5782268539,50540.6094302463,53700.2317673501,2009.5681364898
2062703331,16498,-2,0,27230.6727695094,55796.9571161827,27727.8083586043,52380.6693822957,60570.9529646640,42175.0136720531,46104.6200318095,50528.9649443868,53705.1231814730,2008.9110808614
2062703331,16498,-2,0,27150.2442935098,55794.1950490039,27728.2707310836,52362.2839923963,60570.8677907862,42178.4327948604,46076.5248198454,50513.8404972358,53704.1862688176,2013.6443149255
2062735987,16499,-2,0,27143.8075818904,55803.3086539243,27733.9895485904,52371.0203987151,60579.8110479511,42184.3219601227,46082.6330036505,50520.6787428503,53701.4242016388,2014.8854200014
2062735987,16499,-2,0,27227.5700068196,55805.6448517143,27739.1486520433,52393.3116192948,60575.9782234518,42169.1610098813,46114.8895679281,50541.9600445937,53701.4485370324,2003.1557602641
2062735987,16499,-2,0,27278.5526565077,55797.7358487793,27733.6245176857,52389.8924964875,60568.1665620915,42156.6039467600,46120.5597146476,50535.0487927982,53693.2718447674,2001.9268228850
2062735987,16499,-2,0,27225.2703121200,55793.0999562898,27719.7776787012,52366.2019907732,60567.3026556171,42164.4886143013,46088.9358706048,50506.0045004819,53682.8562962870,2010.2251921182
2062735987,16499,-2,0,27139.8044096357,55792.7714284756,27722.1260441880,52355.5309206595,60566.3779106585,42170.0857548398,46070.5869837958,50502.2568498604,53690.1569143807,2011.8191604021
2062735987,16499,-2,0,27132.3821145737,55789.5469888175,27728.8669482279,52358.6823541367,60558.1525476062,42162.6512920810,46076.5856583295,50509.9468342525,53691.2885101853,2005.2851072081
2062735987,16499,-2,0,27206.2278665921,55792.4915714487,27725.3383161493,52374.7558816398,60558.0187029412,42162.6391243842,46100.7385365230,50516.0306826640,53683.9878920915,2006.9155785824
2062735987,16499,-2,0,27260.8364899335,55794.0247012484,27718.5122382316,52381.8739842812,60559.9168636456,42161.7630502129,46110.2658431354,50519.3646315935,53682.8441285901,2007.8524912378
2062778307,16500,-2,0,27234.3352462531,55786.4807292181,27718.5122382316,52364.9487180005,60553.2367980898,42157.0906546329,46092.2819872311,50510.8594115142,53686.4457668497,2009.3612856438
2062778307,16500,-2,0,27148.9910207370,55782.6479047189,27718.1715427206,52344.0932856460,60555.8893559972,42167.1046691182,46059.9159136820,50491.1599103579,53684.6084446295,2018.6330706229
2062778307,16500,-2,0,27123.8282237071,55793.1364593803,27725.6546762667,52353.2920644441,60565.5140041841,42176.0479262831,46064.8316631985,50497.2559264662,53686.7864623608,2018.8885922562
2062778307,16500,-2,0,27201.5311356185,55797.5411656302,27737.0071374025,52380.2313452101,60565.8060289079,42162.1524165113,46101.8092938434,50524.0491948703,53690.6922930409,2004.5793807924
2062778307,16500,-2,0,27271.3493799885,55793.5136579818,27731.0449659592,52383.0177477825,60560.3062299439,42152.0288927546,46114.6097109012,50522.1023633786,53682.8197931965,2001.4279473153
2062778307,16500,-2,0,27247.3790172473,55793.6353349500,27719.0597845886,52369.9739767884,60564.3215698955,42162.1645842081,46096.8205381460,50503.4736195427,53680.3254153478,2010.3590367833
2062778307,16500,-2,0,27160.9153636235,55789.5348211207,27717.7821764222,52357.0275473687,60561.0971302374,42168.0902525609,46075.8799319137,50496.6110385346,53689.6702065078,2009.7141488517
2062778307,16500,-2,0,27129.5713766076,55787.4663126608,27724.2553911320,52358.1226400828,60555.5121573957,42168.5039542528,46076.9628569310,50503.3397748776,53694.7928068703,2006.4653738000
2062784140,16501,-2,0,27187.5261165752,55794.1707136102,27723.5131616258,52377.2137563980,60562.0462105896,42170.9983321015,46101.9918092958,50514.4123789865,53690.0474051093,2006.1490136826
2062784140,16501,-2,0,27264.2312773471,55800.2667297185,27724.2797265257,52394.4918858866,60566.8281154410,42168.1754264386,46123.1027632836,50526.5922435063,53693.2718447674,2001.8294813104
2062784140,16501,-2,0,27264.8274944914,55794.1463782166,27723.6713416845,52383.4679525650,60561.9975398023,42162.7973044429,46111.0445757320,50520.9342644836,53695.1091669877,2000.8438978678
2062784140,16501,-2,0,27179.1547411611,55788.4762314971,27719.4734862806,52356.5165041022,60563.1169679100,42171.4850399745,46074.1642866617,50497.4992804026,53690.7409638282,2011.1742724704
2062784140,16501,-2,0,27132.1144252436,55797.4194886620,27728.2950664773,52360.3979993887,60572.7416160969,42184.0542707926,46070.3071267688,50503.5466257236,53695.6932164352,2013.5956441382
2062784140,16501,-2,0,27186.1633345311,55803.9048710686,27740.8399619017,52384.1736789807,60572.4739267668,42175.8654108307,46104.9120565333,50532.4084025877,53702.7383128957,2002.3891953643
2062784140,16501,-2,0,27261.3718685937,55800.5587544423,27731.8723693432,52386.7897337977,60565.9033704825,42159.6702063594,46118.4425354004,50530.6927573356,53689.9257281411,1996.0011545322
2062784140,16501,-2,0,27253.4385302651,55798.8431091902,27718.9137722268,52370.3390076930,60566.5604261109,42163.7828878855,46100.6046918580,50508.9125800226,53680.3132476510,2001.3549411343
2062819625,16502,-2,0,27172.7301972386,55794.6574214831,27724.8637759732,52354.9103681216,60566.0372151475,42176.9726712416,46076.9871923246,50502.9869116698,53691.4101871535,2005.3216102986
2062819625,16502,-2,0,27125.8115582893,55797.0544577573,27737.6641930309,52354.3749894613,60571.0259708449,42182.8983395944,46073.9452681189,50510.6525606682,53702.1055926609,2009.9209996977
2062819625,16502,-2,0,27165.7581069590,55805.5840132301,27739.2946644052,52376.2160052585,60580.8574698778,42177.3620375399,46097.1125628698,50522.3457173151,53698.1875942839,2008.1201805679
2062819625,16502,-2,0,27254.2659336491,55810.3659180816,27735.8877092948,52396.3535435005,60582.0134010760,42162.6634597778,46124.9400855038,50536.3872394488,53693.0528262246,1995.9159806545
2062819625,16502,-2,0,27276.7883404684,55802.6029275085,27728.6966004724,52385.8041503550,60572.3279144050,42152.5642714148,46118.5033738845,50527.9063547632,53686.8351331481,1989.6252813970
2062819625,16502,-2,0,27200.5698875694,55797.7723518698,27720.4225666328,52360.0573038777,60572.4739267668,42160.1082434450,46080.5401597969,50500.6020430925,53680.7391170398,1997.3152657891
2062819625,16502,-2,0,27137.5898888139,55804.9634606922,27725.9345332936,52360.4466701760,60580.0422341907,42169.0271652162,46072.0714428082,50502.5853776746,53686.7742946640,1998.2400107476
2062819625,16502,-2,0,27169.2137328567,55806.2775719491,27735.6443553583,52377.5301165154,60578.6307813593,42163.6612109173,46098.6821957599,50525.9838586651,53695.6080425574,1987.0578973674
2062848439,16503,-2,0,27253.6088780206,55806.2045657681,27731.9940463114,52390.5617198128,60579.5920294083,42158.0640703788,46122.7864031662,50533.6981784509,53690.0717405030,1987.4959344530
2062848439,16503,-2,0,27272.9920190596,55806.8251183061,27721.8948579484,52387.0817585214,60581.9647302887,42156.6282821537,46116.8729025102,50525.2659645526,53686.0198974609,1994.7113786690
2062848439,16503,-2,0,27208.3572135361,55797.0057869700,27717.5266547890,52366.0803138050,60573.4108394222,42152.8562961385,46090.9070374901,50515.3127885514,53689.2443371190,1992.1804977298
2062848439,16503,-2,0,27139.8165773325,55787.3324679957,27715.8475126274,52352.4889964538,60565.5870103651,42158.9279768532,46071.1832009401,50504.5200414695,53689.6945419015,1989.3697597637
2062848439,16503,-2,0,27154.1866272804,55794.1463782166,27717.5388224858,52365.0947303624,60573.2769947572,42169.9762455684,46087.8651132843,50513.0009261551,53687.9910643463,1990.5986971428
2062848439,16503,-2,0,27242.9864786942,55799.2689785790,27720.0940388186,52387.0695908246,60571.7195295638,42159.2443369706,46122.5673846234,50533.9780354778,53691.0573239456,1983.4075883205
2062848439,16503,-2,0,27284.4174863763,55788.6344115558,27713.7303333802,52379.7689727308,60558.7487647506,42149.8387073265,46119.2942741780,50528.4295657266,53685.8617174022,1981.9474647017
2062848439,16503,-2,0,27221.2793075621,55780.8470855891,27705.4197964501,52354.7156849724,60557.2764734350,42159.8770572054,46080.5401597969,50498.0346590628,53676.7846155723,1994.4436893389
2062905925,16504,-2,0,27145.7300779884,55783.1832833791,27713.4018055660,52347.1595452453,60561.1458010247,42168.4917865560,46062.2764468657,50495.0414056444,53684.1460721502,1999.3837742490
2062905925,16504,-2,0,27157.4597377258,55782.3802153888,27726.0318748682,52357.1857274274,60557.3008088286,42162.1645842081,46076.1719566375,50511.6989825950,53691.5683672122,1991.1462434999
2062905925,16504,-2,0,27238.2775800237,55786.5172323086,27724.2797265257,52370.3146722994,60557.4711565841,42157.4070147503,46100.5316856770,50518.1965326985,53683.9878920915,1990.4161816905
2062905925,16504,-2,0,27276.8491789525,55789.5226534239,27716.2125435321,52374.7558816398,60562.9344524577,42158.9158091564,46105.8854722791,50515.7508256370,53682.1627375681,1991.8519699156
2062905925,16504,-2,0,27230.5510925412,55784.7772516629,27714.2170412531,52358.2321493542,60557.2886411318,42158.7454614008,46083.2657238853,50506.5885499294,53686.9081393290,1991.8398022188
2062905925,16504,-2,0,27149.4047224290,55780.1291914766,27716.7965929796,52340.7958398069,60556.0840391463,42165.0969991424,46058.3706161855,50495.1752503095,53690.0839081998,1996.9380671876
2062905925,16504,-2,0,27143.2478678366,55789.2792994874,27724.2797265257,52352.5133318474,60566.3414075681,42174.9406658722,46067.1191902012,50502.1230051954,53691.7995534518,2001.5496242835
2062905925,16504,-2,0,27229.0666335288,55797.0787931509,27733.1134744191,52380.9370716258,60569.8943750404,42165.5472039249,46106.5303602107,50530.0600371008,53700.2561027438,1994.2490061897
2062910797,16505,-2,0,27288.8830311104,55792.1630436344,27730.2297302721,52381.5332887702,60563.5063342083,42157.8572195328,46116.0576668231,50531.3741483577,53697.6035448364,1990.5621940524
2062910797,16505,-2,0,27247.3668495505,55791.6033295806,27718.0011949651,52364.7296994577,60568.8479531136,42171.1686798571,46092.5131734707,50507.7809842180,53692.6877953199,2001.2697672566
2062910797,16505,-2,0,27165.0888836337,55796.4947437034,27719.5099893711,52358.4390002002,60574.6032737109,42180.1241047188,46077.8024280118,50509.1072631717,53703.1520145876,2004.8957409098
2062910797,16505,-2,0,27155.3790615690,55795.2901417179,27726.8227751617,52367.9054683285,60571.4640079305,42176.1331001608,46091.4789192408,50525.9473555747,53711.2191975813,1998.5807062587
2062910797,16505,-2,0,27226.3897402277,55798.7092645252,27725.3018130588,52388.5053790497,60576.0025588455,42169.9519101748,46121.7156458458,50538.4192448182,53704.6121382064,1996.3053469528
2062910797,16505,-2,0,27285.1475481857,55799.9868726916,27719.0597845886,52399.4076354031,60576.4162605375,42163.0771614698,46137.1929562045,50539.3318220799,53698.9419914869,1993.3729320185
2062910797,16505,-2,0,27260.1550989114,55787.9773559273,27715.7623387496,52382.6892199683,60564.6987684970,42156.3362574299,46118.8805724860,50527.4683176775,53697.5183709586,1987.5811083308
2062910797,16505,-2,0,27174.3485009160,55781.0296010414,27712.5500667884,52360.4588378728,60559.6126712250,42161.8482240907,46086.5510020275,50506.3086929024,53693.8315588213,1995.4901112657
2062949638,16506,-2,0,27141.3253717385,55786.9674370910,27714.7524199133,52362.6976940882,60563.0196263354,42171.8014000919,46081.9272772347,50506.3573636897,53693.5882048848,1999.6879666696
2062949638,16506,-2,0,27208.9899337709,55788.8899331891,27722.5519135768,52383.2611017190,60559.7221804964,42161.3250131273,46112.2126746270,50528.8189320249,53698.1389234966,1990.4770201746
2062949638,16506,-2,0,27275.7540862384,55779.1192726402,27716.2855497130,52380.7788915671,60550.6085755760,42151.5908556690,46119.1969326034,50526.1663741175,53690.3029267426,1984.4905133377
2062949638,16506,-2,0,27251.4673633798,55776.1381869186,27705.7848273548,52362.8437064501,60556.0232006622,42166.4719488834,46095.2752406495,50505.6029664867,53686.9811455100,1996.5243654956
2062949638,16506,-2,0,27165.8676162304,55777.7443228993,27710.2625397857,52348.4249857149,60559.5761681345,42180.8906696186,46071.0250208814,50503.1450917285,53700.9739968563,2002.5717108166
2062949638,16506,-2,0,27134.1099275225,55778.8150802197,27721.4446531659,52350.7003450208,60558.4080692395,42180.3066201711,46072.3391321383,50514.0716834755,53709.2358629991,2000.9169040487
2062949638,16506,-2,0,27189.9353205462,55787.7461696877,27722.8074352101,52371.1907464707,60565.5383395778,42175.5612184102,46098.3780033394,50525.8865170906,53704.3931196636,2001.0872518042
2062949638,16506,-2,0,27265.9347549023,55792.6619192042,27720.0575357281,52387.4589571229,60569.6875241944,42164.0019064284,46120.4623730730,50535.3286498252,53698.3944451299,1995.6239559307
2062982302,16507,-2,0,27267.3340400369,55783.5848173743,27715.9935249893,52376.2281729554,60560.6104223645,42154.6936183588,46109.9981538053,50526.5557404158,53697.0559984794,1990.2701693286
2062982302,16507,-2,0,27183.0484041444,55775.7123175298,27710.3477136634,52349.9216124242,60556.8019332589,42164.7928067219,46072.0106043240,50500.4803661243,53690.4854421950,1998.8483955888
2062982302,16507,-2,0,27135.4727095667,55785.0692763867,27717.3563070334,52354.5210018232,60566.4509168395,42179.9294215696,46068.1169413407,50502.8165639143,53694.1965897260,2003.7033066212
2062982302,16507,-2,0,27187.3679365166,55790.9827770426,27726.1413841396,52375.3764341777,60566.1588921157,42170.1952641112,46100.3491702247,50529.7315092866,53699.1366746361,1992.8497210551
2062982302,16507,-2,0,27269.8162501888,55786.6754123673,27722.4789073959,52382.3363567605,60562.4964153720,42158.5994490390,46120.0121682906,50533.0046197320,53694.1479189387,1989.1385735241
2062982302,16507,-2,0,27268.2101142082,55786.2130398880,27711.8686757663,52372.7603793608,60567.8623696709,42167.3723584483,46107.1874158392,50516.9919307130,53688.5142753096,1997.0719118526
2062982302,16507,-2,0,27187.7816382085,55782.5383954475,27712.8055884217,52358.2808201415,60567.5338418567,42174.9771689627,46083.9106118169,50510.5917221841,53698.2362650712,2000.4545315694
2062982302,16507,-2,0,27135.5822188381,55782.1611968460,27723.5618324131,52355.2997344199,60566.9132893188,42178.0190931684,46081.0633707603,50516.5660613242,53705.4638769840,2000.6978855059
2063021357,16508,-2,0,27171.0753904706,55791.9683604853,27726.5064150443,52373.9163105590,60577.7303717944,42181.5355575502,46104.3523424794,50529.5733292279,53705.7315663141,2002.7663939658
2063021357,16508,-2,0,27257.6485533659,55797.3829855715,27725.1679683938,52394.5405566739,60577.8033779753,42171.0470028888,46133.0072684975,50545.3913350977,53703.4075362209,1995.9159806545
2063021357,16508,-2,0,27275.9852724780,55784.9232640248,27717.1859592779,52385.3782809662,60566.5969292014,42156.0198973125,46126.8382462082,50540.3052378257,53700.3169412279,1991.1340758031
2063021357,16508,-2,0,27196.4815414369,55774.5928894221,27706.3080383182,52353.9977908598,60561.0849625406,42157.7720456550,46085.0665430151,50510.0441758271,53692.1159135692,1999.2864326744
2063021357,16508,-2,0,27125.1301672672,55777.9876768357,27709.3621302208,52350.4569910844,60567.1444755584,42171.8622385760,46067.7762458297,50505.8463204232,53697.3601908999,2006.2098521667
2063021357,16508,-2,0,27152.8603483267,55779.4599681513,27718.3053873856,52365.5692705384,60562.6789308244,42167.1533399055,46089.7267708982,50527.2979699220,53702.5314620497,1995.0277387864
2063021357,16508,-2,0,27241.5993612564,55779.8858375401,27718.6217475030,52377.7491350582,60560.9024470882,42160.1812496260,46112.5168670476,50532.7856011892,53696.1920920049,1993.0322365074
2063021357,16508,-2,0,27262.8684953029,55783.0859418045,27709.1066085875,52373.9406459526,60564.0538805654,42158.4656043739,46107.9174776485,50519.0361037792,53687.9545612558,1999.4081096427
2063038843,16509,-2,0,27197.1264293686,55778.5717262832,27707.9020066020,52353.6084245615,60559.9046959487,42155.5453571364,46082.9128606774,50509.2776109272,53691.9820689042,2001.0020779265
2063038843,16509,-2,0,27122.8913110518,55772.6703933241,27710.3233782698,52336.0382703492,60551.6671651996,42157.7355425645,46062.7874901323,50500.6628815766,53690.4124360140,2000.1625068457
2063038843,16509,-2,0,27132.7836485688,55782.1976999364,27716.0178603829,52348.7413458323,60560.1723852788,42165.3160176852,46074.6753299283,50509.4601263796,53686.6769530894,2002.8759032372
2063038843,16509,-2,0,27219.4298176450,55789.4496472429,27718.5487413221,52373.7216274098,60564.2120606241,42157.0784869361,46110.4361908909,50530.7049250324,53685.6305311626,1993.2269196566
2063038843,16509,-2,0,27265.3872085453,55783.8890097948,27716.4437297717,52371.7626282213,60558.5784169950,42145.0689701719,46115.5222881629,50530.6197511547,53685.3628418325,1987.9704746291
2063038843,16509,-2,0,27205.5099724796,55776.8925841216,27705.0912686359,52347.8287685706,60558.7244293569,42153.5133517670,46079.9804457431,50503.4614518459,53679.3885026924,1993.7744660136
2063038843,16509,-2,0,27128.8048117077,55785.9210151643,27711.6983280108,52345.3708938124,60569.7118595880,42174.0645917009,46066.4012960887,50504.0455012934,53691.7022118773,1998.7388863174
2063038843,16509,-2,0,27141.2401978608,55788.1233682892,27722.5884166673,52361.8094522202,60566.9619601060,42166.3381042184,46085.3950708293,50524.0126917798,53700.3534443184,1989.4671013383
2063068343,16510,-2,0,27228.0202116020,55789.5348211207,27721.6636717088,52377.9194828137,60566.8037800473,42155.1681585349,46112.2370100207,50531.4228191450,53691.7143795741,1985.7802892010
2063068343,16510,-2,0,27269.9014240666,55790.9706093458,27708.7537453796,52378.0411597820,60567.3878294949,42152.1749051165,46112.6385440158,50523.9640209925,53680.9216324921,1988.7127041353
2063068343,16510,-2,0,27226.8277773134,55786.3590522499,27709.4594717953,52361.5904336774,60563.6401788734,42153.6715318257,46091.5884285122,50514.3150374119,53684.8031277786,1990.5986971428
2063068343,16510,-2,0,27143.5033894698,55781.9178429095,27713.4504763533,52342.7913420859,60558.8217709315,42162.8946460175,46064.4666322938,50503.2789363935,53688.4534368255,1999.6271281855
2063068343,16510,-2,0,27128.0747498984,55791.8345158202,27719.5586601584,52351.7224315539,60568.3612452407,42174.7338150262,46070.9641823973,50506.7710653817,53690.4246037108,2006.2585229540
2063068343,16510,-2,0,27210.7785852039,55799.6826802710,27726.8592782522,52379.9636558800,60569.8457042531,42165.0361606583,46109.3045950864,50530.0965401913,53694.6102914179,1996.5000301020
2063068343,16510,-2,0,27274.3426334069,55791.2869694632,27719.2301323442,52378.1871721438,60560.2088883693,42146.7481123334,46118.1383429798,50527.8090131886,53689.7918834760,1988.7492072258
2063068343,16510,-2,0,27232.8021164534,55784.4852269392,27703.3634556871,52354.7278526692,60559.0042863838,42150.4227567740,46088.0962995240,50499.0810809896,53676.8089509660,1995.1372480578
2063101382,16511,-2,0,27140.6926515037,55784.6190716042,27702.0736798238,52344.2879687951,60562.1678875578,42162.5296151128,46066.0727682744,50491.5492766562,53681.6151912110,1997.5586197256
2063101382,16511,-2,0,27124.6556270911,55785.6289904405,27713.3896378692,52352.7810211775,60559.7465158900,42161.0816591909,46073.4828956396,50506.5277114453,53687.8937227717,1990.5743617492
2063101382,16511,-2,0,27198.2093543858,55791.8710189107,27718.4148966570,52372.4196838498,60562.9587878513,42161.5318639733,46100.8237104008,50519.4619731680,53683.0144763457,1988.1408223846
2063101382,16511,-2,0,27263.8175756551,55798.7457676156,27714.7280845197,52382.8839031175,60570.8677907862,42160.0230695673,46116.0454991263,50520.6665751535,53681.7855389666,1990.2458339350
2063101382,16511,-2,0,27243.9963975305,55794.0247012484,27714.0223581039,52370.9838956247,60566.0007120570,42154.7909599334,46103.6587837605,50516.0550180576,53689.1956663317,1989.4062628542
2063101382,16511,-2,0,27152.8360129330,55786.3347168563,27712.8177561185,52347.4150668786,60563.9565389908,42162.6877951715,46070.5261453116,50497.4506096153,53691.5683672122,1994.6870432754
2063101382,16511,-2,0,27112.8042903856,55793.0512855025,27717.1129530970,52352.8296919648,60570.8312876957,42174.1254301850,46070.1002759228,50499.9084843736,53693.2353416769,1998.0574952953
2063101382,16511,-2,0,27185.7618005359,55799.2446431854,27727.2729799441,52379.5012834007,60572.4860944637,42166.2407626438,46110.1198307735,50529.0136151741,53695.9730734621,1988.3355055338
2063140924,16512,-2,0,27271.1060260520,55795.4361540798,27726.2630611078,52387.6293048784,60567.4365002821,42154.7179537524,46128.1888605556,50535.0852958887,53690.5827837695,1985.9871400469
2063140924,16512,-2,0,27257.5147087008,55794.4992414244,27715.9935249893,52372.3345099720,60571.7073618670,42159.0253184278,46106.9562295995,50511.6259764141,53683.1361533139,1998.2643461413
2063140924,16512,-2,0,27166.5611749493,55794.9737816005,27717.3198039430,52356.4191625276,60574.0435596570,42167.2385137833,46077.2548816547,50501.2104279336,53691.3371809726,2001.9633259755
2063140924,16512,-2,0,27122.5262801471,55790.6664169252,27722.1868826721,52354.5453372169,60566.9376247124,42160.2420881101,46073.1178647349,50506.7588976849,53696.7761414524,1995.2345896324
2063140924,16512,-2,0,27175.8937984125,55792.6497515074,27717.6118286667,52368.4286792918,60566.4874199300,42156.9446422711,46095.3604145273,50514.7652421944,53688.3317598573,1990.1484923604
2063140924,16512,-2,0,27259.4372047988,55795.6673403194,27711.9051788568,52381.5211210733,60568.3855806343,42157.2244992980,46120.3041930143,50522.4187234960,53683.2456625853,1987.2647482134
2063140924,16512,-2,0,27266.1537734451,55789.9363551158,27712.1728681869,52372.6752054831,60562.1435521642,42156.9081391806,46111.5921220891,50518.8779237205,53690.1204112903,1986.7537049468
2063140924,16512,-2,0,27180.2011630878,55785.7141643183,27714.5334013705,52347.9382778420,60563.4211603306,42170.5724627127,46075.9164350042,50497.2315910725,53693.5273664007,1998.2521784445
2063163309,16513,-2,0,27120.6159517459,55793.7813473119,27722.0773734007,52350.3231464193,60573.7028641460,42182.7888303230,46068.2021152185,50499.3122672293,53700.1465934724,2007.4266218490
2063163309,16513,-2,0,27170.7955334437,55800.2667297185,27732.2982387320,52374.0501552240,60573.5203486936,42172.6409711726,46104.1454916334,50528.9527766899,53707.6662301090,1996.2201730750
2063163309,16513,-2,0,27264.5598051613,55797.3829855715,27725.5938377826,52386.0475042915,60567.8745373678,42155.7522079824,46128.9675931522,50537.3119844073,53700.4994566802,1986.3886740421
2063163309,16513,-2,0,27276.6909988938,55797.5411656302,27712.1728681869,52378.8077246818,60572.3644174954,42159.1713307896,46117.2135980213,50522.5769035547,53692.0185719947,1992.4238516663
2063163309,16513,-2,0,27198.3797021413,55798.0400411999,27713.4748117469,52366.3480031351,60576.5987759898,42171.5337107618,46090.0431310156,50513.8770003263,53700.7306429199,1997.6437936033
2063163309,16513,-2,0,27140.3884590832,55795.5578310480,27723.6956770782,52362.4421724550,60574.1165658379,42172.6166357790,46081.8542710538,50518.3060419699,53707.1916899329,1995.4292727816
2063163309,16513,-2,0,27174.4336747938,55804.9634606922,27729.2928176167,52379.0754140119,60579.4338493496,42176.3886217941,46103.9386407874,50528.7337581471,53703.6630578542,1996.8772287035
2063163309,16513,-2,0,27266.3362888974,55813.3105007127,27730.7894443260,52402.4008888215,60586.8318090179,42170.7428104683,46136.6819129380,50545.2088196454,53701.7040586657,1992.0466530648
2063195180,16514,-2,0,27292.4238308858,55805.6205163206,27726.1900549269,52395.9520095053,60580.3220912176,42160.4976097434,46134.7715845368,50543.6756898457,53702.2151019323,1985.7681215041
2063195180,16514,-2,0,27212.0196902798,55795.2414709306,27718.1350396301,52365.0095564846,60574.6154414077,42168.4431157687,46094.5573465370,50513.0861000328,53694.6589622052,1993.8718075882
2063195180,16514,-2,0,27131.8954067008,55798.8796122807,27720.1305419091,52358.4876709875,60580.8209667874,42181.4260482788,46077.5955771658,50507.8174873085,53698.6743021568,2000.4058607821
2063195180,16514,-2,0,27157.7152593590,55805.7421932888,27734.3545794951,52378.1263336597,60579.8353833447,42175.6220568943,46103.0382312225,50532.6030857368,53709.8442478403,1994.3706831580
2063195180,16514,-2,0,27254.7891446125,55808.3095773185,27735.7173615393,52394.0173457105,60577.2801670119,42164.4764466045,46128.8094130935,50542.4954232539,53705.5612185586,1989.8442999398
2063195180,16514,-2,0,27288.2989816629,55812.6899481747,27724.8029374891,52392.2043588839,60582.1715811347,42164.4521112108,46125.1834394403,50530.6927573356,53695.6323779511,1993.9326460723
2063195180,16514,-2,0,27226.7791065261,55809.5020116071,27723.7565155623,52373.3930995956,60579.1418246258,42166.9951598468,46098.5483510949,50519.2551223221,53699.2461839075,1993.3242612312
2063195180,16514,-2,0,27151.0473615001,55802.3474058752,27731.3004875925,52357.7697768749,60574.3599197744,42167.5305385070,46076.2814659089,50511.5894733236,53701.9230772085,1991.8154668251
2063248124,16515,-2,0,27157.8977748114,55808.2000680471,27737.5911868500,52368.7207040156,60581.9525625919,42180.6959864694,46089.2035599349,50517.0284338035,53700.9131583722,1995.8064713831
2063248124,16515,-2,0,27248.7417992915,55817.9585608991,27744.4294324645,52395.9763448990,60590.7133043044,42180.8298311345,46126.3758737290,50540.2930701289,53706.0844295220,1991.3044235586
2063248124,16515,-2,0,27298.3738346322,55813.7242024047,27743.1639919949,52395.8790033244,60583.8872263868,42167.4575323261,46133.9076780624,50543.7121929362,53706.0357587347,1986.9970588833
2063248124,16515,-2,0,27240.1149022440,55806.8007829124,27733.9652131968,52370.5458585390,60579.5676940146,42168.7229727957,46098.3901710362,50516.2375335100,53700.3777797120,1998.4468615936
2063248124,16515,-2,0,27151.9477710650,55808.9422975533,27733.6975238666,52360.4101670855,60583.7290463281,42183.5432275260,46076.9263538405,50507.9269965799,53703.4805424019,2004.7618962447
2063248124,16515,-2,0,27155.8049309578,55813.8458793729,27744.5754448264,52376.7757193124,60583.2788415456,42180.1119370219,46097.3924198967,50530.3642295214,53711.9857624811,1994.0786584342
2063248124,16515,-2,0,27243.1933295402,55815.9752263169,27742.1784085522,52394.2363642533,60582.6704567045,42170.9496613143,46127.4709664430,50540.9987965447,53705.4395415904,1985.0867304820
2063248124,16515,-2,0,27292.7766940937,55821.6940438237,27732.4807541844,52401.4153053788,60590.2265964315,42173.9307470359,46134.2970443607,50537.4823321628,53699.9640780200,1989.2602504923
2063287317,16516,-2,0,27250.2384260007,55819.2605044591,27732.4199157002,52387.3129447610,60587.7930570669,42176.3642864005,46115.1085864709,50531.2403036927,53704.5756351159,1989.9173061208
2063287317,16516,-2,0,27166.3543241033,55814.0648979157,27738.9539688942,52369.4507658250,60586.7953059274,42181.1705266455,46089.7267708982,50523.8180086307,53709.8199124466,1996.1958376814
2063287317,16516,-2,0,27146.2532889518,55820.1365786304,27744.4050970708,52374.6707077620,60592.5749619183,42185.0885250225,46092.8660366786,50525.5336538827,53706.6076404854,2000.7587239900
2063287317,16516,-2,0,27219.7583454592,55824.3952725184,27747.1184934624,52397.0957730067,60590.7254720013,42173.6630577058,46124.0031728485,50544.4422547455,53704.9650014143,1989.2359150987
2063287317,16516,-2,0,27285.6585914523,55814.1865748840,27740.0490616082,52397.1809468845,60578.1440734863,42157.6503686868,46131.9243434802,50542.1668954397,53698.2240973744,1983.3102467459
2063287317,16516,-2,0,27250.5547861181,55805.1824792350,27725.7033470540,52371.2515849548,60571.1719832068,42163.0041552889,46101.0427289436,50511.4312932649,53686.2145806101,1994.5288632167
2063287317,16516,-2,0,27160.7206804743,55804.9391252985,27725.0584591224,52358.6215156526,60573.4595102095,42177.0821805130,46075.6122425836,50498.2293422120,53690.3515975299,2001.3914442248
2063287317,16516,-2,0,27140.4371298705,55803.8440325845,27732.6632696367,52363.9996376483,60568.9209592945,42170.2682702922,46082.0732895966,50511.8084918664,53697.7860602887,1993.8961429819
2063294423,16517,-2,0,27206.3252081667,55803.1748092592,27731.7993631623,52379.9514881832,60569.9430458277,42162.6877951715,46109.9981538053,50523.5989900878,53693.2840124642,1990.4405170841
2063294423,16517,-2,0,27267.5895616702,55806.3019073427,27721.9070256452,52387.3007770642,60574.8709630410,42157.7963810487,46122.3970368678,50524.1952072322,53686.3970960625,1992.5090255440
2063294423,16517,-2,0,27246.8679739807,55797.8575257476,27715.7258356592,52373.0767394782,60571.9142127130,42149.0843101234,46107.1144096582,50519.2186192316,53689.0983247571,1988.3963440179
2063294423,16517,-2,0,27160.9762021076,55787.8435112623,27712.5500667884,52346.4538188296,60564.2485637145,42156.1294065839,46071.8524242654,50501.5876265351,53686.1902452165,1989.2724181891
2063294423,16517,-2,0,27124.1689192182,55796.9571161827,27718.4635674443,52349.6417553972,60571.1354801163,42171.0713382825,46069.6865742309,50501.9891605303,53686.8351331481,1997.2300919113
2063294423,16517,-2,0,27188.2805137783,55807.2023169076,27733.2716544778,52377.0312409457,60573.9705534761,42167.0925014214,46104.4496840540,50528.4660688170,53692.9676523468,1991.8519699156
2063294423,16517,-2,0,27265.1560223056,55803.6006786480,27733.1499775096,52384.3683621299,60564.6866008002,42152.5034329307,46123.3096141296,50533.3331475462,53691.7143795741,1986.6563633722
2063294423,16517,-2,0,27249.3988549199,55797.9061965349,27718.5730767157,52368.3435054141,60564.3824083796,42156.6282821537,46101.0548966404,50511.9666719251,53682.9901409520,1995.1980865419
2063319698,16518,-2,0,27165.8067777463,55797.5898364175,27715.7866741433,52353.5962568647,60568.2760713629,42167.4453646293,46076.2449628184,50501.9404897430,53688.3682629478,2000.9047363519
2063319698,16518,-2,0,27127.5393712381,55793.3554779231,27722.2720565499,52351.2600590747,60561.3891549611,42158.1979150438,46073.4707279428,50508.3772013623,53695.0969992909,1994.8817264245
2063319698,16518,-2,0,27171.6351045245,55790.4473983824,27718.8772691363,52360.7751979902,60558.4689077236,42152.5642714148,46091.3694099693,50512.9035845805,53687.3218410210,1991.1462434999
2063319698,16518,-2,0,27241.9157213738,55792.5645776296,27712.6352406661,52372.7847147545,60560.0263729170,42148.1473974681,46108.4528563088,50514.6800683166,53679.8995459590,1990.8177156857
2063319698,16518,-2,0,27245.6998750857,55785.0936117803,27708.4617206559,52363.5250974722,60552.9326056692,42138.8999478826,46098.5970218822,50506.9657485309,53677.7093605309,1986.6198602817
2063319698,16518,-2,0,27167.9604600840,55772.2931947226,27700.0660098480,52338.1432818995,60543.5878145092,42137.6466751099,46063.1160179465,50480.4888402442,53672.4285801097,1988.5180209861
2063319698,16518,-2,0,27110.2369063559,55774.1791877301,27698.7153955007,52336.1356119238,60549.1362842604,42149.6318564805,46053.8685683610,50472.5068311283,53669.3136497230,1991.4139328300
2063319698,16518,-2,0,27155.4155646595,55779.8128313592,27708.1940313258,52360.8603718680,60549.8298429793,42147.8797081380,46085.4802447070,50496.4528584759,53674.1685607554,1980.3778318116
2063382046,16519,-2,0,27241.5993612564,55777.2332796327,27709.0579378002,52373.5756150480,60542.8334173062,42136.2717253689,46108.2460054628,50506.2600221152,53669.4718297817,1974.8902005444
2063382046,16519,-2,0,27245.5903658143,55774.5563863316,27699.7983205179,52362.0771415503,60542.6874049443,42136.3812346403,46095.2265698622,50488.3978431791,53660.0540324408,1985.1719043598
2063382046,16519,-2,0,27171.7689491895,55772.5730517495,27701.7694874032,52345.5047384774,60544.0745223821,42143.0491324993,46070.3192944657,50479.2112320778,53664.7994342017,1992.5211932409
2063382046,16519,-2,0,27117.3428413005,55767.3531098125,27709.3742979176,52338.7151636502,60537.4552953104,42145.1784794433,46059.9037459852,50483.5794352372,53673.0004618604,1989.7347906684
2063382046,16519,-2,0,27141.3132040417,55770.6262202578,27709.6298195509,52348.8751904974,60539.8279961909,42143.5115049785,46076.1111181534,50490.2595007930,53668.9364511215,1989.1872443114
2063382046,16519,-2,0,27220.9751151415,55778.0363476230,27705.9308397167,52368.1853253554,60547.2259558592,42137.4033211734,46102.9408896480,50505.4326187312,53665.6998437666,1985.0745627852
2063382046,16519,-2,0,27248.5227807487,55770.8695741943,27699.8226559116,52365.6422767194,60540.8014119367,42128.7399210355,46102.7705418924,50506.3573636897,53664.8846080795,1978.7351927405
2063382046,16519,-2,0,27185.8348067169,55762.9727389562,27693.8483167715,52340.8323428974,60537.5039660977,42135.5903343468,46067.9952643725,50483.9566338387,53661.1856282453,1988.8830518908
2063388795,16520,-2,0,27117.9025553544,55770.4072017150,27699.0925941022,52336.1477796206,60547.1286142847,42153.1239854687,46052.4814509232,50479.0165489286,53662.8282673164,1995.8064713831
2063388795,16520,-2,0,27142.8706692351,55778.6082293737,27713.8033395611,52355.4335790849,60547.5301482798,42149.9117135074,46074.6509945346,50502.0743344081,53672.4529155034,1987.0822327610
2063388795,16520,-2,0,27227.8133607560,55779.6303159068,27715.6163263878,52368.9640579520,60544.9384288565,42138.5714200684,46099.5826053248,50512.0275104092,53668.3889047645,1982.4341725746
2063388795,16520,-2,0,27251.6863819226,55777.8294967770,27702.7794062396,52365.0338918782,60548.3575516638,42144.1928960006,46094.7276942925,50499.8719812831,53660.1878771058,1988.9925611622
2063388795,16520,-2,0,27193.6464680772,55774.5077155444,27700.7595685669,52349.5200784290,60549.3796381969,42150.4957629549,46071.1710332433,50490.4176808517,53668.3280662804,1993.4337705026
2063388795,16520,-2,0,27124.9598195117,55768.2900224678,27706.0646843817,52338.9828529803,60545.5954844850,42152.6372775957,46055.5720459163,50489.5781097709,53677.5755158658,1991.6451190696
2063388795,16520,-2,0,27124.8016394530,55770.1151769913,27707.5491433941,52345.5412415679,60548.2967131797,42155.5210217428,46062.7144839513,50492.0359845291,53676.6751063009,1993.0809072947
2063388795,16520,-2,0,27201.7744895549,55776.0530130409,27709.0822731938,52368.9762256489,60551.3264696886,42147.3199940841,46096.7596996619,50509.8129895875,53674.9351256552,1988.5423563798
2063412621,16521,-2,0,27246.8071354966,55768.2291839837,27705.4197964501,52368.8058778934,60541.9573431349,42135.4199865913,46103.4519329145,50513.8404972358,53673.2924865841,1983.1033958999
2063412621,16521,-2,0,27198.3431990508,55759.0425728824,27696.1723468647,52343.8986024968,60538.5625557213,42141.7715243328,46072.5824860747,50489.2374142599,53667.6710106519,1993.1904165661
2063412621,16521,-2,0,27119.8007160588,55764.7370549955,27698.3138615055,52336.8413383395,60545.9240122992,42159.2686723642,46051.4593643901,50483.0805596674,53671.7593567845,2001.1237548947
2063412621,16521,-2,0,27118.6569525574,55767.0854204824,27709.3742979176,52349.5687492163,60547.0556081037,42152.8197930481,46066.2674514236,50501.8431481684,53680.3132476510,1992.8132179646
2063412621,16521,-2,0,27196.0191689577,55766.4892033380,27708.0358512671,52363.7197806214,60544.7315780105,42139.0824633350,46091.6492669963,50512.3195351330,53675.7016905551,1986.8875496118
2063412621,16521,-2,0,27240.8084609629,55766.6838864872,27697.4742904248,52364.1578177070,60548.0898623337,42137.2938119020,46094.8737066544,50504.2036813521,53667.6466752583,1990.2701693286
2063412621,16521,-2,0,27202.0300111882,55761.9749878167,27693.3007704145,52349.5930846099,60544.8045841915,42140.8346116775,46073.4220571555,50496.6962124123,53671.0657980655,1991.0489019253
2063412621,16521,-2,0,27125.9210675607,55758.3611818603,27699.9686682735,52332.4366320896,60543.9041746266,42149.1573163044,46049.2326758715,50489.6511159518,53679.5953535384,1995.1615834514
2063442892,16522,-2,0,27106.1120571329,55764.4693656654,27707.1962801863,52335.3568793271,60552.3485562217,42160.1690819291,46049.5368682921,50491.3180904166,53677.6971928340,1996.4756947083
2063442892,16522,-2,0,27174.8230410921,55772.3175301162,27711.0169369887,52360.0329684840,60554.1737107451,42148.8044530965,46082.9493637679,50509.8859957684,53676.6507709073,1984.0524762521
2063442892,16522,-2,0,27238.1072322682,55764.3233533035,27702.3657045476,52362.1744831249,60542.8820880934,42128.9832749719,46093.5717630943,50513.6823171771,53670.6764317672,1965.8617695018
2063442892,16522,-2,0,27205.8871710811,55754.2363326373,27686.7180464333,52341.8422617337,60536.6400596233,42132.4389008696,46066.9488424457,50488.7507063869,53661.0031127930,1966.7135082794
2063442892,16522,-2,0,27122.2220877265,55761.4396091565,27691.5851251624,52331.5483902215,60546.9947696196,42150.1550674438,46046.9451488688,50480.6956910901,53666.1257131554,1977.0317151853
2063442892,16522,-2,0,27103.2161452891,55769.4216182724,27708.0358512671,52340.0901133912,60550.6207432728,42156.1902450680,46057.5797158920,50500.7723908480,53679.4980119638,1977.2872368185
2063442892,16522,-2,0,27172.6085202703,55781.1877811001,27717.9890272682,52361.7607814329,60560.9632855723,42158.0519026819,46089.2035599349,50520.4475566107,53682.6129423505,1986.1696554993
2063442892,16522,-2,0,27241.9157213738,55796.2878928574,27718.0498657523,52377.3597687599,60577.0854838627,42165.9487379200,46108.9030610912,50526.8355974427,53683.6836996709,2001.4036119216
2063501974,16523,-2,0,27232.5100917297,55795.1684647497,27715.1782893021,52370.9352248374,60576.6231113835,42157.2975054789,46099.4244252661,50523.5989900878,53689.7188772951,2004.9079086066
2063501974,16523,-2,0,27152.4101435442,55783.4266373156,27710.2747074825,52346.3564772550,60566.6212645950,42153.3065009210,46065.7564081571,50504.0211658997,53688.5386107033,2007.3414479712
2063501974,16523,-2,0,27110.0543909036,55786.3347168563,27708.9119254383,52344.6651673966,60570.4054183069,42164.6954651473,46058.3949515792,50500.1153352196,53683.8175443360,2011.4906325878
2063501974,16523,-2,0,27162.5823380882,55792.6132484169,27716.9426053415,52369.0248964362,60571.5613495051,42159.2930077579,46088.5465043064,50520.4353889139,53685.9225558864,2002.2431830024
2063501974,16523,-2,0,27239.6768651584,55785.1301148708,27715.2877985735,52378.4791968676,60559.8073543742,42139.4596619365,46108.1121607977,50526.8964359269,53680.9946386731,1991.5234421014
2063501974,16523,-2,0,27228.9449565605,55773.7046475540,27701.6356427382,52361.6634398583,60553.0542826374,42138.0360414082,46089.1183860571,50501.2469310241,53668.1455508280,1996.9989056717
2063501974,16523,-2,0,27144.0387681301,55768.6915564630,27696.6225516471,52343.8864348000,60552.3242208280,42147.9162112284,46062.1912729879,50484.5650186798,53669.5570036595,2001.3914442248
2063501974,16523,-2,0,27107.4261683898,55766.6473833967,27707.3301248513,52344.7138381839,60550.0853646126,42149.9725519915,46063.5297196385,50496.0634921775,53679.9968875336,1997.2057565177
2063510747,16524,3,0,27156.1699618625,55770.7113941356,27711.7104957076,52359.2177327969,60553.1516242120,42151.7977065149,46084.7380152008,50509.0099215971,53678.9261302132,1996.7068809480
2063510747,16524,3,0,27234.3109108595,55780.8957563764,27712.1607004900,52376.1551667744,60560.5252484867,42154.7179537524,46106.3965155457,50516.2983719941,53676.7116093914,2001.7443074327
2063510747,16524,3,0,27246.6124523475,55778.9854279752,27714.4238920991,52369.3534242504,60557.7266782174,42151.3961725198,46100.6290272516,50513.9378388104,53680.7026139493,2000.4058607821
2063510747,16524,3,0,27171.0632227738,55773.1692688938,27715.7015002655,52342.8886836605,60553.8451829309,42157.7842133518,46065.8294143380,50494.7250455270,53682.3574207172,2006.5870507682
2063510747,16524,3,0,27110.5289310797,55783.1102771982,27720.3982312392,52339.5547347310,60564.7717746779,42168.5282896465,46050.4129424633,50488.8602156583,53682.4912653823,2012.9020854193
2063510747,16524,3,0,27147.3362139691,55791.2017955854,27729.0007928930,52362.3935016677,60567.1444755584,42161.5683670638,46077.4617325007,50512.4047090107,53687.0176486004,2003.0340832959
2063510747,16524,3,0,27233.2401535390,55787.2837972084,27723.8051863496,52372.2980068815,60558.2012183935,42143.9130389737,46101.2617474864,50522.6742451293,53681.0676448540,1993.9934845564
2063510747,16524,3,0,27244.7872978240,55782.2707061174,27708.7294099860,52362.1866508217,60557.6658397333,42147.3321617809,46091.1138883361,50504.9337431615,53671.5768413321,2000.3328546012
2063538300,16525,3,0,27171.2092351357,55777.8294967770,27707.0381001276,52346.7093404629,60561.4134903548,42157.5773625058,46064.8073278049,50492.8390525194,53675.3488273472,2006.3193614381
2063538300,16525,3,0,27111.2224897986,55773.7533183413,27717.0277792192,52341.5989077973,60556.7045916843,42155.3993447745,46055.2191827084,50497.6817958550,53682.7711224092,2002.7055554817
2063538300,16525,3,0,27135.9594174396,55776.6979009725,27720.4347343296,52354.5575049137,60560.6955962422,42154.3894259382,46075.1255347107,50506.0166681787,53680.7512847366,2002.7055554817
2063538300,16525,3,0,27220.7682642955,55788.7560885240,27719.9236910631,52379.1849232833,60570.2229028546,42159.1713307896,46108.5501978833,50520.3380473393,53677.8067021055,2002.0971706405
2063538300,16525,3,0,27254.4241137078,55786.2860460690,27714.5212336737,52379.2457617674,60566.1832275094,42151.7977065149,46113.0887487983,50523.8910148116,53680.3254153478,1998.3130169286
2063538300,16525,3,0,27194.6807223071,55778.3162046499,27708.0358512671,52356.7841934323,60561.4864965357,42153.0388115909,46082.5234943791,50503.1329240317,53679.6075212353,2005.2607718145
2063538300,16525,3,0,27117.6713691147,55782.1490291492,27710.0435212428,52350.7246804145,60569.5658472262,42167.4088615388,46064.7464893208,50494.5425300747,53680.0577260177,2011.7461542211
2063538300,16525,3,0,27132.3942822705,55789.4374795461,27722.6979259387,52369.5116043091,60569.6023503166,42164.4642789076,46086.6118405116,50515.4222978228,53689.3660140873,2002.5838785134
2063568632,16526,3,0,27221.2063013812,55790.1188705682,27724.7664343986,52383.9668281347,60563.6523465702,42148.8896269743,46112.3830223826,50527.1884606506,53688.4047660382,1994.7722171531
2063568632,16526,3,0,27250.6886307831,55786.8092570323,27710.0435212428,52374.4395215224,60561.9975398023,42145.8477027685,46104.3645101763,50508.2676920909,53673.8400329412,1997.9479860239
2063568632,16526,3,0,27193.6951388645,55783.4144696187,27704.0813497996,52357.4777521512,60560.1480498852,42150.9094646469,46077.2548816547,50495.3455980650,53673.9495422126,1999.9556559997
2063568632,16526,3,0,27119.8372191492,55776.6127270947,27710.2260366952,52346.3808126487,60556.1205422368,42155.8130464665,46060.0010875598,50492.8633879131,53682.0288929030,1998.6050416523
2063568632,16526,3,0,27121.2608396775,55781.9908490905,27715.3851401481,52357.4412490607,60563.9322035971,42163.5517016459,46072.0957782018,50502.0865021049,53681.6151912110,2004.3481945528
2063568632,16526,3,0,27202.8574145722,55790.1310382650,27716.3463881971,52383.5652941396,60571.3666663560,42157.5043563249,46105.4230997998,50522.7107482198,53680.2280737732,2002.0728352469
2063568632,16526,3,0,27256.9914977374,55786.3347168563,27716.2490466225,52388.3715343846,60566.0737182380,42143.5966788563,46118.3086907353,50531.2403036927,53681.8585451475,1996.1836699846
2063568632,16526,3,0,27211.1679515022,55776.9899256962,27706.5757276483,52362.3691662740,60561.6325088976,42144.7039392672,46087.6947655288,50504.6295507409,53674.1807284522,2002.2796860929
2063613093,16527,3,0,27123.1468326851,55782.2463707237,27707.4761372132,52350.7490158081,60565.8303643015,42158.7941321881,46062.9700055846,50490.8800533310,53674.2902377236,2011.1256016831
2063613093,16527,3,0,27119.3505112763,55788.0868651988,27718.9259399236,52363.8779606801,60565.4775010937,42156.4701020950,46078.1917943101,50506.6615561103,53682.7224516219,2002.8637355404
2063613093,16527,3,0,27206.1548604112,55788.2937160447,27723.0507891466,52382.4336983351,60561.8515274404,42145.4948395607,46108.6718748516,50520.7274136376,53680.3132476510,1994.6383724881
2063613093,16527,3,0,27260.8243222367,55789.0359455509,27713.1949547200,52384.3075236458,60563.3846572401,42145.8233673749,46112.2491777175,50511.0297592697,53670.6642640704,1998.6293770460
2063613093,16527,3,0,27228.7746088050,55785.1909533549,27709.4838071890,52370.1078214534,60560.4279069121,42146.8941246953,46094.0098001799,50500.5047015179,53674.0712191808,2000.0529975743
2063613093,16527,3,0,27145.2920409028,55774.8849141459,27710.0313535460,52350.0432893924,60551.6549975028,42144.4362499371,46066.8393331743,50488.1666569394,53677.0036341151,1998.6658801365
2063613093,16527,3,0,27116.9899780927,55774.9700880236,27709.1309439811,52349.1672152211,60553.3341396644,42150.5687691358,46064.1867752669,50485.6844467876,53673.3046542810,2000.1746745425
2063613093,16527,3,0,27185.4332727217,55783.2441218632,27711.0412723823,52375.1209125445,60558.6149200855,42147.9283789253,46098.4631772171,50506.0410035723,53674.8012809902,1993.6649567422
2063638629,16528,3,0,27258.0014165737,55779.6911543909,27712.3797190329,52381.8009781003,60551.0831157521,42135.3834835008,46115.3519404074,50515.2032792800,53675.3731627409,1988.4936855925
2063638629,16528,3,0,27232.3640793678,55772.2201885416,27705.0425978486,52359.2055651001,60547.4693097957,42139.9342021126,46088.6803489715,50492.5226924021,53668.0725446471,1999.2012587967
2063638629,16528,3,0,27141.6904026432,55777.7808259897,27709.9705150619,52345.2978876314,60555.5729958798,42158.3439274057,46059.1980195695,50478.9922135349,53672.9396233763,2012.0625143385
2063638629,16528,3,0,27111.3563344636,55782.6235693253,27724.4865773717,52352.8783627521,60556.5464116256,42155.8860526475,46064.2111106605,50493.4596050574,53684.3407552994,2007.2076033062
2063638629,16528,3,0,27172.6206879671,55780.8714209828,27726.1900549269,52366.3480031351,60552.8474317914,42145.0689701719,46089.5077523554,50508.7057291766,53679.5953535384,2000.1138360584
2063638629,16528,3,0,27241.9157213738,55783.8281713107,27717.0642823097,52374.4151861287,60556.8992748335,42142.6719338977,46101.2617474864,50506.2356867215,53669.9220345642,2004.2143498877
2063638629,16528,3,0,27232.5587625170,55780.1413591734,27712.3918867297,52367.9054683285,60553.7113382659,42141.2848164599,46092.1846456565,50500.8697324226,53673.6088467015,2003.4964557752
2063638629,16528,3,0,27153.0793668695,55771.3076112799,27711.7956695854,52348.2059671721,60547.1164465878,42146.1518951891,46064.1137690860,50487.6921167633,53675.8598706138,2004.9809147876
2063660756,16529,3,0,27107.8277023850,55772.8894118669,27712.2580420646,52348.3641472308,60550.9127679966,42156.0198973125,46058.9790010267,50484.6136894671,53672.8666171953,2007.4996280299
2063660756,16529,3,0,27160.6476742934,55777.6226459310,27714.4360597959,52371.7017897372,60552.4824008867,42148.9017946711,46089.9822925315,50503.2302656062,53673.6331820952,1995.5996205371
2063660756,16529,3,0,27244.9211424891,55771.7456483655,27708.8997577415,52379.8541466086,60541.7261568953,42130.1392061701,46111.8476437224,50513.7066525708,53669.8125252928,1980.6820242321
2063660756,16529,3,0,27242.0252306452,55763.4229437387,27694.9677448792,52362.6611909978,60538.0880155452,42131.6845036666,46091.4302484535,50491.8656367736,53659.4943183869,1985.6464445359
2063660756,16529,3,0,27156.2064649530,55769.9691646294,27695.6856389918,52348.7778489228,60547.9195145781,42149.7291980550,46063.8825828463,50480.2454863077,53668.4619109454,1996.9258994908
2063660756,16529,3,0,27110.1152293877,55774.6902309967,27714.0710288912,52350.0311216956,60550.5842401824,42150.7391168914,46065.0020109540,50492.7052078544,53682.2965822331,1999.0552464348
2063660756,16529,3,0,27152.7630067521,55775.3837897156,27716.9791084319,52363.1844019612,60548.1628685146,42137.9508675304,46084.3608165993,50502.0134959239,53677.9405467705,1997.7289674811
2063660756,16529,3,0,27231.0621358077,55777.6713167183,27707.0989386117,52375.8023035665,60550.9127679966,42134.6534216914,46100.4343441024,50504.0089982029,53666.7462656934,1997.2909303955
2063694505,16530,3,0,27244.0937391051,55772.4513747813,27700.4553761464,52368.6476978347,60545.2061181866,42131.2708019746,46092.5496765612,50501.9891605303,53668.5470848232,1993.8231368009
2063694505,16530,3,0,27166.9018704604,55761.0745782518,27698.3868676865,52339.1045299486,60537.6134753691,42132.9012733489,46058.9546656330,50481.7907838042,53668.7539356692,1998.0088245080
2063694505,16530,3,0,27098.7019297678,55763.3256021641,27702.3535368507,52331.8039118548,60541.4949706556,42147.7093603824,46043.9762308440,50470.9006951477,53669.2284758453,2006.9642493697
2063694505,16530,3,0,27130.3501092042,55770.7235618324,27714.3630536150,52355.4579144786,60543.8068330520,42142.6110954136,46072.8136723144,50493.8368036589,53673.4141635524,2002.1701768215
2063694505,16530,3,0,27223.2991452347,55768.3630286488,27716.2733820162,52373.1740810528,60538.2218602103,42125.4059721060,46105.5569444649,50510.4457098222,53673.7061882761,1993.8353044977
2063694505,16530,3,0,27244.2154160733,55764.6518811178,27703.4486295648,52364.4498424307,60541.3611259906,42130.9787772509,46098.1954878870,50501.2956018114,53667.0382904171,1999.7001343664
2063694505,16530,3,0,27170.1993162994,55765.2846013526,27699.3967865228,52348.8630228005,60546.6540741086,42147.0158016635,46070.4409714339,50489.2374142599,53674.1563930586,2008.9475839518
2063694505,16530,3,0,27104.2260641254,55765.0899182034,27709.3012917367,52344.6408320030,60545.8023353310,42149.7900365392,46059.0885102981,50495.7227966665,53687.1514932655,2007.1711002157
2063729370,16531,3,0,27125.6047074433,55769.2512705168,27716.2855497130,52356.0662993197,60549.0389426859,42151.8828803927,46075.4297271313,50503.6926380855,53688.3560952509,2006.2706906508
2063729370,16531,3,0,27212.6037397273,55779.4721358481,27715.7501710528,52376.4715268918,60556.5950824129,42150.9946385246,46102.7462064988,50514.8382483753,53683.8783828201,2003.5329588656
2063729370,16531,3,0,27253.9252381380,55777.5131366596,27714.5090659769,52375.2304218159,60550.4625632141,42142.3069029931,46104.8025472619,50517.2231169526,53688.2830890700,1995.3684342974
2063729370,16531,3,0,27192.4175306981,55766.6595510936,27709.9583473651,52348.7900166196,60543.5026406314,42143.5115049785,46071.8767596590,50492.8633879131,53687.4070148988,2000.0043267870
2063729370,16531,3,0,27105.9173739838,55768.0101654409,27709.6298195509,52341.0756968339,60549.3796381969,42155.9833942220,46050.8266441553,50479.2842382587,53687.4313502924,2009.6046395803
2063729370,16531,3,0,27112.7434519014,55773.0354242288,27717.9646918746,52362.9410480247,60551.0101095712,42150.6296076199,46074.3833052045,50501.6119619288,53693.1501677992,2003.6911389243
2063729370,16531,3,0,27205.5343078732,55767.3166067220,27714.3022151309,52381.6184626479,60542.4562187046,42133.5826643710,46106.7737141472,50517.1622784685,53685.1924940770,1991.2192496808
2063729370,16531,3,0,27246.9531478585,55762.1453355722,27698.3503645960,52376.9095639774,60543.2227836045,42133.9963660630,46103.1842435844,50504.5200414695,53673.2681511905,1994.4193539452
2063758303,16532,3,0,27186.7717193722,55760.4540257139,27692.6315470892,52357.2952366989,60544.6220687391,42142.0635490566,46075.2593793758,50487.8867999125,53674.6187655378,1999.6879666696
2063758303,16532,3,0,27103.9462070985,55756.9983998161,27700.4067053591,52343.1442052938,60540.2660332765,42145.2758210179,46053.1263388548,50486.2806639319,53683.8053766392,1999.3716065522
2063758303,16532,3,0,27102.2914003305,55762.0723293913,27706.2593675309,52352.0022885809,60545.5711490913,42150.5687691358,46063.1038502497,50494.1896668668,53685.3750095293,2000.5518731440
2063758303,16532,3,0,27190.9939101698,55773.0110888351,27709.3986333112,52380.6693822957,60555.1836295814,42148.1595651649,46101.2374120928,50514.4853851675,53683.5620227027,1998.3373523222
2063758303,16532,3,0,27256.0424173852,55769.3607797882,27707.6586526656,52388.1768512355,60549.1119488668,42135.4808250754,46116.3010207596,50520.9585998773,53684.6936185072,1991.8398022188
2063758303,16532,3,0,27213.9178509842,55756.5968658210,27697.3282780629,52364.0239730419,60541.5193060493,42136.6124208799,46085.9426171863,50496.4285230822,53678.3055776752,1996.4513593147
2063758303,16532,3,0,27116.1869101023,55757.1565798748,27694.7365586396,52347.5610792405,60545.2791243676,42152.2844143879,46056.2899400288,50479.4302506206,53677.7701990150,2008.3026960202
2063758303,16532,3,0,27100.8069413181,55762.2426771468,27708.3643790813,52359.2177327969,60547.7126637322,42155.5940279237,46069.6744065340,50496.3920199917,53686.5066053339,2002.9975802054
2063794572,16533,3,0,27185.6036204772,55764.2381794258,27716.1882081384,52379.1484201929,60544.1231931694,42142.9761263183,46103.9386407874,50515.2519500673,53683.3916749472,1992.6307025123
2063794572,16533,3,0,27249.0946624993,55765.2237628684,27710.5180614189,52381.3507733178,60546.8487572577,42143.6940204309,46112.2491777175,50511.6503118077,53672.5989278652,1995.9403160481
2063794572,16533,3,0,27216.6069119821,55766.1850109175,27706.0646843817,52367.9784745094,60548.9172657176,42145.4583364702,46093.5109246102,50500.2491798846,53674.2415669363,2000.6248793249
2063794572,16533,3,0,27128.8656501918,55760.6122057726,27710.7735830522,52349.4227368544,60544.5003917709,42148.0500558935,46066.4012960887,50494.7372132238,53682.2965822331,2002.5352077261
2063794572,16533,3,0,27102.5590896606,55766.0146631619,27716.8209283732,52352.8296919648,60552.4945685836,42159.7675479340,46065.1723587096,50497.0612433170,53682.8562962870,2010.1035151500
2063794572,16533,3,0,27178.5706917136,55783.4144696187,27722.5762489705,52383.1637601444,60562.6789308244,42161.3615162178,46103.1964112812,50523.6598285720,53683.8297120328,2009.3369502502
2063794572,16533,3,0,27262.0167565253,55785.9088474674,27722.2598888531,52395.3679600578,60561.2066395088,42149.4858441186,46123.8084896993,50538.3827417277,53687.1514932655,2003.3139403228
2063794572,16533,3,0,27241.6845351342,55778.6447324641,27712.2093712773,52374.2205029796,60558.3107276649,42150.6296076199,46099.7042822931,50516.6268998083,53683.0874825266,2010.3590367833
2063839446,16534,3,0,27138.9161677676,55780.0318499020,27708.7415776828,52353.4624121996,60567.8136988837,42170.4264503509,46064.5153030811,50498.3145160898,53687.2244994464,2020.6772436892
2063839446,16534,3,0,27100.3689042325,55782.8425878681,27720.1062065154,52360.6413533252,60569.4441702579,42174.2106040628,46070.3071267688,50514.1203542628,53702.0204187831,2014.1431904952
2063839446,16534,3,0,27168.7513603774,55784.3148791836,27728.1125510249,52381.3629410146,60567.8136988837,42167.7130539594,46102.7097034083,50535.6328422457,53706.4859635171,2005.5406288414
2063839446,16534,3,0,27248.5471161423,55787.7340019909,27720.7997652343,52391.3647878031,60573.1796531826,42166.6301289421,46120.1703483493,50535.8518607885,53697.7373895014,2005.4676226605
2063839446,16534,3,0,27244.7751301272,55788.6587469494,27718.0376980555,52385.7189764772,60570.8434553926,42167.6157123848,46109.7182967783,50528.5634103916,53701.3146923674,2007.1832679125
2063839446,16534,3,0,27156.7540113100,55779.1436080339,27718.1228719333,52361.6877752519,60564.3824083796,42168.1875941355,46078.8366822417,50514.9112545563,53705.5247154681,2009.7141488517
2063839446,16534,3,0,27107.0976405756,55783.3779665283,27719.8020140948,52360.5683471442,60572.5591006446,42177.7392361415,46071.7064119035,50511.6381441109,53703.9915856684,2015.9196742314
2063839446,16534,3,0,27163.1055490516,55795.2658063243,27725.5208316016,52388.9920869226,60579.5920294083,42173.7360638867,46107.3820989883,50535.8761961822,53704.4539581477,2009.3734533406
2063847383,16535,3,0,27262.6738121537,55795.8376880750,27727.9665386630,52406.6839181032,60573.8732119015,42157.7963810487,46136.9374345713,50552.8379655534,53704.3931196636,1999.7366374569
2063847383,16535,3,0,27268.2587849955,55788.5005668907,27718.2323812047,52389.9046641843,60568.4220837248,42158.0762380756,46119.3672803589,50533.4426568176,53694.6346268116,2006.7939016142
2063847383,16535,3,0,27175.9424691998,55790.6664169252,27717.3198039430,52368.2461638395,60574.0192242634,42177.0578451194,46082.3531466235,50510.9324176952,53694.5494529338,2018.6087352293
2063847383,16535,3,0,27115.3960098089,55793.5136579818,27730.8867859005,52365.6057736289,60572.4739267668,42174.6973119357,46076.8898507500,50517.7828310065,53705.2570261380,2013.7903272874
2063847383,16535,3,0,27156.9608621560,55794.6209183927,27736.3257463804,52379.0510786183,60567.5095064631,42168.0902525609,46098.9133819996,50528.5877457853,53701.0226676436,2008.3026960202
2063847383,16535,3,0,27243.7165405036,55800.4005743836,27730.2175625753,52395.0029291531,60571.6951941702,42166.3989427025,46122.8229062567,50531.9825331989,53693.4908633102,2010.0670120595
2063847383,16535,3,0,27261.3353655032,55797.2004701191,27722.1138764912,52392.2408619743,60568.7992823263,42160.2177527164,46119.9148267160,50529.0379505677,53693.8315588213,2008.7163977122
2063847383,16535,3,0,27182.1844976700,55784.3027114868,27718.3297227793,52366.1898230764,60559.3449818949,42159.0739892151,46086.1859711228,50509.2897786241,53696.3746074573,2016.5523944662
2063901088,16536,3,0,27107.6330192358,55786.4928969149,27720.8727714153,52359.5462606111,60565.6965196365,42173.7725669772,46069.6500711404,50499.2757641388,53694.2330928164,2029.6326685508
2063901088,16536,3,0,27135.8864112587,55798.1495504713,27731.3856614703,52385.1470947266,60575.4550124885,42177.2281928749,46098.6700280631,50522.8202574912,53700.2074319565,2025.6294962961
2063901088,16536,3,0,27236.5254316812,55799.7556864520,27735.3766660282,52406.0633655652,60573.5325163904,42164.8049744187,46132.1190266294,50544.5639317138,53704.6729766905,2015.7858295663
2063901088,16536,3,0,27265.1560223056,55795.9350296496,27723.5009939290,52395.4166308451,60573.5081809968,42162.6391243842,46122.5187138361,50529.1109567486,53695.4376948019,2017.7083256644
2063901088,16536,3,0,27191.7604750696,55796.5190790971,27717.1616238843,52374.8045524271,60577.9737257308,42175.5125476229,46087.1472191718,50507.5863010689,53696.2894335795,2023.3784723838
2063901088,16536,3,0,27120.3847655063,55796.6285883685,27725.3018130588,52367.6256113015,60573.9583857792,42178.5423041318,46072.2296228669,50511.2122747221,53705.4517092872,2017.6474871802
2063901088,16536,3,0,27140.3641236895,55800.3032328090,27732.9309589668,52378.3210168089,60575.5036832758,42179.1263535793,46087.8772809812,50523.4408100291,53705.7072309205,2017.3432947597
2063901088,16536,3,0,27232.1572285218,55808.7597821009,27732.7119404240,52402.1331994914,60584.0575741423,42176.7901557893,46119.1604295129,50537.6283445247,53701.7527294530,2018.1098596595
2063929568,16537,3,0,27275.6080738765,55807.1171430298,27728.8061097438,52406.1120363525,60581.3563454476,42165.4985331376,46127.4344633525,50542.9212926427,53705.1110137761,2014.4717183095
2063929568,16537,3,0,27214.6600804904,55794.1950490039,27722.5884166673,52378.8442277723,60571.2693247814,42161.3615162178,46094.0219678767,50521.3844692661,53701.7162263625,2017.6474871802
2063929568,16537,3,0,27123.6700436484,55792.0291989694,27717.9160210873,52363.3060789294,60574.8466276473,42171.4607045808,46064.6004769589,50502.0013282271,53695.8878995843,2024.9116021835
2063929568,16537,3,0,27125.4586950814,55798.4537428919,27725.6546762667,52379.8298112149,60574.7979568600,42174.6851442389,46083.9714503010,50518.7927498428,53698.8568176091,2018.1220273563
2063929568,16537,3,0,27218.2373833564,55798.0522088967,27730.1445563943,52401.0259390805,60569.1643132310,42161.0573237972,46119.3186095716,50538.4070771214,53699.5260409344,2006.1733490762
2063929568,16537,3,0,27264.9370037628,55796.7867684272,27719.5099893711,52399.5901508554,60571.6586910797,42160.6557898020,46122.1415152346,50526.0812002397,53689.2930079063,2008.9719193455
2063929568,16537,3,0,27212.2387088226,55798.6970968284,27717.8673503000,52384.9767469710,60578.4360982101,42173.2858591043,46097.3680845031,50513.8648326295,53694.0384096673,2017.0877731264
2063929568,16537,3,0,27131.0558356200,55796.5555821875,27727.1513029759,52374.4030184319,60578.6186136624,42175.9262493148,46079.1530423591,50515.5683101847,53706.4007896394,2014.8610846078
2063960115,16538,3,0,27125.7507198052,55800.5222513518,27733.0769713287,52383.1759278413,60582.6096182204,42179.2723659411,46088.1449703113,50525.0104429193,53707.9825902263,2015.1166062411
2063960115,16538,3,0,27209.4644739470,55810.8039551672,27734.2450702237,52410.0908732136,60589.7642239522,42176.2182740386,46122.6282231075,50542.7387771903,53705.2813615317,2014.5203890967
2063960115,16538,3,0,27272.3592988248,55807.5430124186,27731.5195061353,52415.4203244220,60583.9115617804,42162.2132549954,46136.2073727619,50548.4697623939,53704.5269643286,2006.1003428953
2063960115,16538,3,0,27233.7876998961,55793.3311425294,27722.3937335181,52388.2985282037,60571.9263804098,42161.2763423400,46106.7250433599,50525.1564552812,53697.9807434379,2008.9597516487
2063960115,16538,3,0,27136.1541005888,55794.2680551848,27720.8606037184,52370.1321568471,60577.6208625229,42178.9438381269,46073.4707279428,50504.6782215282,53696.6787998778,2019.5091447942
2063960115,16538,3,0,27113.2544951680,55799.2203077917,27732.1157232797,52380.4625314497,60578.7646260243,42177.7879069288,46084.4216550834,50520.7152459408,53703.8090702161,2014.3865444317
2063960115,16538,3,0,27196.0435043513,55800.7899406819,27738.4185902339,52401.3301315011,60575.9903911487,42160.3637650783,46120.0121682906,50541.4003305398,53702.7383128957,2004.5550453988
2063960115,16538,3,0,27262.8319922124,55801.7390210341,27729.6821839151,52405.8686824160,60577.2071608310,42156.3970959140,46127.1302709320,50534.6229234094,53691.0573239456,2007.0250878538
2063972282,16539,3,0,27236.3429162289,55803.6493494353,27724.4987450685,52393.6401471090,60583.3031769393,42162.5539505064,46108.5988686706,50523.1731206990,53692.6026214422,2011.4784648910
2063972282,16539,3,0,27148.9301822529,55797.5411656302,27726.5672535284,52373.1010748719,60578.2900858482,42164.7806390250,46078.8123468481,50514.9599253436,53700.0127488073,2008.6677269249
2063972282,16539,3,0,27114.5929418185,55796.9084453954,27727.2243091568,52369.0857349203,60576.3432543565,42167.9320725022,46071.1101947592,50509.6913126192,53696.7031352715,2010.4807137515
2063972282,16539,3,0,27177.9501391756,55802.5907598117,27725.4843285112,52389.9411672748,60578.6307813593,42163.7098817046,46099.3392513884,50522.9906052467,53692.9798200437,2006.2706906508
2063972282,16539,3,0,27260.4106205447,55799.1716370045,27721.9070256452,52399.1034429825,60568.2517359693,42145.0689701719,46120.5475469508,50533.5765014827,53693.7220495499,1999.9191529092
2063972282,16539,3,0,27243.6800374131,55786.5050646118,27708.9240931351,52375.4251049650,60557.6293366429,42140.7129347092,46097.2099044444,50511.4434609617,53687.5530272606,2004.3238591591
2063972282,16539,3,0,27148.3583005022,55785.1179471740,27706.6000630420,52353.4989152901,60561.4499934453,42160.0960757482,46061.6558943277,50491.4884381721,53687.1636609623,2017.8056672389
2063972282,16539,3,0,27108.0588886246,55790.6299138347,27721.1769638358,52362.3935016677,60565.6235134555,42165.8757317391,46067.1678609885,50504.9580785551,53698.2606004648,2015.1531093315
2064007357,16540,3,0,27172.3164955466,55795.2293032338,27732.2374002479,52384.7212253378,60568.7019407517,42163.0406583793,46099.9963070168,50529.4638199565,53702.9573314385,2008.1566836583
2064007357,16540,3,0,27252.5867914875,55801.6903502468,27729.3901591913,52397.5703131828,60579.5311909241,42165.8635640423,46119.4159511462,50535.0122897078,53696.1434212176,2011.8556634925
2064007357,16540,3,0,27253.2925179032,55807.3604969663,27728.7331035629,52396.5117235592,60588.3527711208,42171.8379031823,46114.8652325344,50536.2412270869,53701.5580463038,2015.2626186029
2064007357,16540,3,0,27173.1682343242,55801.6295117627,27734.0138839840,52377.0920794298,60586.1260826022,42173.7725669772,46086.9768714163,50529.1839629296,53708.4814657961,2018.2802074150
2064007357,16540,3,0,27119.6182006064,55804.5862620907,27740.2437447574,52370.6310324168,60590.5429565489,42185.3805497463,46076.6586645104,50523.1122822149,53707.8609132581,2029.9125255778
2064007357,16540,3,0,27166.5125041620,55817.3136729675,27751.7422182551,52395.5383078134,60598.6344749362,42191.6590813069,46105.7272922204,50541.2543181779,53710.7446574052,2031.1049598664
2064007357,16540,3,0,27260.5931359970,55818.9441443417,27760.1500967597,52414.1548839525,60594.5947995910,42178.8343288555,46138.3732227964,50557.9118951285,53714.1394448188,2024.3032173424
2064007357,16540,3,0,27271.0573552647,55811.0108060132,27748.6029524748,52399.6509893395,60585.6758778197,42172.4341203267,46125.6458119196,50538.8816172975,53706.7171497568,2026.7002536165
2064037281,16541,3,0,27181.8559698558,55809.1126453088,27739.0513104687,52377.3476010631,60587.8538955510,42185.8794253160,46091.0773852456,50514.9112545563,53706.7901559377,2035.1202998180
2064037281,16541,3,0,27120.9688149538,55807.1901492108,27744.4416001613,52374.3786830383,60581.9160595014,42181.7667437899,46082.4991589854,50519.4984762585,53713.9204262759,2029.3406438271
2064037281,16541,3,0,27160.3678172664,55803.0409645941,27747.0333195846,52385.4756225408,60576.1485712074,42170.2926056858,46101.3225859705,50531.5079930228,53711.4503838209,2019.6186540656
2064037281,16541,3,0,27248.6201223232,55809.1491483993,27740.1342354860,52402.1210317946,60583.1814999710,42165.8392286486,46121.6304719680,50537.5431706469,53699.2461839075,2021.3829701049
2064037281,16541,3,0,27270.8261690251,55806.2532365554,27732.7971143017,52400.2715418775,60581.0521530270,42161.3980193082,46118.0044983148,50533.6616753604,53695.2551793496,2018.1706981436
2064037281,16541,3,0,27197.5888018478,55795.5699987449,27730.5339226927,52375.6684589015,60573.9583857792,42160.0839080514,46083.8254379391,50515.3736270355,53694.0019065768,2018.4748905642
2064037281,16541,3,0,27122.5262801471,55794.8764400260,27731.3856614703,52364.2186561911,60576.7447883517,42172.9816666837,46064.6004769589,50501.8066450780,53691.9212304201,2024.6560805503
2064037281,16541,3,0,27145.3650470838,55807.1536461203,27740.2194093637,52387.5319633039,60586.7466351402,42179.4062106062,46093.4257507324,50525.2416291589,53698.9663268806,2022.9404352982
2064078468,16542,3,0,27244.9211424891,55811.9963894558,27746.5101086212,52413.9480331065,60586.7466351402,42171.4363691872,46134.2970443607,50551.0371464236,53705.7559017078,2013.3036194145
2064078468,16542,3,0,27277.3237191286,55808.2730742280,27738.5402672022,52407.9371908759,60585.4933623674,42170.2926056858,46132.6665729864,50542.1912308333,53699.7937302645,2019.6064863687
2064078468,16542,3,0,27203.6239794720,55806.7886152156,27730.7164381450,52385.7676472645,60590.2874349156,42181.7059053057,46098.7186988504,50519.7661655886,53698.0902527093,2028.9269421351
2064078468,16542,3,0,27124.5339501229,55804.2455665796,27737.7128638182,52374.0988260113,60585.7488840007,42182.5576440833,46082.4139851077,50522.6255743420,53708.5058011897,2026.2743842277
2064078468,16542,3,0,27137.2370256060,55804.5619266970,27746.0964069292,52380.6450469021,60583.1206614869,42181.8397499708,46094.7520296861,50534.5620849253,53708.8708320944,2023.7556709854
2064078468,16542,3,0,27224.5889210979,55813.6755316174,27744.1252400439,52401.7925039804,60592.7574773707,42180.0267631442,46123.5529680660,50547.9222160369,53702.8478221671,2027.1747937926
2064078468,16542,3,0,27269.6093993428,55812.7386189620,27738.8931304100,52403.5446523229,60588.3771065144,42168.0902525609,46129.1014378173,50550.5139354602,53701.9474126022,2024.2423788583
2064078468,16542,3,0,27214.3558880698,55799.4879971219,27734.3545794951,52377.3476010631,60576.0877327233,42163.2110061349,46094.9223774416,50526.8599328364,53700.7184752231,2025.9580241103
2064099711,16543,3,0,27125.4951981719,55798.0400411999,27731.9818786146,52361.4930921028,60575.7470372122,42173.9915855200,46064.9290047731,50502.8165639143,53695.7053841320,2032.6137542725
2064099711,16543,3,0,27124.2297577023,55803.8927033718,27737.3721683072,52377.2867625789,60576.3554220534,42173.5170453439,46079.9317749558,50514.1690250501,53698.0172465284,2026.0553656849
2064099711,16543,3,0,27215.6091608426,55801.8606980023,27740.0855646987,52398.4098842636,60568.3369098470,42156.2875866426,46116.1793437913,50533.6251722700,53694.6102914179,2012.2571974877
2064099711,16543,3,0,27265.1195192151,55796.4339052193,27728.3315695677,52394.2972027374,60566.8402831378,42154.6449475715,46118.6372185496,50523.7084993593,53680.9216324921,2013.4861348668
2064099711,16543,3,0,27214.5870743095,55797.3099793905,27724.2918942225,52378.1141659629,60575.0291430997,42168.3579418910,46091.7831116613,50506.8927423499,53681.9315513284,2022.7457521491
2064099711,16543,3,0,27128.5857931649,55795.8863588623,27735.9120446884,52365.2407427242,60575.4793478821,42172.8599897155,46072.0227720209,50507.7931519148,53696.4719490318,2022.6970813618
2064099711,16543,3,0,27117.6835368116,55799.8408603297,27745.8408852959,52369.1709087980,60579.1418246258,42176.8753296670,46077.7050864372,50513.1347708201,53702.2394373259,2024.0476957091
2064099711,16543,3,0,27196.5788830115,55810.5849366244,27747.0576549782,52390.9997568984,60585.9800702403,42176.4129571878,46107.3820989883,50526.5679081126,53699.1123392424,2023.5366524425
2064126459,16544,3,0,27260.9581669017,55808.1270618661,27742.4217624887,52396.8037482829,60581.7578794427,42163.4786954650,46121.4601242125,50533.4183214240,53699.8302333550,2016.3333759234
2064126459,16544,3,0,27226.4870818023,55794.0612043388,27731.6533508004,52371.0812371992,60570.1620643705,42158.4169335866,46092.4766703802,50514.4123789865,53694.9144838385,2015.4573017521
2064126459,16544,3,0,27128.9386563728,55791.7615096393,27725.2409745747,52350.9193635636,60571.8290388352,42172.2759402680,46057.4580389238,50493.5082758447,53693.3326832515,2023.3298015966
2064126459,16544,3,0,27106.3675787662,55800.5222513518,27735.1819828790,52364.9730533941,60577.1584900437,42175.9992554958,46067.7154073455,50506.9414131372,53698.8811530028,2018.3410458992
2064126459,16544,3,0,27187.2705949420,55802.3474058752,27744.6727864009,52389.0529254067,60574.1895720189,42162.2497580859,46102.8313803766,50531.1551298149,53701.8014002403,2006.3071937413
2064126459,16544,3,0,27254.3632752237,55799.8408603297,27734.5492626443,52390.7564029619,60573.6541933587,42156.8959714838,46110.9715695511,50524.0248594766,53687.6503688352,2004.5307100051
2064126459,16544,3,0,27226.6452618610,55798.5632521633,27726.3238995919,52377.5909549995,60575.4306770948,42159.6215355721,46090.6028450695,50509.5331325605,53684.9126370501,2006.8425724015
2064126459,16544,3,0,27137.9427520218,55788.8169270081,27728.6357619883,52356.8693673100,60570.1012258864,42159.9135602958,46065.0020109540,50501.8918189557,53690.6801253441,2000.2598484203
2064167317,16545,3,0,27100.9042828927,55785.1787856581,27728.7696066534,52353.1095489918,60570.4662567911,42162.3957704477,46058.8573240584,50502.6583838556,53691.1059947329,1996.8163902194
2064167317,16545,3,0,27161.0370405917,55792.5889130232,27726.8471105553,52377.3232656694,60577.4991855547,42163.8680617633,46090.4933357981,50516.8580860479,53689.9622312316,1995.3684342974
2064167317,16545,3,0,27242.1469076134,55791.0679509204,27722.9291121783,52389.9168318812,60571.7682003511,42149.5831856932,46115.5101204661,50527.3709761030,53691.9212304201,1990.9637280475
2064167317,16545,3,0,27233.9702153484,55782.2950415110,27715.7866741433,52372.0546529451,60562.2652291324,42149.6926949646,46096.3216625763,50508.2433566973,53684.9734755342,2003.0097479022
2064167317,16545,3,0,27142.3961290590,55786.7970893355,27719.7168402171,52353.9247846789,60571.8412065320,42171.6188846395,46064.6248123525,50490.3081715803,53686.6526176957,2026.4934027705
2064167317,16545,3,0,27102.7537728098,55797.4438240556,27739.5380183417,52364.7053640640,60577.5478563420,42177.9217515938,46071.7185796003,50507.6714749466,53701.5945493943,2031.3483138029
2064167317,16545,3,0,27168.7270249838,55802.1283873324,27751.0364918393,52387.1547647023,60576.1607389042,42163.0528260762,46105.4109321030,50532.8221042796,53705.8289078887,2022.5023982126
2064167317,16545,3,0,27252.0879159178,55804.1117219146,27739.6353599162,52396.5117235592,60579.7137063765,42156.8716360901,46121.6061365744,50531.0091174530,53692.6026214422,2020.6042375082
2064204855,16546,3,0,27251.0414939910,55802.1770581197,27725.5329992985,52388.0795096609,60580.3585943081,42157.1636608139,46111.3731035463,50519.6809917109,53689.3903494809,2020.7989206574
2064204855,16546,3,0,27165.9284547145,55792.0900374535,27724.9732852446,52365.2650781179,60571.5005110210,42156.2145804617,46077.7537572245,50503.2180979094,53690.2664236521,2019.0224369212
2064204855,16546,3,0,27106.0512186488,55789.2184610033,27727.5163338806,52356.0784670166,60570.6609399402,42163.2475092253,46064.9898432572,50495.5889520014,53686.8716362385,2021.0422745938
2064204855,16546,3,0,27144.9391776950,55796.8111038208,27732.0062140083,52379.4282772198,60576.3919251438,42167.6400477784,46093.2554029769,50511.2244424189,53685.5088541944,2018.0611888722
2064204855,16546,3,0,27236.3672516225,55795.4118186862,27732.9309589668,52397.9475117843,60571.5126787178,42154.0000596399,46125.4389610736,50531.3619806609,53692.1889197502,2007.1954356093
2064204855,16546,3,0,27248.5836192328,55783.8038359171,27721.6028332246,52382.1173382176,60560.8051055136,42147.9527143189,46112.5898732286,50515.6656517593,53685.5575249817,2008.7407331058
2064204855,16546,3,0,27158.9076936477,55777.5739751437,27712.5987375757,52357.6967706940,60562.4355768879,42160.9964853131,46074.5658206569,50489.2739173503,53682.4304268982,2019.6064863687
2064204855,16546,3,0,27092.0461996056,55777.0994349676,27719.5464924616,52355.4335790849,60562.0827136801,42167.5792092943,46067.5572272869,50497.0490756202,53692.1159135692,2018.0368534786
2064233272,16547,3,0,27129.0846687347,55779.3747942735,27730.5460903895,52371.2880880452,60561.2066395088,42164.3547696362,46091.7709439645,50516.6755705956,53698.2606004648,2011.7583219179
2064233272,16547,3,0,27216.4243965297,55783.5969850711,27726.3360672888,52384.9889146679,60568.1300590011,42161.7387148193,46112.1883392334,50522.0050218040,53687.0298162972,2010.0548443627
2064233272,16547,3,0,27241.6845351342,55785.2639595358,27719.7898463980,52383.9424927411,60570.0038843118,42157.6747040804,46109.3897689641,50518.0018495493,53686.9811455100,2006.9277462792
2064233272,16547,3,0,27174.6161902461,55776.9169195153,27718.5974121094,52362.2353216090,60563.0196263354,42152.3087497815,46079.3355578115,50504.6903892250,53687.6503688352,2007.3779510617
2064233272,16547,3,0,27095.6843409557,55775.3959574124,27717.2467977620,52349.2767244925,60564.1755575336,42161.4831931860,46057.7865667380,50488.1058184553,53684.3285876026,2012.1598559131
2064233272,16547,3,0,27110.4559248987,55785.3734688072,27724.6204220367,52366.5305185875,60568.7506115390,42161.6048701542,46077.3887263198,50500.3465214592,53683.7688735487,2011.5758064656
2064233272,16547,3,0,27203.2224454768,55783.3536311346,27728.7331035629,52384.9402438806,60560.2088883693,42142.1973937216,46109.6209552038,50514.5583913484,53681.4448434555,1998.9092340729
2064233272,16547,3,0,27235.5520159354,55770.3828663214,27714.8619291847,52372.0789883387,60544.7680811010,42134.4587385423,46100.1301516819,50495.5281135173,53667.4154890187,1998.5198677746
2064252037,16548,3,0,27164.1763063720,55766.0024954651,27701.7086489191,52347.5367438469,60541.9330077413,42145.3244918051,46062.3616207435,50468.0169510006,53658.8615981521,2008.2905283234
2064252037,16548,3,0,27089.4666478792,55766.4040294603,27708.3522113845,52341.4163923449,60543.2349513013,42146.7967831207,46048.9406511478,50474.8795320088,53669.8003575960,2009.2517763724
2064252037,16548,3,0,27101.4396615529,55765.9659923746,27713.3409670819,52351.2478913778,60542.3832125237,42140.9562886457,46063.8704151495,50488.1666569394,53670.8711149164,2004.2995237655
2064252037,16548,3,0,27188.6820477734,55776.0530130409,27708.9240931351,52373.7216274098,60553.3828104516,42140.4209099855,46095.6524392510,50500.6872169702,53667.0626258108,2004.4698715210
2064252037,16548,3,0,27236.8539594955,55780.4820546844,27706.1255228659,52382.2633505795,60557.7510136111,42138.7174324303,46107.9418130422,50508.6692260861,53669.3258174199,2002.6568846944
2064252037,16548,3,0,27187.4287750007,55770.8574064975,27704.4707160979,52359.9112915158,60552.1295376789,42139.4596619365,46081.9637803252,50496.0513244807,53672.7084371366,2003.3869465038
2064252037,16548,3,0,27095.3923162319,55769.7866491770,27707.7681619370,52342.6453297240,60557.9091936698,42154.9856430826,46055.2800211925,50480.5496787283,53671.8323629654,2011.4541294974
2064252037,16548,3,0,27085.5729848958,55778.0606830167,27717.2224623684,52356.9302057942,60563.7861912353,42160.2664235037,46069.2363694484,50494.0679898986,53676.6507709073,2009.0205901328
2064309071,16549,3,0,27179.1060703738,55784.3027114868,27724.8272728827,52384.5387098854,60561.0727948437,42150.7026138009,46111.5921220891,50521.6278232025,53683.4160103408,2000.8682332614
2064309071,16549,3,0,27239.0441449236,55779.3017880926,27714.2170412531,52384.6482191568,60558.4932431173,42143.6453496436,46116.3131884564,50514.1081865660,53674.2293992395,2004.5185423083
2064309071,16549,3,0,27195.6784734466,55778.7907448260,27705.2616163914,52368.0636483872,60560.9146147850,42148.1839005585,46089.6659324141,50494.8467224952,53670.2505623784,2012.5978929987
2064309071,16549,3,0,27109.0444720673,55771.8673253338,27711.3211294093,52352.3064810014,60555.2931388528,42146.7724477271,46064.9898432572,50489.5294389836,53677.5025096849,2008.4730437757
2064309071,16549,3,0,27092.5815782658,55769.7501460866,27721.1769638358,52351.8319408254,60550.8032587252,42146.5412614874,46066.9123393552,50491.2207488420,53676.7359447850,2002.8028970563
2064309071,16549,3,0,27163.5070830468,55776.6735655788,27724.0728756797,52370.3633430867,60557.6658397333,42151.5421848817,46092.8051981945,50500.7602231512,53671.5403382416,1999.3107680681
2064309071,16549,3,0,27229.5290060080,55778.0728507135,27722.8074352101,52378.4426937771,60554.7942632831,42142.5380892327,46108.7813841230,50509.4601263796,53672.6597663494,1994.5653663071
2064309071,16549,3,0,27200.6428937504,55764.3841917877,27712.1485327932,52355.6525976278,60541.3367905969,42133.9841983662,46086.3684865751,50491.5127735657,53667.7683522265,1993.2634227471
2064325722,16550,3,0,27102.9849590494,55760.3201810488,27705.6753180834,52333.4343832291,60543.3809636632,42145.2636533210,46051.6783829329,50468.9295282624,53662.8404350132,2002.5108723325
2064325722,16550,3,0,27074.6950639361,55769.2147674264,27713.3531347787,52342.1221187606,60549.5499859524,42153.6958672193,46058.9059948457,50479.5519275888,53670.2505623784,2002.4135307579
2064325722,16550,3,0,27154.6489997597,55771.6361390941,27722.1868826721,52367.9054683285,60546.7879187736,42144.9959639909,46094.7398619893,50506.2356867215,53673.2194804032,1991.1827465903
2064325722,16550,3,0,27231.2933220474,55771.5387975196,27716.1273696543,52373.3200934147,60547.4814774925,42144.0225482451,46106.9927326900,50505.5299603058,53667.5493336837,1996.1106638036
2064325722,16550,3,0,27213.1026152971,55776.8317456375,27713.5721533215,52365.9708045336,60554.5144062562,42153.5133517670,46091.4059130598,50497.0004048329,53671.7471890876,2009.2761117661
2064325722,16550,3,0,27128.2816007443,55775.1161003855,27720.3617281487,52351.2965621651,60554.2588846229,42156.8351329996,46066.9245070521,50495.9539829061,53683.8175443360,2010.7484030816
2064325722,16550,3,0,27091.7785102755,55777.5618074469,27728.7939420470,52351.6494253730,60559.9290313424,42161.8360563939,46064.9411724699,50500.4195276401,53688.7454615493,2009.7749873358
2064325722,16550,3,0,27151.9477710650,55791.6763357615,27733.2351513874,52377.0312409457,60571.8898773193,42166.0582471914,46096.0539732462,50516.7729121702,53688.8306354270,2008.6068884408
2064358504,16551,3,0,27237.4745120334,55795.5578310480,27734.4519210697,52394.4310474025,60571.6100202924,42155.9833942220,46122.3727014742,50531.0821236340,53688.6724553683,1998.9092340729
2064358504,16551,3,0,27233.5443459596,55785.6898289246,27727.0174583109,52375.4616080555,60560.5739192740,42144.2902375752,46103.3667590368,50514.3758758961,53680.9824709762,1997.7898059652
2064358504,16551,3,0,27140.9360054402,55784.5947362106,27723.1846338116,52350.5543326589,60562.1070490737,42157.5043563249,46064.4544645970,50488.1909923331,53676.1883984280,2008.7772361963
2064358504,16551,3,0,27091.6933363978,55788.3788899225,27733.5515115048,52353.8152754075,60562.6910985212,42160.7044605893,46062.0817637165,50495.7592997570,53681.8463774507,2006.9399139761
2064358504,16551,3,0,27146.6061521597,55787.4906480544,27739.9030492463,52371.0082310183,60555.6703374544,42149.4371733313,46090.7731928250,50516.7607444734,53682.9049670743,1995.8551421704
2064358504,16551,3,0,27229.6750183699,55786.2495429785,27729.2319791326,52379.3552710388,60554.7212571022,42143.4628341912,46108.5015270961,50515.4831363069,53671.1023011560,1994.7478817595
2064358504,16551,3,0,27233.1914827518,55786.9917724847,27719.9480264567,52373.0037332973,60558.1768829999,42148.4029191013,46099.7894561708,50506.4303698707,53670.0315438356,1999.1890910998
2064358504,16551,3,0,27156.0482848943,55780.4090485035,27723.4158200513,52352.2699779110,60554.0276983833,42152.3452528720,46072.3269644414,50497.0612433170,53680.2159060764,1999.8096436378
2064394336,16552,3,0,27098.4950789218,55780.8105824986,27728.3315695677,52346.3321418614,60557.2764734350,42157.6747040804,46060.5364662200,50493.8003005685,53684.2069106343,2004.2143498877
2064394336,16552,3,0,27133.5988842560,55790.9462739521,27730.5217549959,52370.7527093850,60569.4563379548,42160.4732743497,46087.5122500765,50513.1834416074,53688.2465859795,2004.9322440003
2064394336,16552,3,0,27224.8566104280,55794.8399369355,27730.0715502134,52392.7519052409,60570.2837413387,42148.6097699473,46122.5917200170,50536.3507363583,53691.5683672122,1993.4216028058
2064394336,16552,3,0,27244.1910806797,55784.2297053059,27718.0376980555,52378.0776628724,60561.5960058071,42137.9752029241,46111.9693206906,50522.7229159166,53683.7810412455,1990.4770201746
2064394336,16552,3,0,27160.0392894522,55779.5208066354,27708.5347268368,52353.0973812949,60562.7032662180,42153.7567057034,46072.8380077080,50494.5790331651,53678.6827762767,2002.6690523912
2064394336,16552,3,0,27090.5982436837,55782.0881906650,27719.7898463980,52353.7422692266,60563.7740235384,42163.6247078268,46065.8415820348,50500.2613475814,53689.1591632413,2004.3360268559
2064394336,16552,3,0,27121.5163613108,55783.4753081029,27731.4951707417,52368.3313377173,60559.6370066186,42152.0288927546,46092.1481425660,50519.1942838379,53694.5494529338,1993.8961429819
2064394336,16552,3,0,27210.8150882944,55787.5149834481,27726.1778872301,52383.6017972301,60562.4112414943,42147.3321617809,46117.5056227450,50524.5115673496,53683.9635566979,1991.9493114902
2064436870,16553,3,0,27236.4159224098,55789.5469888175,27716.9791084319,52381.6306303447,60566.1223890253,42145.8233673749,46115.7169713121,50522.9297667626,53682.6494454410,1991.7911314315
2064436870,16553,3,0,27171.5986014340,55783.0494387141,27716.8452637669,52358.3294909288,60561.0971302374,42148.7679500060,46084.7745182913,50510.1293497048,53688.2344182827,1993.4702735931
2064436870,16553,3,0,27094.1025403687,55779.4964712418,27720.0088649408,52344.7381735776,60565.2949856413,42163.4665277681,46059.2345226600,50498.3145160898,53689.7432126888,2003.2287664451
2064436870,16553,3,0,27105.1508090839,55790.7394231062,27729.5970100373,52364.2308238879,60578.0832350022,42169.4286992114,46077.8997695864,50512.2465289520,53693.2961801611,2003.4599526847
2064436870,16553,3,0,27197.9538327525,55792.0900374535,27738.6741118672,52388.7365652893,60574.6032737109,42153.7932087939,46115.5587912534,50537.1903074391,53695.8757318875,1993.6649567422
2064436870,16553,3,0,27236.8539594955,55783.3414634378,27731.2639845021,52378.1750044470,60565.1368055826,42141.7836920297,46111.2757619717,50527.2492991347,53685.9225558864,1992.0831561552
2064436870,16553,3,0,27170.2236516930,55778.2797015595,27721.5054916501,52351.5399161016,60564.1025513527,42152.8927992290,46075.2837147694,50500.1396706132,53677.9892175578,2005.5162934478
2064436870,16553,3,0,27091.6446656105,55780.0196822051,27725.8250240222,52345.6142477488,60564.2242283209,42158.6481198263,46058.1637653395,50500.2856829751,53687.7233750162,2009.4586272184
2064444515,16554,3,0,27099.6875132104,55780.5307254717,27732.3955803066,52355.8107776864,60561.0119563596,42154.6206121779,46073.7992557570,50513.1956093042,53692.6756276231,2006.2341875603
2064444515,16554,3,0,27184.8370555774,55787.7218342941,27729.7186870055,52376.2403406522,60569.7240272849,42154.8152953270,46101.5659399070,50524.1708718385,53684.6327800231,2006.4288707095
2064444515,16554,3,0,27233.4956751723,55787.6366604163,27724.0242048924,52381.0344132004,60569.9795489181,42150.7026138009,46112.6628794095,50527.4074791934,53682.7589547124,2003.3017726260
2064444515,16554,3,0,27188.3535199592,55775.4932989870,27720.1913803932,52358.3173232320,60560.3914038217,42150.0090550820,46084.7988536850,50512.8062430059,53684.1947429375,2001.5861273740
2064444515,16554,3,0,27100.5514196849,55771.7213129719,27721.2743054104,52339.9441010293,60563.0317940322,42166.6179612453,46056.0465860923,50495.6619581824,53686.9933132068,2011.2351109546
2064444515,16554,3,0,27089.2597970332,55782.5748985380,27729.4144945850,52352.9270335394,60573.8488765078,42172.7018096568,46067.9465935852,50506.4060344770,53692.8459753786,2012.7439053606
2064444515,16554,3,0,27176.5508540410,55785.2639595358,27735.4983429964,52376.2160052585,60570.1985674610,42154.2920843637,46105.8124660982,50531.6175022942,53697.4697001713,2001.4036119216
2064444515,16554,3,0,27233.8850414707,55777.1846088454,27721.6880071024,52371.6044481626,60560.9146147850,42135.5294958627,46109.5844521133,50521.2749599947,53684.1704075439,2001.3184380439
2064475512,16555,3,0,27184.6667078219,55770.8939095879,27705.5293057215,52348.6440042577,60556.7897655621,42138.6200908557,46077.5469063785,50495.7106289697,53671.0901334592,2009.4099564311
2064475512,16555,3,0,27094.2607204274,55765.3332721399,27709.0092670129,52334.4929728527,60549.1971227446,42144.2659021815,46052.1042523217,50489.0914018980,53677.9892175578,2010.3955398738
2064475512,16555,3,0,27074.8410762980,55763.8001423402,27718.6460828967,52336.6953259776,60544.5125594677,42148.2204036490,46055.2191827084,50497.1464171948,53680.4957631033,2009.9088320009
2064475512,16555,3,0,27144.8418361204,55773.1571011970,27721.3351438945,52358.5850125621,60552.9447733660,42153.9757242463,46084.3243135089,50511.0662623602,53676.7602801787,2011.1986078641
2064475512,16555,3,0,27218.6267496547,55780.4698869876,27724.9489498510,52375.2912603000,60559.7586835869,42152.1384020260,46105.7637953109,50523.9640209925,53683.1361533139,2008.6798946217
2064475512,16555,3,0,27200.4725459949,55771.4171205513,27723.4888262322,52357.0883858529,60553.5288228135,42146.5899322747,46085.6749278562,50510.8594115142,53684.2434137248,2006.1976844699
2064475512,16555,3,0,27105.5280076854,55766.3675263698,27716.6019098304,52332.6069798451,60553.4071458453,42151.9923896641,46048.2957632161,50484.8692111004,53676.5290939390,2012.1720236099
2064475512,16555,3,0,27068.6598863119,55773.3639520430,27721.1282930485,52342.5723235431,60560.6347577581,42157.1879962075,46051.4836997837,50493.0945741527,53681.6030235142,2010.5537199325
2064506207,16556,3,0,27140.1937759340,55773.9114984000,27723.3184784767,52365.7274505972,60552.6527486423,42142.9517909247,46086.4293250592,50516.6025644147,53684.5354384485,1996.3905208306
2064506207,16556,3,0,27216.9476074931,55769.0322519740,27710.7735830522,52368.5990270474,60548.3332162701,42138.6322585525,46098.8038727282,50513.4146278470,53674.5457593569,1996.3296823464
2064506207,16556,3,0,27201.1539370169,55768.8254011280,27701.5017980731,52356.1514731975,60552.0565314979,42148.5124283727,46079.8831041685,50497.9373174883,53670.6277609799,2005.1634302399
2064506207,16556,3,0,27113.9845569774,55764.3963594845,27710.2382043920,52337.9242633567,60548.5644025098,42150.9703031310,46051.6053767520,50491.7439598054,53680.8607940080,2005.8569889588
2064506207,16556,3,0,27074.2083560632,55763.7514715529,27718.6582505935,52334.8945068478,60546.9339311355,42151.0189739183,46047.3466828639,50493.6907912971,53683.9270536074,2007.2441063966
2064506207,16556,3,0,27123.4510251056,55771.9038284242,27716.4558974685,52355.2267282390,60554.2102138356,42150.2037382311,46071.3657163924,50504.8972400710,53678.0987268292,2006.3071937413
2064506207,16556,3,0,27206.8727545237,55775.4202928061,27713.4991471406,52374.3300122510,60554.0642014737,42140.1532206554,46096.9908859015,50516.1158565417,53677.5511804722,1999.4324450363
2064506207,16556,3,0,27207.0917730665,55765.5766260763,27707.3909633354,52360.3493286014,60543.7581622647,42132.8282671680,46083.4725747313,50504.9459108583,53674.3632439046,1997.3882719700
2064580037,16557,3,0,27117.2698351196,55763.5202853132,27705.3832933597,52336.3181273761,60548.6739117812,42148.7557823092,46049.2691789620,50480.4766725473,53671.6011767258,2008.3757022012
2064580037,16557,3,0,27066.3115208251,55771.5387975196,27715.8596803242,52344.0081117682,60556.5342439288,42160.5827836211,46049.9627376809,50487.4000920396,53680.6296077684,2010.9795893213
2064580037,16557,3,0,27122.4897770566,55777.5253043564,27726.8714459490,52367.0537295508,60554.3927292879,42150.5687691358,46085.4680770102,50513.7431556613,53686.8594685417,2000.8925686551
2064580037,16557,3,0,27207.0674376729,55775.5906405616,27721.0917899581,52376.0334898062,60550.9371033902,42140.9927917362,46105.1067396825,50514.9599253436,53678.2812422815,1998.7632217110
2064580037,16557,3,0,27212.0805287639,55773.7289829477,27709.0092670129,52366.4575124065,60551.9835253170,42140.2018914427,46096.1026440335,50503.9846628093,53672.5989278652,1999.9556559997
2064580037,16557,3,0,27132.0049159722,55762.1575032691,27704.6897346408,52344.7625089712,60543.7581622647,42139.4961650270,46066.7054885092,50492.5226924021,53678.1960684038,1996.7798871289
2064580037,16557,3,0,27070.2295192021,55757.8136355033,27703.4973003521,52335.7219102318,60542.4927217951,42146.4804230033,46052.6761340724,50488.2639985140,53679.4493411766,1999.0917495253
2064580037,16557,3,0,27104.0800517635,55770.6018848642,27705.6266472961,52358.0861369923,60556.2422192050,42153.7323703098,46077.8632664959,50505.1040909170,53681.1649864286,2001.6956366454
2064588580,16558,3,0,27199.7911549728,55778.7177386451,27710.6762414776,52383.9303250443,60557.6050012492,42140.0923821713,46113.8066429109,50528.5390749980,53684.7787923850,1995.0277387864
2064588580,16558,3,0,27224.7471011566,55768.1196747123,27704.4463807043,52373.6972920162,60548.8929303240,42127.7421698960,46104.4496840540,50517.0284338035,53676.6507709073,1993.2877581407
2064588580,16558,3,0,27145.1946993282,55765.3089367462,27695.5639620235,52347.3542283945,60550.8275941188,42141.0292948266,46064.2354460542,50487.4852659174,53668.6200910041,2003.9588282544
2064588580,16558,3,0,27074.9992563567,55770.8574064975,27704.2638652519,52343.6187454699,60557.7510136111,42150.8607938596,46053.8564006642,50491.7196244117,53678.0987268292,2003.0827540832
2064588580,16558,3,0,27102.0967171814,55771.3319466736,27717.0521146129,52356.8328642196,60553.3584750580,42143.8035297023,46074.5049821728,50512.0031750156,53683.4403457345,1995.6117882339
2064588580,16558,3,0,27188.4630292306,55772.7799025955,27715.3121339672,52369.3169211599,60554.4535677721,42137.7926874717,46097.8182892855,50515.6534840625,53676.4317523645,1998.5077000778
2064588580,16558,3,0,27216.3270549552,55773.1327658034,27710.6519060840,52367.2119096095,60553.8451829309,42137.5371658385,46098.6821957599,50509.2654432304,53675.7016905551,2003.3139403228
2064588580,16558,3,0,27153.8215963757,55762.7293850197,27711.3332971061,52347.2933899104,60548.5887379034,42138.5957554621,46073.0448585540,50498.1685037279,53682.0775636903,2004.4333684305
2064617370,16559,3,0,27072.4683754175,55758.3246787698,27712.1850358837,52331.1711916200,60547.5423159766,42146.0423859177,46051.6297121456,50486.9377195603,53684.4259291771,2006.2220198635
2064617370,16559,3,0,27077.3111187530,55766.6230480031,27712.8420915121,52343.4240623207,60554.1250399578,42148.8896269743,46065.4157126460,50496.8543924710,53682.6859485315,2004.2265175845
2064617370,16559,3,0,27171.2214028325,55769.3121090010,27715.6528294782,52365.4597612670,60550.0853646126,42134.5195770264,46102.1986601418,50520.3502150361,53684.0243951820,1992.4238516663
2064617370,16559,3,0,27216.2783841679,55757.6797908382,27702.8889155110,52358.5363417748,60539.0005928069,42122.7899172891,46099.6434438089,50513.7553233581,53673.7426913666,1988.6396979543
2064617370,16559,3,0,27155.0992045421,55752.9708921677,27688.7135487122,52334.3347927940,60539.8036607972,42136.9774517846,46065.6834019761,50486.2198254478,53668.5835879137,2000.9534071392
2064617370,16559,3,0,27073.5391327379,55756.8037166670,27697.3161103660,52330.4289621138,60542.5413925824,42147.5633480206,46050.8996503362,50486.8525456826,53678.3420807657,2004.6523869733
2064617370,16559,3,0,27078.4548822544,55758.2151694984,27710.5788999031,52342.9860252351,60542.1398585872,42140.0072082935,46065.1601910127,50502.1716759826,53683.1483210107,1999.4081096427
2064617370,16559,3,0,27160.0514571490,55762.7902235039,27708.6564038050,52362.2839923963,60545.8145030278,42136.9044456037,46092.8295335881,50510.5673867905,53673.4993374301,1995.9768191386
2064632385,16560,3,0,27210.9732683531,55765.3819429271,27705.2616163914,52370.1078214534,60550.4747309110,42135.7728497991,46103.8412992129,50514.1325219596,53670.6034255863,1995.3684342974
2064632385,16560,3,0,27168.4471679569,55755.4896054101,27703.8136604695,52350.5056618716,60542.2372001618,42134.6777570851,46081.5500786332,50501.3442725987,53674.0712191808,1996.1106638036
2064632385,16560,3,0,27079.1727763670,55752.0096441187,27705.1642748168,52330.5141359916,60544.8045841915,42147.6485218983,46051.1430042727,50485.0517265528,53675.6773551614,2004.2751883718
2064632385,16560,3,0,27059.2664243646,55761.5734538216,27712.2702097614,52339.7615855770,60553.8573506277,42161.4466900955,46057.1295111096,50493.7029589939,53683.1969917980,2007.1711002157
2064632385,16560,3,0,27143.7345757095,55769.1782643359,27723.4644908386,52365.4719289639,60554.1250399578,42153.2091593464,46095.9201285811,50524.3168842004,53691.8725596328,1997.1449180336
2064632385,16560,3,0,27208.2842073552,55766.5743772158,27717.4049778207,52363.5007620786,60549.9636876444,42141.8201951201,46100.7263688262,50521.9441833199,53688.5142753096,1994.2246707961
2064632385,16560,3,0,27167.9604600840,55765.2480982621,27705.5293057215,52343.1563729906,60552.6770840359,42148.5124283727,46071.6334057225,50499.7746397085,53681.7490358761,2002.8759032372
2064632385,16560,3,0,27080.6572353793,55765.0534151129,27709.2282855557,52331.9255888230,60553.1637919088,42154.5719413906,46048.5756202431,50493.3622634828,53689.4998587523,2004.1170083131
2064668051,16561,3,0,27063.6224598272,55766.4283648539,27716.9912761287,52336.2451211952,60550.0366938253,42151.2744955516,46052.0190784440,50500.1031675227,53692.7608015009,2001.3671088311
2064668051,16561,3,0,27136.9693362759,55774.4225416666,27715.9691895956,52357.4290813639,60553.4558166326,42146.0910567050,46078.7758437576,50507.1117608928,53682.0045575094,2001.7929782199
2064668051,16561,3,0,27208.0773565092,55776.2355284932,27709.8853411841,52368.1366545681,60552.4945685836,42135.7606821023,46096.1148117303,50511.1271008443,53676.3952492740,1996.0498253195
2064668051,16561,3,0,27190.2030098763,55763.1187513181,27704.7749085185,52350.8220219890,60543.0767712426,42128.9102687910,46076.8898507500,50498.7647208722,53672.9882941636,1993.3972674121
2064668051,16561,3,0,27100.6244258658,55758.1543310143,27702.7185677554,52327.4478763922,60546.1795339325,42143.9008712769,46042.3335917729,50478.6880211144,53670.7372702513,2001.6226304644
2064668051,16561,3,0,27064.7297202381,55767.8884884727,27713.5113148374,52336.4398043443,60558.3593984522,42158.7819644913,46048.9528188446,50488.5803586314,53678.8896271227,2000.6857178091
2064668051,16561,3,0,27135.9107466523,55774.4712124539,27724.4622419780,52364.1213146165,60558.5905846919,42146.0058828272,46088.9845413920,50517.7706633097,53686.6404499989,1987.5811083308
2064668051,16561,3,0,27215.8525147791,55772.6582256273,27715.1904569990,52370.7648770818,60555.8650206035,42132.1347084491,46105.7637953109,50519.8391717696,53678.3664161593,1984.4905133377
2064702087,16562,3,0,27198.9880869825,55771.4536236418,27701.2949472272,52357.8427830559,60558.4810754205,42137.1356318433,46084.8475244723,50500.2491798846,53672.5624247748,1990.1849954509
2064702087,16562,3,0,27111.3685021605,55767.4017805998,27702.6942323618,52340.7228336260,60554.1128722610,42144.3145729688,46057.1903495937,50490.4541839422,53681.2136572159,1990.1484923604
2064702087,16562,3,0,27069.0979233976,55768.7037241598,27710.8465892332,52338.6786605598,60551.9956930138,42151.6516941531,46051.2646812409,50494.2383376541,53686.4944376370,1990.1363246636
2064702087,16562,3,0,27121.8570568218,55781.5649797017,27713.8885134389,52361.5052597996,60562.5450861593,42155.8495495570,46080.7226752493,50509.9346665557,53684.9734755342,1994.6018693976
2064702087,16562,3,0,27206.9214253110,55787.0404432720,27712.5744021820,52379.1605878897,60564.3459052891,42145.7868642844,46108.7327133357,50526.7017527777,53685.8252143118,1988.9438903749
2064702087,16562,3,0,27213.9665217715,55775.0795972950,27704.8965854867,52364.1821531006,60554.7334247990,42132.9986149235,46097.6844446205,50515.9941795735,53680.3619184383,1984.7338672742
2064702087,16562,3,0,27123.2685096533,55770.1030092944,27696.7198932217,52333.5682278941,60554.7212571022,42142.6232631105,46057.3606973492,50485.4167574575,53672.1608907796,1994.1394969183
2064702087,16562,3,0,27064.6080432699,55776.0895161313,27704.4828837948,52336.1599473174,60561.1579687215,42149.8630427201,46050.3156008887,50487.6556136729,53676.7846155723,1995.9159806545
2064723632,16563,3,0,27114.9458050264,55779.5451420290,27714.6672460356,52359.8504530317,60560.3427330344,42139.6665127825,46084.3243135089,50514.9477576467,53684.4624322676,1984.0768116457
2064723632,16563,3,0,27202.5410544548,55777.1724411486,27706.1133551690,52369.6697843678,60554.4779031657,42130.5042370748,46103.6222806700,50516.3957135687,53672.6354309557,1979.7207761831
2064723632,16563,3,0,27211.0584422308,55777.8538321707,27696.1966822583,52363.5859359563,60558.7244293569,42138.9242832763,46093.9854647863,50504.7755631028,53669.0337926961,1984.9650535138
2064723632,16563,3,0,27132.9174932339,55773.1084304097,27700.5162146305,52345.3587261155,60553.3949781485,42143.2803187389,46067.7640781328,50494.4086854096,53676.3709138803,1986.7415372500
2064723632,16563,3,0,27069.2196003658,55768.9714134899,27707.3909633354,52336.6588228871,60550.6450786665,42146.4925907001,46052.8708172216,50491.5492766562,53679.7291982035,1988.1651577783
2064723632,16563,3,0,27096.4387381587,55778.1336891976,27711.1994524410,52356.4556656181,60560.8051055136,42151.9802219673,46076.7803414786,50504.3375260171,53678.4637577339,1991.6937898569
2064723632,16563,3,0,27192.8555677837,55785.9940213452,27712.8907622994,52383.4922879586,60560.9754532692,42142.4164122645,46113.0765811015,50526.0812002397,53681.1528187318,1984.3688363695
2064723632,16563,3,0,27225.4041567851,55777.1967765422,27702.7307354523,52375.1939187254,60552.8109287010,42130.4677339843,46110.0954953799,50518.6467374809,53676.4682554549,1981.2174028924
2064780766,16564,3,0,27148.3704681990,55771.9403315147,27690.0763307564,52346.1009556217,60553.8573506277,42143.6331819468,46071.1588655464,50488.3491723918,53668.3280662804,1991.5721128887
2064780766,16564,3,0,27069.5724635737,55775.2012742633,27694.5540431872,52340.2847965404,60557.4589888873,42154.4015936351,46055.5963813099,50488.3248369981,53675.1663118949,1994.4193539452
2064780766,16564,3,0,27089.8195110870,55776.0165099504,27708.5468945336,52354.6670141851,60552.9812764565,42146.4925907001,46076.3666397867,50511.1392685412,53682.7954578029,1986.6685310690
2064780766,16564,3,0,27177.3904251217,55779.3626265767,27707.2206155799,52369.9739767884,60554.5630770435,42140.1897237459,46101.5781076038,50520.3015442488,53676.1397276407,1987.2160774261
2064780766,16564,3,0,27208.9534306805,55782.9764325331,27700.1025129385,52370.8743863533,60558.9677832934,42142.9639586215,46100.7872073103,50516.0428503608,53674.2537346332,1990.4405170841
2064780766,16564,3,0,27148.3461328054,55774.0453430651,27697.4742904248,52350.7246804145,60552.2390469503,42140.0193759903,46074.3589698109,50504.2645198362,53680.8729617048,1990.1849954509
2064780766,16564,3,0,27065.1920927174,55765.8808184969,27697.8636567231,52332.4244643928,60546.7270802895,42144.3145729688,46049.3665205366,50489.8336314042,53678.3907515530,1990.7325418079
2064780766,16564,3,0,27066.1655084632,55773.4977967080,27701.3192826208,52347.0378682771,60554.9646110386,42151.3109986420,46064.0894336923,50497.3532680408,53677.0036341151,1993.3729320185
2064788397,16565,3,0,27156.7175082196,55778.4500493150,27706.4905537705,52374.0501552240,60553.7721767500,42139.3379849683,46103.8656346065,50520.1798672806,53679.5831858416,1983.6144391665
2064788397,16565,3,0,27207.8218348759,55768.8375688249,27699.0074202244,52370.4485169645,60543.6364852965,42127.8760145610,46107.6132852280,50513.8770003263,53675.1298088044,1980.4995087798
2064788397,16565,3,0,27148.8328406783,55761.6464600025,27687.8374745410,52342.5601558463,60542.5292248856,42137.1843026306,46071.0736916687,50484.5893540735,53665.2739743778,1989.1142381304
2064788397,16565,3,0,27061.5904544578,55763.6297945846,27695.4422850553,52331.9864273071,60545.2669566707,42142.0392136629,46048.6851295145,50482.2896593740,53673.7426913666,1991.1584111967
2064788397,16565,3,0,27059.3881013328,55764.1530055480,27708.6807391987,52340.8931813815,60542.7725788220,42135.4199865913,46059.6847274424,50497.9129820946,53677.3321619294,1982.8843773571
2064788397,16565,3,0,27139.0500124326,55768.0831716218,27707.8898389052,52357.0518827624,60544.8532549788,42131.1369573096,46084.9935368341,50505.5421280026,53666.9409488426,1981.6189368875
2064788397,16565,3,0,27192.0403320966,55768.6915564630,27701.5748042541,52363.4155882008,60548.2480423924,42131.2221311874,46094.8980420480,50505.0797555233,53660.1148709249,1983.1033958999
2064788397,16565,3,0,27157.9829486891,55760.5270318948,27700.2728606940,52349.5809169131,60540.9352566018,42128.7034179450,46075.8434288233,50495.7471320601,53663.1081243433,1985.3179167217
2064820086,16566,3,0,27072.1276799065,55754.3823449992,27698.9952525276,52332.3271228182,60540.8865858145,42137.0261225719,46050.1087500428,50481.2189020535,53662.9377765878,1994.4801924294
2064820086,16566,3,0,27051.1505705837,55762.3886895087,27701.3314503176,52343.7039193476,60548.1993716051,42142.4407476581,46057.7622313444,50486.2928316287,53663.5461614290,1998.1913399604
2064820086,16566,3,0,27130.4961215661,55763.4229437387,27703.3147848998,52368.6842009251,60543.8190007488,42125.3938044092,46094.2531541164,50509.7886541938,53663.2054659179,1984.6851964869
2064820086,16566,3,0,27197.4549571828,55751.9731410283,27692.7532240574,52363.5737682595,60533.6589739017,42112.6785612292,46102.2960017163,50504.8120661932,53655.5276492226,1979.8789562418
2064820086,16566,3,0,27160.4529911442,55746.8870437563,27680.6828688091,52341.0756968339,60533.7928185667,42125.5398167710,46071.7307472971,50479.1017228064,53650.8674213395,1991.9979822775
2064820086,16566,3,0,27069.3047742435,55744.7698645091,27684.5156933083,52324.4667906706,60533.8536570508,42134.9332787184,46043.6842061202,50473.6140915392,53660.0662001376,1997.3517688796
2064820086,16566,3,0,27044.8963744167,55745.9744664946,27696.6225516471,52327.3261994239,60530.2763541849,42136.0405391292,46047.8455584337,50483.4455905721,53666.9409488426,1997.1205826399
2064820086,16566,3,0,27114.9093019359,55755.1854129895,27701.1124317748,52348.1816317785,60536.4210410805,42134.8967756279,46076.6464968136,50495.4794427300,53661.0517835803,1997.4491104542
2064849731,16567,3,0,27187.2949303356,55760.1376655965,27694.5783785809,52360.6413533252,60536.6765627137,42125.6249906488,46094.3139926005,50501.0279124813,53656.5619034526,1991.7059575537
2064849731,16567,3,0,27175.3705874491,55752.5693581726,27690.0641630596,52348.2546379594,60528.1956780282,42119.5654776310,46078.6906698798,50491.6466182308,53658.6182442157,1987.7271206926
2064849731,16567,3,0,27084.4657244849,55747.3615839324,27684.9293950003,52323.5907164993,60528.2808519059,42131.9643606935,46042.7229580712,50470.0732917637,53659.5551568710,1996.4148562242
2064849731,16567,3,0,27041.4042454285,55755.0272329308,27690.8428956562,52328.4699629253,60538.2461956039,42143.4628341912,46040.8613004573,50475.9746247229,53665.5051606175,2001.0385810169
2064849731,16567,3,0,27107.3409945121,55760.4418580170,27702.3535368507,52355.0198773930,60538.8910835355,42130.9057710700,46077.6929187404,50505.6029664867,53673.9373745158,1990.5500263556
2064849731,16567,3,0,27189.5946250352,55754.2850034246,27695.5761297204,52359.1812297064,60529.8626524929,42118.2026955868,46092.7443597103,50506.3208605993,53663.5461614290,1985.4639290836
2064849731,16567,3,0,27176.5021832537,55749.0163907003,27681.8509677041,52343.7769255286,60529.3637769232,42119.4803037532,46072.7650015271,50483.7011122054,53650.8309182490,1995.5144466593
2064849731,16567,3,0,27085.7676680450,55742.5066729000,27682.5080233325,52325.3550325386,60524.0099903211,42121.6461537877,46042.5282749221,50467.3355599786,53653.7146623960,1995.5631174466
2064902432,16568,3,0,27036.0991296137,55734.8410239016,27690.1371692405,52319.4050287922,60516.7945461051,42122.3032094161,46035.8117062758,50466.5811627755,53655.6128231004,1987.8731330545
2064902432,16568,3,0,27083.2489548026,55745.2444046852,27692.8262302384,52340.3091319340,60523.5719532354,42128.4722317054,46061.1326833643,50477.2887359797,53651.7434955107,1982.6045203302
2064902432,16568,3,0,27171.0510550770,55751.7784578791,27693.0330810844,52362.3204954867,60530.8117328451,42125.3816367123,46089.5685908396,50494.3965177128,53651.9260109631,1973.0650460210
2064902432,16568,3,0,27184.7032109123,55745.8527895263,27690.7942248690,52351.6494253730,60526.0784987810,42118.6772357629,46081.7325940856,50489.6511159518,53654.1161963912,1967.4070669983
2064902432,16568,3,0,27100.8677798023,55743.6261010077,27686.6937110396,52324.6493061229,60529.3881123168,42129.2752996957,46041.6643684476,50466.4229827168,53652.8020851343,1978.8081989214
2064902432,16568,3,0,27041.2217299762,55753.5914447057,27693.2277642335,52325.9269142893,60541.2394490223,42142.6354308073,46034.7287812585,50470.7546827858,53660.2365478931,1988.6275302575
2064902432,16568,3,0,27088.6879152825,55761.0137397677,27707.7681619370,52350.4448233875,60542.1276908904,42139.7760220539,46066.9366747489,50501.2834341146,53670.5060840117,1986.7658726436
2064902432,16568,3,0,27182.2940069414,55765.4671168049,27709.0579378002,52365.6544444162,60544.0623546853,42135.0914587770,46094.1679802386,50511.0297592697,53666.6854272093,1991.4626036173
2064907126,16569,3,0,27200.0831796965,55771.0034188593,27703.5094680489,52364.5593517021,60553.6748351754,42142.1487229344,46092.2089810501,50502.0865021049,53664.9941173509,2002.5838785134
2064907126,16569,3,0,27123.4875281961,55767.2801036315,27706.8312492816,52346.6606696756,60551.5576559282,42146.2614044605,46066.3282899077,50493.8368036589,53673.5358405206,2006.3923676190
2064907126,16569,3,0,27056.2123324621,55764.4937010591,27714.9471030625,52335.4177178112,60546.5567325340,42148.6584407346,46049.5125328984,50487.5704397951,53679.2911611179,2009.6533103676
2064907126,16569,3,0,27078.6860684940,55773.1449335002,27718.3297227793,52349.2158860084,60554.0033629896,42153.9757242463,46064.7951601080,50494.4695238937,53676.5412616359,2012.8534146320
2064907126,16569,3,0,27170.6251856882,55779.5938128163,27719.9723618504,52372.1276591260,60554.4048969848,42143.3289895262,46098.6213572758,50512.5507213726,53675.1298088044,2003.4477849879
2064907126,16569,3,0,27205.8871710811,55769.7014752993,27713.5356502310,52363.8171221959,60545.6319875754,42130.0661999892,46095.9322962779,50506.6128853230,53672.4285801097,1996.9989056717
2064907126,16569,3,0,27132.3334437864,55762.4738633865,27701.1854379557,52334.6754883050,60544.2205347440,42135.2861419262,46055.8762383368,50477.6172637939,53663.7651799718,2004.7862316384
2064907126,16569,3,0,27053.3772591023,55766.5500418221,27701.0880963812,52329.1148508569,60548.8077564462,42149.2424901821,46041.0559836065,50473.4924145710,53667.3424828377,2006.7330631301
2064957110,16570,3,0,27073.4052880729,55768.5455441011,27711.6618249203,52347.5975823310,60548.8807626272,42147.5268449301,46066.6689854188,50498.5700377231,53677.5025096849,1997.6437936033
2064957110,16570,3,0,27163.3732383817,55770.7113941356,27709.7636642159,52364.1334823133,60550.1462030967,42140.7251024061,46095.2144021654,50508.1703505164,53670.9197857037,1995.2224219356
2064957110,16570,3,0,27197.8078203906,55775.9435037695,27703.4242941712,52364.3525008562,60556.5099085351,42142.3920768708,46094.3383279941,50500.8453970289,53663.1081243433,1999.9678236965
2064957110,16570,3,0,27140.3032852054,55773.0354242288,27705.9430074135,52346.6971727661,60552.5675747645,42142.8179462596,46066.6446500251,50490.7340409691,53668.8634449406,2001.3427734375
2064957110,16570,3,0,27061.9311499688,55770.8574064975,27710.9682662014,52329.5163848521,60550.1705384904,42146.9427954826,46041.2871698461,50481.6569391392,53673.1951450096,2004.5793807924
2064957110,16570,3,0,27064.6202109667,55782.9886002299,27717.4293132144,52341.9517710051,60560.8537763009,42156.2389158553,46054.1605930848,50489.7606252232,53675.6043489805,2009.6168072771
2064957110,16570,3,0,27156.5471604640,55788.3910576193,27720.6294174788,52365.6301090226,60560.1358821884,42143.2803187389,46092.4766703802,50515.0450992213,53676.2492369121,1997.8993152366
2064957110,16570,3,0,27209.1116107391,55778.0120122294,27711.9051788568,52360.6170179315,60549.2701289255,42120.0278501102,46095.9444639748,50510.9324176952,53668.1942216153,1989.9173061208
2064982060,16571,3,0,27152.4344789379,55767.3044390252,27698.6180539261,52334.1522773416,60546.8244218641,42128.8494303069,46059.0520072076,50481.3892498091,53657.4744807143,1999.7366374569
2064982060,16571,3,0,27062.6612117782,55770.9912511625,27704.6167284598,52328.8228261332,60551.7401713805,42149.8752104169,46041.1289897874,50476.3883264148,53664.4952417812,2006.0638398048
