steady_timestamp,sequence,battery,flags,EEG-ch1,EEG-ch2,EEG-ch3,EEG-ch4,EEG-ch5,EEG-ch6,EEG-ch7,EEG-ch8,EEG-ch9,EEG-ch10
8191785842,21032,-2,0,44109.8478146564,62810.7582604375,40212.4736837840,57694.0227278476,71472.1020576091,51317.1761768801,43400.7631146027,63491.6017361652,31016.6394682710,22436.8314075099
8191785842,21032,-2,0,44113.3764467351,62811.2084652199,40207.3267480279,57691.4796792116,71473.5500135310,51316.7746428850,43396.2854021718,63489.5940661894,31005.9562304604,22447.2956267776
8191785842,21032,-2,0,44124.6924047804,62818.4969156169,40207.8621266881,57699.0114835450,71480.6437807788,51322.6881435409,43401.5418471993,63493.6459092315,31007.0756585681,22450.9824389150
8191785842,21032,-2,0,44119.8739968385,62817.0732950886,40217.7301288115,57706.3607724260,71474.6207708515,51321.2401876190,43411.4098493227,63493.3660522045,31018.5862997627,22439.8124932315
8191785842,21032,-2,0,44110.6143795563,62808.2273794983,40208.8842132212,57695.2760006203,71467.5270036037,51312.5159489969,43406.3967582317,63485.7490739934,31008.8764776979,22433.7651479105
8191785842,21032,-2,0,44111.1132551260,62805.1246168085,40196.0594607698,57685.3958308001,71474.2070691595,51318.1982634133,43392.0510436774,63488.6693212309,30997.8525443764,22439.1919406935
8191785842,21032,-2,0,44107.6332938346,62808.0691994396,40201.4862535529,57687.6468547123,71473.5986843183,51314.3776066108,43393.4259934184,63493.0375243903,31007.2703417173,22434.2761911771
8191785842,21032,-2,0,44098.1546580096,62807.5946592635,40201.1698934355,57688.0483887075,71466.6996002197,51309.1454969770,43400.5805991503,63490.0929417592,31007.6475403188,22431.5019563014
8191812385,21033,-2,0,44105.1145805923,62813.2161351957,40193.6502567989,57691.8812132067,71471.6275174330,51323.8319070423,43402.0893935564,63494.0839463171,30999.1788233301,22442.5745604103
8191812385,21033,-2,0,44114.8730734443,62826.6492724883,40206.0369721646,57704.3409347534,71487.5063617870,51338.1654538997,43409.2074961978,63505.6797613894,31018.4646227944,22442.0270140533
8191812385,21033,-2,0,44112.0988385687,62830.9809725572,40219.1415816430,57712.5784655026,71491.4851986481,51340.8666825944,43415.8145555726,63509.4639151013,31035.9861062195,22437.0625937495
8191812385,21033,-2,0,44118.9492518800,62827.8052036864,40210.3321691431,57707.6748836829,71496.3401096804,51328.9301720111,43408.9519745645,63508.5026670523,31023.5385523696,22438.6808974270
8191812385,21033,-2,0,44126.3715469420,62827.7321975055,40201.4010796751,57707.3950266560,71496.7781467660,51315.1685069043,43406.1412365984,63508.5878409300,31016.7854806329,22427.7908087704
8191812385,21033,-2,0,44117.7689852882,62822.1715600574,40197.5925905695,57706.0079092182,71475.7280312623,51301.9543881546,43411.3368431418,63502.0902908266,31013.1960100701,22417.7402911947
8191812385,21033,-2,0,44114.5932164174,62815.1507989906,40186.8485142749,57696.5536087867,71478.3075829888,51313.7935571633,43403.4035048132,63497.1258705228,30996.7817870559,22426.7808899341
8191812385,21033,-2,0,44123.2201134648,62820.3342378371,40197.7264352346,57700.5932841320,71497.2526869421,51336.7174979778,43399.4125002553,63505.0227057609,31005.9075596731,22434.7142282627
8191869992,21034,-2,0,44110.6387149499,62816.7691026680,40212.9968947474,57700.7271287970,71488.1269143249,51327.9445885684,43401.1038101137,63501.7739307092,31021.5795531811,22427.3406039880
8191869992,21034,-2,0,44101.4399361518,62812.9119427752,40211.5246034318,57699.5225268115,71479.6703650330,51311.3600177988,43402.2475736151,63493.4147229918,31017.3208592931,22421.7312957526
8191869992,21034,-2,0,44099.4931046601,62815.1994697779,40199.3204035184,57698.3300925229,71483.3936802608,51308.7926337691,43397.8185319715,63492.8063381507,31002.4884368659,22425.4424432836
8191869992,21034,-2,0,44095.3560877403,62818.2292262868,40202.3379923305,57701.0313212176,71485.8880581095,51308.1842489280,43399.9600466123,63497.2840505815,31008.2315897663,22418.5190237914
8191869992,21034,-2,0,44085.5124210105,62810.4297326233,40193.1878843196,57689.0948106343,71463.6090052267,51299.6303580614,43393.6815150517,63493.5729030505,31005.0679885924,22417.8132973756
8191869992,21034,-2,0,44100.1379925917,62810.8677697089,40181.8232554870,57686.7951159347,71482.5662768769,51315.4726993249,43382.8157617888,63497.6612491830,30993.7520305470,22432.8160675583
8191869992,21034,-2,0,44110.3953610134,62823.6681867666,40194.9035295717,57701.2868428509,71495.0016630299,51323.8684101327,43393.9127012913,63506.2638108369,31011.4803648181,22432.5605459250
8191869992,21034,-2,0,44093.7499517597,62816.9151150299,40201.1942288291,57706.1295861864,71474.7302801229,51309.1941677643,43404.6689452828,63494.4854803122,31022.8449936507,22416.5843599965
8191909642,21035,-2,0,44088.4570036417,62803.3846361628,40190.9976988915,57692.6112750161,71463.4751605616,51309.8390556959,43394.4845830420,63484.1551057096,31006.8444723285,22421.8529727208
8191909642,21035,-2,0,44102.0726563866,62802.8857605930,40189.7079230283,57689.2286552993,71474.4382553991,51321.4105353745,43383.7161713537,63489.0830229229,31001.4541826360,22431.4776209078
8191909642,21035,-2,0,44104.8103881717,62806.9619390287,40205.2582395680,57695.7627084932,71477.1881548811,51317.6142139657,43387.8166851830,63492.1736179159,31014.4736182365,22431.0152484285
8191909642,21035,-2,0,44099.7364585966,62805.6721631655,40196.3028147063,57697.3080059898,71471.2503188315,51303.9742258272,43387.9505298481,63486.2114464726,31007.2825094141,22428.9832430591
8191909642,21035,-2,0,44109.2272621185,62812.8511042910,40187.0066943336,57704.4382763280,71478.2954152920,51303.3050025020,43392.9879563328,63488.0366009961,30996.0638929434,22433.1689307662
8191909642,21035,-2,0,44102.1091594770,62809.5536584520,40186.9823589399,57706.6406294530,71469.8023629096,51298.4987622569,43397.0154639812,63485.9072540521,31000.4685991933,22423.1427485841
8191909642,21035,-2,0,44090.7445306444,62797.5563093846,40185.6317445926,57698.0015647087,71458.0605354754,51293.8020312833,43395.5066695751,63477.6088848188,30997.3536688066,22416.7912108425
8191909642,21035,-2,0,44097.0595652955,62790.9249146161,40176.6033135500,57688.5715996709,71464.7527687281,51301.1634878611,43384.5192393440,63476.2339350778,30984.7966056853,22423.6537918506
8191914005,21036,-2,0,44106.3435179714,62796.9965953307,40180.2657902937,57695.4950191631,71459.1677958863,51298.3040791077,43387.2326357355,63481.0158399292,30984.1760531474,22423.3739348237
8191914005,21036,-2,0,44116.3940355472,62803.3116299819,40185.2302105974,57707.5653744115,71467.8676991147,51303.7065364971,43400.9212946613,63489.8495878227,30989.3351566003,22423.6781272443
8191914005,21036,-2,0,44111.4539506370,62805.4653123195,40186.7146696098,57707.8208960448,71480.6559484756,51311.0923284687,43402.1137289500,63487.3430422772,30989.6758521113,22419.4072656594
8191914005,21036,-2,0,44104.4088541766,62802.0461895123,40185.9846078004,57703.3796867044,71478.1980737174,51310.8733099258,43398.6094322650,63486.3696265313,30995.0783095007,22416.7182046616
8191914005,21036,-2,0,44087.2889047467,62794.5265528757,40188.7588426761,57697.8920554373,71466.1277184691,51305.7750449570,43394.5454215261,63477.3046923983,31003.8755543037,22409.0403879663
8191914005,21036,-2,0,44082.6651799540,62790.2313558972,40183.2225406216,57692.3435856860,71460.1168762385,51304.5704429716,43388.3642315401,63470.3691052092,30995.1391479848,22414.9782240159
8191914005,21036,-2,0,44098.4345150365,62800.2697057761,40183.9526024310,57700.9704827335,71467.3444881513,51314.6696313346,43390.6395908460,63477.5723817284,30993.1314780091,22425.8683126724
8191914005,21036,-2,0,44098.6170304888,62808.9696090045,40196.1933054349,57710.2909384998,71468.3179038972,51319.3420269146,43401.4445056247,63482.0744295528,31008.1950866759,22423.8484749998
8191943636,21037,-2,0,44086.5710106341,62801.0362706760,40193.6137537084,57701.9682338729,71460.0803731481,51316.9936614278,43397.7333580937,63478.2537727504,31006.0779074287,22423.7998042125
8191943636,21037,-2,0,44096.0861495497,62799.0529360938,40185.2180429006,57696.8212981168,71473.7446966802,51323.8440747391,43388.9969517749,63485.2623661205,30997.4388426844,22433.8624894851
8191943636,21037,-2,0,44106.7207165729,62808.9087705204,40200.3546577483,57708.9159887588,71476.7744531891,51325.3163660547,43396.1515575068,63496.8095104054,31010.4461105881,22435.0792591674
8191943636,21037,-2,0,44109.0447466661,62814.5545818462,40206.3776676757,57717.5672212000,71478.3805891698,51319.0621698877,43409.5238563152,63502.1876324012,31015.5200401633,22438.8877482730
8191943636,21037,-2,0,44113.4616206128,62821.8308645464,40202.4961723892,57718.2121091316,71487.1413308823,51322.9436651742,43409.8888872199,63503.3557312962,31013.1230038892,22440.8710828551
8191943636,21037,-2,0,44106.3191825778,62819.4703313627,40199.5394220612,57710.1084230475,71481.8483827643,51320.9724982889,43403.5981879624,63497.6004106989,31015.7390587061,22433.5217939741
8191943636,21037,-2,0,44095.3925908308,62805.5018154100,40193.8327722512,57698.8289680926,71450.7964204722,51302.4897668148,43395.7013527243,63487.3917130645,31011.2370108816,22431.0274161253
8191943636,21037,-2,0,44105.9419839763,62799.3571285144,40184.6218257563,57697.8312169531,71468.1962269290,51315.3875254471,43388.8266040193,63487.4282161549,30997.9133828605,22436.0405072164
8191975746,21038,-2,0,44113.8388192143,62809.7605092980,40193.4920767402,57711.3008573361,71480.7654577471,51332.0572700946,43395.1173032768,63494.5949895837,31006.4551060302,22434.6777251722
8191975746,21038,-2,0,44102.9122274673,62817.0489596949,40211.5489388254,57725.0260193524,71477.3463349398,51329.6845692141,43414.0380718365,63492.9523505126,31027.5660600180,22423.2279224618
8191975746,21038,-2,0,44089.0653884828,62808.7140873712,40205.7449474409,57717.5063827158,71468.9992949193,51322.1162617902,43412.9429791224,63481.6972309513,31020.5452989511,22425.0652446821
8191975746,21038,-2,0,44098.0694841318,62802.7884190185,40191.8007668818,57707.8695668321,71474.4504230959,51322.4326219076,43398.3174075412,63482.2934480957,31006.2847582747,22437.4032892606
8191975746,21038,-2,0,44111.7581430576,62806.8767651510,40196.2298085254,57715.0606756544,71478.3684214729,51317.0301645182,43400.8117853899,63488.5719796563,31012.4537805639,22435.6876440085
8191975746,21038,-2,0,44107.8523123775,62808.4098949507,40194.8913618748,57717.4820473222,71462.5139125126,51300.7741215628,43405.6180256350,63484.9460060031,31008.7304653361,22426.2576789708
8191975746,21038,-2,0,44116.0655077329,62813.6541722813,40186.2401294337,57715.7664020702,71476.0687267734,51315.8985687137,43403.8658772925,63489.6792400672,30992.2797392315,22430.5893790397
8191975746,21038,-2,0,44120.2268600464,62825.1891488695,40200.5128378070,57720.1832760169,71494.2837689173,51333.7850830434,43406.9321368919,63501.6279183473,31003.4131818244,22424.9557354107
8192020888,21039,-2,0,44110.0181624119,62824.2035654268,40214.7003723026,57718.6501462172,71490.1345843007,51339.7229190930,43408.8668006867,63498.8780188653,31017.2965238994,22415.3067518301
8192020888,21039,-2,0,44111.8068138449,62822.5730940526,40212.5953607522,57712.9556641041,71490.7308014450,51328.3461225636,43403.8172065052,63494.7288342487,31006.8201369349,22420.5510291608
8192020888,21039,-2,0,44117.4769605644,62822.4270816907,40206.9495494264,57714.3184461482,71492.1300865797,51316.5677920390,43401.1281455073,63492.7576673634,30999.6168604157,22426.2090081835
8192020888,21039,-2,0,44107.7306354092,62820.9912934656,40210.4295107177,57718.3702891903,71477.2246579716,51299.7763704233,43409.2561669851,63484.1429380127,31002.9873124356,22420.5753645544
8192020888,21039,-2,0,44096.3781742734,62809.6023292393,40194.5750017574,57704.8154749295,71462.9519495983,51289.2391449747,43402.0285550722,63470.4786144806,30987.6560144387,22424.2256736013
8192020888,21039,-2,0,44104.6887112035,62803.7253316738,40179.8034178144,57696.5657764836,71462.0515400334,51302.8669654163,43389.0821256526,63473.2163462657,30975.1962928920,22439.7029839601
8192020888,21039,-2,0,44112.9505773463,62806.8645974542,40186.6173280352,57703.2823451298,71463.1831358379,51310.0824096323,43391.0897956284,63485.2380307268,30987.2666481404,22442.5502250167
8192020888,21039,-2,0,44109.2394298153,62813.0457874402,40195.0982127208,57713.9290798499,71477.6748627540,51313.9639049189,43400.2277359424,63490.8960097495,31000.6754500393,22431.8791549030
8192038611,21040,-2,0,44106.2583440937,62822.1228892701,40196.3149824031,57716.4356253954,71484.2210836448,51320.1329272081,43403.2331570577,63490.5553142384,31001.7097042692,22426.1238343057
8192038611,21040,-2,0,44105.5161145875,62827.2576573294,40206.7792016708,57719.6600650535,71487.1291631855,51329.0153458888,43408.2827512392,63494.3394679504,31016.7003067551,22422.2180036255
8192038611,21040,-2,0,44098.6778689730,62821.7456906686,40212.9117208696,57714.5131292974,71477.7965397223,51326.2776141037,43409.1588254105,63487.6594023946,31023.3073661300,22418.7015392437
8192038611,21040,-2,0,44110.9307396737,62814.0070354892,40201.4497504624,57708.2224300399,71482.3837614245,51322.7246466314,43398.8649538983,63487.4647192454,31008.9129807884,22430.8449006730
8192038611,21040,-2,0,44125.6293174358,62817.6330091425,40202.7151909320,57714.8659925053,71490.4631121149,51322.1162617902,43401.0308039328,63497.1380382197,31009.8498934438,22434.3248619644
8192038611,21040,-2,0,44108.3268525536,62816.6109226093,40210.0523121162,57717.0683456302,71467.9407052957,51317.1640091833,43406.1047335079,63492.2222887032,31014.1207550286,22425.8196418851
8192038611,21040,-2,0,44107.1587536586,62817.2923136314,40207.3389157247,57714.8781602021,71482.8583016006,51328.2366132922,43407.9785588187,63494.4003064345,31005.8710565827,22431.2707700618
8192038611,21040,-2,0,44113.6198006715,62823.9602114904,40207.7526174167,57717.0196748429,71498.9683321942,51333.7972507403,43409.5725271025,63502.2971416726,31007.5380310474,22432.3171919886
8192067087,21041,-2,0,44105.8203070080,62820.5045855927,40211.1230694366,57720.4022945597,71493.0791669319,51320.9724982889,43414.5491151030,63500.4963225428,31018.4159520071,22418.8962223929
8192067087,21041,-2,0,44098.8117136380,62816.2093886142,40207.2537418469,57719.1125186965,71486.2530890142,51315.8498979264,43415.7658847853,63496.1524547770,31014.1815935127,22412.7272001036
8192067087,21041,-2,0,44108.1686724949,62820.0787162039,40204.0779729761,57722.7628277434,71491.3026831957,51324.0630932819,43414.1597488047,63496.9555227673,31002.1234059612,22421.6461218749
8192067087,21041,-2,0,44114.5202102364,62831.1148172223,40214.7855461803,57731.3775570940,71501.4992131333,51328.2487809890,43419.3188522576,63505.7040967830,31015.6782202220,22423.6537918506
8192067087,21041,-2,0,44106.0758286413,62830.8592955890,40217.1704147576,57728.8466761548,71496.1089234408,51321.6417216141,43418.8564797784,63504.4021532229,31025.7044024041,22422.7777176794
8192067087,21041,-2,0,44110.1763424706,62826.8561233342,40204.2239853380,57718.1756060411,71498.9561644973,51323.4182053503,43404.5351006178,63502.1632970075,31015.5565432537,22431.8791549030
8192067087,21041,-2,0,44127.1381118418,62833.5726919805,40204.6376870300,57726.7903353917,71499.2968600084,51332.4588040897,43408.9276391708,63513.7712797766,31018.8539890928,22443.7061562149
8192067087,21041,-2,0,44124.5707278122,62837.8800566558,40216.2091667086,57736.7921821802,71505.3807084199,51332.6048164516,43420.6938019986,63522.0088105257,31035.8887646449,22439.1797729967
8192098426,21042,-2,0,44110.5900441626,62831.7718728507,40213.3740933489,57726.1941182474,71500.7448159303,51326.8129927639,43418.4914488737,63512.5058393070,31030.9730151284,22431.2220992745
8192098426,21042,-2,0,44105.3214314383,62824.8971241457,40208.3366668642,57716.1314329748,71496.8389852502,51323.8805778296,43410.3269243055,63506.7018479225,31028.3326249178,22431.0274161253
8192098426,21042,-2,0,44093.1172315249,62813.8001846432,40204.3456623063,57708.9038210620,71484.1602451606,51310.8976453195,43405.7762056937,63496.3228025325,31032.4696418376,22426.0751635184
8192098426,21042,-2,0,44087.7999480132,62802.3138788424,40189.5984137569,57700.7027934034,71472.9781317804,51300.7132830787,43398.7432769300,63484.5201366143,31018.2699396453,22427.3892747753
8192098426,21042,-2,0,44108.0591632235,62809.6753354202,40184.9625212673,57709.0254980303,71480.8141285343,51307.8678888106,43398.0740536048,63490.4214695734,31005.9562304604,22437.9021648303
8192098426,21042,-2,0,44113.9848315762,62816.7325995776,40192.7620149308,57714.5252969942,71469.9118721810,51310.8246391385,43404.5472683146,63498.4886525670,31009.8377257470,22443.0004297991
8192098426,21042,-2,0,44113.3642790383,62817.1097981791,40199.8192790881,57713.8074028817,71477.0299748224,51321.4105353745,43403.6346910529,63501.4454028950,31012.5754575321,22449.4614768121
8192098426,21042,-2,0,44112.5247079575,62814.9561158414,40196.7530194887,57706.4581140006,71489.2828455231,51322.0189202157,43394.6062600102,63500.3989809682,31010.8233091896,22446.4803910905
8192143592,21043,-2,0,44104.4453572670,62812.2427194499,40200.4763347166,57707.6870513797,71487.3846848187,51318.3686111688,43393.9978751691,63495.2033744248,31018.6471382468,22422.7655499826
8192143592,21043,-2,0,44090.3794997397,62808.6897519776,40209.1032317640,57711.4712050917,71474.7667832133,51313.7692217697,43404.9731377034,63486.8319990106,31025.1933591375,22398.0772931288
8192143592,21043,-2,0,44090.0266365318,62806.6334112145,40199.2960681247,57706.2269277610,71473.3309949882,51313.0391599603,43403.7563680211,63478.8743252884,31010.7016322214,22401.2773973933
8192143592,21043,-2,0,44099.1889122395,62810.1620432932,40195.0738773272,57705.9227353404,71478.9524709204,51319.6948901225,43399.4855064362,63485.4692169664,31007.0756585681,22412.4960138640
8192143592,21043,-2,0,44096.5241866353,62811.6221669119,40201.6809367020,57705.0223257755,71471.4693373743,51312.9174829921,43398.3295752381,63490.2997926052,31014.1694258159,22419.5289426277
8192143592,21043,-2,0,44103.8978109100,62806.8524297573,40190.7421772582,57698.4517694911,71466.5535878579,51307.0891562139,43387.7315113053,63489.3020414657,30996.4897623322,22435.2009361356
8192143592,21043,-2,0,44125.0817710787,62815.2968113524,40190.0972893266,57706.6771325434,71484.4279344908,51318.0887541418,43388.1817160877,63500.0582854572,30989.2134796321,22439.6908162633
8192143592,21043,-2,0,44125.5319758612,62822.2810693288,40206.2559907075,57722.9818462862,71487.8105542075,51320.4249519318,43403.9388834734,63502.7716818487,31010.9936569451,22427.2797655039
8192162128,21044,-2,0,44109.1177528470,62815.7956869222,40205.3555811426,57718.9908417282,71474.6816093356,51304.4731013970,43407.1146523442,63488.9613459546,31011.5533709990,22415.2459133460
8192162128,21044,-2,0,44105.5282822843,62809.2129629410,40185.8264277417,57706.3729401229,71475.9957205925,51296.1747321637,43396.6991038638,63482.3177834893,30996.7817870559,22418.5311914882
8192162128,21044,-2,0,44104.1411648465,62806.9132682414,40182.0301063330,57705.7402198881,71473.5986843183,51294.3009068530,43394.3629060738,63482.2204419147,30999.0084755745,22418.0809867057
8192162128,21044,-2,0,44102.3525134135,62805.9763555861,40183.2103729248,57710.6438017077,71467.1376373053,51295.7610304717,43401.6270210771,63480.0667595771,31002.7926292865,22416.0733167300
8192162128,21044,-2,0,44109.5192868422,62811.6099992151,40181.7624170029,57712.0065837519,71469.7171890318,51305.4830202333,43403.0019708181,63480.3831196945,30993.7520305470,22427.8759826482
8192162128,21044,-2,0,44107.7428031060,62815.5036621984,40191.3627297962,57710.5099570427,71468.5855932273,51311.9440672463,43401.2863255660,63484.3741242524,30996.1612345180,22436.4785443020
8192162128,21044,-2,0,44103.2894260689,62810.5392418947,40201.4619181592,57706.4581140006,71460.1290439353,51311.4573593733,43401.7365303485,63485.4205461792,31001.7705427533,22444.8012489289
8192162128,21044,-2,0,44104.3845187829,62810.4905711074,40203.9197929175,57702.0169046602,71470.4107477507,51314.9373206647,43395.9203712671,63484.8121613380,31002.2085798390,22448.3907194917
8192187614,21045,-2,0,44107.8523123775,62812.8754396847,40203.3479111668,57704.7911395359,71474.5112615801,51317.5412077848,43394.7887754626,63483.4615469907,31005.5060256780,22440.9805921265
8192187614,21045,-2,0,44100.3205080441,62811.0137820708,40205.4407550203,57710.2057646221,71453.9600216461,51304.2175797637,43400.7144438154,63475.9784134446,31015.8364002807,22420.1251597720
8192187614,21045,-2,0,44092.3384989282,62799.8195009937,40193.8571076449,57702.3576001713,71447.8031670537,51301.2364940421,43398.2200659667,63467.4488579717,31001.4176795455,22414.9660563191
8192187614,21045,-2,0,44096.5606897258,62793.3949570711,40179.6574054525,57696.2129132757,71458.6445849229,51302.6966176608,43385.3709781216,63469.6147080062,30986.6217602088,22419.7479611705
8192187614,21045,-2,0,44091.0852261554,62795.9015026167,40185.8507631354,57698.5856141562,71459.1312927959,51300.6646122914,43388.1087099068,63476.7814814349,30999.0936494523,22420.4780229799
8192187614,21045,-2,0,44077.7737658311,62793.9668388218,40185.6074091989,57695.7383730996,71451.2952960419,51284.9804510866,43391.4791619267,63470.7828069012,31000.1644067727,22416.8520493266
8192187614,21045,-2,0,44086.9360415388,62793.7356525822,40171.1643530701,57691.6743623607,71445.2966215082,51283.3134766219,43386.8311017404,63468.6412922603,30981.5113275432,22422.3153452001
8192187614,21045,-2,0,44094.0054733930,62800.4765566221,40178.3797972861,57695.4585160727,71454.8725989078,51297.0508063350,43387.2326357355,63472.9243215420,30988.5564240036,22414.2968329938
8192248267,21046,-2,0,44076.3136422124,62794.0398450028,40185.5830738053,57689.6058539008,71446.6715712492,51300.7497861692,43387.1717972514,63466.6701253750,31000.4077607092,22401.2530619996
8192248267,21046,-2,0,44069.6457443534,62787.2137670851,40179.2437037605,57679.9812057139,71446.4403850095,51300.5551030200,43376.0870254457,63463.5795303820,30993.6060181852,22407.6776059221
8192248267,21046,-2,0,44075.5470773125,62791.4237901858,40176.3356242198,57684.2520672987,71457.2331320915,51303.5361887416,43376.8535903456,63471.6588810724,30993.1679810995,22412.6055231354
8192248267,21046,-2,0,44072.8701840115,62794.8307452963,40186.7268373066,57693.9497216666,71451.3317991324,51297.0994771223,43389.2159703177,63475.0415007892,31004.8368023527,22399.8172737745
8192248267,21046,-2,0,44075.4375680411,62790.2678589877,40182.1031125139,57691.4066730306,71439.0302576444,51290.2490638110,43388.2790576623,63469.0793293459,30995.0904771976,22400.7298510362
8192248267,21046,-2,0,44089.5520963558,62791.9470011492,40175.3743761708,57690.1290648642,71458.2065478373,51301.7597050055,43381.8423460430,63480.1519334548,30984.4315747807,22415.3432549206
8192248267,21046,-2,0,44086.4006628786,62796.3395397023,40189.9147738742,57697.4175152612,71467.5878420878,51302.5992760862,43388.7657655352,63489.0100167419,30999.8358789585,22419.5289426277
8192248267,21046,-2,0,44077.6034180756,62794.9159191740,40191.1923820407,57700.7149611002,71463.5603344394,51295.7245273813,43393.8640305040,63485.8464155680,31001.1743256090,22419.9669797133
8192288312,21047,-2,0,44087.5079232895,62797.3737939323,40178.9273436431,57701.0313212176,71464.8257749090,51296.0773905891,43391.8198574378,63481.4295416212,30983.0809604333,22427.8881503450
8192288312,21047,-2,0,44093.0685607376,62805.4409769259,40185.8629308322,57708.2224300399,71467.0889665181,51302.1247359101,43395.7865266021,63487.6715700914,30987.4613312896,22423.8241396062
8192288312,21047,-2,0,44078.2361383104,62796.8992537562,40187.9679423826,57699.4738560242,71454.0330278270,51295.2499872052,43392.7811054868,63481.4052062276,30990.6857709476,22414.3211683874
8192288312,21047,-2,0,44081.6552611177,62789.0389216085,40174.2184449727,57690.5305988594,71457.6346660866,51299.8980473915,43379.5669867371,63479.0568407408,30976.7902611758,22427.9368211323
8192288312,21047,-2,0,44100.8437190074,62799.7464948127,40180.1562810222,57701.2990105477,71472.2480699710,51309.8025526054,43383.7648421410,63493.8040892902,30989.1039703607,22435.7728178863
8192288312,21047,-2,0,44100.1379925917,62809.2616337283,40195.5362498064,57715.0120048671,71472.5765977852,51306.6997899156,43401.0794747200,63497.3935598529,31008.8034715170,22420.1981659529
8192288312,21047,-2,0,44096.8283790559,62806.7550881827,40190.4744879281,57712.8461548327,71466.6265940388,51296.6371046430,43404.0118896544,63493.1592013585,30998.3270845525,22413.3112495511
8192288312,21047,-2,0,44101.3547622740,62806.0371940702,40185.7412538640,57710.0597522602,71479.8285450917,51305.3856786587,43398.8406185046,63496.3958087135,30991.9025406299,22408.7726986362
8192295020,21048,-2,0,44100.2353341663,62808.5194042221,40195.7917714397,57714.5374646910,71483.2598355958,51309.0846584929,43404.5107652241,63499.9731115794,31006.6984599666,22405.2440665575
8192295020,21048,-2,0,44097.1325714764,62809.4441491806,40197.1058826966,57716.6303085446,71481.9822274293,51305.0328154508,43407.7595402758,63496.8581811927,31007.0026523872,22408.8700402108
8192295020,21048,-2,0,44109.0690820598,62818.9106173089,40194.1126292782,57723.7605788828,71492.6898006335,51317.6750524499,43409.4995209215,63502.0294523425,31002.0625674771,22418.7745454246
8192295020,21048,-2,0,44110.1520070770,62827.8782098674,40207.6309404484,57731.6330787273,71493.4076947461,51324.1239317660,43414.7437982522,63507.8942822111,31017.2721885058,22418.1661605835
8192295020,21048,-2,0,44098.4223473397,62820.6505979545,40208.2271575928,57723.0670201639,71478.3927568666,51309.9242295736,43411.6532032592,63500.7153410856,31020.7034790098,22415.1485717714
8192295020,21048,-2,0,44101.7197931787,62812.1210424817,40192.2023008770,57708.4901193700,71486.8006353712,51308.0017334756,43396.9546254971,63500.5084902396,31002.1477413549,22423.7146303348
8192295020,21048,-2,0,44113.3277759478,62821.8673676368,40197.3005658458,57717.1170164175,71501.8034055539,51318.1739280196,43401.2133193851,63512.9438763927,31009.2536762995,22426.2455112739
8192295020,21048,-2,0,44109.1664236343,62829.5816874226,40204.5281777586,57728.2991297978,71496.2792711963,51312.5646197842,43415.5225308489,63511.6297651358,31020.3749511956,22414.5036838398
8192320985,21049,-2,0,44106.8180581475,62832.5019346601,40197.9454537774,57727.0215216314,71494.6244644284,51311.2383408305,43418.9781567466,63506.7626864066,31010.1419181675,22416.5356892092
8192320985,21049,-2,0,44114.8000672634,62841.6398749741,40200.5858439880,57729.4550609960,71505.3928761167,51324.0144224946,43418.6496289324,63514.0876398940,31011.7480541482,22425.8439772788
8192320985,21049,-2,0,44111.7216399672,62843.9395696737,40210.0401444194,57730.9273523115,71504.4194603708,51323.3086960789,43420.0245786734,63517.9691351805,31027.9310909227,22428.2045104624
8192320985,21049,-2,0,44107.2804306268,62837.2595041179,40204.2604884285,57725.7925842523,71496.0480849567,51312.6741290556,43413.4296869953,63510.9727095073,31021.8350748144,22432.8404029520
8192320985,21049,-2,0,44118.8884133959,62837.7097089003,40195.6944298651,57723.9674297288,71502.8498274807,51313.7448863761,43409.8767195230,63514.6351862510,31009.8620611406,22436.5028796957
8192320985,21049,-2,0,44111.5391245148,62839.0968263381,40202.4475016019,57728.8466761548,71499.5523816417,51312.8566445080,43416.1917541741,63516.4725084713,31020.1924357433,22424.7488845647
8192320985,21049,-2,0,44096.6215282099,62829.8615444495,40203.5304266191,57722.0571013276,71479.5243526711,51309.6687079404,43412.4441035527,63501.3115582299,31017.6858901978,22413.8344605145
8192320985,21049,-2,0,44115.8464891901,62826.2234030995,40194.7088464225,57713.6978936103,71483.4301833513,51319.7313932129,43398.1957305730,63503.4409051739,31001.2229963963,22432.9377445265
8192372583,21050,-2,0,44135.4608164687,62833.0981518044,40200.3911608388,57721.2053625500,71494.0160795872,51329.6115630332,43399.4733387394,63520.0498113372,31008.5601175805,22449.7900046263
8192372583,21050,-2,0,44127.2719565069,62841.9197320010,40218.0343212321,57737.4370701118,71504.6384789137,51325.9004155022,43415.7050463012,63521.1814071418,31031.7030769378,22438.7174005174
8192372583,21050,-2,0,44107.9131508616,62840.5447822601,40215.1992478723,57734.8210152949,71498.6519720768,51315.8377302296,43419.5865415877,63504.2926439515,31028.6003142479,22426.5618713913
8192372583,21050,-2,0,44097.8748009826,62832.1612391490,40208.2271575928,57727.3135463551,71489.7330503056,51311.9927380336,43414.6951274649,63495.8725977501,31023.1248506776,22418.3486760358
8192372583,21050,-2,0,44083.5290864284,62813.8975262178,40206.5723508249,57716.3017807304,71474.5477646705,51303.9863935241,43411.4220170195,63488.6571535341,31022.4312919587,22411.7051135705
8192372583,21050,-2,0,44079.4772433864,62795.8163287389,40191.8737730627,57702.0169046602,71466.9916249435,51296.0773905891,43396.4679176242,63480.7238152055,31006.1265782160,22415.4527641920
8192372583,21050,-2,0,44085.8652842184,62791.5698025477,40179.7182439366,57696.0669009138,71463.0249557792,51295.9313782273,43384.2515500139,63479.6773932787,30986.3784062723,22417.0710678694
8192372583,21050,-2,0,44090.2091519842,62801.3647984902,40190.7178418646,57706.9326541767,71464.6919302439,51300.8227923501,43391.6373419854,63485.2258630300,30996.4654269385,22416.2923352728
8192380621,21051,-2,0,44083.3709063697,62803.1412822263,40189.7079230283,57707.1395050227,71462.2340554857,51296.5519307652,43396.3097375655,63481.9892556751,31000.2374129537,22408.7483632425
8192380621,21051,-2,0,44082.4583291080,62800.2697057761,40178.3554618925,57699.6198683861,71466.6387617356,51297.0021355477,43388.8752748066,63477.4628724569,30996.1368991243,22410.1233129835
8192380621,21051,-2,0,44076.7273439044,62795.3904593501,40181.0080197999,57695.3368391044,71462.8181049332,51296.7344462176,43386.2470522929,63473.8247311069,31003.4740203086,22406.8136994477
8192380621,21051,-2,0,44065.3505473749,62789.2579401514,40183.7822546755,57693.0858151922,71448.6792412249,51284.6397555756,43389.1064610463,63466.8404731305,31004.4352683576,22402.7496887088
8192380621,21051,-2,0,44068.0396083728,62790.5598837114,40175.8124132565,57691.2363252751,71446.8054159142,51280.4053970812,43387.6220020339,63465.2586725435,30985.9282014899,22410.9142132770
8192380621,21051,-2,0,44076.1797975473,62796.0840180690,40177.1143568165,57696.2129132757,71454.2277109762,51287.3166488766,43385.9550275691,63470.3812729060,30984.1395500569,22416.2436644855
8192380621,21051,-2,0,44068.0396083728,62793.3584539807,40181.0810259808,57694.6554480824,71447.6693223887,51280.6244156240,43386.9892817991,63468.8724785000,30989.6150136272,22412.6298585291
8192380621,21051,-2,0,44071.3005511213,62787.8464873199,40167.1368454217,57689.0583075438,71449.4944769121,51282.8146010521,43382.9252710602,63471.4155271359,30980.4770733132,22425.1017477726
8192414892,21052,-2,0,44082.4218260175,62794.8429129931,40166.1999327663,57697.1011551438,71468.9262887383,51296.8804585795,43383.9595252902,63482.4029573671,30982.9836188587,22431.9521610839
8192414892,21052,-2,0,44077.9927843740,62802.4477235074,40185.1815398101,57711.3860312139,71467.0159603371,51303.2319963210,43401.4201702311,63485.5300554506,31007.1486647491,22424.2865120854
8192414892,21052,-2,0,44070.7043339770,62800.5252274094,40188.5763272237,57710.2544354094,71459.8370192116,51305.2153309032,43407.7960433663,63478.1442634790,31010.9328184610,22424.3960213568
8192414892,21052,-2,0,44080.4749945258,62800.6955751649,40179.9372624794,57701.7492153301,71465.8843645326,51307.2838393631,43398.1713951794,63479.6043870978,31004.7394607781,22436.5758858766
8192414892,21052,-2,0,44087.1672277785,62802.8127544121,40177.5767292958,57699.9727315940,71461.6013352509,51296.9656324572,43394.1560552278,63485.7734093870,31006.0779074287,22437.3181153828
8192414892,21052,-2,0,44087.6904387418,62801.3404630965,40178.6961574035,57700.7757995843,71455.6634992013,51293.8263666769,43391.2966464744,63486.1871110790,31000.6146115552,22437.7318170748
8192414892,21052,-2,0,44095.2222430752,62813.1187936211,40180.9593490126,57705.3995243770,71477.4315088176,51316.2514319216,43394.3264029833,63497.7950938481,30998.7042831540,22448.1473655552
8192414892,21052,-2,0,44091.9734680235,62831.5528543079,40202.3136569368,57720.2927852883,71497.0823391866,51336.0239392589,43408.6721175376,63511.7514421040,31023.2221922522,22441.2969522439
8192442843,21053,-2,0,44076.5083253616,62828.2675761657,40213.5687764980,57720.6334807993,71486.5329460411,51322.9314974774,43415.6077047266,63504.0736254087,31036.9960250558,22423.8606426966
8192442843,21053,-2,0,44070.3514707692,62811.5126576405,40195.9986222857,57703.3431836139,71478.2954152920,51308.3910997740,43399.3273263775,63489.8130847322,31018.5862997627,22413.9561374828
8192442843,21053,-2,0,44078.9783678166,62805.6113246814,40183.6362423136,57698.5004402784,71478.6482784999,51305.7750449570,43389.9338644302,63488.3042903262,31007.5258633506,22408.0183014332
8192442843,21053,-2,0,44072.4808177132,62804.4067226959,40186.2766325242,57703.3066805235,71471.2138157410,51301.5893572499,43394.3750737706,63486.3696265313,31014.1085873318,22392.6626680426
8192442843,21053,-2,0,44074.4763199921,62803.9200148230,40182.5168142059,57700.8366380684,71461.5161613732,51302.4897668148,43394.1925583183,63484.2524472842,31004.2040821179,22401.4599128456
8192442843,21053,-2,0,44098.4953535206,62815.0899605065,40186.0819493750,57706.2512631546,71483.3571771703,51319.8895732716,43393.1826394820,63501.5792475600,31002.2450829294,22424.7245491711
8192442843,21053,-2,0,44105.2119221669,62826.2355707963,40203.2018988049,57718.6258108236,71496.3279419836,51320.5101258096,43400.8847915709,63512.1529760992,31021.1780191859,22421.3784325448
8192442843,21053,-2,0,44096.9500560241,62824.0088822777,40202.5691785701,57719.6235619630,71490.4144413276,51310.8003037449,43406.6522798650,63509.9141198837,31023.6358939442,22420.7457123100
8192491386,21054,-2,0,44096.7553728749,62824.0210499745,40190.6813387741,57719.9155866868,71496.1819296217,51305.3978463555,43405.5450194541,63506.9695372526,31007.9395650426,22424.4811952346
8192491386,21054,-2,0,44090.5011767079,62827.1846511485,40194.7331818161,57723.7849142765,71496.7416436756,51307.5880317836,43411.8965571956,63506.7505187098,31013.3663578256,22419.9061412292
8192491386,21054,-2,0,44085.5367564042,62825.9435460725,40201.8634521544,57725.0990255334,71488.0782435376,51314.2559296426,43420.8398143605,63502.9541973010,31023.1613537681,22425.0652446821
8192491386,21054,-2,0,44095.1735722880,62823.4613359206,40197.5804228727,57719.6600650535,71492.3491051225,51323.8319070423,43416.8488098026,63501.4332351982,31017.3086915962,22440.7980766742
8192491386,21054,-2,0,44108.5702064900,62826.8074525469,40201.9972968194,57721.5703934547,71500.2946111479,51319.5853808511,43417.9317348198,63511.0213802946,31018.4281197040,22446.4438880000
8192491386,21054,-2,0,44104.3966864797,62824.9336272362,40199.4907512739,57724.7461623255,71481.9822274293,51303.5848595289,43422.6649688839,63508.1011330571,31018.5254612785,22436.3325319401
8192491386,21054,-2,0,44109.2029267248,62824.2035654268,40186.3983094924,57726.4374721839,71487.6888772393,51305.5925295047,43421.6550500476,63510.3278215757,31007.4406894728,22440.0680148648
8192491386,21054,-2,0,44106.1366671254,62829.5451843321,40183.0521928661,57725.2572055921,71499.7227293972,51312.8444768112,43416.7149651375,63514.2093168622,31012.0035757814,22435.8944948545
8192508606,21055,-2,0,44084.1496389664,62823.2788204683,40188.3086378936,57719.0516802124,71490.6942983546,51311.4208562829,43413.0281530002,63510.9605418105,31025.1081852597,22416.6086953902
8192508606,21055,-2,0,44068.2707946124,62814.4329048780,40187.7489238398,57709.9015722015,71483.9290589210,51308.8778076469,43409.2561669851,63502.4553217313,31024.1226018171,22406.5703455112
8192508606,21055,-2,0,44077.7615981343,62816.1728855237,40181.7259139124,57709.4635351159,71487.4698586965,51310.8368068354,43405.3381686081,63501.8469368901,31014.5344567206,22403.4675828214
8192508606,21055,-2,0,44085.0135454408,62824.1548946395,40189.9147738742,57718.5163015521,71485.9367288968,51317.0423322151,43412.9429791224,63506.7626864066,31023.7332355188,22393.3562267615
8192508606,21055,-2,0,44085.7314395533,62822.3662432066,40193.8206045544,57719.0151771219,71478.3197506856,51309.9607326641,43419.3066845608,63503.0272034819,31026.6899858467,22391.8109292650
8192508606,21055,-2,0,44092.0221388108,62814.3233956066,40178.6109835257,57707.8330637416,71482.7487923292,51305.1058216318,43405.9587211460,63501.6765891346,31011.6507125736,22408.4076677315
8192508606,21055,-2,0,44095.7454540386,62811.8776885452,40176.2869534326,57705.2535120151,71485.3526794493,51301.8935496705,43402.6004368229,63503.6599237167,31012.2225943243,22415.3310872238
8192508606,21055,-2,0,44085.6827687661,62806.4873988526,40178.5379773448,57709.5365412968,71472.8442871153,51287.7425182654,43407.6256956108,63497.4057275498,31014.8264814444,22407.5802643475
8192537382,21056,-2,0,44077.1653809900,62797.3251231450,40166.3216097346,57701.4450229096,71458.1213739596,51276.9497711835,43398.1470597857,63479.8234056406,30995.1634833785,22402.8713656771
8192537382,21056,-2,0,44087.4227494117,62798.2133650130,40161.3936925213,57702.2967616872,71464.4607440043,51292.5974292978,43399.2056494093,63487.1361914312,30988.3739085513,22414.0656467542
8192537382,21056,-2,0,44087.5687617736,62803.5428162215,40177.2116983911,57708.6848025192,71472.2845730615,51298.0363897776,43404.4012559527,63494.6071572805,31005.8953919763,22416.3653414537
8192537382,21056,-2,0,44081.6430934208,62799.6248178445,40176.3356242198,57705.8497291595,71473.6716904993,51291.1981441631,43401.3228286565,63492.7333319697,31005.9075596731,22421.4027679384
8192537382,21056,-2,0,44083.4804156411,62798.7730790669,40168.1102611675,57703.6108729440,71473.5621812279,51293.1571433516,43396.2367313845,63491.7234131334,30994.1778999358,22429.6524663844
8192537382,21056,-2,0,44081.7404349954,62805.6234923782,40178.4406357702,57709.9259075951,71473.2823242009,51295.4811734448,43404.5716037082,63491.4435561065,31005.2505040447,22418.3973468231
8192537382,21056,-2,0,44069.7674213216,62800.7442459522,40184.2932979421,57704.8276426263,71454.8360958174,51287.6086736004,43403.1966539672,63478.7039775329,31000.8457977948,22409.8799590471
8192537382,21056,-2,0,44080.8035223401,62800.5738981967,40178.4771388607,57697.8920554373,71468.2327300194,51299.9345504820,43393.5841734771,63486.9415082820,30988.3739085513,22426.4523621199
8192562210,21057,-2,0,44083.0180431618,62805.6599954687,40180.1319456286,57699.7050422639,71481.4955195564,51298.8151223743,43395.5918434529,63495.3372190899,30998.9233016968,22423.7146303348
8192562210,21057,-2,0,44068.7331670917,62803.1777853168,40178.7813312813,57701.5423644841,71471.0069648950,51285.4549912627,43401.6635241675,63487.9392594215,31007.7935526807,22409.6852758979
8192562210,21057,-2,0,44064.8273364115,62797.9091725925,40165.1413431427,57697.2471675056,71463.3778189871,51286.0877114975,43400.1668974583,63479.4583747359,30998.2054075842,22409.5392635360
8192562210,21057,-2,0,44069.9742721676,62798.7974144605,40165.8957403458,57698.9506450609,71463.5725021362,51298.8394577680,43399.5098418299,63481.3565354403,30999.9210528363,22413.5059327003
8192562210,21057,-2,0,44064.6204855655,62793.0785969538,40171.7727379112,57698.1110739801,71455.5904930204,51298.4500914696,43402.1745674341,63481.6120570736,31008.9859869694,22406.7285255699
8192562210,21057,-2,0,44070.9233525198,62787.7491457453,40165.9687465267,57693.2926660382,71451.1857867705,51298.1824021395,43396.1150544163,63483.9482548636,30999.8480466553,22415.0390625000
8192562210,21057,-2,0,44096.1348203370,62798.2620358003,40163.1580085606,57702.3089293840,71472.6131008757,51299.1679855822,43393.4381611152,63501.2142166553,30994.6159370215,22429.3117708733
8192562210,21057,-2,0,44098.7630428507,62810.2593848677,40178.8178343717,57717.5428858063,71480.9114701089,51289.7988590285,43409.2805023787,63504.6333394626,31010.1297504707,22409.4175865678
8192613243,21058,-2,0,44075.9242759141,62803.1899530136,40177.7105739608,57711.2886896393,71464.8501103027,51280.6730864113,43410.5337751515,63486.6008127710,31006.7714661476,22386.6639935089
8192613243,21058,-2,0,44074.5249907794,62796.5342228515,40171.2860300383,57702.7956372569,71467.2471465768,51296.5397630684,43401.5296795025,63478.9716668630,30996.5871039068,22395.4125675246
8192613243,21058,-2,0,44077.2383871709,62798.3107065876,40179.3897161224,57701.8222215111,71466.0425445913,51302.7331207513,43398.0375505143,63483.4615469907,31005.4695225875,22408.2494876728
8192613243,21058,-2,0,44076.1797975473,62797.3616262354,40183.1373667439,57704.2192577852,71465.9208676231,51297.1724833032,43399.9722143092,63487.6594023946,31008.9251484852,22410.0503068026
8192613243,21058,-2,0,44083.8941173331,62801.4134692775,40172.4297935397,57703.8420591837,71463.0249557792,51298.6447746188,43397.6481842160,63490.7986681749,30994.3725830850,22413.7371189399
8192613243,21058,-2,0,44095.8306279164,62816.4405748538,40178.2337849242,57711.4103666076,71483.5153572290,51321.2280199222,43402.7829522753,63504.9862026704,31003.3523433403,22418.5190237914
8192613243,21058,-2,0,44079.3677341150,62818.9349527025,40196.6070071269,57710.5221247395,71482.4445999086,51330.0861032093,43407.6500310044,63502.5161602154,31028.1987802528,22414.5036838398
8192613243,21058,-2,0,44073.9287736351,62812.6807565355,40199.2352296406,57701.9073953888,71479.4756818838,51323.2600252916,43398.7311092332,63495.3128836962,31024.7066512646,22422.4613575620
8192634906,21059,-2,0,44087.8121157101,62810.2107140805,40189.4889044854,57702.2724262935,71482.2864198499,51306.5659452505,43390.9437832665,63497.3813921561,31009.5335333264,22430.8570683698
8192634906,21059,-2,0,44085.2934024677,62810.7825958311,40189.8782707838,57709.9867460793,71478.5874400157,51292.2567337867,43397.1858117367,63495.5440699358,31010.7989737960,22422.6438730143
8192634906,21059,-2,0,44076.3866483933,62805.1732875958,40182.9791866852,57706.2755985483,71463.8645268600,51283.5081597710,43398.0983889984,63486.1992787758,30999.1058171491,22417.6429496201
8192634906,21059,-2,0,44084.7336884139,62803.9078471262,40173.4883831633,57701.1529981858,71471.2016480442,51292.9381248088,43391.5400004109,63487.2335330058,30986.6217602088,22426.6835483596
8192634906,21059,-2,0,44090.4768413143,62809.4563168774,40184.2932979421,57703.4161897949,71474.1340629785,51299.7885381201,43394.2655644992,63493.4633937791,30999.3491710856,22430.5893790397
8192634906,21059,-2,0,44080.0369574402,62805.5869892877,40184.9138504800,57701.5666998778,71465.8235260485,51292.9989632929,43393.1826394820,63485.1285214554,31003.5956972768,22426.2576789708
8192634906,21059,-2,0,44084.3443221155,62805.0272752339,40179.3045422446,57701.6518737556,71467.3444881513,51299.3018302472,43393.7910243231,63486.1992787758,30999.4343449633,22430.4677020715
8192634906,21059,-2,0,44089.3209101161,62811.0259497676,40188.4911533460,57711.6415528472,71471.1164741665,51301.8692142769,43403.2453247545,63493.9135985616,31009.4970302359,22432.5362105314
8192663484,21060,-2,0,44073.6732520018,62803.9200148230,40192.5308286912,57707.2003435068,71455.6878345950,51288.3509031066,43401.8582073167,63483.7900748049,31012.3199358988,22421.8043019336
8192663484,21060,-2,0,44069.7795890185,62790.2313558972,40179.8764239953,57692.6599458034,71448.1073594743,51291.4658334932,43390.1772183667,63480.2371073326,30995.3459988308,22431.6601363601
8192663484,21060,-2,0,44081.3875717876,62793.1151000442,40180.1197779318,57697.8312169531,71465.9695384104,51308.4397705613,43387.7436790021,63489.7887493386,31001.1499902154,22435.0427560769
8192663484,21060,-2,0,44070.1202845295,62796.0110118881,40191.6669222168,57708.8916533652,71464.2173900678,51303.6091949225,43400.7387792090,63488.4137995976,31024.5241358122,22416.7790431457
8192663484,21060,-2,0,44056.9913396576,62788.7347291880,40181.6650754283,57704.9858226850,71441.9383371850,51286.5379162800,43398.0010474238,63473.7030541387,31015.3740278014,22402.7375210120
8192663484,21060,-2,0,44069.8404275026,62785.5467926204,40165.4942063506,57698.8776388799,71455.4688160522,51295.4325026575,43391.4426588363,63476.6598044666,30997.2076564447,22409.5392635360
8192663484,21060,-2,0,44071.3492219086,62789.8784926893,40174.3766250313,57701.2016689731,71462.5990863904,51305.3978463555,43390.3962369095,63484.8851675189,31006.0049012477,22401.9587884153
8192663484,21060,-2,0,44062.3816293501,62783.6607996128,40177.5523939021,57697.0403166597,71455.3836421744,51300.5794384136,43388.4980762051,63478.4241205060,31004.3379267830,22392.7721773140
8192691661,21061,-2,0,44065.5452305241,62783.6973027033,40172.7948244444,57693.0979828890,71457.5494922089,51297.7078619634,43384.0446991679,63477.7183940902,30988.4955855195,22399.7199321999
8192691661,21061,-2,0,44066.4091369985,62790.0366727480,40183.3442175899,57699.8753900194,71458.4377340770,51302.2342451815,43392.4039068853,63479.9572503057,30994.9444648357,22402.8713656771
8192691661,21061,-2,0,44056.9426688703,62785.5467926204,40193.4799090434,57700.5324456478,71448.2168687457,51298.0485574745,43395.7256881180,63472.0117442803,31002.1842444453,22401.2408943028
8192691661,21061,-2,0,44064.1946161767,62777.6742927759,40181.6529077315,57693.2804983414,71449.2997937629,51297.6470234793,43383.1686249967,63469.8702296394,30988.9336226051,22410.0989775899
8192691661,21061,-2,0,44072.2131283831,62778.6112054313,40174.7538236329,57695.4950191631,71454.9334373919,51299.0463086139,43378.5692355976,63477.0370030682,30986.7677725707,22416.2679998791
8192691661,21061,-2,0,44061.6393998439,62780.3876891674,40177.8200832322,57699.9727315940,71433.4817878931,51288.3144000161,43384.8112640678,63475.9419103541,30994.2995769041,22411.0602256389
8192691661,21061,-2,0,44065.8250875510,62782.3101852655,40170.4829620480,57702.6374571982,71442.7779082658,51292.6217646914,43390.5909200587,63478.2172696600,30983.4703267316,22418.6041976691
8192691661,21061,-2,0,44078.2483060072,62789.7203126306,40173.4397123760,57707.2368465973,71460.7130933828,51310.2040866006,43392.8662793646,63488.1217748738,30988.3495731576,22427.4622809562
8192730474,21062,-2,0,44075.2063818015,62791.6063056382,40185.7047507735,57709.3053550572,71458.2430509278,51304.9233061794,43398.8527862015,63488.6936566245,31009.2901793899,22423.4956117919
8192730474,21062,-2,0,44066.7133294191,62787.5544625961,40183.5510684359,57705.7280521912,71451.7211654307,51290.6749331998,43393.0366271201,63478.0104188140,31006.5524476048,22420.5753645544
8192730474,21062,-2,0,44070.3149676787,62784.9140723856,40168.2441058326,57702.5036125332,71453.6801646192,51282.5712471157,43385.3466427280,63471.1721731995,30987.4248281991,22426.7930576310
8192730474,21062,-2,0,44063.1603619468,62784.0745013048,40168.5361305563,57705.2656797120,71448.3628811076,51284.5789170915,43388.4372377210,63471.7683903438,30988.6050947909,22422.3275128969
8192730474,21062,-2,0,44049.4473676273,62776.2750076413,40168.3414474072,57701.5666998778,71432.5570429346,51282.5104086316,43393.0366271201,63465.6480388419,30991.1359757301,22413.9074666955
8192730474,21062,-2,0,44056.2247747577,62771.4931027899,40155.2976764130,57690.9321328545,71428.9310692813,51293.5465096500,43383.6675005664,63471.1478378058,30976.8997704473,22428.8007276067
8192730474,21062,-2,0,44073.0283640702,62783.3566071922,40167.3680316613,57698.0867385864,71460.1655470258,51316.4947858580,43384.6409163123,63491.8207547080,30990.1260568938,22438.0846802827
8192730474,21062,-2,0,44068.5628193362,62794.5752236630,40189.8661030870,57712.4811239280,71466.4927493737,51304.1567412796,43401.5296795025,63494.3759710408,31014.0112457572,22429.1414231178
8192762377,21063,0,0,44069.1590364805,62798.1160234385,40188.3573086809,57717.5428858063,71462.2218877889,51299.6911965456,43408.4165959043,63487.9149240279,31009.9107319279,22423.9458165744
8192762377,21063,0,0,44079.5989203546,62803.1534499231,40182.3708018440,57718.6744816108,71466.6144263420,51306.6632868251,43408.5261051757,63488.3529611135,31006.7227953603,22417.2779187154
8192762377,21063,0,0,44077.4330703201,62799.5518116636,40181.3973860982,57717.1170164175,71459.0947897054,51300.8957985310,43409.7428748580,63485.0433475776,31016.1527603981,22406.9353764159
8192762377,21063,0,0,44076.6543377234,62787.7004749580,40167.7817333533,57709.0620011207,71453.5706553478,51292.7191062660,43400.6536053312,63479.4340393423,31007.7935526807,22406.8988733255
8192762377,21063,0,0,44083.8089434553,62787.2746055692,40157.3661848729,57707.1151696291,71462.0880431238,51293.2544849262,43392.4890807631,63485.3232046046,30994.7984524738,22412.9462186465
8192762377,21063,0,0,44082.4948321984,62794.8672483867,40166.2364358568,57717.9809228919,71460.4940748400,51293.4978388627,43403.0993123927,63492.8428412412,31000.1035682886,22412.6176908322
8192762377,21063,0,0,44071.9332713561,62797.1912784799,40174.5348050901,57721.1201886723,71459.5814975783,51291.2103118600,43408.5017697820,63491.6869100430,31002.7926292865,22407.0327179905
8192762377,21063,0,0,44071.1667064563,62792.5553859904,40165.9809142235,57713.0286702850,71452.5729042083,51287.9006983241,43400.2399036393,63483.7535717144,30990.4059139207,22410.6708593406
8192790249,21064,0,0,44075.0968725301,62786.8122330899,40161.2233447657,57706.0444123086,71458.2065478373,51290.4194115665,43393.8640305040,63482.9261683305,30987.4734989864,22411.7781197515
8192790249,21064,0,0,44064.8151687147,62783.7216380969,40168.0250872898,57708.2832685241,71453.8505123747,51286.0512084070,43401.3593317470,63477.9860834203,30993.8737075153,22406.1809792129
8192790249,21064,0,0,44064.5839824751,62782.9307378034,40163.9367411573,57709.9137398983,71453.8383446779,51288.1197168669,43402.9046292435,63470.9531546567,30985.5023321011,22410.4031700105
8192790249,21064,0,0,44073.1257056448,62786.6418853344,40165.5428771379,57715.2918618941,71453.4854814700,51295.4933411416,43405.5206840604,63474.7129729750,30984.7114318076,22415.5136026761
8192790249,21064,0,0,44063.2942066118,62783.8433150651,40170.5681359258,57712.7001424708,71446.2091987699,51287.4018227544,43409.1344900168,63472.0482473707,30992.3892485029,22412.3013307148
8192790249,21064,0,0,44056.9791719607,62773.4764373720,40159.3495194550,57699.5103591147,71433.8103157073,51277.9231869293,43396.1515575068,63465.4411879959,30976.1453732442,22421.0742401242
8192790249,21064,0,0,44077.1897163836,62780.1199998373,40154.2999252735,57700.4472717701,71456.1380393774,51290.2977345982,43390.7977709047,63474.9684946082,30970.9254313072,22429.5672925066
8192790249,21064,0,0,44080.8156900369,62789.9393311734,40171.2860300383,57713.7952351848,71457.0141135487,51284.4450724264,43400.5440960598,63475.8567364763,30988.1305546148,22420.0643212879
8192843443,21065,0,0,44073.9896121192,62785.8874881314,40168.1224288644,57716.0584267939,71443.4349638943,51273.0074374128,43407.4675155521,63468.7629692285,30986.3662385755,22419.0178993611
8192843443,21065,0,0,44076.8003500853,62782.2371790845,40156.1129121001,57711.7753975122,71450.3948864770,51276.0980324059,43400.7144438154,63466.0617405339,30973.7970077574,22428.2410135529
8192843443,21065,0,0,44070.5583216151,62778.9153978519,40159.3373517582,57709.6338828714,71451.1006128927,51281.7073406412,43399.8018665536,63467.5705349399,30982.3630663208,22431.0639192158
8192843443,21065,0,0,44061.2256981519,62772.5516924134,40161.1260031912,57706.6041263625,71441.2691138598,51274.5649026062,43401.5783502898,63463.1049902059,30988.4955855195,22423.6294564570
8192843443,21065,0,0,44074.1234567843,62774.5958654797,40151.8177151216,57707.2976850814,71442.8265790531,51274.7352503617,43398.9622954729,63461.0729848364,30978.8344342421,22423.7633011220
8192843443,21065,0,0,44076.8490208726,62781.8721481798,40152.3165906914,57708.2467654336,71445.2236153272,51282.2548869983,43397.2709856145,63463.4578534137,30981.9980354161,22415.8177950967
8192843443,21065,0,0,44063.1968650373,62781.0812478863,40159.7145503597,57701.7127122397,71430.4276959905,51281.9141914872,43399.8870404314,63464.6624553992,30989.9922122287,22412.9583863433
8192843443,21065,0,0,44068.7696701822,62780.5702046198,40157.9015635331,57695.9330562488,71443.7634917085,51293.9358759483,43393.6085088708,63472.8391476642,30989.2743181162,22423.0697424031
8192849485,21066,0,0,44081.0833793670,62790.0488404448,40163.3526917098,57702.5279479268,71463.3899866839,51301.3703387071,43392.3430684012,63481.5390508926,30998.3514199461,22418.7015392437
8192849485,21066,0,0,44066.2996277271,62793.5409694330,40177.9417602005,57712.4811239280,71458.9731127372,51295.2013164179,43403.3670017228,63481.6485601640,31017.5155424422,22396.6780079942
8192849485,21066,0,0,44052.1242609284,62791.1682685526,40178.8543374622,57709.6338828714,71444.4692181242,51292.5730939041,43408.2584158456,63469.4686956443,31014.4857859333,22393.4779037297
8192849485,21066,0,0,44059.2788666603,62792.4823798094,40173.0016752904,57702.8321403474,71450.8207558658,51300.8106246533,43402.6977783975,63470.2352605441,31000.7727916139,22409.3567480837
8192849485,21066,0,0,44064.7299948369,62794.3683728170,40177.5888969926,57702.7713018633,71453.9600216461,51307.2838393631,43401.8095365294,63476.6841398603,31007.3798509887,22416.7425400552
8192849485,21066,0,0,44055.8840792467,62789.9271634766,40176.1896118580,57696.6874534518,71446.3552111318,51297.1968186969,43394.5575892230,63474.3844451607,31003.2915048562,22416.7668754489
8192849485,21066,0,0,44069.5849058693,62793.1881062252,40166.9786653630,57697.1498259311,71456.6247472503,51300.7619538660,43390.6274231491,63481.6728955577,30988.3617408545,22428.8615660909
8192849485,21066,0,0,44079.0513739976,62806.8402620605,40174.9971775693,57712.3716146566,71470.2525676920,51310.4717759307,43399.6801895854,63491.9545993731,31001.5880273010,22424.1161643299
8192912245,21067,0,0,44069.9377690772,62811.8411854547,40185.2058752038,57718.5771400363,71464.3390670361,51302.8426300227,43410.9596445403,63488.9370105610,31017.3573623835,22417.8863035566
8192912245,21067,0,0,44067.0418572333,62806.1345356448,40176.7614936086,57707.5410390179,71461.7960184001,51296.0287198018,43400.5684314535,63479.2271884963,31005.3478456193,22426.6227098754
8192912245,21067,0,0,44074.0991213906,62804.5405673610,40171.8214086985,57701.0191535208,71465.7018490802,51298.5474330442,43390.5787523618,63480.8819952642,30997.4631780780,22433.6556386391
8192912245,21067,0,0,44070.7651724611,62806.8159266669,40182.7236650519,57705.7523875849,71459.5814975783,51294.0332175229,43395.3971603037,63480.3709519976,31005.0679885924,22425.6371264328
8192912245,21067,0,0,44068.1126145537,62805.9885232829,40180.2049518095,57708.0034114971,71448.4967257726,51289.2391449747,43400.5684314535,63473.3866940213,30996.6966131782,22420.8673892782
8192912245,21067,0,0,44081.7526026922,62806.9254359383,40173.6830663124,57709.8772368079,71453.6679969224,51301.4555125849,43399.3638294680,63480.4804612690,30985.5144997979,22433.3149431281
8192912245,21067,0,0,44089.3817486002,62809.3589753029,40184.2446271548,57715.7177312829,71461.5891675541,51311.0558253782,43403.5981879624,63492.5994873047,30997.6821966208,22445.2514537114
8192912245,21067,0,0,44086.4371659691,62807.8623485936,40195.3050635668,57719.1855248774,71472.1507283964,51311.1653346496,43408.8789683836,63498.0749508750,31012.7579729845,22444.9959320781
8192916101,21068,0,0,44089.6494379303,62808.9939443982,40194.6115048479,57720.9255055231,71476.9934717319,51308.3180935930,43407.8203787600,63495.3980575740,31013.1473392828,22443.1951129483
8192916101,21068,0,0,44087.6782710450,62814.0313708829,40199.7097698167,57726.4131367902,71474.7181124261,51306.6754545219,43415.0358229760,63494.8870143074,31024.1712726044,22431.3559439396
8192916101,21068,0,0,44072.6024946814,62805.6599954687,40196.3149824031,57720.3901268629,71459.5206590942,51295.4690057480,43415.5590339393,63480.5778028436,31022.0054225699,22415.3189195269
8192916101,21068,0,0,44071.8846005688,62796.4977197610,40178.2581203179,57706.5797909688,71457.0141135487,51299.7398673328,43400.1182266710,63471.6345456788,31002.5249399564,22420.1129920752
8192916101,21068,0,0,44082.9328692841,62799.4544700890,40177.4307169339,57709.0011626366,71468.0988853544,51311.9318995494,43393.6085088708,63482.0014233719,31001.4663503328,22429.7619756558
8192916101,21068,0,0,44073.7705935764,62807.0836159970,40187.2257128764,57716.7884886033,71469.8145306064,51304.8624676953,43400.2034005488,63486.8076636170,31013.8652333954,22424.6758783838
8192916101,21068,0,0,44071.0937002753,62811.7316761833,40183.3442175899,57717.0561779334,71470.5810955062,51295.4933411416,43404.2309081972,63487.2700360962,31007.6962111061,22422.1815005351
8192916101,21068,0,0,44078.2361383104,62813.8975262178,40179.7182439366,57717.8592459237,71478.5022661380,51307.6245348741,43403.1114800895,63491.3948853192,31003.6808711545,22421.0499047305
8192964822,21069,0,0,44074.0991213906,62809.9551924472,40190.8881896201,57715.9124144320,71466.9064510657,51314.2315942490,43404.1944051067,63490.8473389622,31014.1572581191,22417.4969372582
8192964822,21069,0,0,44068.1856207347,62804.6014058451,40197.7994414155,57709.1958457858,71467.4783328164,51318.3321080783,43400.3737483043,63486.9901790693,31014.8873199285,22421.4514387257
8192964822,21069,0,0,44075.8269343395,62807.2296283588,40193.7719337671,57711.1913480647,71476.5676023431,51324.6471427294,43395.0808001863,63488.9856813483,31012.2834328084,22429.9931618954
8192964822,21069,0,0,44080.3898206481,62814.0678739733,40195.7309329556,57721.9475920562,71477.6870304508,51311.7007133098,43406.4819321094,63495.8604300532,31024.3051172694,22420.4901906767
8192964822,21069,0,0,44070.0472783486,62808.5194042221,40187.2865513605,57720.6821515866,71463.1466327474,51287.6086736004,43411.5558616846,63487.2700360962,31022.8936644380,22408.5780154870
8192964822,21069,0,0,44066.8471740841,62797.4833032037,40165.2873555046,57704.8033072327,71456.9532750646,51281.5734959762,43398.9257923824,63478.8134868043,30998.3027491588,22412.7637031941
8192964822,21069,0,0,44080.6940130686,62800.9754321918,40161.4666987022,57702.3454324745,71447.9370117188,51283.1917996536,43389.8851936429,63485.3962107855,30988.8484487274,22428.4600320957
8192964822,21069,0,0,44094.7842059896,62814.7005942081,40178.8178343717,57720.4022945597,71473.2823242009,51304.3027536415,43404.4499267400,63502.0781231298,31006.3212613651,22434.5803835976
8192973620,21070,0,0,44095.3682554371,62823.6560190698,40187.7489238398,57730.6231598910,71482.5662768769,51312.4429428160,43412.7969667605,63500.8856888411,31009.5822041137,22435.8336563704
8192973620,21070,0,0,44092.9103806789,62831.6623635793,40196.7773548824,57738.7511813687,71488.5284483201,51314.8886498774,43420.3044357003,63498.9388573494,31017.6250517136,22436.4177058179
8192973620,21070,0,0,44073.5759104272,62825.4568381996,40199.5029189707,57733.9084380332,71472.8564548121,51294.4955900022,43422.3972795538,63490.7134942971,31026.7873274213,22427.7786410736
8192973620,21070,0,0,44053.9859185423,62805.5869892877,40181.5068953696,57708.6361317319,71454.3858910349,51280.3202232034,43405.6788641191,63475.4673701780,31009.3145147836,22425.6857972201
8192973620,21070,0,0,44058.0377615843,62797.1061046021,40164.5329583016,57696.3710933344,71458.9122742530,51280.5392417462,43390.3353984254,63475.0293330924,30990.8926217936,22432.2320181108
8192973620,21070,0,0,44061.4812197852,62799.7586625096,40171.2495269479,57704.2314254820,71460.3967332654,51287.1463011211,43394.2047260151,63480.5534674500,30998.7042831540,22423.4469410047
8192973620,21070,0,0,44056.1882716672,62799.7829979032,40177.5645615990,57706.0565800055,71443.5931439530,51286.2702269498,43398.2444013603,63475.0049976987,31004.1919144211,22415.6961181284
8192973620,21070,0,0,44069.8647628962,62802.4842265979,40174.2306126695,57706.0079092182,71461.7108445223,51304.3027536415,43394.1073844405,63480.5899705404,30996.3315822735,22430.1635096509
8193001081,21071,0,0,44077.3113933519,62806.2197095225,40184.4879810912,57711.0940064902,71469.4616673985,51313.4771970459,43393.5598380835,63486.5034711964,31010.5069490722,22433.3514462185
8193001081,21071,0,0,44067.2973788666,62799.9776810524,40189.2698859426,57709.1228396048,71458.7054234071,51297.8660420221,43397.1979794335,63477.7548971807,31018.6228028531,22423.5929533665
8193001081,21071,0,0,44062.7344925580,62792.3728705380,40177.0413506356,57702.4427740490,71448.7644151027,51286.7691025196,43392.7811054868,63465.0883247880,31001.0283132471,22415.5014349793
8193001081,21071,0,0,44066.5064785731,62795.0619315359,40167.9399134120,57703.6838791250,71443.0821006864,51283.6055013456,43392.4647453694,63461.9368913109,30990.9047894905,22407.3369104111
8193001081,21071,0,0,44068.3316330965,62792.9690876824,40164.5694613921,57705.7280521912,71428.0914982005,51276.8402619121,43397.3196564018,63462.7886300885,30990.7952802191,22405.6942713400
8193001081,21071,0,0,44068.5506516394,62788.5400460388,40157.4756941443,57696.6509503613,71439.5899716982,51284.2017184900,43385.6873382390,63460.6592831445,30984.5775871425,22405.9132898828
8193001081,21071,0,0,44077.4330703201,62787.8099842294,40157.6825449903,57696.9064719946,71450.8329235626,51289.9083682999,43381.8666814366,63465.8305542942,30987.9237037688,22413.7127835463
8193001081,21071,0,0,44063.9877653307,62788.0898412563,40167.9764165025,57703.5865375504,71450.4800603547,51285.1629665390,43391.5278327140,63464.8328031547,31003.3888464308,22400.1944723760
8193045261,21072,0,0,44047.8168962531,62783.6851350064,40163.8150641890,57703.5378667631,71436.9860845781,51275.2949644156,43398.5607614777,63454.7336147917,30998.4487615207,22393.1128728251
8193045261,21072,0,0,44056.4559609974,62788.6252199166,40155.5410303494,57702.7104633791,71444.1528580068,51284.6519232724,43395.8960358735,63456.7534524643,30985.4414936170,22405.6212651590
8193045261,21072,0,0,44065.0463549543,62793.0785969538,40162.9876608051,57703.6717114282,71450.2488741151,51287.6208412972,43392.9757886360,63464.8936416389,30991.4766712411,22411.0723933357
8193045261,21072,0,0,44056.6384764497,62786.8974069677,40164.7763122380,57698.5734464593,71443.4106285006,51275.7816722885,43389.2524734081,63462.7034562107,30994.0805583612,22412.1674860498
8193045261,21072,0,0,44062.1991138978,62785.8753204346,40151.8177151216,57695.3003360140,71439.5899716982,51269.6613207865,43382.7427556079,63464.0175674676,30975.2084605889,22425.6614618264
8193045261,21072,0,0,44081.5944226335,62800.3183765634,40156.5266137921,57710.2787708030,71460.5184102337,51283.8245198884,43392.3917391885,63480.7724859928,30982.0345385065,22433.1689307662
8193045261,21072,0,0,44077.4817411074,62810.5757449851,40174.3401219409,57725.6222364967,71466.2493954373,51289.0201264318,43412.0547372543,63484.6904843698,31006.8809754190,22422.7898853762
8193045261,21072,0,0,44069.3050488424,62806.7550881827,40174.1576064885,57721.4365487897,71463.7306821949,51284.4450724264,43410.4729366674,63476.5381274984,31005.0558208955,22419.3950979626
8193085301,21073,0,0,44073.5394073368,62800.5860658935,40164.3504428492,57714.1967691800,71464.4729117011,51273.2872944398,43401.1646485978,63472.2672659136,30989.7975290796,22424.1770028140
8193085301,21073,0,0,44068.8061732726,62794.9280868708,40165.4942063506,57713.8317382753,71452.9744382035,51267.5928123266,43403.9267157766,63469.5782049157,30991.0021310650,22420.5266937671
8193085301,21073,0,0,44064.6569886560,62792.6040567777,40165.6280510157,57711.0818387933,71444.3840442465,51268.1890294710,43403.6346910529,63461.9612267045,30985.3806551328,22425.4546109804
8193085301,21073,0,0,44066.7011617223,62795.2201115946,40165.1170077491,57704.7546364454,71443.4958023784,51278.2638824404,43392.9879563328,63461.7665435554,30979.1629620563,22432.9134091329
8193085301,21073,0,0,44070.8625140357,62794.5752236630,40172.1864396032,57700.7636318875,71437.9595003239,51278.6532487387,43386.9284433150,63467.0716593702,30984.6140902330,22435.0914268642
8193085301,21073,0,0,44069.2807134487,62793.3706216775,40170.1422665370,57697.9285585277,71443.7634917085,51278.2395470467,43383.7283390505,63469.1280001332,30992.0972237791,22429.0805846337
8193085301,21073,0,0,44071.0085263976,62797.2886200545,40161.3936925213,57695.9452239456,71453.5463199541,51282.0358684555,43377.9243476660,63468.3127644461,30990.5154231921,22423.4591087015
8193085301,21073,0,0,44067.6380743776,62802.2165372678,40165.3116908983,57700.2525886209,71453.1934567463,51283.2039673505,43385.9428598723,63468.7994723190,30998.7529539413,22410.6221885533
8193103553,21074,0,0,44053.4262044884,62792.5432182935,40165.5185417442,57697.5878630167,71430.6467145334,51275.8668461662,43392.3917391885,63458.0675637212,30999.9088851394,22399.4279074762
8193103553,21074,0,0,44055.2513590119,62783.3322717986,40156.7212969413,57689.1799845120,71435.6354702308,51280.4540678685,43384.9329410360,63453.7115282586,30984.6627610203,22405.2197311639
8193103553,21074,0,0,44065.2410381035,62784.1840105762,40155.3098441098,57691.3701699402,71448.3385457139,51283.0822903822,43379.7495021894,63462.0585682791,30982.4725755922,22413.9561374828
8193103553,21074,0,0,44061.3595428170,62784.6220476618,40161.5397048831,57701.1408304890,71444.6517335766,51274.1877040047,43388.3520638433,63463.7620458343,30993.8858752121,22409.5149281424
8193103553,21074,0,0,44060.3009531934,62787.4814564152,40158.6559607361,57705.5942075262,71440.7215675028,51271.6446553687,43394.3994091643,63461.3285064697,30990.0165476224,22410.6100208564
8193103553,21074,0,0,44068.8548440599,62795.0984346264,40157.3418494792,57709.4635351159,71448.5332288631,51280.6487510177,43394.9591232181,63466.2929267735,30984.9061149567,22416.2436644855
8193103553,21074,0,0,44067.2608757761,62797.4833032037,40166.6258021551,57710.1205907443,71450.4800603547,51279.5171552131,43398.6094322650,63468.3857706270,30997.3293334130,22412.3134984117
8193103553,21074,0,0,44063.2577035214,62788.9659154276,40165.8227341648,57701.3598490318,71445.5643108383,51269.1989483073,43394.5697569198,63462.0829036728,30996.3194145767,22410.4031700105
8193133727,21075,0,0,44066.7011617223,62788.1993505278,40155.9303966478,57694.6189449919,71452.7189165702,51271.0971090116,43386.9041079213,63462.7277916044,30982.6185879540,22418.5798622755
8193133727,21075,0,0,44064.9125102893,62795.7311548612,40163.0119961987,57697.7217076817,71444.5787273956,51268.0795201995,43387.7558466989,63467.5461995463,30983.1174635238,22418.8840546960
8193133727,21075,0,0,44059.1206866016,62796.6924029102,40165.9809142235,57699.3035082687,71430.5858760492,51264.7577389669,43394.6184277071,63468.0815782065,30983.0566250397,22422.3883513811
8193133727,21075,0,0,44063.7200760006,62796.4733843674,40160.2255936263,57694.0470632412,71442.4737158452,51272.8614250510,43388.4250700242,63467.6922119081,30975.9020193078,22433.0959245852
8193133727,21075,0,0,44066.7620002064,62797.5198062941,40167.3071931772,57696.0060624297,71453.9721893429,51286.4040716149,43387.7193436085,63471.6345456788,30990.2964046493,22436.1743518815
8193133727,21075,0,0,44054.2171047819,62794.9889253550,40179.7547470271,57698.8898065767,71444.4570504274,51276.4022248264,43396.6869361670,63469.4930310379,31007.9760681330,22429.7863110494
8193133727,21075,0,0,44048.5956288497,62791.3021132176,40170.0327572656,57694.5459388110,71438.2515250477,51268.8217497057,43397.3318240986,63459.4060103717,30996.4045884544,22422.7290468921
8193133727,21075,0,0,44062.3694616533,62797.5319739910,40160.1404197485,57698.8776388799,71441.4029585248,51277.4121436627,43399.4976741331,63470.8923161726,30984.2368916315,22438.7295682143
8193163691,21076,0,0,44065.1680319226,62808.5680750094,40171.1278499796,57705.2170089247,71450.9424328340,51283.5811659520,43404.0848958353,63479.9694180025,30996.8061224496,22438.3158665223
8193163691,21076,0,0,44053.4748752757,62805.5991569846,40175.2648668994,57699.3521790560,71447.9126763251,51284.1652153995,43397.8550350620,63471.6710487692,31000.3834253155,22429.3361062670
8193163691,21076,0,0,44058.5244694572,62804.5649027546,40171.4442100970,57695.7505407964,71455.8825177441,51289.3729896397,43386.4295677452,63471.3790240455,30996.6479423909,22430.4555343747
8193163691,21076,0,0,44062.2112815946,62808.4098949507,40182.4559757218,57704.4261086312,71457.3913121502,51292.0255475471,43394.7522723721,63480.7238152055,31011.2491785784,22426.9025669024
8193163691,21076,0,0,44052.0512547474,62804.9177659625,40184.6339934531,57707.3585235655,71449.7743339390,51286.6109224609,43405.2043239430,63480.5291320563,31018.5619643690,22421.7312957526
8193163691,21076,0,0,44050.6884727033,62800.9510967982,40171.4320424002,57699.3400113592,71441.0135922265,51287.4504935417,43396.4679176242,63480.2857781199,31004.2649206021,22434.9454145023
8193163691,21076,0,0,44066.2631246366,62805.4166415322,40172.5514705079,57702.2967616872,71462.4652417254,51302.4775991180,43392.5499192472,63495.0086912756,31002.2937537167,22450.7025818880
8193163691,21076,0,0,44074.1964629652,62816.9516181204,40190.2676370821,57714.9998371703,71472.9172932963,51310.4961113243,43402.1745674341,63504.9375318832,31023.9279186679,22455.4358159522
8193206197,21077,0,0,44079.4042372054,62821.9282061210,40189.1725443680,57718.7718231854,71476.2634099226,51309.5470309721,43410.7041229070,63505.1930535164,31022.7354843793,22454.2798847540
8193206197,21077,0,0,44077.2140517773,62826.4180862486,40188.1261224413,57718.5041338553,71479.9623897567,51305.3735109619,43415.4616923648,63502.3701478535,31022.5408012301,22437.3546184733
8193206197,21077,0,0,44049.2283490845,62818.5090833137,40189.5375752727,57709.5000382064,71461.7960184001,51290.6019270188,43414.6951274649,63488.0731040866,31025.4123776803,22410.8898778834
8193206197,21077,0,0,44028.5554321823,62799.6491532381,40172.7339859603,57688.0483887075,71442.3642065739,51275.2341259314,43398.2200659667,63470.0405773950,31004.2770882989,22402.3116516232
8193206197,21077,0,0,44043.4973638809,62792.3120320539,40157.9258989267,57682.1227203547,71446.3065403445,51279.1399566116,43386.0036983564,63466.6457899814,30983.1296312206,22414.1873237224
8193206197,21077,0,0,44057.8309107383,62800.3792150475,40171.2251915542,57694.7771250506,71440.4903812631,51279.6144967877,43389.8973613398,63474.2627681925,30991.4036650602,22416.9128878107
8193206197,21077,0,0,44061.5055551789,62803.6644931897,40179.2072006701,57703.8907299710,71442.8265790531,51284.3720662455,43402.5517660356,63479.5678840073,30991.1481434269,22422.8385561635
8193206197,21077,0,0,44073.2230472194,62812.8632719879,40177.1265245133,57707.3341881719,71464.6675948503,51295.9678813177,43403.7320326274,63486.1992787758,30991.9147083268,22432.6578874996
8193222292,21078,0,0,44068.6358255171,62817.0611273918,40180.6551565920,57708.9403241525,71470.8487848364,51294.1548944911,43403.9875542607,63489.2412029816,31007.1973355364,22428.2045104624
8193222292,21078,0,0,44046.6731327517,62808.1665410142,40180.5821504110,57700.8731411589,71457.6224983898,51276.5725725820,43400.2885744266,63474.8954884273,31010.5799552532,22416.3653414537
8193222292,21078,0,0,44041.3071784528,62801.5108108521,40169.6433909672,57692.3314179892,71453.9843570397,51269.3449606691,43390.4327400000,63466.4511068322,30992.0728883855,22417.8863035566
8193222292,21078,0,0,44055.4460421610,62808.6289134935,40172.1377688159,57702.9659850124,71461.6500060382,51282.6199179030,43392.8662793646,63472.6079614246,30990.4545847080,22418.4460176104
8193222292,21078,0,0,44060.1549408315,62816.0755439491,40191.9467792437,57713.9169121531,71458.1578770500,51291.9647090630,43408.3557574202,63478.0590896013,31007.5988695315,22414.9173855318
8193222292,21078,0,0,44059.4978852031,62810.2107140805,40191.2410528280,57705.4725305580,71444.7977459384,51286.8421087005,43403.9145480798,63475.8445687795,31001.3081702741,22424.8827292298
8193222292,21078,0,0,44072.9188547988,62807.4729822953,40184.1107824897,57700.4959425574,71463.5846698331,51300.0683951471,43395.7013527243,63484.6661489761,30996.4289238481,22441.1387721852
8193222292,21078,0,0,44068.0396083728,62812.6320857482,40198.2496461980,57708.6969702160,71466.6752648261,51310.1919189038,43405.2408270335,63490.4944757543,31016.6516359678,22432.1590119299
8193249471,21079,0,0,44058.5123017604,62814.7492649954,40198.5051678312,57714.7199801434,71459.6301683656,51309.4253540039,43412.8213021542,63484.4471304333,31022.1636026286,22423.7754688189
8193249471,21079,0,0,44071.6777497229,62817.2436428441,40190.1702955075,57716.5816377573,71459.8248515148,51317.1275060928,43408.6964529312,63487.6472346978,31010.5312844659,22431.1612607904
8193249471,21079,0,0,44081.6430934208,62821.0156288592,40193.3217289847,57718.1269352538,71468.9262887383,51312.7714706302,43407.4066770680,63495.3128836962,31017.6128840168,22437.5614693193
8193249471,21079,0,0,44063.3793804896,62809.5293230584,40191.2288851311,57707.7478898638,71453.6436615287,51294.3495776403,43403.0628093022,63486.3087880472,31021.6768947557,22436.7340659353
8193249471,21079,0,0,44058.9868419365,62800.3670473507,40175.9219225279,57695.1664913489,71454.2520463699,51295.3108256893,43396.6747684701,63485.2867015141,31006.8566400253,22445.4096337701
8193249471,21079,0,0,44063.4888897610,62807.8623485936,40179.6695731493,57699.4130175401,71449.6648246676,51294.9701301783,43399.7288603727,63488.2191164484,31007.8665588616,22444.5822303861
8193249471,21079,0,0,44059.5222205967,62813.2039674989,40190.2798047789,57705.8618968563,71453.9965247366,51294.9214593910,43408.1367388774,63489.4967246148,31020.0220879878,22432.0616703553
8193249471,21079,0,0,44055.5433837356,62808.7140873712,40180.4483057460,57699.9848992908,71450.6504081103,51293.9967144324,43401.1768162946,63479.9937533961,31017.3451946867,22423.2035870682
8193290436,21080,0,0,44060.2766177998,62806.4873988526,40171.0426761019,57692.5869396225,71453.7531708001,51294.7267762418,43388.2912253591,63476.4651213175,31011.1153339134,22424.6637106869
8193290436,21080,0,0,44055.6163899166,62807.4851499921,40178.5136419512,57695.1664913489,71448.5697319536,51290.7722747743,43393.7301858390,63475.5647117526,31017.8805733469,22417.5821111360
8193290436,21080,0,0,44047.2328468056,62808.9696090045,40179.9737655699,57697.5513599262,71444.8585844225,51284.5545816978,43399.9113758250,63471.0504962313,31011.3465201530,22417.1319063535
8193290436,21080,0,0,44054.7159803517,62810.4905711074,40175.6542331978,57701.1651658826,71450.0176878755,51289.1296357032,43399.6558541918,63471.7683903438,30996.9277994178,22423.3739348237
8193290436,21080,0,0,44065.4600566463,62812.0967070880,40182.5776526900,57706.5067847879,71443.1186037769,51287.1219657275,43402.7951199721,63479.3975362518,30996.7939547528,22428.5208705798
8193290436,21080,0,0,44065.3018765876,62807.3269699334,40184.5853226658,57704.2314254820,71448.5453965599,51281.8046822158,43402.9289646371,63477.6332202125,30997.3536688066,22421.4392710289
8193290436,21080,0,0,44067.4312235316,62803.2629591946,40175.0458483566,57701.5545321810,71455.3471390839,51277.3148020882,43397.2831533113,63474.8346499432,30991.4158327570,22418.4946883977
8193290436,21080,0,0,44059.9967607728,62801.9001771504,40173.7195694029,57702.7591341664,71452.4755626337,51270.6225688355,43401.1768162946,63471.2695147741,30993.2531549773,22404.8425325624
8193328610,21081,0,0,44042.4631096510,62794.5508882693,40171.9795887572,57699.1574959068,71434.2118497025,51260.7180636217,43404.1579020163,63460.8296309000,30993.2653226741,22392.9425250695
8193328610,21081,0,0,44040.8448059735,62786.5202083662,40159.6902149661,57690.4210895880,71430.7440561079,51263.9546709766,43396.8572839225,63453.3343296571,30978.9074404230,22402.9808749485
8193328610,21081,0,0,44052.8543227378,62787.2867732660,40155.1759994447,57686.9897990839,71437.4362893606,51277.7528391738,43386.9892817991,63458.7002839560,30975.9993608824,22417.8376327693
8193328610,21081,0,0,44053.9372477550,62788.2236859214,40161.9655742719,57690.5549342530,71436.8522399131,51275.2584613251,43389.9581998239,63462.0585682791,30985.6970152502,22419.7844642609
8193328610,21081,0,0,44052.6961426791,62791.4602932763,40160.0795812644,57691.8568778131,71431.2429316777,51267.6049800235,43393.0609625137,63459.4911842495,30985.0156242282,22420.5875322513
8193328610,21081,0,0,44062.9413434040,62798.9069237319,40160.9313200420,57695.7018700091,71441.7314863390,51275.1246166600,43395.8595327830,63463.2753379614,30986.3175677882,22426.4523621199
8193328610,21081,0,0,44055.3608682833,62798.2255327099,40171.9065825763,57696.3467579408,71436.5723828861,51279.0669504307,43400.7996176931,63461.0608171396,30999.0814817555,22415.0755655905
8193328610,21081,0,0,44043.2053391572,62783.7094704001,40165.8835726489,57683.7896948195,71422.3361776033,51271.0727736180,43392.8784470614,63454.5997701266,30997.1468179606,22409.8921267439
8193357469,21082,0,0,44051.8687392951,62776.4210200031,40152.9128078357,57677.0974615669,71427.2884302102,51269.6126499992,43380.5038993925,63453.1761495984,30981.4383213622,22412.8245416782
8193357469,21082,0,0,44050.0192493780,62778.6477085217,40158.3396006187,57683.3516577338,71434.6498867881,51271.2309536767,43384.7625932805,63456.4249246501,30989.5663428399,22405.8281160050
8193357469,21082,0,0,44025.4161664020,62771.5296058803,40160.2134259294,57682.1348880516,71417.7732912947,51259.9636664186,43389.7148458874,63444.5492525509,30998.4974323080,22392.7721773140
8193357469,21082,0,0,44015.3413134326,62762.1361439330,40145.4540096832,57670.8067623094,71411.3609150690,51256.1795127067,43380.3943901210,63434.6812504275,30983.5555006094,22400.2553108601
8193357469,21082,0,0,44025.8420357908,62763.0000504074,40140.4044155017,57668.0203597369,71415.3640873237,51255.3642770196,43371.8039961640,63438.5262426235,30976.8754350536,22413.5059327003
8193357469,21082,0,0,44030.5752698550,62767.6237752002,40151.5743611852,57676.8297722367,71413.7336159495,51255.1695938704,43378.8855957150,63442.4320733037,30983.1539666142,22412.5933554386
8193357469,21082,0,0,44036.6834536601,62768.5363524619,40144.6144386024,57679.7743548679,71408.6110155870,51251.7261356695,43379.7373344926,63440.0228693328,30971.8136731753,22416.6817015711
8193357469,21082,0,0,44051.3211929381,62775.2650888050,40140.2584031398,57684.7752782621,71421.5574450066,51256.8974068193,43381.5503213192,63447.1774750647,30963.2719500056,22416.0733167300
8193373395,21083,0,0,44041.0638245163,62773.7806297926,40144.4319231501,57685.3228246192,71407.6984383253,51241.7364565779,43382.7427556079,63442.7240980275,30968.5527304267,22401.4720805424
8193373395,21083,0,0,44030.9159653660,62763.3407459185,40137.1799758436,57677.6328402271,71409.8034498757,51241.3835933700,43382.3655570064,63440.0958755137,30964.9754275608,22402.2994839264
8193373395,21083,0,0,44033.8362126035,62763.8517891850,40135.1114673837,57675.6495056449,71423.3339287428,51258.5643812840,43376.9387642233,63441.4343221642,30962.7609067390,22411.7294489642
8193373395,21083,0,0,44032.9236353418,62773.1479095578,40150.2115791410,57686.7586128443,71427.5074487530,51268.2742033487,43386.9162756181,63449.9395422435,30980.9637811861,22409.1985680250
8193373395,21083,0,0,44026.0367189400,62774.0483191227,40156.1615828874,57690.3967541943,71409.9859653280,51258.4913751031,43395.4458310910,63445.5591713872,30986.0985492454,22409.1012264504
8193373395,21083,0,0,44038.3990989121,62776.4331877000,40145.6243574387,57686.2962403650,71422.8715562635,51264.0276771575,43392.0753790711,63446.8367795536,30971.7528346911,22421.9746496891
8193373395,21083,0,0,44046.8678159009,62783.3566071922,40149.1043187301,57691.2363252751,71436.6940598544,51272.5207295399,43390.9194478729,63454.7457824885,30978.3963971565,22428.6912183353
8193373395,21083,0,0,44036.5617766918,62781.4341110942,40157.3661848729,57689.5815185072,71433.0315831107,51270.3913825959,43395.5553403624,63455.5245150852,30990.8682864000,22421.7677988431
8193434125,21084,0,0,44032.1083996546,62775.5571135287,40146.3300838545,57680.1150503789,71423.5529472856,51263.4922984973,43388.1573806941,63448.3212385660,30977.8488507994,22417.8011296788
8193434125,21084,0,0,44043.5460346682,62787.2502701756,40152.5356092342,57687.3669976854,71440.9892568329,51277.6189945087,43394.2412291056,63458.9923086797,30979.4184836896,22417.4482664709
8193434125,21084,0,0,44039.3360115675,62789.9758342639,40167.5505471137,57696.8091304200,71438.7382329206,51275.0637781759,43404.4255913464,63460.2212460588,30998.4244261270,22402.6888502247
8193434125,21084,0,0,44036.2332488776,62785.7293080727,40161.6127110641,57692.4530949574,71429.8193111494,51269.0772713390,43401.4080025343,63455.5366827820,30995.6866943419,22401.9101176280
8193434125,21084,0,0,44063.3063743087,62783.5512903414,40148.0213937129,57690.0682263801,71433.9563280692,51274.5527349094,43391.6981804696,63464.3339275850,30981.3288120908,22422.3396805938
8193434125,21084,0,0,44073.6610843050,62793.3949570711,40159.6172087851,57701.9925692666,71450.5043957484,51278.0083608071,43397.2953210081,63475.8445687795,30994.9444648357,22423.7876365157
8193434125,21084,0,0,44045.5050338567,62789.9271634766,40164.7641445412,57696.7969627232,71441.2447784661,51270.9267612561,43403.4521756005,63465.5263618736,31000.8701331885,22410.7803686120
8193434125,21084,0,0,44024.1385582356,62784.0014951238,40155.3828502907,57683.3881608243,71434.0415019470,51276.1102001027,43398.4877552968,63457.2888311245,30987.7046852260,22410.7682009152
8193448609,21085,0,0,44023.3354902453,62784.1110043953,40155.8087196795,57680.0785472885,71433.7251418296,51278.0813669880,43397.8915381524,63457.8242097847,30990.4302493144,22414.9782240159
8193448609,21085,0,0,44026.1462282114,62781.1055832800,40159.9944073866,57684.4224150543,71429.0527462496,51273.1777851684,43401.2133193851,63457.1671541563,30998.8867986063,22413.5667711844
8193448609,21085,0,0,44035.2476654350,62780.1078321405,40152.2679199041,57687.2088176267,71433.0194154138,51274.1146978237,43397.2344825240,63455.4393412074,30986.9624557198,22417.0345647790
8193448609,21085,0,0,44050.7249757937,62789.0024185181,40155.4923595621,57699.4373529338,71439.8698287251,51281.5004897953,43401.8947104072,63465.3438464213,30986.9259526294,22421.3175940606
8193448609,21085,0,0,44046.5636234803,62797.0452661180,40171.6145578525,57709.9624106856,71439.5413009109,51280.9894465287,43414.2327549856,63471.7562226470,31004.7637961718,22414.2359945097
8193448609,21085,0,0,44036.8781368092,62787.1042578137,40163.2553501352,57698.6099495498,71433.7373095264,51266.3517072507,43405.4111747890,63463.6403688661,30996.7087808750,22411.8997967197
8193448609,21085,0,0,44037.9123910392,62779.2560933629,40145.6243574387,57685.0916383795,71438.2515250477,51268.1160232900,43386.3687292611,63460.9634755650,30984.1517177537,22415.4527641920
8193448609,21085,0,0,44031.4026732389,62776.6643739396,40148.9826417619,57683.0474653133,71434.5403775167,51264.3197018813,43384.9572764296,63460.2090783620,30988.4712501259,22406.4851716335
8193480278,21086,0,0,44024.6982722895,62780.4485276515,40151.9272243930,57683.2178130688,71425.5606172614,51260.5112127757,43389.4958273446,63454.6362732171,30984.7722702917,22401.0948819409
8193480278,21086,0,0,44036.7686275378,62792.8595784109,40151.0146471313,57686.2475695777,71435.2096008420,51271.5838168846,43391.7590189537,63458.7976255306,30975.1597898016,22413.0192248274
8193480278,21086,0,0,44044.1544195094,62801.5838170330,40162.0872512402,57694.8866343220,71441.6098093708,51279.2007950957,43396.6747684701,63467.3393487003,30986.7191017834,22418.3608437327
8193480278,21086,0,0,44033.6293617575,62795.9501734040,40169.4487078181,57692.1732379305,71424.7575492710,51265.6094777445,43394.8374462499,63462.3870960933,30992.9124594662,22411.3035795754
8193480278,21086,0,0,44040.9908183354,62788.8685738530,40154.3364283640,57687.1114760521,71424.6358723028,51262.2755288150,43386.7094247722,63464.6016169151,30973.0061074639,22424.2500089950
8193480278,21086,0,0,44057.7335691638,62800.6104012872,40158.3639360124,57700.3499301955,71448.2168687457,51279.0426150370,43392.2943976139,63478.2294373568,30978.0557016454,22432.7430613774
8193480278,21086,0,0,44047.8290639499,62808.4463980411,40176.5059719754,57711.7145590281,71447.1704468189,51287.6695120845,43406.9808076792,63475.8202333859,31002.4397660786,22417.3265895027
8193480278,21086,0,0,44035.9777272443,62802.4720589011,40174.8755006011,57704.6694625676,71439.0910961285,51288.1197168669,43405.4355101827,63464.4434368564,31000.5537730711,22411.1697349103
8193500300,21087,0,0,44046.0039094264,62794.7455714185,40167.9520811088,57697.5513599262,71438.8234067984,51291.0277964076,43395.7256881180,63464.0540705581,30994.4090861755,22420.9525631560
8193500300,21087,0,0,44044.3856057490,62795.7554902548,40177.1021891197,57700.5689487383,71442.6075605103,51290.5775916252,43396.6626007733,63466.4511068322,31008.6452914583,22424.0796612394
8193500300,21087,0,0,44029.2976616885,62789.4526233005,40175.7880778628,57699.5468622052,71435.9153272577,51285.1386311453,43397.5995134287,63459.5033519463,31007.9882358299,22423.1305808873
8193500300,21087,0,0,44031.3540024516,62791.2656101271,40169.2418569721,57698.7924650022,71438.2150219572,51294.1183914006,43396.2975698686,63460.8661339905,31001.2594994868,22423.9944873617
8193500300,21087,0,0,44034.0673988431,62796.7289060006,40176.2139472516,57705.2413443183,71437.5457986320,51298.7664515870,43406.3480874444,63467.5705349399,31013.1838423733,22417.7159558010
8193500300,21087,0,0,44020.5977584601,62788.3331951928,40174.0237618235,57696.3345902439,71432.1311735458,51286.9881210624,43403.2939955418,63462.5331084552,31011.7115510577,22413.7371189399
8193500300,21087,0,0,44021.5833419028,62780.4606953484,40160.5662891373,57681.1614723057,71427.0085731833,51283.1431288664,43386.7459278626,63459.0896502543,30988.4347470354,22424.9192323202
8193500300,21087,0,0,44036.9268075965,62786.8365684836,40164.7033060571,57689.5815185072,71432.9464092329,51291.4293304028,43389.2159703177,63471.8048934343,30988.4347470354,22440.1531887426
8193564303,21088,0,0,44036.8172983251,62796.2665335214,40180.9593490126,57706.1295861864,71440.1131826616,51292.3540753613,43408.2705835424,63477.2073508237,31003.7538773355,22434.0450049374
8193564303,21088,0,0,44029.6383571996,62792.8109076237,40178.8178343717,57706.0687477023,71439.1641023094,51285.8565252579,43411.4706878068,63464.6259523088,31000.5172699806,22429.4942863257
8193564303,21088,0,0,44025.8420357908,62783.1619240431,40170.1544342338,57694.2904171777,71435.6233025339,51285.8565252579,43400.8726238741,63457.2036572468,30997.0129732956,22430.8205652794
8193564303,21088,0,0,44020.0623797999,62776.4088523063,40173.3667061950,57691.2363252751,71420.6205323513,51276.9376034867,43398.8649538983,63453.5168451094,31000.6146115552,22428.1680073720
8193564303,21088,0,0,44025.6230172480,62768.6458617333,40162.6591329909,57687.5008423505,71404.0602969752,51268.4202157106,43395.5066695751,63452.8354540873,30980.8542719147,22439.3987915395
8193564303,21088,0,0,44050.6276342192,62781.4341110942,40162.3306051766,57701.5666998778,71433.6156325582,51287.9006983241,43401.5175118057,63467.9964043287,30977.1674597774,22456.3970640012
8193564303,21088,0,0,44047.6343808007,62795.6216455898,40180.6794919856,57716.8614947842,71442.3033680897,51297.5253465111,43416.2404249614,63478.0104188140,31005.0436531987,22449.8265077168
8193564303,21088,0,0,44027.9470473412,62789.5864679656,40179.9129270858,57709.0620011207,71432.3745274822,51281.0016142255,43413.5878670540,63465.7332127196,31009.8985642311,22432.5848813187
8193590266,21089,0,0,44030.4900959772,62781.8113096957,40162.2454312989,57697.2349998088,71432.1555089394,51267.0209305760,43397.1371409494,63459.5885258241,30988.7997779401,22430.7353914016
8193590266,21089,0,0,44042.8403082525,62786.9217423613,40164.9588276904,57705.6063752230,71439.1519346126,51271.5351460973,43399.8505373409,63466.5971191941,30989.7001875050,22426.2941820612
8193590266,21089,0,0,44039.8713902277,62786.2038482488,40175.3987115645,57711.6780559377,71431.2429316777,51272.8614250510,43406.2629135666,63461.0608171396,30993.4478381265,22413.8952989986
8193590266,21089,0,0,44041.0273214259,62783.6607996128,40171.0548437987,57707.7357221670,71430.0626650858,51280.1377077511,43400.3737483043,63457.7390359070,30982.7159295286,22413.2139079766
8193590266,21089,0,0,44042.4631096510,62783.9163212461,40169.5460493926,57702.6617925919,71433.7738126169,51283.6663398297,43393.8396951104,63461.3285064697,30979.7470115038,22417.4117633805
8193590266,21089,0,0,44025.6473526417,62781.1055832800,40170.3734527766,57698.4882725816,71431.8391488220,51271.8028354274,43392.1970560393,63460.8296309000,30987.6316790451,22413.6032742749
8193590266,21089,0,0,44019.0889640541,62778.7450500963,40161.3571894308,57695.1421559553,71426.0838282248,51269.4544699405,43389.2768088018,63456.4492600437,30977.2769690488,22415.0999009841
8193590266,21089,0,0,44039.2386699929,62793.9911742155,40162.2575989957,57706.6771325434,71446.0145156207,51284.1043769154,43395.1781417609,63470.3691052092,30977.5568260757,22423.9214811808
8193611235,21090,0,0,44037.6812047995,62800.0385195365,40171.8092410017,57713.4545396738,71443.0455975959,51283.3256443187,43407.8812172441,63472.6444645151,30992.6204347425,22414.4793484461
8193611235,21090,0,0,44028.1295627935,62790.6450575892,40168.3657828008,57706.4459463038,71434.0536696438,51271.5473137941,43407.9785588187,63463.7620458343,30992.0728883855,22409.8556236534
8193611235,21090,0,0,44034.9313053176,62783.0402470748,40154.3120929703,57696.8091304200,71437.2416062114,51270.7929165911,43397.9037058493,63461.7178727681,30981.0489550639,22418.1296574930
8193611235,21090,0,0,44041.6600416607,62787.4814564152,40157.5608680220,57704.2800962693,71438.7990714047,51273.2507913493,43405.4233424858,63470.4786144806,30992.6447701361,22422.4735252588
8193611235,21090,0,0,44030.6117729454,62789.5986356624,40160.1769228390,57713.4058688865,71431.6809687633,51266.2787010698,43418.3332688150,63467.5461995463,30996.8426255401,22416.6208630870
8193611235,21090,0,0,44034.1282373272,62787.5544625961,40150.2237468378,57711.2765219425,71430.3181867191,51277.3391374818,43415.8267232695,63466.3415975608,30983.6650098808,22424.6637106869
8193611235,21090,0,0,44046.1620894851,62795.9015026167,40165.5672125315,57716.0219237034,71448.8495889805,51302.5141022085,43416.0822449027,63478.3997851123,30998.9598047872,22432.9620799202
8193611235,21090,0,0,44035.1138207699,62789.6838095402,40177.6254000831,57712.0674222360,71441.0257599233,51293.2544849262,43415.1940030347,63473.9220726815,31016.2501019726,22429.8106464431
8193629738,21091,0,0,44024.5765953212,62775.7639643747,40161.8073942133,57697.3810121707,71431.6079625824,51274.3337163665,43403.7320326274,63463.3361764455,31002.7804615897,22432.4267012600
8193629738,21091,0,0,44023.6031795754,62776.0438214016,40147.8510459573,57694.7771250506,71433.0802538979,51266.8992536077,43398.9136246856,63461.7543758585,30989.5420074463,22430.1148388636
8193629738,21091,0,0,44018.0668775210,62774.6323685702,40148.3012507398,57695.0448143807,71407.1265565746,51252.4561974789,43397.8550350620,63454.3442484934,30987.4004928055,22421.0620724274
8193629738,21091,0,0,44023.1651424898,62769.8869668092,40142.3999177807,57690.0073878960,71403.9872907943,51255.9239910734,43392.8054408804,63451.4726720431,30973.9186847256,22426.8782315087
8193629738,21091,0,0,44045.3225184044,62775.7396289811,40141.2196511888,57688.7054443359,71421.5209419161,51272.2773756035,43386.4417354421,63461.5110219221,30967.3602961381,22443.1464421610
8193629738,21091,0,0,44046.5757911771,62786.8487361804,40162.0507481497,57702.8199726506,71438.0446742017,51282.1332100300,43397.4413333700,63471.2573470772,30991.5131743316,22439.9828409870
8193629738,21091,0,0,44025.3796633116,62784.1961782730,40171.7362348208,57707.9182376194,71427.0450762738,51271.8636739115,43408.2340804519,63459.2113272225,31003.0481509198,22423.1670839777
8193629738,21091,0,0,44018.2007221860,62775.7031258906,40158.7654700075,57702.4062709586,71418.6858685564,51265.8528316810,43408.8181298994,63455.0743103027,30990.5519262826,22426.5618713913
8193683062,21092,0,0,44015.0492887089,62771.6756182422,40154.0809067307,57697.2106644152,71418.9657255833,51263.3219507418,43405.7883733905,63454.7336147917,30987.7046852260,22421.2324201829
8193683062,21092,0,0,44000.4845556118,62762.6228518059,40154.0687390339,57687.3669976854,71408.2459846823,51258.8442383109,43402.6369399134,63445.9120345951,30987.2058096563,22406.6555193890
8193683062,21092,0,0,43999.5233075628,62756.8310281182,40143.1421472869,57677.5233309557,71407.1143888778,51257.1285930589,43390.9072801761,63439.6943415185,30973.7483369701,22403.7109367578
8193683062,21092,0,0,44010.5472408844,62763.5597644613,40139.6256829050,57680.8329444915,71411.2149027071,51253.3444393470,43388.2547222687,63443.2229735972,30970.3048787692,22405.0615511052
8193683062,21092,0,0,44005.6801621552,62763.9978015469,40148.3377538303,57687.1358114458,71400.4099879283,51245.3502625343,43396.1637252036,63439.9985339391,30980.6474210687,22398.2111377939
8193683062,21092,0,0,44001.8230022623,62758.2668163433,40143.3611658297,57679.3119823886,71378.6054752216,51240.3006683528,43387.3056419165,63428.9380975271,30970.5725680993,22401.1313850314
8193683062,21092,0,0,44022.4959191645,62758.7413565194,40139.1998135162,57677.6936787112,71408.5866801934,51266.8627505173,43380.3335516369,63447.0071273091,30965.2917876782,22422.2423390192
8193683062,21092,0,0,44025.6595203385,62766.8450426035,40158.9844885503,57690.2385741356,71425.5119464741,51277.9110192325,43389.4958273446,63463.0319840249,30994.6037693246,22417.4969372582
8193698529,21093,0,0,44012.4454015888,62764.0586400310,40163.2918532257,57692.0272255686,71415.5587704729,51268.3715449233,43395.6526819370,63455.9625521708,31002.9021385579,22409.8312882598
8193698529,21093,0,0,44013.4066496378,62765.3727512879,40157.9745697140,57688.5715996709,71418.2965022581,51273.0317728065,43394.9591232181,63451.1563119257,30992.4257515933,22413.4937650035
8193698529,21093,0,0,44008.4300616372,62763.9004599723,40157.5000295379,57686.2962403650,71413.4659266194,51271.1822828894,43393.0001240296,63446.1310531379,30992.9854656472,22409.6366051106
8193698529,21093,0,0,43998.9514258121,62758.6683503385,40154.6284530877,57678.7766037284,71404.8025264814,51268.8825881899,43388.3155607528,63442.8579426925,30996.1734022148,22415.5379380697
8193698529,21093,0,0,44005.5341497933,62758.6805180353,40141.0858065238,57671.3786440601,71409.5965990297,51269.1259421263,43380.3092162433,63444.0017061939,30983.8231899395,22433.7164771232
8193698529,21093,0,0,44017.0569586847,62773.2939219196,40149.5423558157,57683.3759931275,71424.5263630314,51277.0349450612,43386.2105492024,63458.5299362005,30988.8362810306,22440.7007350996
8193698529,21093,0,0,44011.8005136572,62784.8167308110,40170.1787696274,57696.7847950264,71424.9887355107,51275.4653121711,43402.5761014293,63463.0684871154,31002.2572506263,22431.2951054555
8193698529,21093,0,0,44011.2894703906,62785.8874881314,40173.4762154665,57697.6000307135,71424.4046860632,51278.2152116531,43407.7473725790,63462.5087730616,30995.9787190656,22432.1346765362
8193732632,21094,0,0,44027.5941841333,62788.0168350754,40167.4288701454,57695.0326466839,71429.0040754623,51281.4639867048,43400.7387792090,63465.9765666561,30986.3175677882,22442.1730264152
8193732632,21094,0,0,44034.7122867748,62792.0443427238,40171.1643530701,57701.0434889144,71438.5435497714,51278.2152116531,43402.7099460943,63472.3159367008,30995.0539741071,22440.5425550409
8193732632,21094,0,0,44028.3242459427,62791.5941379414,40164.5451259984,57704.1949223915,71434.0901727342,51265.0132606002,43403.5981879624,63463.1536609932,30990.9656279746,22435.5781347371
8193732632,21094,0,0,44039.5550301103,62796.9235891498,40152.5112738405,57705.5333690421,71426.7895546405,51267.7631600822,43400.1425620647,63461.6448665871,30976.0358639728,22436.1865195783
8193732632,21094,0,0,44049.8610693193,62807.0349452097,40159.0818301249,57712.0187514487,71431.5714594919,51276.4630633106,43404.9366346129,63466.4754422258,30979.5523283547,22428.8493983940
8193732632,21094,0,0,44049.2526844782,62804.9055982657,40168.6091367373,57712.8096517422,71434.0171665533,51283.0701226854,43408.1245711805,63468.2397582652,30987.9237037688,22424.2865120854
8193732632,21094,0,0,44043.6920470301,62797.2521169640,40164.3382751524,57703.6838791250,71441.9991756692,51286.4405747054,43396.9911285875,63465.2221694531,30986.3540708787,22424.0309904522
8193732632,21094,0,0,44026.5599299034,62794.1493542742,40163.1945116511,57700.2039178336,71438.7017298301,51277.9110192325,43394.6062600102,63461.4988542253,30996.6601100877,22418.2878375517
8193759858,21095,0,0,44002.0663561988,62789.5134617846,40161.4301956117,57693.2196598573,71421.0829048305,51265.9988440428,43394.2412291056,63451.2049827130,30998.6312769730,22405.8037806114
8193759858,21095,0,0,43998.5255564233,62787.5787979898,40152.0367336644,57685.0307998954,71418.1139868057,51265.7433224095,43388.5589146892,63446.2040593188,30983.5433329126,22410.0624744994
8193759858,21095,0,0,44008.2597138817,62786.2525190361,40147.5346858399,57679.3849885696,71423.8328043125,51269.9046747230,43375.7950007220,63445.9120345951,30973.9916909066,22416.2071613950
8193759858,21095,0,0,44006.4223916614,62782.9185701066,40157.4635264475,57677.3043124128,71414.7922055731,51268.6392342534,43373.4222998415,63444.9507865460,30981.4018182717,22413.0435602210
8193759858,21095,0,0,44015.9131951833,62774.9365609907,40147.5225181431,57675.4426547989,71406.6398487017,51267.3129552997,43368.7985750488,63445.8146930205,30966.1556941526,22419.5654457181
8193759858,21095,0,0,44035.5883609460,62784.9384077792,40144.2494076977,57684.7144397780,71430.5007021715,51274.6865795744,43373.9576785017,63454.5997701266,30964.2453657514,22428.0463304037
8193759858,21095,0,0,44028.5919352728,62792.1781873889,40158.8141407948,57696.0060624297,71432.5205398441,51274.0416916428,43389.6905104938,63456.7412847675,30986.9137849325,22419.8818058355
8193759858,21095,0,0,44009.3061358085,62783.2957687081,40159.0453270344,57691.6500269671,71420.2555014466,51264.7090681796,43392.9271178487,63442.8336072989,30991.0142987619,22410.0016360153
8193793385,21096,0,0,44021.2183109981,62778.8058885804,40144.4440908469,57687.2331530204,71419.4889365467,51266.7045704586,43384.3123884980,63442.9674519639,30975.0624482270,22424.0918289363
8193793385,21096,0,0,44039.4820239293,62790.1461820194,40150.7469578012,57699.2426697846,71437.4727924510,51277.7406714770,43391.1506341125,63455.2933288456,30983.7623514554,22430.9544099444
8193793385,21096,0,0,44030.3562513121,62793.3584539807,40159.9579042962,57706.0322446118,71431.1942608904,51270.7442458038,43403.0141385149,63452.3487462144,30996.2707437894,22421.7556311463
8193793385,21096,0,0,44016.8257724450,62785.1817617157,40151.5500257915,57696.2007455789,71417.4569311773,51267.4467999648,43399.5828480108,63440.8137696262,30983.9448669077,22421.0742401242
8193793385,21096,0,0,44021.8023604456,62777.7594666537,40145.0038049008,57687.1723145362,71412.7723679005,51271.9731831829,43389.5688335255,63442.9674519639,30973.7726723638,22430.9179068539
8193793385,21096,0,0,44018.1033806114,62777.6742927759,40155.2125025352,57685.9677125508,71419.1239056420,51272.1313632416,43388.6197531734,63445.7538545364,30986.5487540278,22428.8737337877
8193793385,21096,0,0,44012.3967308015,62773.3547604038,40151.1606594932,57682.3052358071,71416.6660308838,51266.8505828204,43384.9572764296,63436.8105973715,30982.8984449810,22424.1039966331
8193793385,21096,0,0,44016.2782260880,62774.3403438464,40142.7527809885,57685.4445015874,71417.7732912947,51265.5243038667,43384.9694441265,63434.9854428481,30973.8335108479,22422.4613575620
8193815100,21097,0,0,44013.8203513298,62773.1357418610,40147.2548288130,57693.1466536763,71409.4505866678,51255.8509848925,43395.0808001863,63432.5884065739,30979.7226761102,22413.7492866368
8193815100,21097,0,0,44008.2962169721,62765.8472914640,40146.7681209401,57689.9222140182,71401.9066146376,51256.8244006383,43397.0154639812,63427.1859491846,30977.8488507994,22413.3112495511
8193815100,21097,0,0,44011.0826195446,62763.0000504074,40142.5459301425,57678.7279329411,71412.3951692989,51264.4900496368,43385.2127980629,63429.3639669159,30968.1998672188,22428.0584981005
8193815100,21097,0,0,44013.1997987918,62768.4268431905,40150.8199639821,57681.3439877581,71416.4956831283,51264.9159190256,43383.3998112363,63438.9034412250,30977.8366831026,22427.9489888291
8193815100,21097,0,0,44006.5197332360,62771.3349227312,40155.8817258605,57684.8726198367,71406.9440411223,51260.1340141742,43390.5057461809,63434.4013934006,30981.7911845701,22415.3919257079
8193815100,21097,0,0,44006.6049071138,62771.2132457629,40146.8289594242,57683.1326391910,71403.0017073516,51260.9492498613,43384.1663761362,63425.4216331452,30964.8537505925,22407.8844567681
8193815100,21097,0,0,44012.3480600142,62775.7517966779,40149.2138280015,57684.8847875335,71408.7326925552,51273.3724683175,43384.7017547964,63433.7321700753,30966.2652034240,22414.2116591160
8193815100,21097,0,0,44001.4944744481,62775.8978090398,40153.3873480118,57682.9379560419,71397.1125420893,51261.0709268295,43385.3344750312,63432.3328849407,30978.4207325501,22411.3035795754
8193853586,21098,0,0,44004.9379326490,62770.5196870440,40141.3048250666,57674.8464376546,71405.2405635670,51258.1871826825,43375.7098268442,63432.4302265152,30968.4675565490,22416.6938692679
8193853586,21098,0,0,44013.7716805425,62782.1276698131,40146.3179161576,57682.7676082863,71425.0617416916,51272.0218539702,43381.6598305906,63445.1698050889,30972.7019150433,22420.4901906767
8193853586,21098,0,0,44003.7089952699,62787.0434193296,40163.0363315924,57691.0294744291,71419.8174643609,51270.4643887768,43394.9591232181,63442.5659179688,30989.3716596908,22409.8069528661
8193853586,21098,0,0,43992.8554097038,62775.5206104383,40159.5320349074,57682.4512481689,71401.8579438503,51264.9037513288,43393.3043164502,63429.7411655174,30983.6285067903,22405.2684019512
8193853586,21098,0,0,44005.4246405219,62769.2299111808,40147.1696549352,57673.2524693708,71399.9476154491,51272.5694003272,43381.6598305906,63434.5595734593,30967.1777806857,22419.6506195959
8193853586,21098,0,0,44012.2020476523,62773.2452511324,40155.3828502907,57680.0542118948,71411.4095858563,51271.0727736180,43380.9054333876,63447.8101952994,30978.3112232787,22421.2567555765
8193853586,21098,0,0,44002.1150269861,62773.8901390640,40154.1417452148,57682.7311051959,71410.4970085946,51260.7180636217,43384.6530840091,63444.5127494604,30984.6505933235,22407.0083825969
8193853586,21098,0,0,43996.5422218412,62772.2596676897,40140.0393845970,57681.2101430930,71412.0179706974,51258.7347290395,43383.4849851141,63434.6082442465,30972.0205240213,22399.0142057842
8193904993,21099,0,0,43997.7589915235,62774.8027163257,40142.1808992378,57683.7045209417,71410.6186855628,51264.8550805415,43387.2204680387,63435.3261383591,30973.5171507305,22393.8916054217
8193904993,21099,0,0,43988.7670635713,62773.6102820371,40151.0511502218,57681.1858076994,71404.8268618751,51263.9425032798,43390.6395908460,63433.3549714738,30979.0291173913,22396.6293372069
8193904993,21099,0,0,43994.8387442860,62771.3592581248,40142.3390792965,57671.8410165393,71409.6331021201,51257.0069160907,43380.6255763607,63432.6127419676,30966.0340171844,22412.2161568371
8193904993,21099,0,0,44008.0893661262,62777.6377896854,40138.4210809196,57674.4327359626,71413.6119389812,51251.1177508284,43375.4178021205,63439.2563044329,30961.6414786313,22416.1584906077
8193904993,21099,0,0,44008.6369124832,62776.8225539983,40139.1754781226,57679.5431686283,71402.1378008772,51245.7274611358,43382.2073769477,63440.7529311421,30961.8604971741,22411.1697349103
8193904993,21099,0,0,44005.0961127077,62777.0902433284,40137.4476651737,57681.6360124818,71409.3775804868,51256.1308419194,43385.4439843026,63437.5649945745,30959.8406595015,22407.2274011397
8193904993,21099,0,0,44001.4458036608,62774.1456606973,40135.6955168312,57676.2092196988,71415.4005904142,51265.9988440428,43381.2582965955,63439.1224597679,30960.4003735553,22413.0435602210
8193904993,21099,0,0,43991.1275967550,62769.2664142713,40144.3954200596,57674.4205682658,71408.7691956457,51264.1736895194,43385.3709781216,63437.7596777237,30973.1764552194,22410.0259714089
8193913575,21100,0,0,43985.1167545244,62764.3993355421,40143.6045197661,57672.6440845297,71402.8921980802,51258.6860582522,43386.5877478039,63432.4058911216,30972.6045734688,22407.5559289539
8193913575,21100,0,0,43999.4624690787,62773.5859466434,40138.4210809196,57678.2290573714,71414.8043732699,51268.0065140186,43390.0433737016,63437.6623361491,30964.7320736243,22416.1949936982
8193913575,21100,0,0,44009.6103282290,62785.5832957108,40147.8267105637,57687.5373454409,71423.0905748063,51269.7586623611,43395.3849926069,63445.8998668982,30979.2968067214,22416.6573661775
8193913575,21100,0,0,44007.4444781945,62784.1718428794,40152.5112738405,57687.9632148297,71420.9247247718,51266.6315642776,43398.9501277760,63447.9075368740,30991.4888389380,22411.6199396928
8193913575,21100,0,0,44010.6932532463,62779.5116149962,40145.6000220451,57683.7775271226,71425.7187973201,51267.5198061457,43393.0487948169,63451.4605043463,30983.0809604333,22418.6041976691
8193913575,21100,0,0,44017.1908033497,62781.5557880624,40141.1953157952,57686.5882650888,71426.5827037945,51262.7257335975,43392.5134161567,63457.0698125817,30976.6442488140,22416.4140122410
8193913575,21100,0,0,44020.6220938538,62788.5887168261,40145.4540096832,57696.6387826645,71425.2929279313,51265.0619313875,43405.8492118746,63464.6137846119,30977.9340246772,22415.0268948032
8193913575,21100,0,0,44015.2926426453,62791.0952623716,40146.4882639132,57698.3422602197,71432.6300491155,51274.4188902443,43408.5991113566,63463.1901640836,30976.8754350536,22413.6519450622
8193949361,21101,0,0,44010.1092037988,62790.6572252860,40148.1430706811,57692.5504365320,71435.2826070229,51283.5203274679,43402.7464491848,63462.6182823330,30982.9957865555,22416.4383476346
8193949361,21101,0,0,44001.4336359640,62787.7491457453,40159.3495194550,57693.2926660382,71431.4741179173,51281.7681791254,43405.9708888429,63463.1293255995,31001.2594994868,22412.6298585291
8193949361,21101,0,0,43996.2623648143,62780.0104905659,40150.8929701631,57687.5738485314,71423.4434380142,51268.4810541947,43400.7144438154,63455.4271735106,30997.6456935304,22406.9597118096
8193949361,21101,0,0,44004.4390570793,62782.9550731971,40139.4431674527,57685.4323338906,71427.9819889291,51268.2863710455,43395.3971603037,63456.3397507723,30983.7988545459,22402.7496887088
8193949361,21101,0,0,44002.8207534018,62786.1551774615,40141.7671975459,57686.2597372745,71417.1770741504,51266.5585580967,43396.9667931939,63455.9990552613,30986.8407787516,22389.1583713576
8193949361,21101,0,0,44003.5264798176,62782.5900422924,40141.0979742206,57681.6360124818,71396.7110080942,51257.9803318365,43392.3187330075,63452.9327956619,30978.6032480025,22392.2124632602
8193949361,21101,0,0,44023.8100304214,62782.6022099892,40136.1457216137,57681.8915341151,71420.8395508941,51266.0475148301,43386.3930646548,63460.2212460588,30966.3260419081,22409.7096112916
8193949361,21101,0,0,44029.8087049551,62791.3264486113,40149.6153619967,57691.7352008449,71439.2127730967,51268.9069235835,43392.7932731836,63466.4511068322,30982.2657247462,22404.9520418338
8193982368,21102,0,0,44008.7464217546,62785.2182648061,40152.9493109262,57696.1642424884,71416.4470123410,51255.5711278656,43404.2917466813,63455.5123473884,30994.6159370215,22387.2723783500
8193982368,21102,0,0,43999.3164567168,62780.0956644437,40141.3169927634,57692.8911320430,71412.9670510496,51253.1497561978,43405.3746716985,63445.4983329031,30986.1107169422,22382.9406782811
8193982368,21102,0,0,44001.9690146242,62777.0537402379,40138.7374410370,57690.5305988594,71416.5078508251,51262.3485349959,43400.3250775170,63445.1698050889,30982.2900601398,22386.0312732741
8193982368,21102,0,0,43999.1704443549,62776.4210200031,40147.6806982018,57688.7176120328,71415.2789134460,51257.4571208731,43402.7464491848,63448.5524248056,30991.9877145077,22383.4395538508
8193982368,21102,0,0,44001.4823067513,62774.5228592988,40143.0813088027,57682.9866268292,71413.2104049861,51252.1033342710,43397.3926625827,63446.0337115633,30982.3265632303,22389.0123589957
8193982368,21102,0,0,44014.3557299900,62781.6409619402,40137.1434727531,57684.3494088733,71423.1635809872,51259.3309461839,43395.2754833355,63452.1297276716,30973.2494614004,22397.3472313194
8193982368,21102,0,0,44017.7870204940,62792.4702121126,40145.6730282260,57695.3490068013,71424.2951767918,51267.6658185076,43403.2209893609,63461.4015126507,30986.1593877295,22398.9533673001
8193982368,21102,0,0,44008.1258692166,62795.8528318294,40157.6703772934,57696.8821366010,71419.5862781213,51276.0493616186,43407.4431801584,63459.9413890319,30996.7817870559,22397.2985605322
8194033620,21103,0,0,44020.5734230665,62799.5761470572,40159.4833641201,57694.3999264491,71440.6728967155,51291.5753427647,43398.5364260841,63466.0982436243,30994.1535645422,22413.6519450622
8194033620,21103,0,0,44026.7789484462,62803.8226732484,40170.6046390162,57698.1840801610,71447.6206516014,51293.2666526230,43401.0673070232,63472.6809676055,31010.0324088961,22418.3000052486
8194033620,21103,0,0,44016.7649339609,62802.0583572091,40176.6884874277,57700.7027934034,71438.3488666223,51283.9826999471,43408.5869436598,63466.0739082307,31021.7255655430,22408.3711646410
8194033620,21103,0,0,44019.7703550762,62799.1259422748,40162.4766175385,57699.7415453544,71433.3722786217,51280.7460925922,43409.5603594056,63460.9026370809,31008.3532667346,22407.6654382253
8194033620,21103,0,0,44030.1494004662,62802.3017111455,40159.5442026042,57703.0998296775,71439.1275992189,51286.7204317323,43409.3048377724,63466.0739082307,31002.1355736580,22411.5712689055
8194033620,21103,0,0,44015.8036859119,62800.6955751649,40166.3216097346,57699.0966574227,71433.6156325582,51279.6631675750,43409.7672102516,63466.7796346464,31010.1175827739,22406.8623702350
8194033620,21103,0,0,44010.9122717891,62795.1714408073,40156.4536076112,57690.7131143117,71420.0121475101,51274.9664366013,43404.7176160701,63466.7066284655,31000.7484562202,22415.5501057666
8194033620,21103,0,0,44027.8375380698,62804.3580519086,40153.4846895864,57698.6829557308,71448.8374212836,51283.9340291598,43402.9654677276,63479.8720764279,30999.9088851394,22422.6925438016
8194040954,21104,0,0,44027.1926501382,62814.1287124574,40170.6533098035,57713.0286702850,71446.6837389460,51282.0358684555,43416.9948221645,63484.5444720079,31016.4569528186,22410.9872194580
8194040954,21104,0,0,44015.5603319754,62813.5203276163,40178.3189588020,57712.6271362898,71443.5931439530,51281.1962973747,43423.0178320918,63474.4696190385,31023.4777138855,22400.1579692855
8194040954,21104,0,0,44006.9942734121,62803.8591763389,40168.9741676420,57697.8068815595,71439.2857792776,51279.3346397608,43408.6477821439,63460.9634755650,31008.4627760060,22400.4134909188
8194040954,21104,0,0,44001.0686050593,62799.9898487492,40170.1787696274,57692.4409272606,71434.1023404311,51276.3900571296,43403.0871446958,63459.4181780685,31009.8620611406,22398.5031625176
8194040954,21104,0,0,43992.8554097038,62797.7631602306,40170.4951297448,57691.4188407275,71424.0518228553,51266.1205210111,43404.1822374099,63454.1008945569,31007.8543911648,22393.9281085122
8194040954,21104,0,0,44002.1758654702,62802.4842265979,40163.9245734604,57693.1466536763,71431.3281055554,51264.1493541257,43403.1479831800,63454.9039625472,30995.1878187721,22400.4013232220
8194040954,21104,0,0,44010.0848684051,62806.9376036351,40161.7587234260,57696.4075964249,71435.0635884801,51267.6293154171,43404.1944051067,63463.5673626851,30997.4510103812,22405.8646190955
8194040954,21104,0,0,44009.2209619307,62800.9510967982,40160.7244691960,57696.8334658137,71431.6566333697,51264.0885156416,43405.9343857524,63464.3582629786,31006.1265782160,22406.4365008462
8194068795,21105,0,0,44016.3147291785,62792.7379014427,40152.1827460263,57695.0326466839,71433.9076572819,51266.1083533142,43400.5684314535,63460.9634755650,30998.0350598287,22415.0268948032
8194068795,21105,0,0,44028.1538981872,62796.6072290324,40152.5721123246,57702.5157802300,71443.7513240117,51276.3413863423,43400.6171022408,63466.6092868909,30996.7087808750,22420.8795569750
8194068795,21105,0,0,44015.9618659706,62797.5928124751,40164.3626105461,57709.3175227540,71433.5912971645,51273.1291143811,43409.4386824374,63461.5231896189,31008.0612420108,22406.9353764159
8194068795,21105,0,0,44003.0154365510,62791.1074300684,40160.9434877388,57704.9128165041,71423.7111273443,51268.7244081312,43408.5504405693,63452.0202184002,31003.0481509198,22397.7244299210
8194068795,21105,0,0,44006.6535779011,62788.3210274960,40148.4472631017,57695.0813174712,71420.1459921752,51272.7884188700,43397.0032962844,63451.2779888940,30990.4910877985,22399.1723858429
8194068795,21105,0,0,44014.3192268995,62786.9460777550,40150.8686347694,57696.2859194566,71423.9301458871,51266.8992536077,43393.0731302105,63456.0355583518,30994.2752415104,22399.3427335984
8194068795,21105,0,0,44023.9438750865,62789.6473064497,40152.7059569897,57702.5887864109,71421.1680787083,51262.6283920229,43400.8117853899,63462.7886300885,30997.2806626257,22409.6852758979
8194068795,21105,0,0,44035.4788516746,62797.2642846609,40152.0610690581,57709.9989137761,71441.8774987009,51271.6081522782,43405.0461438843,63467.4366902748,30994.0562229676,22416.6573661775
8194101209,21106,0,0,44028.0808920062,62803.9443502166,40160.6392953183,57713.5032104611,71443.0699329896,51279.3589751544,43415.3400153965,63469.9797389108,31004.8489700496,22409.9407975312
8194101209,21106,0,0,44001.7499960814,62795.5364717120,40165.1778462332,57705.2535120151,71432.1311735458,51275.3679705965,43418.0047410008,63458.4325946259,31013.8895687890,22396.1547970308
8194101209,21106,0,0,43990.6530565789,62782.7117192606,40153.4116834054,57689.1556491184,71424.0518228553,51272.5207295399,43402.9654677276,63447.6276798471,30999.6046927189,22399.4035720825
8194101209,21106,0,0,44003.1736166097,62785.0235816570,40149.4450142411,57694.2782494808,71427.9211504450,51278.2517147435,43400.1182266710,63453.7236959554,30995.9787190656,22406.4243331494
8194101209,21106,0,0,44006.2398762091,62788.1141766500,40155.6748750145,57705.3508535897,71423.6502888602,51272.4477233590,43411.1543276894,63455.6705274471,31006.9053108126,22400.6446771585
8194101209,21106,0,0,44002.3462132257,62781.9816574512,40149.1651572142,57700.2769240146,71417.7976266883,51262.2511934214,43409.6577009802,63447.8223629963,30996.5992716036,22394.3783132946
8194101209,21106,0,0,44016.0105367579,62783.0645824685,40140.8302848905,57693.9618893635,71423.2852579555,51271.3161275545,43401.1646485978,63455.8287075058,30984.6262579298,22408.1643137950
8194101209,21106,0,0,44021.8145281424,62789.9514988703,40154.9934839924,57700.3986009828,71435.1487623578,51274.7230826649,43405.2773301240,63465.6723742355,30998.1932398874,22406.4243331494
8194153434,21107,0,0,44009.9023529528,62784.0988366984,40153.3386772245,57695.5071868600,71427.2762625134,51257.7369779001,43405.9100503588,63456.8264586452,30994.2265707231,22397.2255543512
8194153434,21107,0,0,44007.2254596517,62782.4075268400,40144.1764015168,57692.4652626542,71427.9819889291,51258.5643812840,43401.8338719231,63451.8255352510,30980.6595887655,22403.2607319754
8194153434,21107,0,0,44004.4390570793,62785.0600847474,40147.0966487543,57692.4287595638,71424.1978352172,51255.7536433179,43405.3503363049,63449.5501759451,30985.0764627123,22395.1083751040
8194153434,21107,0,0,43990.8477397280,62776.4331877000,40143.2029857710,57682.4877512594,71408.2946554696,51239.8504635703,43400.5684314535,63440.0228693328,30987.1328034753,22386.5909873280
8194153434,21107,0,0,43991.3709506914,62763.6449383391,40127.9446939550,57667.4241425926,71400.9575342854,51236.8207070614,43384.7990963710,63430.5320658109,30965.8515017320,22394.2566363264
8194153434,21107,0,0,44011.6666689921,62769.9843083838,40130.7919350116,57677.9492003445,71416.5565216124,51254.7193890880,43382.1222030699,63447.6763506344,30962.6757328612,22413.2382433702
8194153434,21107,0,0,44008.7099186641,62780.4728630452,40148.0822321970,57694.7284542633,71423.7232950411,51256.6418851860,43399.0596370474,63460.3185876334,30981.7911845701,22408.5780154870
8194153434,21107,0,0,43997.3452898315,62779.1100810010,40147.5225181431,57693.2804983414,71423.9544812807,51254.3665258801,43401.9677165881,63453.1153111142,30983.8596930300,22400.5351678871
8194159361,21108,0,0,43995.8486631223,62776.4818584873,40143.2151534678,57685.8095324921,71422.7498792953,51262.7865720816,43395.0442970959,63449.5745113388,30982.7889357096,22398.8681934223
8194159361,21108,0,0,43989.2902745347,62773.0505679832,40148.8609647936,57683.4733347021,71415.3762550206,51260.1096787805,43393.2921487534,63443.0526258417,30994.1048937549,22391.5310722381
8194159361,21108,0,0,43981.4056069934,62764.7035279627,40142.2904085093,57675.5521640703,71407.3334074206,51252.6995514154,43386.6972570753,63433.7930085594,30988.9457903020,22393.1007051282
8194159361,21108,0,0,43992.3808695277,62768.1469861635,40133.1524681952,57676.3308966670,71416.6903662774,51256.7878975479,43384.8234317646,63440.8502727167,30979.8200176848,22402.6523471342
8194159361,21108,0,0,43993.4637945450,62772.9653941054,40139.5770121177,57685.1159737732,71418.5276884977,51258.1263441984,43395.1051355800,63446.7759410695,30987.1571388690,22399.6225906253
8194159361,21108,0,0,43981.3326008125,62768.4390108873,40140.6842725286,57681.8185279342,71401.9066146376,51254.2691843055,43396.5530915019,63440.8137696262,30985.3441520424,22393.9281085122
8194159361,21108,0,0,43992.3443664373,62767.8062906525,40131.9965369970,57674.8586053514,71420.4988553830,51268.7122404343,43387.0744556768,63447.7858599058,30974.4905664763,22406.1931469097
8194159361,21108,0,0,43994.1938563544,62769.8382960219,40134.5760887235,57673.9460280897,71428.6025414671,51273.2264559557,43383.7526744442,63451.6916905860,30983.1904697047,22404.0759676625
8194195268,21109,0,0,43983.4497800597,62771.0794010979,40145.6851959229,57678.6670944570,71419.5132719404,51267.2034460283,43391.0046217507,63448.8687849230,31000.2739160441,22393.4657360329
8194195268,21109,0,0,43984.7638913166,62773.9388098513,40143.4950104947,57683.5585085798,71418.8075455246,51266.5950611872,43396.6382653797,63444.3058986144,30994.9079617452,22400.5595032807
8194195268,21109,0,0,43994.2303594448,62778.6963793090,40143.2394888614,57687.0141344776,71424.0153197648,51270.0871901753,43395.5918434529,63448.3577416565,30992.1337268696,22410.6708593406
8194195268,21109,0,0,43985.6886362751,62778.0636590742,40151.5865288820,57685.8338678857,71412.9183802623,51266.8262474268,43396.1393898099,63449.2094804341,31001.2229963963,22406.6676870858
8194195268,21109,0,0,43987.0757537129,62769.3880912395,40145.5513512578,57676.8176045399,71394.7763442993,51254.6950536943,43386.7580955594,63444.8656126683,30984.6870964139,22413.0313925242
8194195268,21109,0,0,44005.3394666442,62776.3966846095,40137.6666837165,57682.8041113768,71416.7025339743,51260.1218464773,43382.5967432460,63456.1085645327,30971.6433254197,22423.2887609460
8194195268,21109,0,0,44001.4823067513,62790.6450575892,40152.2679199041,57698.7316265180,71427.9941566260,51267.3251229965,43396.1880605972,63460.8783016873,30994.3482476914,22407.5802643475
