steady_timestamp,sequence,battery,flags,EEG-ch1,EEG-ch2,EEG-ch3,EEG-ch4,EEG-ch5,EEG-ch6,EEG-ch7,EEG-ch8,EEG-ch9,EEG-ch10
2004196687,15808,-2,0,27968.8991034541,56682.4855878659,28466.5335681188,53432.7857911819,61368.4846529237,42933.1341903033,46631.1649441255,51249.6576272096,54325.6392163525,2216.5284917512
2004196687,15808,-2,0,27979.3268196314,56679.1881420269,28469.9526909260,53442.5564517307,61360.1984513873,42918.6667987809,46645.7418449194,51260.3530327170,54325.3715270224,2208.5586503322
2004196687,15808,-2,0,28054.2798320607,56683.4225005213,28457.1279384747,53462.7304930631,61364.3841390944,42918.0219108493,46674.6036217834,51265.6094777445,54317.4990271780,2209.4955629876
2004196687,15808,-2,0,28095.5404919873,56684.4324193576,28449.5352956571,53463.8499211708,61367.3287217255,42920.2607670647,46683.0236679849,51269.0407682486,54318.9956538872,2207.7312469482
2004196687,15808,-2,0,28052.2721620849,56678.2512293715,28451.8836611440,53440.5731171486,61361.9505997298,42925.7118952414,46657.4958400504,51262.3120319055,54325.5905455652,2205.1760306154
2004196687,15808,-2,0,27975.7860198559,56677.3264844130,28458.6732359712,53423.1976460854,61365.0168593292,42938.6704923578,46630.6417331621,51250.4363598063,54326.2232658000,2211.2355436332
2004196687,15808,-2,0,27968.6192464272,56687.7176974998,28465.6818293412,53440.2567570312,61375.2620600541,42934.8498355554,46642.2497159312,51262.7622366879,54331.6378908862,2212.8051765234
2004196687,15808,-2,0,28047.3077417812,56685.1016426829,28461.4109677563,53463.8742565645,61367.3530571192,42913.1061613328,46678.1809246494,51282.0115330618,54330.9443321673,2198.7271512993
2004220581,15809,-2,0,28097.0371186965,56675.2093051658,28446.5785453292,53459.1410225004,61358.8600047368,42911.4635222617,46679.3490235444,51272.3625494812,54319.8108895743,2197.2305245900
2004220581,15809,-2,0,28058.0518180758,56680.8429487948,28446.5177068451,53446.0729161125,61369.1173731585,42937.8065858834,46656.6197658791,51258.5643812840,54322.5972921468,2212.4644810124
2004220581,15809,-2,0,27987.3818349282,56688.3990885219,28466.6674127839,53441.2545081706,61373.1205454133,42943.7930927202,46640.8017600093,51265.6703162286,54336.5293050091,2218.0494538541
2004220581,15809,-2,0,27972.7805987406,56686.0507230350,28473.5178260952,53441.2788435643,61366.5134860384,42932.5866439463,46643.1987962834,51269.5153084247,54336.5901434932,2215.0196973452
2004220581,15809,-2,0,28034.8480202345,56689.0926472408,28461.9098433261,53459.8102458256,61370.2611366599,42924.6533056178,46668.1182393768,51272.5815680240,54326.0772534382,2214.3869771104
2004220581,15809,-2,0,28087.2299550572,56685.3693320130,28449.1702647525,53465.3465478801,61366.5864922193,42914.8096388880,46681.3810289138,51275.2462936283,54319.0443246745,2207.2567067721
2004220581,15809,-2,0,28060.7408790737,56672.1673809601,28441.6141250254,53445.3550220000,61355.2461987803,42916.7443026828,46659.9415471118,51262.8230751720,54316.7811330654,2206.2346202390
2004220581,15809,-2,0,27982.2714022625,56675.1849697722,28448.2941905812,53432.1895740375,61364.7370023022,42938.5974861768,46632.0896890841,51249.8644780556,54321.3196839804,2221.1278811503
2004248094,15810,-2,0,27957.9603440103,56686.7564494508,28460.4253843137,53445.2576804254,61376.0042895603,42942.7588384903,46638.7940900335,51260.5598835630,54331.5892200990,2221.0427072725
2004248094,15810,-2,0,28025.8560922823,56686.7321140571,28462.5547312577,53468.4736459636,61370.3341428408,42921.1733443264,46673.6910445217,51281.8290176095,54334.9110013316,2206.3319618136
2004248094,15810,-2,0,28088.9821033997,56681.8650353280,28453.3194493691,53467.1108639194,61363.6784126786,42915.9655700862,46681.2958550360,51275.0759458727,54323.4611986212,2203.0710190651
2004248094,15810,-2,0,28066.2285103408,56683.5928482768,28451.2387732124,53452.3027768859,61369.6162487282,42930.0800984008,46658.4814234930,51258.9294121887,54320.9546530757,2210.5054818239
2004248094,15810,-2,0,27984.7292770208,56680.8794518853,28460.2307011645,53434.6961195831,61366.6351630066,42934.9836802204,46631.7854966635,51254.7802275721,54330.4941273849,2211.7465868998
2004248094,15810,-2,0,27947.1919323220,56677.9470369510,28464.0148548764,53432.8466296660,61364.3233006103,42933.4262150271,46627.1131010835,51257.4814562668,54334.5459704269,2212.2576301664
2004248094,15810,-2,0,27997.2255016579,56685.9047106732,28459.2937885091,53454.5051300108,61373.1205454133,42933.0125133351,46655.6828532237,51266.2543656761,54331.1755184070,2214.4721509882
2004248094,15810,-2,0,28071.5579615493,56688.0462253140,28456.3613735748,53470.7246698758,61375.3107308414,42928.6686455693,46683.8510713689,51280.4905709590,54332.3192819083,2208.1571163370
2004301943,15811,-2,0,28072.0081663317,56680.2832347410,28454.0981819657,53454.5781361918,61365.3818902339,42926.9408326205,46669.9190585066,51272.8979281414,54330.1047610865,2207.5730668895
2004301943,15811,-2,0,27993.2953355841,56682.9601280420,28457.7606587095,53433.2116605707,61371.5630802199,42945.2897194295,46636.7134138768,51255.2912708386,54330.8348228959,2222.8313587055
2004301943,15811,-2,0,27950.3190304055,56690.3945908008,28470.2082125593,53441.5100298039,61378.3891581376,42950.8503568775,46636.2023706102,51262.2998642087,54340.7879988971,2226.4451646619
2004301943,15811,-2,0,28002.8104744997,56689.2751626931,28474.0653724522,53460.3091213954,61373.4490732275,42932.2581161321,46668.0695685895,51283.3256443187,54345.2170405406,2215.2387158880
2004301943,15811,-2,0,28078.3353686797,56687.5473497443,28462.0801910816,53469.0941985015,61372.6946760244,42927.2815281315,46686.2481076430,51282.4495701474,54333.2561945637,2212.4766487092
2004301943,15811,-2,0,28082.3993794185,56691.4045096371,28456.0206780638,53464.4948091025,61378.2309780789,42939.3883864703,46678.7649740969,51274.2242070951,54330.6766428372,2218.3414785778
2004301943,15811,-2,0,28015.0511775035,56689.7983736565,28466.8255928425,53448.9809956532,61376.1016311349,42944.9733593121,46653.2858169496,51269.9776809039,54339.5833969116,2218.9741988126
2004301943,15811,-2,0,27963.8981800599,56689.4576781455,28476.5962533914,53442.7267994862,61374.7510167875,42947.9787804273,46643.5759948849,51267.2521168156,54341.3112098605,2220.9088626075
2004306770,15812,-2,0,27996.0208996725,56696.9043086011,28475.5985022519,53461.4893879872,61382.0029640940,42945.6425826373,46667.3760098706,51274.7109149681,54335.4950507791,2219.9111114680
2004306770,15812,-2,0,28076.3155310070,56695.5901973442,28470.3663926180,53478.6701759012,61377.9146179615,42932.2094453448,46696.2742898251,51289.7136851507,54334.6433120015,2206.9038435643
2004306770,15812,-2,0,28093.3503065592,56685.9898845509,28464.5137304462,53468.4736459636,61368.8375161316,42932.8908363669,46686.8808278778,51282.1940485142,54329.6545563041,2205.7479123661
2004306770,15812,-2,0,28020.3806287120,56686.5252632111,28465.4141400111,53447.0219964647,61374.0696257654,42955.5349201544,46651.2173084897,51261.0222560422,54328.0727557171,2223.0503772483
2004306770,15812,-2,0,27957.8873378294,56692.8524655591,28477.4601598658,53447.1801765234,61379.9709587246,42957.5547578270,46643.6733364595,51266.1083533142,54336.2129448917,2228.1364745203
2004306770,15812,-2,0,27981.5656758468,56690.3215846199,28480.9036180667,53457.9485882117,61375.4689109001,42935.0201833109,46664.5409365108,51280.6609187145,54337.8434162659,2218.4631555461
2004306770,15812,-2,0,28059.2077492740,56690.6379447373,28467.7990085884,53471.2965516265,61374.6658429098,42928.2792792710,46688.5112992521,51282.5104086316,54327.2453523332,2216.0539515751
2004306770,15812,-2,0,28082.9225903819,56692.8646332559,28460.0846888026,53469.8242603109,61377.6834317219,42932.6839855209,46686.4671261858,51275.9276846503,54322.7554722055,2216.0417838783
2004335845,15813,-2,0,28025.8317568887,56686.2575738810,28461.6543216928,53444.1869231050,61370.1881304789,42936.3829653551,46655.1353068667,51264.9280867224,54328.9244944947,2211.8439284744
2004335845,15813,-2,0,27962.2433732920,56686.7929525412,28468.9306043929,53430.6321088442,61373.6194209830,42950.0959596745,46634.7179115978,51260.2678588392,54335.0326782998,2218.1102923382
2004335845,15813,-2,0,27978.1465530396,56700.1652513497,28477.4479921690,53448.6281324453,61386.3468318598,42956.3744912352,46654.7459405684,51273.5184806794,54341.3355452541,2223.4519112435
2004335845,15813,-2,0,28063.3447661938,56701.7713873303,28477.2654767166,53470.6151606044,61380.9443744704,42936.8331701375,46690.2391122009,51292.2689014836,54343.6717430441,2213.3162197900
2004335845,15813,-2,0,28103.7901904333,56694.3734276619,28470.9139389751,53467.3907209463,61373.5220794084,42932.9638425478,46691.6262296387,51284.0922092185,54337.6730685104,2213.3892259709
2004335845,15813,-2,0,28047.7822819573,56699.2040033006,28472.4105656843,53452.0350875558,61381.8934548226,42955.3402370052,46660.6107704370,51266.6072288840,54336.8213297328,2227.6010958601
2004335845,15813,-2,0,27975.5548336163,56706.6019629690,28486.9266279940,53446.8394810124,61387.2837445152,42960.9982160279,46645.4133171052,51271.3647983417,54346.7623380372,2230.1319767993
2004335845,15813,-2,0,27979.8135275043,56702.3676044746,28491.6720297550,53450.6601378148,61382.3436596050,42943.2820494537,46655.0501329890,51281.5248251889,54347.2612136069,2219.6920929252
2004368060,15814,-2,0,28052.4790129309,56702.0512443572,28479.4313267511,53463.2780394202,61382.1368087590,42941.5177334144,46677.4630305368,51283.9218614630,54337.3688760899,2217.6479198589
2004368060,15814,-2,0,28096.3922307649,56707.8187326513,28474.4547387505,53472.6228305802,61388.0381417182,42948.2099666670,46688.1949391346,51285.4306558691,54339.5833969116,2221.2130550281
2004368060,15814,-2,0,28054.2068258798,56701.4306918193,28478.0685447069,53454.6389746759,61382.7208582066,42950.4123197919,46665.6116938313,51276.4995664010,54348.1251200813,2220.0206207394
2004368060,15814,-2,0,27974.3989024181,56700.2017544401,28483.8847037883,53438.0179008157,61383.8037832238,42963.1518983655,46637.6624942290,51264.5630558177,54351.5929136759,2227.5645927696
2004368060,15814,-2,0,27964.8350927153,56710.5077936492,28491.0758126107,53454.2009375902,61394.1828286138,42966.6683627474,46650.5845882549,51275.9155169535,54355.7055952020,2230.3388276453
2004368060,15814,-2,0,28044.1684760008,56705.7380564946,28486.6467709671,53475.8837733287,61384.4243357618,42938.1716167880,46687.8785790173,51294.4469192149,54352.7366771772,2215.3725605530
2004368060,15814,-2,0,28100.7117631370,56694.6776200825,28471.3884791512,53473.0365322722,61373.4855763179,42928.9119995058,46693.6947380986,51286.7204317323,54340.2647879337,2214.4478155945
2004368060,15814,-2,0,28063.9166479445,56696.8921409043,28467.7016670138,53460.7228230873,61380.6645174435,42952.0671265598,46670.4179340763,51267.8726693536,54337.3445406962,2229.4019149899
2004439177,15815,-2,0,27983.5368427321,56700.7736361908,28482.0960523553,53452.7773170620,61384.4365034586,42961.0712222088,46651.4728301230,51269.0407682486,54350.6073302332,2232.3343299242
2004439177,15815,-2,0,27967.4268121385,56701.4915303034,28491.6963651486,53457.2671971896,61379.9344556341,42955.2428954306,46656.7049397569,51280.3810616875,54356.8128556129,2225.8367798208
2004439177,15815,-2,0,28035.4685727724,56706.2490997611,28486.1843984879,53474.1559603799,61386.6023534931,42951.9819526821,46684.2282699704,51291.5875104615,54350.5586594459,2226.2139784223
2004439177,15815,-2,0,28098.4850746184,56710.4469551650,28480.7089349175,53485.0703844301,61391.6519476746,42950.5704998506,46702.8813491999,51299.7155319392,54352.1161246393,2224.7295194099
2004439177,15815,-2,0,28080.7810757411,56705.9935781279,28483.7630268201,53470.4204774552,61388.4640111070,42955.1820569465,46686.5401323667,51295.3229933861,54358.1999730507,2223.4884143340
2004439177,15815,-2,0,27996.1790797312,56707.2955216879,28490.3822538918,53453.1301802698,61395.4969398706,42971.9856462590,46655.4151638936,51282.0358684555,54359.5384197012,2232.4925099829
2004439177,15815,-2,0,27964.0198570281,56716.2022757623,28497.8288843474,53461.5380587745,61403.8926506785,42971.9369754717,46658.3719142216,51289.3121511556,54362.3369899705,2232.3830007115
2004439177,15815,-2,0,28029.1170350309,56714.2797796643,28497.9627290125,53481.1158829626,61396.7745480370,42948.3194759384,46692.1007698148,51309.3401801261,54363.2373995354,2216.3216409052
2004439201,15816,-2,0,28096.1002060412,56705.1905101375,28486.2452369720,53479.8261070994,61387.8556262658,42942.0166089841,46700.7641699528,51302.7574561449,54352.8583541455,2212.9268534916
2004439201,15816,-2,0,28081.4016282790,56707.5753787148,28481.9500399935,53470.1162850347,61394.1706609169,42958.6741859347,46681.2106811583,51287.6573443877,54352.4203170598,2226.2869846032
2004439201,15816,-2,0,28001.7640525729,56706.5046213944,28492.5846070167,53452.4609569446,61391.8466308238,42960.7061913041,46653.7481894289,51283.7636814043,54359.6965997599,2229.0733871757
2004439201,15816,-2,0,27961.8053362063,56699.5812019022,28497.7193750760,53443.2256750560,61382.8912059621,42953.5515855722,46644.4642367530,51283.2891412282,54359.7209351536,2226.4695000556
2004439201,15816,-2,0,28006.5459574243,56701.5402010907,28490.2240738331,53459.6885688574,61385.9331301678,42948.1369604860,46668.6779534307,51288.3144000161,54351.3982305267,2225.5447550970
2004439201,15816,-2,0,28078.0311762591,56704.6916345678,28481.4389967269,53472.8175137294,61385.4342545981,42942.7223353998,46692.2711175703,51298.3649175919,54348.3684740178,2217.7939322208
2004439201,15816,-2,0,28082.1803608757,56696.4906069091,28476.3528994549,53458.0094266958,61377.5374193600,42943.7200865393,46679.8235637205,51290.7966101680,54349.1715420081,2217.4775721034
2004439201,15816,-2,0,28005.9740756736,56699.1675002102,28479.3096497829,53438.1274100871,61384.0836402507,42962.8233705513,46645.3768140147,51272.7640834764,54348.1372877782,2232.0788082909
2004457526,15817,-2,0,27959.3109583576,56709.0355023336,28489.3966704491,53443.5176997797,61395.3995982961,42965.5245992460,46642.9067715597,51277.1079512422,54355.1215457545,2236.3253344822
2004457526,15817,-2,0,28003.2606792821,56707.7213910767,28491.5381850899,53463.7769149899,61387.0768936692,42941.8219258349,46671.2331697635,51295.9192105304,54357.4334081509,2221.5659182359
2004457526,15817,-2,0,28073.9428301266,56700.3234314084,28476.5597503009,53472.0266134359,61380.6280143530,42931.2603649926,46688.2801130124,51292.8894540215,54343.5744014696,2215.2630512816
2004457526,15817,-2,0,28076.2546925229,56700.3721021957,28466.3997234537,53464.6408214643,61383.5239261969,42941.1892056001,46678.4364462827,51281.2571358588,54335.8479139870,2220.4951609155
2004457526,15817,-2,0,28008.8699875175,56696.4784392123,28472.2402179288,53446.9976610711,61380.4698342943,42943.0508632140,46653.4561647052,51274.0660270364,54340.7149927162,2219.9962853458
2004457526,15817,-2,0,27958.1306917658,56690.4067584977,28478.2267247656,53437.4460190651,61375.0065384208,42937.1130271644,46640.3758906205,51268.2620356519,54339.7172415767,2218.2684723969
2004457526,15817,-2,0,27985.6418542825,56694.0692352414,28474.0897078458,53454.4686269204,61380.0074618150,42933.5235566017,46660.7689504957,51274.4067225475,54331.3580338593,2217.8182676145
2004457526,15817,-2,0,28064.3546850301,56693.7285397303,28467.0932821727,53472.7810106389,61376.9898730029,42920.4919533043,46689.9592551740,51286.5744193704,54327.7077248124,2207.7555823419
2004493165,15818,-2,0,28084.4557201816,56682.0718861740,28457.8823356777,53461.1730278698,61363.2403755930,42917.4256937049,46681.2958550360,51278.6532487387,54322.5972921468,2202.9615097936
2004493165,15818,-2,0,28015.5378853765,56686.5982693921,28460.6200674628,53442.3130977942,61372.1958004547,42949.6944256794,46647.3236455064,51262.6892305070,54324.8483160590,2221.0062041821
2004493165,15818,-2,0,27955.2712830124,56702.7082999857,28482.0230461744,53451.1225102940,61390.3743395082,42967.5444369186,46646.8856084208,51277.0714481517,54345.5090652644,2233.9404659049
2004493165,15818,-2,0,27981.5900112404,56702.9759893158,28491.4651789090,53467.7314164574,61388.5613526816,42942.9413539426,46672.0605731474,51296.5519307652,54350.6438333237,2222.2108061675
2004493165,15818,-2,0,28060.0838234452,56696.9286439948,28474.6372542029,53473.5232401451,61380.7861944117,42922.3779463119,46690.1661060200,51290.9547902267,54334.5338027301,2213.7177537851
2004493165,15818,-2,0,28085.1736142942,56695.3833464982,28457.1887769588,53467.7070810637,61379.3382384898,42925.3468643367,46683.8389036720,51277.0349450612,54321.9889073056,2211.5154006602
2004493165,15818,-2,0,28032.4388162635,56688.2774115537,28458.5393913061,53446.9733256774,61372.6946760244,42928.4617947233,46654.2105619082,51267.7266569917,54327.6225509347,2211.3085498142
2004493165,15818,-2,0,27964.0806955122,56681.3053212741,28463.2969607639,53432.5911080327,61367.1462062732,42931.6984020782,46632.2600368396,51258.1506795920,54330.0682579961,2216.5406594481
2004543334,15819,-2,0,27965.7233345833,56684.1160592402,28459.9143410471,53442.7267994862,61367.9979450508,42925.4442059112,46643.7463426404,51261.6184731866,54326.3327750714,2219.3270620205
2004543334,15819,-2,0,28044.6551838738,56680.7334395234,28450.9710838823,53463.1320270583,61361.5977365219,42907.8983870926,46677.0736642385,51279.3711428512,54324.8726514527,2204.7866643171
2004543334,15819,-2,0,28083.8838384309,56669.7338415955,28442.0399944142,53457.0238432532,61351.0605110733,42904.1385687743,46680.0547499601,51274.2120393983,54318.2534243810,2199.2503622627
2004543334,15819,-2,0,28030.9786926448,56674.3940694787,28442.7943916172,53439.3441797694,61360.0646067222,42931.0535141466,46651.0469607342,51255.4007801100,54317.6937103271,2212.7686734329
2004543334,15819,-2,0,27959.7611631401,56687.5351820475,28461.8611725388,53440.7434649041,61374.4468243669,42945.6425826373,46641.9333558138,51262.0686779690,54331.9664187005,2219.0472049936
2004543334,15819,-2,0,27965.6624960992,56689.2264919058,28473.9801985744,53450.7088086021,61372.4148189975,42930.6154770610,46656.8509521188,51276.5969079756,54336.2859510726,2209.9214323764
2004543334,15819,-2,0,28038.4496584941,56688.7032809424,28462.1166941721,53460.5281399382,61371.0155338629,42923.2540204831,46679.0326634270,51278.3003855308,54324.6292975162,2205.0421859504
2004543334,15819,-2,0,28085.0276019323,56693.6920366399,28454.2685297213,53465.6385726038,61377.7321025091,42932.5136377654,46688.6208085235,51279.4076459417,54325.1768438733,2210.3716371588
2004548094,15820,-2,0,28049.5100949061,56690.8569632801,28457.9188387682,53450.6479701179,61374.3008120051,42937.2712072231,46666.9623081786,51275.1854551442,54333.1588529891,2211.1868728460
2004548094,15820,-2,0,27972.7684310438,56687.9002129521,28465.5966554634,53435.6208645416,61374.7996875748,42946.1779612975,46637.3704695052,51263.2246091672,54336.7118204614,2220.0936269204
2004548094,15820,-2,0,27960.2722064067,56697.1719979312,28470.2447156498,53446.6082947727,61383.3170753509,42944.2919682900,46643.8436842150,51266.1083533142,54334.3391195809,2224.0237929942
2004548094,15820,-2,0,28032.0859530557,56696.3689299409,28467.4826484710,53467.4150563400,61377.2088915458,42920.5162886980,46675.2363420182,51282.7294271744,54333.0128406272,2206.6726573246
2004548094,15820,-2,0,28088.4710601332,56688.6789455488,28456.6655659954,53467.3663855527,61372.2201358484,42914.3229310151,46684.7028101465,51280.8312664700,54326.1989304064,2200.6739827909
2004548094,15820,-2,0,28056.9323899681,56692.2319130211,28454.3050328117,53455.3812041821,61381.1147222259,42941.1405348128,46661.3529999432,51266.5463903999,54326.5152905238,2214.6790018341
2004548094,15820,-2,0,27980.3854092550,56700.1530836528,28472.5079072589,53448.5186231739,61388.9750543735,42955.7904417877,46642.5295729581,51271.1701151926,54341.7370792493,2220.8723595170
2004548094,15820,-2,0,27960.3695479812,56696.3932653346,28482.0108784776,53448.1049214820,61382.8668705684,42944.3284713805,46646.5692483034,51279.9795276924,54345.8862638659,2214.5694925627
2004582121,15821,-2,0,28018.0200955283,56691.6600312704,28468.6264119723,53459.9684258843,61380.9930452577,42931.9782591052,46667.6315315039,51280.8190987732,54332.7086482067,2211.3085498142
2004582121,15821,-2,0,28075.0622582343,56693.7407074271,28458.3690435506,53468.5588198413,61383.5239261969,42929.2405273200,46682.9019910167,51284.0435384313,54329.4842085486,2207.5122284054
2004582121,15821,-2,0,28053.8661303687,56684.6879409909,28454.3780389927,53451.2320195655,61372.7311791149,42927.9872545472,46663.7622039142,51273.1777851684,54328.7541467392,2201.1850260575
2004582121,15821,-2,0,27971.9410276599,56684.9677980178,28457.5659755603,53427.9552155432,61372.6825083276,42944.9246885248,46629.0112617879,51259.2457723061,54330.3237796294,2210.4446433398
2004582121,15821,-2,0,27938.7962215142,56699.1066617261,28465.4628107984,53435.0976535782,61385.6411054441,42953.2108900612,46631.8098320571,51267.4467999648,54334.4972996396,2216.1634608465
2004582121,15821,-2,0,28001.6058725142,56701.6010395748,28469.0157782707,53460.4307983636,61382.4288334828,42932.2702838289,46667.7897115626,51289.0322941287,54341.5788991906,2203.5090561507
2004582121,15821,-2,0,28071.7039739112,56692.4752669576,28459.0504345727,53466.1009450831,61375.2620600541,42924.0692561703,46684.2404376672,51289.0931326128,54333.3292007446,2198.5933066342
2004582121,15821,-2,0,28059.2929231518,56693.1323225860,28451.4577917552,53457.1820233119,61381.0660514386,42940.9823547541,46670.1015739589,51273.6158222540,54329.5085439422,2211.5762391443
2004660405,15822,-2,0,27985.2159848937,56693.8015459113,28461.4596385436,53446.6204624696,61384.3391618840,42949.7187610730,46650.0492095947,51273.1656174715,54340.4351356892,2217.2828889543
2004660405,15822,-2,0,27952.9229175256,56691.5018512117,28473.4448199142,53449.3095234674,61382.1124733654,42948.2343020606,46653.8090279130,51281.9141914872,54350.0841192698,2217.6722552526
2004660405,15822,-2,0,28002.1899219617,56697.0503209630,28470.6462496450,53470.6029929076,61391.1530721048,42944.9368562216,46683.0358356817,51291.6118458551,54345.6307422326,2219.5582482601
2004660405,15822,-2,0,28072.3975326301,56699.3135125721,28461.8490048420,53486.9928805281,61391.0192274398,42936.5289777169,46707.7362602323,51300.2387429026,54343.4892275918,2214.1071200835
2004660405,15822,-2,0,28073.1275944394,56688.8249579107,28456.1910258193,53473.0608676658,61379.1922261279,42935.1905310664,46696.2134513410,51293.8993728578,54342.1994517286,2209.7632523177
2004660405,15822,-2,0,27993.1371555254,56682.7532771960,28454.4997159609,53447.6790520932,61378.4743320153,42951.5804186869,46657.3984984758,51272.1556986352,54341.6762407652,2220.2639746759
2004660405,15822,-2,0,27938.9665692697,56689.2021565122,28460.4375520105,53445.5618728460,61386.1643164074,42955.3524047020,46647.6278379270,51275.6478276234,54347.2733813037,2222.7096817373
2004660405,15822,-2,0,27982.8554517100,56690.2729138326,28464.1121964510,53464.0567720168,61381.5040885243,42932.2824515257,46675.8690622530,51294.5077576990,54348.9403557685,2209.6294076526
2004673014,15823,-2,0,28063.0649091669,56684.0430530593,28452.3095305328,53468.2424597239,61372.9745330514,42917.0606628002,46688.0245913791,51288.3265677129,54331.8690771259,2203.3508760920
2004673014,15823,-2,0,28073.7481469774,56688.2774115537,28441.7966404778,53460.8201646619,61378.2188103821,42929.6785644056,46676.6842979401,51274.4918964252,54321.5143671296,2212.3549717410
2004673014,15823,-2,0,28005.1345045928,56689.4090073582,28450.1315128015,53445.8782329634,61380.7983621085,42939.1328648371,46649.1244646362,51269.3936314564,54329.7032270914,2215.7497591546
2004673014,15823,-2,0,27950.5745520388,56686.0750584287,28460.2672042550,53437.2513359159,61378.0484626265,42939.5709019227,46635.8495074024,51268.5297249820,54332.9276667495,2213.5839091201
2004673014,15823,-2,0,27973.4863251564,56691.7087020577,28459.7561609884,53454.2861114680,61384.1079756444,42939.8994297369,46656.9847967838,51274.7717534522,54331.7839032481,2213.8272630565
2004673014,15823,-2,0,28051.3230817327,56693.0349810114,28454.5483867482,53474.6061651623,61383.3779138350,42926.3081123857,46685.5788843177,51288.0588783828,54331.1268476197,2207.1593651976
2004673014,15823,-2,0,28076.8022388800,56680.2345639537,28444.8872354708,53460.6619846032,61371.5630802199,42917.3891906145,46680.5901286203,51281.0989558001,54325.2133469637,2202.8033297350
2004673014,15823,-2,0,28010.9749990679,56677.5455029558,28441.7723050841,53432.6641142136,61369.6892549092,42934.8741709490,46641.3614740631,51257.0190837875,54320.3949390218,2212.9268534916
2004691167,15824,-2,0,27944.3690266591,56681.8650353280,28450.5695498871,53427.4806753671,61371.8672726405,42939.7777527687,46625.4461266187,51252.9550730486,54324.1060865528,2213.1337043376
2004691167,15824,-2,0,27966.1857070626,56678.8839496063,28454.2320266308,53441.9115637991,61362.6806615392,42916.7808057733,46647.7130118047,51267.1912783315,54326.9533276094,2197.5225493138
2004691167,15824,-2,0,28040.2626453207,56670.2205494684,28436.8930586581,53452.2662737954,61354.3944600027,42899.8677071894,46670.2962571081,51265.3539561112,54312.2547498473,2185.4886971559
2004691167,15824,-2,0,28065.7296347711,56669.9771955319,28422.9610457958,53451.4997088956,61355.8180805310,42902.9096313952,46670.3084248049,51255.3034385355,54302.7517786286,2184.3571013514
2004691167,15824,-2,0,28011.5590485154,56664.5625704457,28425.4554236445,53436.7281249525,61351.1578526478,42908.6284489019,46647.2019685382,51248.4895283146,54308.2272421989,2182.8483069453
2004691167,15824,-2,0,27947.4474539553,56662.4940619858,28435.9439783059,53427.4806753671,61350.6103062908,42918.7519726586,46630.9824286732,51246.8955600308,54313.0578178376,2188.8226460854
2004691167,15824,-2,0,27956.7922451153,56675.4526591023,28443.7313042726,53446.8759841028,61366.6473307034,42929.5082166501,46648.1510488904,51258.1750149857,54317.1826670606,2201.9515909573
2004691167,15824,-2,0,28042.2824829933,56684.7852825655,28448.8539046351,53475.1902146098,61372.4513220880,42923.5703806005,46685.4572073495,51283.3864828028,54321.2466777994,2204.8840058917
2004709473,15825,-2,0,28087.7896691111,56680.4170794060,28447.6371349528,53471.7832594994,61365.2967163561,42919.1535066538,46687.7082312617,51284.3964016391,54321.7820564597,2208.5951534227
2004709473,15825,-2,0,28035.7240944057,56683.7996991228,28449.9003265618,53450.9886656290,61371.5022417358,42940.3252991257,46655.3908285000,51264.8550805415,54323.5585401958,2225.9097860017
2004709473,15825,-2,0,27958.9945982402,56693.4973534907,28465.6939970380,53444.6249601906,61378.8636983137,42949.2928916842,46636.6525753927,51265.2931176271,54333.7794055271,2230.1198091025
2004709473,15825,-2,0,27955.8553324599,56690.5041000722,28474.3208940855,53452.1202614335,61371.1493785279,42929.7272351929,46647.5304963524,51275.9885231345,54338.5856457721,2216.6136656290
2004709473,15825,-2,0,28024.6879933873,56686.9511325999,28462.3113773212,53463.7039088090,61366.9880262145,42919.4090282871,46670.3692632890,51278.0083608071,54326.1502596191,2209.1548674765
2004709473,15825,-2,0,28068.8567328546,56690.3094169231,28450.3870344348,53468.2911305112,61371.8551049437,42920.1877608837,46679.0935019111,51273.4698098921,54320.0420758140,2211.4302267824
2004709473,15825,-2,0,28033.9111075791,56684.9312949273,28446.5785453292,53450.8791563576,61365.6739149576,42920.0295808250,46655.4516669841,51263.0907645021,54321.2588454963,2206.7334958088
2004709473,15825,-2,0,27956.6097296629,56677.2899813225,28448.1846813098,53429.9750532158,61361.6464073092,42927.5248820680,46625.7259836457,51247.6256218402,54320.2732620536,2210.3594694620
2004738610,15826,-2,0,27940.3780221011,56685.0773072892,28452.1026796868,53438.4194348109,61369.1903793394,42932.1851099512,46632.0531859936,51249.8279749651,54317.3530148161,2216.9178580496
2004738610,15826,-2,0,28012.5202965644,56689.0074733630,28453.1734370072,53463.3145425106,61368.9956961903,42913.7632169612,46668.4224317974,51272.8249219605,54318.0344058382,2208.9601843274
2004738610,15826,-2,0,28074.1131778821,56682.7532771960,28446.3473590895,53463.2172009361,61361.6099042187,42908.2877533909,46677.0736642385,51273.3968037112,54312.4859360869,2203.8010808744
2004738610,15826,-2,0,28043.8034450961,56684.9191272305,28441.8209758714,53444.8318110366,61366.7568399748,42929.6177259215,46646.9829499953,51253.1619238946,54308.4340930449,2216.6380010226
2004738610,15826,-2,0,27967.5728245004,56693.0471487082,28457.2861185334,53435.9615600527,61375.1525507827,42942.6371615221,46626.3830392741,51253.2836008629,54319.8473926648,2221.5172474486
2004738610,15826,-2,0,27952.4118742590,56693.2296641606,28470.9261066719,53443.2986812369,61371.8551049437,42934.2536184111,46634.2555391186,51263.9546709766,54329.5572147295,2213.9976108121
2004738610,15826,-2,0,28015.0146744131,56693.6920366399,28467.3974745932,53460.0170966716,61373.8749426163,42930.5059677896,46663.2511606476,51270.9997674371,54324.6779683035,2214.3261386263
2004738610,15826,-2,0,28075.7436492564,56695.0791540777,28458.2717019760,53471.9901103454,61376.0286249539,42924.3126101067,46681.1498426742,51274.8204242395,54320.0542435108,2215.5064052181
2004784811,15827,-2,0,28059.3172585454,56687.2796604142,28455.9841749733,53455.4420426662,61371.2102170120,42921.4288659597,46666.0253955233,51270.3183764150,54322.3539382103,2212.7321703425
2004784811,15827,-2,0,27977.8666960126,56683.2764881594,28460.2307011645,53433.4550145071,61369.3850624886,42934.1927799269,46635.5088118913,51256.9339099097,54323.4733663181,2221.9552845343
2004784811,15827,-2,0,27944.5637098082,56696.1134083076,28466.5944066029,53440.8773095691,61381.5040885243,42941.2135409938,46634.5840669328,51260.1583495678,54328.2066003822,2229.2559026280
2004784811,15827,-2,0,28007.0326652972,56698.7051277309,28466.8864313267,53465.7115787848,61379.0705491597,42922.2684370405,46669.5175245114,51281.7803468222,54331.6500585831,2214.3139709295
2004784811,15827,-2,0,28081.0487650712,56690.3945908008,28454.7795729878,53472.5863274897,61370.3219751440,42909.2246660463,46687.5378835062,51280.8677695605,54321.0033238630,2205.6262353979
2004784811,15827,-2,0,28071.8864893635,56691.2706649721,28447.9048242829,53464.8841754008,61377.8902825678,42926.6488078967,46670.5152756509,51263.6626462528,54314.1894136421,2218.4388201524
2004784811,15827,-2,0,27993.1006524349,56694.0692352414,28459.9873472281,53450.9156594481,61378.9245367978,42936.6993254725,46645.8391864940,51258.6252197681,54323.0718323229,2225.8732829112
2004784811,15827,-2,0,27949.6619747770,56687.5351820475,28471.9725285987,53444.0774138336,61370.6626706550,42927.9264160631,46637.9910220432,51259.1240953379,54328.4012835313,2220.8845272138
2004804098,15828,-2,0,27986.9072947521,56683.9700468783,28463.9053456050,53450.9521625385,61367.5599079652,42918.0219108493,46653.1884753750,51259.7203124822,54318.2777597747,2218.4996586365
2004804098,15828,-2,0,28055.6912848922,56683.6780221546,28451.5551333298,53463.9472627454,61364.8221761800,42912.8993104868,46675.1268327468,51263.4679631037,54310.3565891429,2212.0264439267
2004804098,15828,-2,0,28065.5957901060,56675.0389574103,28448.5010414272,53456.8048247104,61355.1731925994,42910.0277340366,46667.7167053816,51259.9028279345,54309.4196764876,2205.3220429773
2004804098,15828,-2,0,27993.6603664888,56673.1164613123,28449.9733327428,53433.4428468103,61357.3755457244,42927.4640435839,46633.0752725267,51243.4277664363,54310.4782661111,2215.0927035261
2004804098,15828,-2,0,27946.4253674221,56689.2873303900,28462.9319298592,53438.9791488647,61371.9646142151,42943.9877758694,46628.1473553134,51248.2948451655,54318.7157968603,2225.2527303733
2004804098,15828,-2,0,27987.9050458916,56694.6289492952,28469.6971692928,53460.0049289748,61370.9060245915,42926.2594415984,46656.4007473363,51271.3526306449,54325.6757194430,2213.8394307534
2004804098,15828,-2,0,28064.8657282967,56690.2850815294,28458.6489005775,53464.1419458946,61365.1872070847,42913.5320307216,46675.5040313483,51272.4598910558,54315.4913572022,2207.6217376768
2004804098,15828,-2,0,28074.6242211487,56692.4996023512,28449.6813080190,53458.2527806323,61371.5387448263,42923.6555544783,46662.7157819874,51258.8807414014,54306.6941123992,2218.2441370033
2004844227,15829,-2,0,28006.9231560258,56693.9718936668,28459.3302915996,53442.9701534227,61373.1813838974,42928.4374593297,46637.2366248402,51251.7018002759,54314.7369599992,2221.7606013851
2004844227,15829,-2,0,27953.1176006748,56687.7176974998,28467.2271268377,53435.3045044242,61367.0610323954,42919.1778420474,46625.3487850442,51252.5535390535,54318.6184552857,2216.4189824798
2004844227,15829,-2,0,27977.1001311128,56689.7497028692,28465.1707860746,53449.0540018341,61370.9303599851,42916.0750793576,46644.5250752371,51257.1285930589,54311.8532158521,2216.5406594481
2004844227,15829,-2,0,28053.7201180068,56689.6158582042,28457.3834601079,53471.0045269027,61370.9668630756,42909.2976722272,46676.8668133925,51273.2629590461,54309.3953410939,2211.4058913888
2004844227,15829,-2,0,28078.7125672812,56676.8884473274,28451.8836611440,53467.7070810637,61359.4440541843,42904.6496120408,46676.2705962482,51270.3183764150,54310.9771416809,2206.2467879358
2004844227,15829,-2,0,28013.1773521928,56672.8001011949,28452.8327414962,53444.6127924938,61358.9330109177,42922.6578033388,46641.7873434519,51248.7572176447,54308.6409438909,2217.5870813748
2004844227,15829,-2,0,27946.6322182681,56683.4833390054,28462.4452219863,53440.2080862439,61369.9934473298,42933.9980967778,46627.1374364771,51246.7252122753,54317.8153872954,2225.6542643684
2004844227,15829,-2,0,27965.2366267104,56683.2886558562,28470.7922620068,53450.9156594481,61362.6076553582,42917.0484951034,46645.4133171052,51262.9082490498,54320.6382929583,2214.3991448072
2004867950,15830,-2,0,28043.9616251548,56677.1074658702,28460.4983904946,53459.0680163194,61353.2141934109,42906.6937851071,46665.8915508582,51264.5995589082,54311.4760172506,2210.8826804254
2004867950,15830,-2,0,28075.5976368945,56681.1471412154,28451.2996116965,53459.7372396447,61361.4760595537,42919.6645499204,46665.4656814694,51257.7491455969,54307.7283666292,2221.0548749694
2004867950,15830,-2,0,28025.2720428348,56681.3661597582,28457.5903109539,53446.8759841028,61361.3057117982,42926.6366401999,46643.7463426404,51252.5535390535,54317.5598656621,2222.3568185294
2004867950,15830,-2,0,27961.7201623286,56678.2268939779,28467.2149591409,53434.9516412164,61359.4683895779,42926.5514663221,46625.0324249268,51250.6675460459,54324.2034281274,2217.9521122795
2004867950,15830,-2,0,27963.4479752774,56683.4833390054,28468.7967597279,53446.4257793204,61367.1948770605,42926.6731432904,46636.2145383070,51254.7680598753,54321.9524042152,2218.6456709984
2004867950,15830,-2,0,28037.5614166260,56684.9799657146,28465.2559599524,53468.1207827557,61366.1849582242,42913.8727262326,46668.5319410688,51269.0164328549,54319.5066971538,2207.9259300974
2004867950,15830,-2,0,28079.2966167287,56676.3287332735,28459.1842792377,53463.0103500901,61355.7694097437,42906.4260957770,46673.0826596806,51268.1890294710,54316.1362451338,2201.7447401114
2004867950,15830,-2,0,28033.8015983077,56675.0146220166,28457.2617831397,53442.7146317894,61361.1718671331,42926.9043295300,46642.7364238041,51250.3146828381,54313.3741779550,2215.1292066166
2004902018,15831,-2,0,27964.6769126566,56686.3184123652,28470.7679266132,53441.2058373833,61374.8848614526,42942.3086337078,46628.8652494260,51252.4075266916,54323.4855340149,2225.8124444271
2004902018,15831,-2,0,27969.5683267794,56688.3382500378,28481.1348043063,53453.8845774729,61373.7167625576,42930.2991169436,46646.8734407239,51274.5770703030,54334.8501628475,2215.5064052181
2004902018,15831,-2,0,28038.6443416432,56687.0363064777,28472.6660873176,53465.4073863642,61370.9911984692,42917.0241597098,46672.3282624775,51281.7925145190,54329.1556807344,2208.8020042687
2004902018,15831,-2,0,28080.7324049538,56689.8592121406,28461.1676138199,53469.9581049760,61376.0651280444,42920.9056549963,46679.5072036031,51277.9961931103,54323.6315463767,2212.5739902838
2004902018,15831,-2,0,28047.6727726858,56687.0971449618,28462.5060604704,53458.0946005736,61375.9069479857,42925.3711997303,46663.4215084031,51273.9808531587,54328.9731652820,2215.3847282499
2004902018,15831,-2,0,27974.0217038166,56683.0696373134,28467.5678223487,53441.8993961023,61373.4490732275,42933.4140473303,46637.9423512559,51264.8185774510,54334.1687718254,2221.9187814438
2004902018,15831,-2,0,27955.7823262790,56691.4896835149,28471.7170069654,53449.9909144895,61380.9930452577,42941.8827643190,46639.5728226302,51267.7753277790,54333.2926976542,2229.2193995376
2004902018,15831,-2,0,28024.0187700620,56695.9795636426,28472.6417519239,53474.4358174068,61380.9930452577,42926.3567831730,46675.2728451087,51287.6330089940,54336.2129448917,2216.8813549591
2004933057,15832,-2,0,28084.2367016388,56686.8659587222,28462.6034020450,53474.7765129178,61366.9150200335,42910.6482865745,46683.6563882197,51284.7370971502,54331.0660091356,2205.6019000042
2004933057,15832,-2,0,28055.1559062320,56686.5252632111,28457.9310064650,53455.2351918202,61372.2809743325,42931.4185450513,46659.4061684516,51264.5265527272,54327.5252093601,2213.9124369343
2004933057,15832,-2,0,27976.5039139685,56692.9619748305,28470.0013617133,53444.2234261954,61381.6501008861,42945.5452410627,46635.5331472850,51261.0100883454,54338.2814533516,2220.5925024901
2004933057,15832,-2,0,27956.9747605676,56692.1954099306,28483.7143560328,53447.3748596726,61377.9754564456,42936.8088347439,46642.0550327821,51275.8181753789,54346.1174501055,2215.8836038196
2004933057,15832,-2,0,28018.7501573377,56690.7231186151,28479.0054573623,53462.6453191854,61376.2841465872,42928.8633287185,46665.6481969217,51284.7370971502,54339.9605955131,2215.4699021276
2004933057,15832,-2,0,28079.9658400539,56694.2395829969,28469.2834676008,53472.6836690643,61381.3215730719,42933.8520844159,46680.4927870457,51285.9782022261,54334.0227594635,2218.1954662160
2004933057,15832,-2,0,28067.8589817151,56690.3824231040,28470.2933864371,53464.2757905596,61377.4035746949,42938.4879769054,46669.1403259099,51285.8078544706,54339.7902477576,2216.1026223624
2004933057,15832,-2,0,27992.3219198383,56690.2850815294,28478.7134326386,53445.9512391443,61379.7397724849,42953.0040392152,46639.8770150507,51277.4851498437,54345.0101896947,2225.9462890922
2004959935,15833,-2,0,27956.1473571837,56700.8953131590,28486.3304108497,53455.0648440647,61392.4428479681,42964.0036371431,46640.3758906205,51283.5933336488,54350.6316656269,2235.5100987950
2004959935,15833,-2,0,28017.3143691126,56706.2977705484,28488.6787763366,53482.9532051829,61394.5235241248,42944.7300053756,46679.2395142730,51305.4586848396,54355.8272721703,2224.8268609845
2004959935,15833,-2,0,28094.6522501192,56697.1719979312,28475.0874589853,53486.0924709632,61382.6113489351,42924.9696657352,46698.3549659818,51304.4365983065,54348.5874925606,2214.5938279564
2004959935,15833,-2,0,28083.6526521913,56693.7528751240,28463.7593332432,53467.9626026970,61384.0593048571,42941.8462612286,46676.5139501846,51280.6000802304,54339.0845213419,2222.1621353803
2004959935,15833,-2,0,28002.8469775901,56698.8389723960,28474.2478879045,53454.7241485536,61391.1895751953,42957.1045530445,46648.9176137902,51274.1390332174,54347.5289029370,2229.2315672344
2004959935,15833,-2,0,27960.5155603431,56696.8921409043,28486.7806156322,53452.7408139715,61387.4540922707,42951.5195802028,46643.7950134277,51282.2792223919,54353.9899499500,2226.3843261778
2004959935,15833,-2,0,28002.7009652283,56699.5933695990,28482.9599588298,53471.1262038710,61388.1233155959,42943.1117016982,46664.1637379093,51286.9516179719,54346.5554871912,2225.5569227939
2004959935,15833,-2,0,28075.9261647087,56704.6064606900,28474.4425710537,53487.5525945819,61391.4085937381,42937.6849089151,46685.1165118384,51292.3662430581,54340.4838064765,2224.4374946861
2005009247,15834,-2,0,28083.9203415214,56695.7118743125,28470.9626097623,53477.8792756077,61381.6014300988,42928.6564778725,46676.8424779988,51287.0732949402,54340.3621295083,2218.3901493651
2005009247,15834,-2,0,28007.9087394685,56688.8979640916,28474.1018755427,53449.3460265579,61376.9777053061,42940.9823547541,46641.0207785521,51267.6171477203,54337.6243977231,2226.2748169064
2005009247,15834,-2,0,27952.3388680781,56697.6343704105,28481.9743753871,53450.6236347243,61389.6321100020,42955.5714232449,46633.1604464045,51269.1624452168,54342.9538489316,2236.1184836362
2005009247,15834,-2,0,27993.1249878286,56702.4406106556,28486.1722307910,53473.0000291817,61389.2184083100,42938.3176291499,46664.3949241490,51291.7456905202,54348.1859585654,2225.4109104320
2005009247,15834,-2,0,28072.6043834760,56694.7019554762,28473.5056583983,53480.3614857596,61379.0097106755,42926.1864354174,46686.9903371492,51296.6249369462,54338.1719440802,2216.3094732084
2005009247,15834,-2,0,28085.2344527783,56695.8092158870,28463.4308054289,53475.1902146098,61385.1178944807,42940.8363423923,46679.9209052951,51285.0412895707,54334.0349271604,2225.9462890922
2005009247,15834,-2,0,28018.9083373964,56701.2481763669,28473.6395030634,53463.3632132979,61391.3964260413,42952.7728529756,46657.7878647741,51280.7095895018,54344.4626433376,2233.8309566335
2005009247,15834,-2,0,27963.1194474632,56699.5568665085,28486.6711063608,53456.8291601040,61388.4640111070,42950.1324627650,46646.6422544843,51284.9682833898,54353.4789066834,2232.7723670099
2005050830,15835,-2,0,27985.5688481015,56704.7038022646,28486.0992246101,53469.0211923206,61392.3941771808,42948.3681467257,46664.2610794839,51291.4293304028,54349.0376973430,2232.2004852592
2005050830,15835,-2,0,28065.3159330791,56710.3496135905,28479.5165006289,53491.5801022303,61398.4658578954,42944.3893098646,46696.3472960060,51304.0715674018,54346.6406610689,2228.2216483981
2005050830,15835,-2,0,28096.5504108236,56703.6087095506,28475.6228376455,53487.5769299756,61390.5203518701,42940.3131314289,46696.7244946075,51303.9377227368,54349.0620327367,2222.5028308913
2005050830,15835,-2,0,28032.5604932317,56697.9020597406,28475.5254960710,53461.7814127109,61388.8898804958,42956.5448389907,46660.5986027402,51282.4617378443,54348.8673495875,2232.9670501590
2005050830,15835,-2,0,27959.5178092036,56705.6285472232,28484.7242748691,53456.4032907152,61400.4126893871,42972.1194909241,46642.7364238041,51279.7361737559,54355.2188873291,2244.6480391090
2005050830,15835,-2,0,27973.7783498801,56708.4514528861,28492.7549547722,53471.9171041645,61396.9935665799,42955.6931002131,46664.1150671221,51299.8737119979,54361.3027357406,2235.1085647999
2005050830,15835,-2,0,28057.5042717188,56702.4041075651,28482.2785678077,53486.7008558043,61390.5568549605,42938.7678339324,46689.8132428121,51304.3270890351,54351.6294167663,2225.0580472241
2005050830,15835,-2,0,28089.2376250330,56700.7371331003,28466.8012574489,53484.7296889190,61394.7912134549,42942.0531120746,46688.3652868902,51292.3540753613,54339.2183660069,2229.7912812882
2005057112,15836,-2,0,28036.6488393643,56697.5856996232,28468.0910333121,53467.2325408876,61392.4550156649,42950.6556737284,46662.1439002367,51282.8754395362,54343.9881031615,2230.2293183739
2005057112,15836,-2,0,27966.6115764514,56692.1710745370,28477.5209983499,53451.7187274384,61386.6753596740,42952.6876790978,46640.3393875300,51280.7947633795,54349.9989453921,2230.3388276453
2005057112,15836,-2,0,27963.0586089791,56695.2860049237,28478.7256003354,53460.0779351557,61391.2382459826,42953.2473931517,46649.6963463869,51284.7492648470,54347.0300273673,2232.4925099829
2005057112,15836,-2,0,28038.5835031591,56701.6132072716,28473.9923662713,53483.9144532319,61393.9029715868,42942.6980000062,46683.6928913102,51301.6258603404,54346.7014995530,2223.2815634880
2005057112,15836,-2,0,28088.9212649156,56694.7871293539,28471.9481932050,53483.5980931145,61386.9065459136,42936.3586299614,46692.9525085924,51304.3514244287,54347.1395366387,2219.6920929252
2005057112,15836,-2,0,28042.9638740154,56692.4022607766,28472.6782550144,53457.3523710674,61388.3788372292,42956.7638575335,46661.8883786034,51282.6929240839,54344.9128481201,2235.0598940126
2005057112,15836,-2,0,27961.5133114826,56702.2824305969,28484.9554611087,53448.2265984502,61400.8385587759,42969.2479144738,46641.0937847330,51276.9132680930,54352.5419940281,2248.3713543369
2005057112,15836,-2,0,27957.0112636581,56702.5744553206,28494.0690660291,53457.2306940992,61396.0444862277,42952.7850206724,46651.7161840595,51293.0354663834,54359.5992581854,2239.8783019545
2005083595,15837,-2,0,28027.4865636566,56695.9308928553,28482.3394062918,53469.3740555285,61387.5757692389,42937.6970766119,46677.1953412067,51298.1580667459,54348.9525234653,2230.9228770928
2005083595,15837,-2,0,28077.4957975989,56699.0944940292,28470.2447156498,53477.9887848791,61394.4626856407,42945.3262225199,46686.1872691589,51296.7344462176,54341.5788991906,2236.7390361741
2005083595,15837,-2,0,28046.8697046955,56698.2427552516,28472.1428763542,53467.4880625209,61393.3189221393,42955.1455538560,46667.7045376848,51291.2954857377,54347.0421950641,2237.5056010740
2005083595,15837,-2,0,27971.9531953567,56693.8015459113,28482.1690585363,53450.1734299419,61389.5956069115,42963.9671340527,46641.4953187282,51285.1264634485,54353.2720558374,2240.3163390401
2005083595,15837,-2,0,27952.6430604987,56701.8322258144,28489.4575089332,53455.6488935122,61398.0643239003,42967.8486293392,46645.6931741321,51285.8078544706,54353.6857575294,2245.5484486739
2005083595,15837,-2,0,28016.5599719096,56706.6993045436,28492.0978991438,53479.8382747962,61400.4005216903,42953.1865546676,46680.6144640140,51306.8944730647,54355.5474151433,2234.2446583254
2005083595,15837,-2,0,28080.2822001713,56698.8389723960,28486.7441125417,53482.6368450655,61391.4450968286,42939.2545418053,46696.4811406711,51313.5623709237,54352.6515032995,2224.6443455321
2005083595,15837,-2,0,28056.4091790047,56696.8556378138,28481.8648661157,53464.8111692199,61393.0877358997,42955.0968830688,46673.8735599740,51294.8484532100,54348.1494554750,2234.5366830492
2005135411,15838,-2,0,27977.7206836508,56703.5965418537,28489.7860367474,53454.8458255219,61400.9480680473,42972.5818634033,46649.6963463869,51287.4018227544,54355.1337134513,2245.4024363121
2005135411,15838,-2,0,27958.5443934578,56705.8962365533,28500.7247961913,53460.3212890922,61398.2711747463,42962.2758241943,46656.8752875124,51299.0828117044,54365.4032495699,2239.9026373481
2005135411,15838,-2,0,28019.6505669026,56705.4581994676,28496.5147730905,53475.1780469130,61395.6064491420,42949.1103762319,46682.3301092660,51306.5051067664,54358.5163331681,2237.7124519200
2005135411,15838,-2,0,28085.0519373259,56709.9845826858,28484.4079147517,53486.6521850170,61400.8872295632,42951.9454495916,46701.0075238892,51305.2640016905,54352.0796215488,2239.1604078419
2005135411,15838,-2,0,28078.5057164352,56709.7533964461,28484.2984054803,53481.4200753832,61400.0598261792,42955.4984170639,46693.9380920351,51305.0449831477,54357.6402589969,2238.0409797342
2005135411,15838,-2,0,28002.5427851695,56703.6208772474,28488.1312299795,53459.6642334638,61395.8984738658,42961.0468868152,46663.1051482857,51291.3684919187,54358.9908733442,2239.7079541989
2005135411,15838,-2,0,27962.8882612236,56712.4059543535,28496.9771455698,53462.7304930631,61407.8593198427,42973.1902482445,46658.5787650676,51294.0940560070,54362.7263562689,2247.4709447720
2005135411,15838,-2,0,28010.8289867060,56718.8304982761,28501.2723425483,53484.8635335841,61408.6623878331,42956.7395221399,46689.3752057265,51314.4019420045,54367.3744164552,2237.9558058564
2005149467,15839,3,0,28080.2213616872,56708.4757882797,28489.2019872999,53486.4696695647,61394.8885550295,42938.8286724165,46704.4144789996,51316.2514319216,54361.0958848946,2228.7326916646
2005149467,15839,3,0,28075.1839352025,56704.2779328758,28477.3384828976,53470.6394959980,61396.1296601054,42950.2663074300,46686.5157969731,51296.2234029510,54351.2400504680,2237.8584642818
2005149467,15839,3,0,28002.9808222552,56709.3640301478,28482.7044371965,53459.4330472241,61401.1914219838,42961.8012840182,46660.7689504957,51287.0732949402,54353.3085589279,2244.5750329281
2005149467,15839,3,0,27960.0531878638,56703.2558463427,28488.2164038573,53457.9242528181,61393.4892698949,42948.7331776304,46657.4836723535,51290.1760576300,54355.9976199258,2236.3253344822
2005149467,15839,3,0,27995.5950302836,56699.5812019022,28481.9865430839,53466.8918453766,61389.4009237623,42938.0256044262,46676.5991240624,51294.1305590975,54346.2877978611,2232.3708330147
2005149467,15839,3,0,28061.2397546434,56701.8078904208,28471.3276406670,53482.7706897305,61392.8322142664,42936.1882822059,46698.6956614928,51296.9778001540,54339.1210244324,2232.6385223448
2005149467,15839,3,0,28072.2515202682,56697.6952088946,28469.7458400801,53475.0076991575,61387.6001046325,42934.3144568952,46694.3639614239,51294.2279006721,54342.7104949951,2228.4163315472
2005149467,15839,3,0,28003.4310270376,56690.3094169231,28473.3961491269,53449.3095234674,61383.0858891112,42947.4312340703,46659.7590316594,51275.7208338044,54344.8398419391,2235.4492603109
2005177099,15840,3,0,27950.7814028848,56700.3477668020,28484.6756040818,53447.8615675455,61394.9128904231,42965.0865621604,46651.8013579372,51275.0759458727,54350.7898456856,2248.3105158528
2005177099,15840,3,0,27985.0334694413,56705.4703671645,28492.5967747135,53470.8706822377,61398.5997025605,42953.9652872642,46681.1376749773,51298.5839361347,54359.9156183028,2240.3406744337
2005177099,15840,3,0,28064.8657282967,56698.8876431833,28485.8437029768,53482.2961495544,61386.5536827058,42940.3983053066,46703.4897340411,51306.3347590109,54354.4158193388,2230.4118338262
2005177099,15840,3,0,28080.1970262936,56697.4275195645,28474.1627140268,53473.9856126244,61387.5636015421,42949.6457548921,46692.0277636339,51293.2909880167,54345.6550776263,2239.1360724483
2005177099,15840,3,0,28019.1638590297,56701.5036980002,28478.8351096068,53461.7449096205,61393.5622760758,42958.6741859347,46666.7676250295,51286.1607176784,54351.2887212553,2243.5407786982
2005177099,15840,3,0,27965.4678129500,56698.8633077896,28491.2583280630,53454.0427575315,61389.3279175814,42953.7949395087,46654.9892945048,51291.2954857377,54359.0152087379,2239.6349480180
2005177099,15840,3,0,27981.8577005705,56696.8799732075,28488.7274471238,53462.7669961536,61389.3400852782,42948.7818484176,46667.9357239245,51294.1183914006,54352.6393356026,2237.2987502280
2005177099,15840,3,0,28053.6957826132,56700.7371331003,28481.8526984189,53483.0870498479,61393.8056300122,42944.6813345883,46698.2941274977,51304.6312814557,54348.9768588589,2233.6606088779
2005209205,15841,3,0,28080.5620571983,56692.1345714465,28477.2533090198,53480.7386843611,61383.4752554096,42938.2932937563,46701.8105918795,51303.1103193528,54349.1350389176,2224.2428115370
2005209205,15841,3,0,28021.6947399689,56687.8272067712,28476.7909365405,53458.4474637815,61381.8204486417,42949.4997425302,46671.1479958857,51281.9628622745,54348.3319709273,2231.1540633324
2005209205,15841,3,0,27952.6308928018,56696.5636130901,28485.9653799450,53454.8701609155,61393.0390651124,42960.4141665804,46655.0988037763,51276.5604048851,54351.3617274362,2242.6282014364
2005209205,15841,3,0,27965.6989991897,56698.1819167675,28490.8081232806,53469.1550369856,61389.7416192734,42941.3960564461,46673.6545414312,51293.4491680754,54353.6735898326,2232.4073361052
2005209205,15841,3,0,28043.9737928517,56690.5041000722,28479.7598545653,53480.3006472755,61378.2066426852,42922.3536109182,46697.6005687788,51301.9300527610,54342.6983272983,2220.3248131600
2005209205,15841,3,0,28077.6904807480,56690.7474540087,28465.5236492825,53477.7332632458,61382.5626781478,42933.1098549097,46695.8362527395,51289.6163435762,54330.3846181135,2225.0337118305
2005209205,15841,3,0,28028.2531285564,56693.6311981557,28471.3033052734,53461.6354003491,61386.7970366422,42945.0950362803,46674.0804108200,51283.8366875853,54338.8168320118,2228.4650023345
2005209205,15841,3,0,27960.8684235510,56691.7573728450,28484.2010639057,53448.6037970517,61384.2296526126,42945.8372657865,46654.4539158446,51282.8632718394,54347.8209276608,2227.5524250728
2005259697,15842,3,0,27956.9504251740,56694.9453094126,28486.2574046688,53453.7385651110,61386.0548071360,42941.9801058936,46658.7612805200,51282.8754395362,54342.6739919047,2230.8985416991
2005259697,15842,3,0,28028.7885072166,56700.6397915258,28480.2222270446,53475.4700716368,61390.3743395082,42934.1319414428,46689.5212180884,51295.0066332687,54337.7095716009,2226.7858601730
2005259697,15842,3,0,28078.6152257066,56694.3004214810,28476.5962533914,53475.1537115194,61380.6036789594,42922.3292755246,46698.3306305882,51295.7001919876,54338.1232732929,2220.2518069790
2005259697,15842,3,0,28036.1377960977,56689.0074733630,28471.6926715717,53450.9764979322,61376.6735128855,42937.8795920643,46664.6017749950,51275.1976228410,54333.1588529891,2227.9539590680
2005259697,15842,3,0,27959.1162752085,56698.2914260389,28479.4069913575,53443.0918303909,61388.8168743148,42959.5502601059,46642.3713928995,51271.6446553687,54339.1331921292,2237.4325948930
2005259697,15842,3,0,27955.8188293695,56700.3842698925,28491.4651789090,53456.7804893167,61386.4198380407,42943.5984095711,46656.8266167251,51289.8962006031,54347.1638720323,2226.9075371412
2005259697,15842,3,0,28028.7155010357,56693.3756765225,28484.3470762676,53472.3064704628,61378.9488721914,42927.0746772855,46687.2458587825,51299.7155319392,54341.0556882272,2218.5361617270
2005259697,15842,3,0,28077.6661453544,56691.0029756420,28471.3641437575,53475.3483946685,61380.2629834483,42932.3311223130,46694.9966816587,51291.6726843392,54331.1268476197,2224.4496623830
2005279058,15843,3,0,28048.4636729793,56689.1048149376,28473.1284597968,53464.3487967406,61379.4477477612,42939.3640510767,46676.9763226639,51284.0313707344,54336.3467895567,2227.4429158014
2005279058,15843,3,0,27974.3867347213,56683.7996991228,28481.2443135777,53446.6934686505,61373.5829178925,42941.8097581381,46650.2195573502,51273.1899528652,54342.6253211174,2228.6475177869
2005279058,15843,3,0,27951.9495017798,56688.6667778520,28485.0771380770,53448.6768032326,61378.8880337073,42947.1757124370,46648.8811106997,51271.2674567672,54339.1453598260,2236.6660299932
2005279058,15843,3,0,28013.8952463054,56694.0814029382,28483.1789773726,53471.0288622964,61381.0538837418,42933.3897119366,46680.2616008061,51287.5721705099,54337.8434162659,2229.4870888677
2005279058,15843,3,0,28079.2479459414,56685.9047106732,28475.8418561883,53476.2366365366,61371.6847571881,42918.5937925999,46695.5928988030,51292.6582677819,54334.6068089110,2219.2053850523
2005279058,15843,3,0,28056.8107129999,56679.6748498998,28469.6606662023,53456.3911230184,61370.1881304789,42935.3000403378,46672.1457470252,51274.7352503617,54328.6811405583,2227.0170464126
2005279058,15843,3,0,27977.4043235334,56688.1557345854,28482.4002447759,53446.1580899903,61381.9786287004,42958.0779687904,46647.8103533793,51269.8560039357,54337.4662176644,2239.3307555974
2005279058,15843,3,0,27951.1586014863,56689.7983736565,28493.9595567577,53451.0373364163,61378.9123691010,42945.1802101581,46652.8356121672,51283.0822903822,54345.3995559930,2230.1319767993
2005305714,15844,3,0,28011.1453468234,56686.5374309080,28486.5981001798,53466.4781436846,61373.8627749194,42928.5469686011,46676.6964656370,51291.5753427647,54335.7140693219,2222.6610109500
2005305714,15844,3,0,28073.4439545568,56689.3846719645,28471.1086221242,53476.2488042334,61380.8348651990,42933.3775442398,46690.6041431056,51293.1936464421,54326.5517936142,2226.0314629699
2005305714,15844,3,0,28067.4331123263,56689.2508272995,28470.1838771657,53470.3961420616,61380.6523497466,42938.3906353309,46681.4296997011,51291.9038705789,54332.2219403337,2226.5425062365
2005305714,15844,3,0,27993.7820434570,56684.0552207561,28476.8031042374,53448.8471509882,61377.0385437902,42946.4943214149,46649.5990048123,51279.8821861178,54340.2282848432,2230.2414860707
2005305714,15844,3,0,27952.0955141416,56692.6577824099,28484.5539271136,53449.6745543721,61387.7582846912,42956.5083359002,46642.2983867185,51278.1178700785,54342.7713334792,2237.0918993820
2005305714,15844,3,0,28001.6910463919,56697.8655566501,28488.7882856080,53472.3673089469,61390.5081841732,42940.1549513702,46673.9952369423,51295.9800490146,54342.5279795428,2228.8056978456
2005305714,15844,3,0,28075.9991708897,56688.1922376759,28479.2123082083,53478.3659834806,61378.1214688075,42921.1855120232,46694.3639614239,51299.7885381201,54335.4585476886,2215.5794113990
2005305714,15844,3,0,28068.7593912800,56681.8528676311,28466.5214004220,53462.0856051315,61374.0939611591,42928.8511610217,46674.7009633580,51277.0836158485,54324.0695834624,2219.7407637125
2005334784,15845,3,0,27986.3475806982,56684.1038915434,28468.9306043929,53446.3284377458,61378.6568474677,42939.7777527687,46643.1866285866,51263.1029321990,54324.0695834624,2226.5303385397
2005334784,15845,3,0,27943.2252631577,56685.6613567367,28479.2853143892,53447.3748596726,61378.0849657170,42933.1950287875,46641.6900018774,51271.5229784004,54333.0615114145,2219.7042606220
2005334784,15845,3,0,27985.0699725318,56685.8073690986,28475.5254960710,53461.5502264713,61377.9024502647,42923.6433867814,46664.8086258410,51280.0403661765,54328.2917742599,2216.7596779909
2005334784,15845,3,0,28063.0892445605,56691.8668821164,28467.7503378011,53480.6535104833,61387.1742352437,42929.6420613152,46690.2391122009,51288.2535615320,54325.7973964112,2221.9066137470
2005334784,15845,3,0,28079.2114428509,56691.9520559942,28468.6264119723,53478.6823435980,61385.1300621775,42931.4672158386,46688.5843054330,51292.1107214249,54330.3359473262,2221.9066137470
2005334784,15845,3,0,28008.6509689747,56688.8492933043,28477.2168059293,53452.1567645240,61380.4941696879,42942.1869567396,46656.3399088522,51277.8136776579,54335.9087524711,2230.4970077040
2005334784,15845,3,0,27943.2739339450,56696.0282344299,28484.6025979009,53444.9048172175,61388.4153403197,42952.1036296503,46640.9964431585,51271.0484382244,54335.4220445982,2240.0364820132
2005334784,15845,3,0,27969.4223144175,56701.5280333938,28489.1411488158,53463.7525795963,61386.8822105200,42932.2094453448,46666.0375632201,51286.5257485831,54335.9939263489,2230.0224675279
2005371675,15846,3,0,28047.7579465636,56689.2264919058,28477.6913461054,53471.8197625899,61371.9767819119,42910.4901065158,46687.4162065380,51290.4072438697,54325.4080301129,2216.9665288369
2005371675,15846,3,0,28066.4840319741,56686.6469401794,28465.2194568619,53462.4019652489,61373.2665577751,42921.7695614707,46677.4508628400,51273.8956792809,54316.7933007623,2225.3622396447
2005371675,15846,3,0,28002.2750958394,56692.4265961703,28470.7314235227,53448.6524678390,61380.1899772674,42941.3473856588,46651.1564700056,51267.5806446298,54323.2300123816,2234.3298322032
2005371675,15846,3,0,27944.0891696321,56690.8812986738,28482.6192633187,53441.0476573246,61377.5860901473,42941.7975904413,46637.3096310211,51273.9565177650,54336.6144788868,2231.4095849657
2005371675,15846,3,0,27965.0054404708,56693.3026703415,28483.2763189472,53452.0715906462,61379.3869092771,42940.4834791844,46653.7846925194,51280.9529434382,54337.5635592390,2233.3929195478
2005371675,15846,3,0,28043.5722588565,56698.6564569436,28475.0022851076,53475.1902146098,61385.3977515076,42938.0134367293,46681.2350165519,51288.1197168669,54334.3999580650,2233.7214473620
2005371675,15846,3,0,28077.8243254131,56694.5681108111,28470.6340819481,53475.5309101209,61379.0705491597,42929.3743719851,46686.5036292763,51289.7988590285,54334.8379951507,2227.9174559775
2005371675,15846,3,0,28024.5054779350,56689.4576781455,28473.7003415475,53450.9886656290,61375.7366002302,42941.4933980207,46653.8942017908,51273.9078469777,54335.3368707204,2233.9404659049
2005396088,15847,3,0,27952.5457189241,56697.5978673200,28484.8216164437,53442.9336503322,61386.3589995566,42956.8368637144,46635.5088118913,51266.0718502238,54337.4418822708,2242.8228845856
2005396088,15847,3,0,27961.1361128811,56703.1706724649,28496.5512761810,53458.2406129355,61387.3932537866,42945.1437070676,46657.7026908964,51287.2071396052,54343.3310475331,2233.2955779732
2005396088,15847,3,0,28041.0413779173,56695.8457189775,28488.0095530113,53470.5299867266,61377.7321025091,42927.6100559457,46684.4229531195,51296.7709493080,54336.3467895567,2221.0427072725
2005396088,15847,3,0,28078.3962071638,56696.6609546647,28471.9238578114,53469.9824403696,61383.6334354683,42938.5366476927,46685.4450396527,51289.5676727889,54328.9244944947,2226.7736924761
2005396088,15847,3,0,28032.9985303174,56703.4018587046,28473.7611800316,53463.1806978456,61394.7790457581,42953.7706041151,46665.9888924328,51285.5888359278,54337.6609008136,2235.5709372791
2005396088,15847,3,0,27967.7188368623,56703.0003247094,28486.3790816370,53457.0603463436,61394.4505179439,42953.5637532691,46651.3633208516,51286.9272825783,54349.0133619494,2235.4370926141
2005396088,15847,3,0,27965.1757882263,56707.6848879862,28491.4043404249,53463.1928655424,61398.6240379541,42952.4808282518,46659.6495223880,51290.9061194394,54346.7866734308,2237.3474210153
2005396088,15847,3,0,28040.4694961667,56713.8295748818,28487.4376712606,53485.4962538189,61402.1161669423,42945.1558747644,46693.5487257367,51302.6479468735,54343.5500660759,2233.6849442716
2005439979,15848,3,0,28091.3791396738,56705.5190379518,28479.8328607463,53483.0140436670,61390.3500041145,42930.8709986943,46701.4942317621,51303.1224870496,54342.0047685794,2222.7705202214
2005439979,15848,3,0,28046.6506861527,56696.3567622441,28474.3573971760,53454.8823286123,61383.0128829303,42942.6249938252,46666.6459480612,51281.1476265874,54336.3711249504,2229.7791135914
2005439979,15848,3,0,27959.3352937513,56704.6186283869,28484.1037223311,53443.4690289924,61393.1607420806,42963.5656000575,46639.0982824541,51269.8925070262,54341.2503713764,2243.3947663363
2005439979,15848,3,0,27947.0094168696,56710.7146444952,28495.3101711051,53456.5979738644,61394.6938718803,42954.9995414942,46653.1763076782,51286.5014131895,54349.7677591524,2238.0896505215
2005439979,15848,3,0,28020.9646781595,56707.1738447197,28489.0559749381,53473.9612772307,61388.0138063245,42936.4681392328,46683.0845064690,51298.2919114109,54342.1021101540,2228.8665363297
2005439979,15848,3,0,28075.7558169532,56707.2346832038,28476.8517750247,53477.9522817886,61392.0899847602,42940.2887960352,46691.1395217658,51292.4027461486,54331.6257231894,2235.6926142474
2005439979,15848,3,0,28050.1306474441,56708.0620865877,28478.4822463989,53468.5588198413,61393.1485743838,42948.4533206034,46674.3481001501,51285.6010036246,54338.0259317183,2240.2068297687
2005439979,15848,3,0,27972.0262015376,56702.7448030761,28490.0780614712,53450.3681130910,61388.1719863832,42949.1468793223,46646.9099438144,51279.7970122400,54345.3752205993,2239.7322895926
2005459970,15849,3,0,27942.8723999498,56704.0710820298,28492.3169176866,53449.5163743134,61389.2792467941,42948.8305192049,46640.5219029824,51276.1588708900,54343.1241966871,2241.5817795097
2005459970,15849,3,0,28006.4486158497,56711.3230293363,28490.7351170996,53474.9225252797,61396.1539954991,42937.8430889738,46677.5847075050,51292.4270815423,54342.9538489316,2235.4979310982
2005459970,15849,3,0,28075.3542829580,56701.4550272129,28480.9401211572,53479.7044301311,61385.5315961726,42922.9133249721,46694.6194830572,51298.8029546775,54339.8145831513,2222.4298247104
2005459970,15849,3,0,28057.3582593569,56694.2274153001,28472.0577024764,53462.5114745203,61381.8934548226,42936.0301021472,46673.6180383408,51280.1498754479,54334.3391195809,2226.3356553905
2005459970,15849,3,0,27977.0879634160,56703.6330449442,28480.5264194652,53452.7164785779,61395.8741384722,42960.7305266978,46648.9906199711,51269.9168424198,54341.1165267113,2242.5673629523
2005459970,15849,3,0,27947.1797646252,56706.5167890912,28495.4683511638,53457.2428617960,61395.4847721738,42952.2983127995,46654.8919529303,51284.0192030376,54351.6294167663,2240.2433328591
2005459970,15849,3,0,28005.6455478594,56700.6762946162,28490.0172229871,53469.0333600174,61384.8623728474,42932.6231470368,46679.7140544491,51293.2788203199,54342.1264455476,2232.3221622274
2005459970,15849,3,0,28074.1131778821,56699.2891771784,28475.6715084328,53477.7210955490,61387.3080799088,42935.7380774235,46695.4347187443,51291.2103118600,54331.6378908862,2234.7678692888
2005485611,15850,3,0,28066.7030505169,56696.0038990362,28472.2523856256,53469.6417448586,61382.3679949987,42938.9990201720,46681.8312336963,51284.2382215804,54333.2561945637,2230.3023245548
2005485611,15850,3,0,27988.9758032120,56688.6424424583,28480.0883823796,53447.8615675455,61374.8361906653,42943.7322542361,46650.0370418979,51271.6933261560,54339.4982230339,2229.9251259533
2005485611,15850,3,0,27941.0229100328,56694.3490922683,28486.4277524243,53445.9390714475,61380.7131882308,42950.4123197919,46638.5507360971,51266.8627505173,54338.4518011071,2236.0211420616
2005485611,15850,3,0,27987.0289717203,56699.8853943227,28484.4565855390,53467.9747703938,61384.2539880062,42932.1607745575,46665.5630230440,51279.1642920053,54335.4098769014,2224.3766562020
2005485611,15850,3,0,28064.7805544189,56689.1048149376,28471.6074976940,53472.7810106389,61367.8519326889,42908.1295733322,46685.8222382542,51283.4473212869,54326.3449427683,2205.3220429773
2005485611,15850,3,0,28065.1455853236,56682.6316002278,28456.6899013890,53455.6123904217,61361.8775935489,42916.3184332940,46669.4201829369,51262.9082490498,54315.1506616912,2205.5167261265
2005485611,15850,3,0,27985.7878666444,56686.6347724826,28460.2793719518,53441.0598250215,61371.3562293739,42934.0224321714,46641.1302878235,51252.8333960804,54319.9812373299,2214.5938279564
2005485611,15850,3,0,27936.2653405750,56685.0286365019,28470.8774358846,53442.1670854324,61367.6207464493,42925.0548396129,46638.0396928305,51260.4990450789,54326.6734705825,2206.3441295104
2005520790,15851,3,0,27970.9067734299,56678.7501049413,28468.5655734882,53452.7286462747,61361.7559165806,42912.2057517679,46657.3984984758,51267.6901539012,54320.0420758140,2201.5378892654
2005520790,15851,3,0,28046.2126490671,56682.1935631422,28458.4420497315,53468.3398012985,61365.6009087767,42912.9723166677,46678.5337878572,51269.7099915738,54311.0623155587,2206.6361542342
2005520790,15851,3,0,28065.2915976855,56681.9988799930,28458.2473665824,53467.4150563400,61363.5689034072,42915.0043220372,46676.4166086100,51268.3107064392,54313.6175318915,2213.6447476042
2005520790,15851,3,0,28001.0583261572,56677.3386521098,28466.7404189648,53446.0972515062,61361.9140966393,42924.8966595542,46644.0748704547,51256.9095745161,54317.4381886939,2224.8511963781
2005520790,15851,3,0,27940.0738296806,56683.3008235531,28476.1947193962,53444.3086000732,61372.3783159070,42939.6317404068,46629.9360067464,51253.3201039533,54320.6504606551,2239.5862772307
2005520790,15851,3,0,27966.5507379673,56690.1025660771,28482.7166048933,53463.5943995376,61376.4909974332,42928.7781548407,46653.5535062797,51272.5450649336,54326.6126320984,2237.7732904041
2005520790,15851,3,0,28048.2811575270,56677.1804720511,28472.9216089508,53469.0211923206,61360.2471221746,42903.0921468475,46677.3048504781,51276.8402619121,54318.0709089287,2221.6754275073
2005520790,15851,3,0,28067.5061185072,56669.5634938400,28454.1955235403,53456.5736384707,61355.9275898024,42910.7212927555,46666.6094449708,51257.3232762081,54307.2538264531,2221.9309491406
2005558010,15852,3,0,28001.5815371205,56673.0677905250,28453.2829462786,53441.4126882293,61361.2448733141,42933.6939043572,46638.9035993049,51244.6445361186,54311.0988186491,2229.5844304422
2005558010,15852,3,0,27939.4654448394,56674.2967279041,28467.1662883536,53437.4216836714,61359.4440541843,42931.7592405624,46629.7899943845,51252.3710236011,54322.7068014182,2226.6033447206
2005558010,15852,3,0,27953.8841655746,56673.3233121583,28470.4880695863,53445.8052267824,61356.7184900959,42921.2950212946,46644.8049322640,51258.1871826825,54317.8275549922,2224.5713393512
2005558010,15852,3,0,28032.4266485667,56678.1417201001,28463.7836686368,53463.4118840852,61362.4981460868,42917.5838737636,46673.4598582821,51264.8550805415,54310.4417630207,2226.3234876937
2005558010,15852,3,0,28070.7792289526,56674.0412062708,28461.3014584849,53464.5799829802,61355.7450743501,42912.0962424965,46678.3512724049,51268.9799297644,54312.4007622092,2221.9674522311
2005558010,15852,3,0,28015.9880901589,56666.4242280596,28460.6078997660,53439.1373289234,61350.2452753861,42918.8736496269,46647.1532977509,51252.0911665742,54311.1353217396,2227.0292141094
2005558010,15852,3,0,27940.7795560963,56672.2403871410,28466.6187419966,53430.6929473283,61359.1885325510,42934.0102644746,46623.8643260318,51243.6102818886,54314.4205998818,2237.9923089469
2005558010,15852,3,0,27947.0824230506,56677.3994905939,28474.0897078458,53446.9976610711,61363.3498848644,42922.7794803070,46642.8094299851,51260.8762436804,54320.5896221710,2230.4726723103
2005609390,15853,3,0,28030.2607985322,56667.1664575658,28464.3190472970,53461.1851955666,61350.2452753861,42901.3886692923,46670.7342941937,51269.5639792120,54313.3133394709,2214.8858526801
2005609390,15853,3,0,28071.1564275541,56662.9807698588,28448.3915321558,53455.9044151455,61351.2916973129,42905.8542140263,46671.7077099396,51258.5643812840,54301.8635367605,2217.4532367098
2005609390,15853,3,0,28022.5708141401,56667.0204452040,28449.9003265618,53442.8849795449,61355.5260558073,42918.8128111427,46647.7981856825,51248.6720437670,54305.5868519883,2224.3523208084
2005609390,15853,3,0,27946.6443859650,56664.6599120203,28463.9053456050,53430.8997981743,61352.0217591223,42920.6744687567,46627.7214859246,51251.1177508284,54316.8663069432,2224.2184761433
2005609390,15853,3,0,27940.8647299741,56666.8866005389,28468.8697659088,53438.3464286300,61353.5305535283,42921.8790707421,46635.4723088008,51255.0235815085,54317.9492319604,2227.9661267648
2005609390,15853,3,0,28015.5257176796,56676.0975470339,28465.9008478840,53465.2127032150,61361.9019289425,42915.5153653037,46669.6513691765,51269.2111160041,54315.8077173196,2228.6231823932
2005609390,15853,3,0,28067.3844415390,56669.6730031114,28456.8237460541,53467.8530934256,61354.8446647852,42905.4283446375,46683.4130342832,51277.1079512422,54315.3331771435,2216.8570195654
2005609390,15853,3,0,28028.1679546787,56661.1677830321,28452.6745614375,53443.8340598971,61352.0095914254,42919.9565746441,46654.9527914144,51259.3917846680,54312.5954453583,2220.7750179424
2005615167,15854,3,0,27943.9674926639,56668.1885440990,28460.9850983675,53429.6465254015,61363.7392511628,42940.1792867638,46623.8399906381,51248.7450499479,54315.9780650751,2233.8187889366
2005615167,15854,3,0,27930.9845601538,56676.3774040608,28475.0022851076,53442.7146317894,61370.7721799264,42932.0390975893,46635.9833520674,51267.2034460283,54328.7541467392,2231.5555973276
2005615167,15854,3,0,28006.7771436639,56672.4959087743,28472.2280502319,53459.5303887987,61363.5689034072,42907.8497163053,46665.2466629266,51280.9286080446,54323.4003601371,2219.4730743824
2005615167,15854,3,0,28061.6169532449,56669.6730031114,28457.5416401666,53460.9053385397,61363.4958972263,42911.3783483839,46670.4301017732,51271.5594814909,54310.5999430794,2222.1743030771
2005615167,15854,3,0,28037.1112118435,56678.2877324620,28459.7318255948,53455.1013471551,61370.3098074471,42929.5568874374,46655.5003377714,51266.7532412459,54317.1583316669,2228.8665363297
2005615167,15854,3,0,27963.1316151600,56678.9204526968,28473.4813230047,53441.5465328944,61368.4724852269,42935.8962574821,46632.2965399301,51260.6450574407,54327.1480107586,2231.3244110879
2005615167,15854,3,0,27937.3969363795,56684.6027671131,28480.3682394065,53444.5276186160,61372.6825083276,42940.5078145780,46630.4835531034,51261.0465914359,54328.2066003822,2238.8805508150
2005615167,15854,3,0,28001.6545433015,56696.1134083076,28479.8571961399,53468.8873476555,61379.0218783724,42929.9340860389,46664.3949241490,51277.2296282104,54325.5662101716,2237.4934333772
2005676878,15855,3,0,28071.2050983414,56687.3039958078,28471.8751870241,53472.2456319787,61367.7059203270,42909.3341753177,46681.3201904297,51283.0457872918,54319.0929954618,2223.8656129355
2005676878,15855,3,0,28056.6160298507,56679.3219866920,28463.5646500940,53451.9864167685,61361.6220719156,42913.9700678072,46657.9947156201,51264.9767575097,54311.8045450648,2227.0292141094
2005676878,15855,3,0,27970.8094318553,56685.3814997098,28470.0743678943,53435.3288398179,61371.9159434278,42938.0742752135,46625.6529774647,51251.6896325791,54315.6495372609,2241.0220654558
2005676878,15855,3,0,27937.4942779541,56691.3071680626,28484.6512686882,53440.2324216375,61372.9745330514,42933.3167057557,46628.6949016705,51264.0763479448,54329.1070099471,2235.2789125554
2005676878,15855,3,0,27992.7599569239,56685.1381457733,28481.7796922379,53453.3613665095,61363.9826050992,42911.7920500759,46652.7626059862,51272.6910772955,54322.4391120881,2221.2252227249
2005676878,15855,3,0,28057.9301411076,56681.0984704281,28464.0513579669,53459.8710843097,61362.6076553582,42909.7843801001,46665.2588306234,51264.5508881209,54306.1830691326,2220.1788007981
2005676878,15855,3,0,28057.4312655378,56682.2422339295,28462.9806006465,53458.4231283878,61364.5909899404,42920.8691519058,46659.3331622706,51260.5963866534,54306.8887955484,2224.4739977766
2005676878,15855,3,0,27984.5467615684,56674.3819017819,28466.4362265442,53434.2945855879,61356.9131732451,42919.4455313775,46627.7701567119,51248.4530252241,54309.7968750891,2223.6100913022
2005720734,15856,3,0,27938.3338490349,56674.6495911120,28466.6552450870,53430.5347672696,61357.8500859005,42921.5262075343,46620.2383523785,51240.4831838051,54307.1564848785,2231.5677650244
2005720734,15856,3,0,27982.3079053530,56681.3783274550,28463.9661840892,53454.5781361918,61365.0046916323,42908.9204736257,46651.5701716976,51258.1993503793,54306.4020876755,2227.4185804078
2005720734,15856,3,0,28061.8481394846,56673.5058276106,28454.7430698974,53467.9869380906,61355.1123541153,42890.5959222103,46677.7915583510,51268.5418926788,54304.9297963599,2214.8006788024
2005720734,15856,3,0,28064.9874052649,56663.7595024554,28443.8286458472,53452.1567645240,61350.0992630242,42898.5657636294,46660.6472735275,51253.4782840120,54295.5728375030,2220.5194963092
2005720734,15856,3,0,27989.0366416961,56670.9141081873,28452.0783442931,53438.4559379014,61362.9970216566,42927.5127143711,46632.8440862871,51242.0406489985,54302.5570954794,2235.2424094649
2005720734,15856,3,0,27940.1833389520,56674.8564419579,28467.4583130773,53439.1008258330,61364.7370023022,42925.4077028208,46629.0234294847,51253.1984269851,54313.0943209281,2232.9913855527
2005720734,15856,3,0,27978.4385777633,56673.0069520409,28468.2370456740,53451.4632058051,61360.4661407174,42907.1561575864,46650.8887806755,51262.0686779690,54311.4638495538,2224.6930163194
2005720734,15856,3,0,28052.2113236008,56676.2922301831,28454.7309022005,53463.9350950486,61363.4837295295,42901.6685263192,46670.9046419493,51260.8032374994,54299.8802021784,2224.3279854147
2005730525,15857,3,0,28067.6521308691,56674.0290385740,28447.1139239894,53458.7151531116,61358.8721724336,42899.0038007150,46666.5851095771,51256.2890219781,54298.6999355865,2218.9863665095
2005730525,15857,3,0,28001.7518848761,56668.4562334291,28448.9390785128,53435.5721937543,61351.4255419779,42907.6672008529,46632.2965399301,51242.4665183873,54304.1145606728,2221.3347319963
2005730525,15857,3,0,27937.7741349810,56672.9096104663,28454.4510451736,53427.1156444624,61361.3543825855,42921.9642446199,46615.1279197129,51236.1514837362,54305.9883859835,2232.4195038020
2005730525,15857,3,0,27961.2577898493,56680.9402903694,28460.5957320692,53447.9954122105,61368.1196220190,42912.9601489709,46640.0716981999,51257.0434191811,54309.4683472748,2226.7736924761
2005730525,15857,3,0,28047.3807479621,56676.6329256941,28455.9355041860,53462.2072820997,61360.7581654411,42894.8059453111,46670.8924742524,51273.3724683175,54308.0325590497,2213.0728658535
2005730525,15857,3,0,28073.4317868600,56672.1430455664,28445.7511419452,53455.0648440647,61361.0866932554,42903.5910224172,46665.5751907408,51262.1660195436,54304.2970761251,2217.6235844653
2005730525,15857,3,0,28007.7627271066,56677.1074658702,28451.2874439997,53440.6947941168,61371.6360864008,42927.7682360044,46634.4623899645,51249.7671364810,54310.5999430794,2229.6331012295
2005730525,15857,3,0,27941.4244440279,56678.5919248826,28465.5844877666,53435.7668769035,61371.4900740390,42925.2738581557,46622.5258793812,51256.4106989463,54323.4003601371,2226.6885185984
2005752082,15858,3,0,27952.3510357749,56673.3476475519,28463.4186377321,53440.2202539407,61366.1971259210,42914.2499248341,46633.9026759107,51260.5598835630,54320.4314421123,2221.5537505391
2005752082,15858,3,0,28030.3581401068,56679.4193282666,28452.7719030120,53457.2306940992,61371.9037757310,42911.6947085013,46662.4480926573,51266.4368811285,54313.8730535247,2221.7849367787
2005752082,15858,3,0,28071.7283093048,56678.1660554938,28448.3428613685,53459.9197550970,61368.0101127476,42905.6960339676,46670.8924742524,51270.8294196815,54313.8487181311,2217.3437274384
2005752082,15858,3,0,28024.4203040572,56670.4882387985,28450.8007361267,53437.9570623316,61362.3277983313,42910.6726219682,46644.0140319706,51258.3088596507,54315.5521956863,2222.6366755563
2005752082,15858,3,0,27948.3721989138,56675.7690192197,28456.5195536335,53429.6343577047,61369.2755532172,42926.1986031143,46622.9274133764,51249.6697949064,54315.3940156276,2235.4249249173
2005752082,15858,3,0,27947.1919323220,56681.6703521788,28462.0193525975,53448.0562506947,61374.6536752129,42916.7564703797,46642.2983867185,51265.1227698716,54321.1250008312,2229.5722627454
2005752082,15858,3,0,28026.7686695440,56675.1971374690,28456.6290629049,53465.4682248483,61365.6130764735,42894.3314051350,46675.1146650500,51278.4098948022,54318.3507659556,2214.1679585676
2005752082,15858,3,0,28069.2217637593,56670.8411020064,28442.0764975047,53463.1563624519,61364.8221761800,42904.3454196203,46677.6090428987,51268.0430171091,54309.1276517638,2218.1224600350
2005781074,15859,3,0,28024.5663164191,56676.9249504178,28444.2058444487,53454.3591176489,61373.2422223815,42925.5658828795,46655.9992133412,51258.9294121887,54314.5909476373,2230.0468029215
2005781074,15859,3,0,27952.3510357749,56677.0709627797,28457.3104539270,53445.3428543031,61372.3783159070,42925.1765165811,46637.5894880480,51263.2246091672,54327.9510787489,2229.7669458946
2005781074,15859,3,0,27943.2861016418,56672.8122688917,28459.3667946901,53447.0463318584,61368.2778020777,42917.4986998859,46639.2929656033,51264.3440372749,54326.1502596191,2229.2193995376
2005781074,15859,3,0,28012.5811350485,56674.9051127452,28452.6015552565,53466.7580007115,61371.4535709485,42907.6428654593,46667.5950284134,51272.8370896573,54319.1173308554,2228.2946545790
2005781074,15859,3,0,28068.1753418325,56669.8068477764,28447.2964394417,53471.0897007805,61364.6518284245,42895.8280318442,46678.7771417937,51278.5924102546,54317.7667165081,2222.8556940992
2005781074,15859,3,0,28034.3126415743,56661.1921184258,28445.0575832263,53445.8295621761,61357.9109243846,42902.7514513365,46650.2438927439,51261.6914793675,54314.4814383659,2226.4938354492
2005781074,15859,3,0,27947.7273109822,56668.0425317371,28453.7696541515,53430.9241335680,61368.5819944983,42926.7583171681,46620.9927495815,51246.9563985149,54316.8054684591,2241.4114317541
2005781074,15859,3,0,27929.9624736207,56678.0808816160,28466.2415433950,53444.5884571001,61373.4612409243,42924.4707901654,46633.0752725267,51262.0565102722,54324.2034281274,2236.1306513330
2005801417,15860,3,0,28003.8447287296,56674.0777093613,28463.7106624559,53458.9341716544,61365.7834242290,42903.5180162363,46664.1637379093,51275.0151073886,54320.1394173886,2220.8966949107
2005801417,15860,3,0,28061.9698164528,56672.0700393855,28450.0828420142,53458.8124946861,61366.8298461558,42904.5401027694,46669.9190585066,51268.1281909868,54310.2835829620,2222.4054893167
2005801417,15860,3,0,28037.0747087531,56674.7469326865,28450.2775251633,53447.6790520932,61372.3661482102,42917.4500290986,46652.7991090767,51259.8784925409,54314.5422768500,2228.6961885742
2005801417,15860,3,0,27956.6949035407,56671.6198346030,28462.5182281672,53429.5126807365,61369.7014226060,42920.4432825170,46626.5655547265,51257.7734809905,54325.1038376923,2229.4019149899
2005801417,15860,3,0,27925.6794443390,56672.1795486569,28467.4218099869,53428.0890602082,61370.2368012662,42920.7961457249,46622.6475563495,51255.8144818020,54322.7189691150,2233.1860687018
2005801417,15860,3,0,27984.3764138129,56680.2832347410,28465.6574939475,53453.7507328078,61377.6712640250,42913.5441984184,46655.2204807445,51267.4224645711,54317.8883934763,2232.6385223448
2005801417,15860,3,0,28057.3217562664,56674.0533739676,28460.2915396486,53464.5678152834,61367.8762680826,42900.9384645098,46677.1466704194,51275.6843307139,54317.5111948748,2223.6465943927
2005801417,15860,3,0,28046.2978229448,56666.4363957565,28453.8791634229,53446.8516487092,61361.7559165806,42911.1106590538,46658.2867403439,51261.9956717881,54314.2745875199,2230.9228770928
2005848334,15861,3,0,27958.0455178881,56673.2138028869,28459.4032977806,53431.2648290790,61371.9159434278,42932.2094453448,46626.5168839392,51247.8081372925,54317.3651825129,2247.1667523514
2005848334,15861,3,0,27917.4297458931,56680.2223962569,28468.7845920310,53439.0156519552,61376.4058235554,42928.7538194471,46629.4249634798,51263.0420937149,54327.1845138490,2242.6890399206
2005848334,15861,3,0,27970.7850964617,56676.3895717576,28467.2392945345,53456.0382598105,61368.2899697745,42906.8641328626,46658.5909327644,51278.1665408658,54325.2011792669,2229.5235919581
2005848334,15861,3,0,28041.3334026411,56673.7005107598,28452.6137229534,53462.4141329457,61369.4945717600,42908.2025795131,46674.1169139105,51274.1633686110,54313.4593518328,2230.9593801832
2005848334,15861,3,0,28040.6763470126,56673.8586908185,28449.0485877842,53456.4397938057,61371.9646142151,42918.2287616952,46667.4368483547,51271.1214444053,54317.1461639701,2235.0720617094
2005848334,15861,3,0,27969.9333576841,56667.5801592578,28460.0360180153,53435.4018459988,61367.6937526302,42922.5361263706,46640.1203689872,51267.0574336664,54327.8294017807,2237.4447625899
2005848334,15861,3,0,27921.3599119669,56667.8235131943,28465.8278417031,53431.7272015583,61369.8109318774,42927.8534098822,46628.1960261007,51261.8131563357,54329.9344133310,2244.3803497789
2005848334,15861,3,0,27957.2059468073,56673.3111444614,28461.8003340547,53454.5416331013,61374.5076628511,42922.6334679451,46656.4129150331,51275.1002812664,54329.0705068566,2239.7687926830
2005871130,15862,3,0,28035.9309452517,56666.4485634533,28453.4411263373,53468.7169999000,61364.5058160626,42904.8686305837,46683.1940157404,51285.3819850818,54324.6901360003,2225.3744073415
2005871130,15862,3,0,28046.2978229448,56659.7928332911,28446.9557439307,53456.0139244169,61358.7504954654,42912.3882672202,46668.9578104576,51271.3039598576,54320.6504606551,2230.7160262468
2005871130,15862,3,0,27967.8040107401,56667.0691159913,28453.5871386992,53436.1319078082,61368.6915037697,42936.0544375408,46635.4114703167,51255.0479169022,54324.8969868463,2246.8138891435
2005871130,15862,3,0,27914.8258587730,56674.4305725691,28468.8089274247,53437.7502114856,61370.6748383518,42929.7150674961,46631.8098320571,51264.6117266050,54336.1764418012,2246.0229888500
2005871130,15862,3,0,27948.5182112757,56669.3444752971,28466.7525866616,53450.1612622450,61362.6684938423,42904.4305934980,46652.4097427784,51274.4675610316,54330.1169287834,2232.6628577385
2005871130,15862,3,0,28021.9867646926,56666.3512218787,28447.6858057401,53459.6277303733,61360.3201283555,42899.9163779767,46671.1723312794,51269.6613207865,54314.2015813390,2228.9760456011
2005871130,15862,3,0,28048.0864743778,56670.2692202557,28445.1670924977,53461.9639281633,61364.7004992118,42908.2512503004,46673.0948273774,51269.2597867914,54316.8054684591,2232.1153113814
2005871130,15862,3,0,27987.4305057155,56666.8500974484,28453.5506356087,53440.2324216375,61360.7338300475,42917.8393953969,46643.2839701612,51260.0123372059,54322.5242859659,2235.8021235188
2005898326,15863,3,0,27922.6375201333,56672.3620641092,28461.8976756293,53429.9750532158,61368.6671683761,42931.6862343814,46625.0445926236,51250.8743968919,54323.1813415943,2245.5849517644
2005898326,15863,3,0,27941.8746488104,56681.5973459979,28466.3510526665,53448.5551262644,61377.3305685140,42925.7605660286,46646.6787575748,51266.0231794365,54326.1867627096,2244.3925174758
2005898326,15863,3,0,28022.6438203211,56674.2845602073,28458.7705775458,53461.0513509016,61364.9681885419,42901.6563586224,46675.1146650500,51277.6189945087,54319.9082311489,2229.0612194789
2005898326,15863,3,0,28049.5709333902,56663.5404839126,28444.3153537201,53449.0540018341,61358.4341353480,42905.2579968820,46668.2034132546,51262.3728703896,54309.7603719986,2229.7061074105
2005898326,15863,3,0,27987.1506486885,56668.5535750037,28444.0598320868,53432.3355863994,61365.1628716910,42925.1643488843,46637.9910220432,51246.5791999134,54309.7117012113,2243.4556048204
2005898326,15863,3,0,27924.0003021775,56671.2304683047,28457.4686339857,53431.0093074457,61362.8996800820,42923.1566789085,46626.6750639979,51252.1641727551,54321.1128331344,2243.2365862776
2005898326,15863,3,0,27938.2121720667,56669.9650278351,28463.3212961575,53440.4514401803,61358.1542783210,42910.4049326381,46640.8625984934,51260.6450574407,54322.0984165771,2242.6282014364
2005898326,15863,3,0,28012.9461659532,56673.8586908185,28451.7011456916,53458.3987929942,61360.9771839840,42900.5856013020,46668.3859287069,51263.9911740670,54310.6729492603,2242.2875059254
2005927619,15864,3,0,28049.5709333902,56672.3620641092,28441.0057401843,53461.1851955666,61359.1398617637,42891.5084994721,46676.0272423117,51265.1471052652,54305.1731502963,2235.4127572204
2005927619,15864,3,0,27998.2232527974,56663.9663533014,28439.5456165655,53440.4149370899,61354.2606153377,42896.2539012330,46646.1920497019,51251.7018002759,54306.3047461009,2233.1130625209
2005927619,15864,3,0,27920.3013223433,56667.3246376245,28442.6970500427,53429.7560346730,61361.1231963458,42907.6063623688,46620.5303771023,51237.6724458390,54302.7152755381,2242.7012076174
2005927619,15864,3,0,27913.6212567875,56672.9096104663,28446.4933714514,53440.0255707915,61362.7049969328,42901.0966445685,46633.2091171918,51247.0294046959,54304.6134362425,2236.7877069614
2005927619,15864,3,0,27993.3318386746,56665.8766817026,28440.4095230399,53453.1910187539,61353.1290195332,42887.1889670999,46664.4435949363,51262.7257335975,54304.8932932694,2223.6952651799
2005927619,15864,3,0,28036.9895348753,56656.1425242443,28425.7717837619,53443.0309919068,61347.1181773026,42896.9109568614,46662.3750864764,51249.8888134493,54299.4908358800,2225.1310534050
2005927619,15864,3,0,27998.4422713402,56664.2340426315,28433.8633021492,53433.2481636611,61359.5535634557,42924.6168025273,46640.2055428650,51242.7950462015,54308.6531115877,2240.0608174068
2005927619,15864,3,0,27924.0003021775,56667.8965193752,28454.5362190514,53425.3148253326,61360.6364884729,42930.1166014913,46620.5303771023,51248.0636589258,54323.1326708070,2241.0342331526
2005963285,15865,3,0,27913.8402753303,56664.3313842061,28461.7759986610,53427.3224953084,61359.0181847955,42919.8227299790,46624.4240400856,51251.3489370680,54324.9213222400,2240.3528421306
2005963285,15865,3,0,27983.4151657639,56668.3345564608,28454.1711881467,53447.3140211885,61362.1817859694,42910.2467525794,46655.0744683826,51259.4282877584,54316.7567976718,2242.0319842921
2005963285,15865,3,0,28041.3212349443,56663.1146145238,28444.5343722629,53452.8746586366,61354.9785094502,42896.5945967440,46670.1989155335,51264.6725650891,54313.1551594122,2234.1351490540
2005963285,15865,3,0,28010.3301111362,56652.7599045275,28439.5334488687,53429.2814944969,61345.4025320506,42903.3598361776,46646.8126022398,51249.2682609113,54309.7238689081,2232.7115285257
2005963285,15865,3,0,27925.3995873121,56658.5760636088,28443.3784410647,53415.7266802361,61355.6842358660,42920.5892948789,46617.3424405347,51235.8351236188,54309.3345026098,2241.8616365366
2005963285,15865,3,0,27901.6725785074,56667.1907929595,28451.2387732124,53427.0791413719,61361.2083702236,42913.8483908390,46625.3244496505,51247.7716342021,54313.3985133486,2239.1725755387
2005963285,15865,3,0,27968.7774264859,56660.9000937020,28447.2477686544,53447.1436734329,61349.1988534593,42885.9600297208,46657.3498276885,51262.8839136562,54307.6188573578,2224.9242025591
2005963285,15865,3,0,28027.4743959598,56651.5553025420,28429.3977574152,53447.8859029391,61343.3218558939,42885.1204586400,46664.4192595426,51249.6819626033,54292.1172116053,2225.6785997621
2005990614,15866,3,0,28003.3823562503,56650.3872036470,28424.9322126812,53433.7348715341,61344.9279918745,42901.0723091749,46644.1357089388,51235.6769435601,54291.1559635563,2233.9891366922
2005990614,15866,3,0,27928.0886483100,56650.9834207913,28441.3951064826,53419.0849645592,61344.0154146128,42908.9326413225,46618.1211731313,51235.2754095649,54305.2826595677,2236.4226760567
2005990614,15866,3,0,27900.5531503996,56656.2642012125,28453.7453187579,53416.8582760406,61347.7874006279,42913.5320307216,46613.4609452481,51237.6602781422,54309.9550551478,2239.8904696513
2005990614,15866,3,0,27955.5024692521,56667.8478485879,28456.2883673939,53434.8056288545,61358.7626631622,42909.9303924620,46639.9013504444,51250.8987322856,54311.3421725856,2238.0409797342
2005990614,15866,3,0,28026.7199987567,56667.3733084118,28454.3293682054,53442.2279239165,61353.8347459489,42902.4472589159,46660.8419566767,51261.2656099787,54312.0478990013,2228.8908717233
2005990614,15866,3,0,28017.5577230491,56656.6048967235,28448.3063582780,53421.2264792001,61345.7188921680,42906.7789589849,46640.3637229237,51246.6400383975,54311.7558742776,2230.8377032150
2005990614,15866,3,0,27933.4302672152,56662.5670681668,28450.4600406157,53404.7149146113,61355.5625588977,42929.6542290120,46609.6037853553,51231.7711128799,54316.2700897989,2246.8503922340
2005990614,15866,3,0,27894.7248236215,56671.3278098793,28462.4695573799,53413.9380288031,61362.1696182726,42925.4320382144,46612.8160573165,51246.2385044024,54325.5053716875,2248.0671619163
2006041910,15867,3,0,27949.5402978088,56666.0713648518,28458.9409253013,53429.4031714651,61352.3137838460,42897.5315093994,46640.0838658967,51260.8032374994,54321.6968825819,2233.4902611224
2006041910,15867,3,0,28023.7632484288,56664.0758625728,28444.1450059646,53435.9737277495,61350.0140891465,42893.0051261813,46656.4615858204,51256.0335003448,54306.1830691326,2230.9228770928
2006041910,15867,3,0,28027.4378928693,56668.1398733117,28442.4171930157,53434.0999024387,61355.1853602962,42903.7613701728,46648.1267134967,51249.4751117573,54303.3236603793,2236.5443530250
2006041910,15867,3,0,27955.7701585822,56667.6044946515,28455.8381626114,53418.6225920800,61353.9442552203,42911.9502301346,46623.5114628239,51246.2871751897,54311.3421725856,2238.7345384531
2006041910,15867,3,0,27906.4058125715,56671.0601205492,28465.5236492825,53416.8096052534,61359.3588803065,42917.1823397685,46614.5560379622,51242.2474998444,54314.0312335834,2243.8449711187
2006041910,15867,3,0,27944.8557345320,56680.5995948584,28465.0247737128,53442.0575761610,61370.2611366599,42912.5099441885,46643.7463426404,51256.0456680417,54314.2015813390,2241.5574441160
2006041910,15867,3,0,28032.6700025032,56678.8231111222,28458.7340744553,53459.7737427352,61365.8442627131,42900.3179119719,46672.7541318663,51271.4256368259,54316.3795990703,2229.5235919581
2006041910,15867,3,0,28048.2568221333,56671.0966236397,28449.7664818968,53445.4523635746,61360.6121530793,42909.4801876795,46661.9005463003,51259.8054863600,54313.7635442533,2231.3974172689
2006051383,15868,3,0,27972.5007417137,56676.8397765401,28453.1125985231,53426.1665641102,61370.1272919948,42933.1706933938,46626.1396853377,51242.7585431110,54318.3264305619,2246.8868953245
2006051383,15868,3,0,27913.9132815112,56682.8749541643,28467.0811144758,53429.0259728636,61372.9136945673,42934.1562768365,46621.4307866672,51253.4296132247,54331.3093630720,2245.1712500724
2006051383,15868,3,0,27946.3401935444,56678.6405956699,28470.1108709847,53441.6317067722,61363.4715618327,42914.6392911325,46642.9676100438,51265.5121361699,54330.1655995707,2233.6849442716
2006051383,15868,3,0,28025.5397321649,56679.1759743301,28457.6024786508,53453.3613665095,61362.2547921504,42916.8051411670,46665.1128182615,51264.9645898129,54318.8739769190,2235.6926142474
2006051383,15868,3,0,28050.1306474441,56682.5829294405,28453.4532940341,53452.7894847588,61363.3742202581,42923.7163929624,46665.2344952298,51264.4170434558,54319.1903370364,2239.0265631768
2006051383,15868,3,0,27988.6959461850,56678.1173847065,28461.1067753358,53432.1895740375,61356.9010055483,42928.5104655106,46636.4943953340,51256.3376927654,54324.5927944258,2239.6714511085
2006051383,15868,3,0,27922.3576631064,56682.0597184771,28472.1550440510,53424.5239250391,61363.3377171676,42936.2126175996,46618.3766947646,51249.2925963049,54324.7874775749,2248.7728883320
2006051383,15868,3,0,27941.9476549913,56695.0061478967,28479.3826559638,53447.5573751249,61377.2697300299,42930.5911416673,46641.8238465424,51265.6338131381,54326.1989304064,2249.0649130558
2006088184,15869,3,0,28027.6569114121,56690.6379447373,28473.5664968825,53464.0202689264,61372.4634897848,42905.7325370581,46673.4355228884,51280.2472170225,54322.3661059072,2232.6871931321
2006088184,15869,3,0,28062.3591827511,56683.6293513673,28460.7417444311,53455.6245581185,61369.4337332759,42909.5288584668,46669.2376674845,51270.5495626546,54314.2624198231,2232.9548824622
2006088184,15869,3,0,28001.3868539714,56688.6911132456,28459.2451177219,53439.0156519552,61382.5626781478,42935.9935990567,46639.6944995984,51255.4494508973,54317.3530148161,2247.7994725862
2006088184,15869,3,0,27932.5176899535,56694.7627939603,28474.5642480219,53433.1873251770,61386.1886518011,42941.2865471747,46627.4051258072,51262.1660195436,54329.8249040596,2247.3492678037
2006088184,15869,3,0,27941.1080839105,56691.3558388499,28477.3019798071,53439.5631983123,61376.2598111936,42924.2882747131,46640.0108597158,51267.9091724440,54330.0925933897,2242.0076488985
2006088184,15869,3,0,28016.3774564572,56690.5527708595,28465.7548355221,53457.4497126420,61377.3062331203,42920.6866364535,46663.9933901538,51271.0119351339,54320.5774544742,2243.7963003314
2006088184,15869,3,0,28056.7012037285,56688.1800699791,28457.0914353842,53461.8422511951,61373.2057192910,42915.5153653037,46668.3615933133,51271.9123446988,54319.3363493982,2240.3528421306
2006088184,15869,3,0,28009.4418692682,56676.5599195132,28457.5416401666,53439.0156519552,61363.6175741945,42919.1413389570,46639.6701642048,51257.4084500858,54323.3638570466,2239.2212463260
2006117090,15870,3,0,27930.2301629508,56675.3431498309,28459.9265087439,53422.6866028188,61364.2137913389,42930.0922660976,46611.5384491501,51240.7873762257,54322.8649814769,2248.4565282146
2006117090,15870,3,0,27922.3941661968,56681.5486752106,28465.9130155808,53438.2247516617,61369.0565346744,42928.4617947233,46627.7579890151,51250.9230676792,54325.8095641081,2244.3073435980
2006117090,15870,3,0,28000.8758107048,56675.0389574103,28461.3622969690,53457.1941910087,61358.5071415289,42904.1385687743,46663.2024898603,51265.8771670746,54321.5143671296,2227.8322820997
2006117090,15870,3,0,28048.7922007936,56665.2439614678,28447.7953150115,53449.6380512816,61349.0041703102,42899.5391793752,46666.0010601296,51253.3931101343,54307.1199817880,2228.9030394202
2006117090,15870,3,0,28003.4066916440,56667.5923269546,28444.7290554121,53433.8443808055,61355.4043788390,42917.4743644922,46643.1622931929,51238.4876815262,54302.5327600858,2239.2820848101
2006117090,15870,3,0,27924.0489729648,56667.6409977419,28456.9210876287,53424.3779126772,61355.3435403549,42919.0805004728,46625.0567603204,51242.2840029349,54312.0600666981,2237.2257440471
2006117090,15870,3,0,27912.4044871052,56665.9375201867,28460.5105581914,53427.3224953084,61353.1411872300,42910.0277340366,46630.6295654653,51249.6697949064,54316.5256114321,2231.9327959291
2006117090,15870,3,0,27979.2051426631,56669.4418168717,28450.3140282538,53446.8881517997,61360.0524390254,42908.9204736257,46658.2867403439,51257.4449531763,54310.2470798715,2230.2293183739
2006148457,15871,3,0,28041.7592720299,56669.7703446860,28445.8849866103,53457.3767064610,61361.5125626442,42907.4846854006,46673.0948273774,51264.6238943018,54311.9262220331,2224.4131592925
2006148457,15871,3,0,28019.9060885359,56664.2218749347,28446.7610607815,53440.5244463613,61353.5792243156,42910.9403112983,46649.5746694186,51254.6463829070,54314.9559785420,2227.4185804078
2006148457,15871,3,0,27935.8638065798,56667.8965193752,28452.9057476771,53422.9299567553,61359.8212527858,42924.3612808940,46618.1698439186,51238.1591537119,54315.9415619846,2240.6448668543
2006148457,15871,3,0,27908.9123581170,56677.8375276796,28461.1311107294,53433.0048097247,61366.2092936178,42924.2031008353,46624.1563507555,51249.7793041778,54320.1150819949,2239.6349480180
2006148457,15871,3,0,27976.1632184574,56675.8663607943,28459.7683286852,53452.7773170620,61359.1885325510,42903.3720038744,46658.4814234930,51270.6104011387,54320.3341005377,2225.8124444271
2006148457,15871,3,0,28039.4839127240,56672.3255610188,28445.6051295833,53455.1500179424,61357.6067319640,42903.8587117473,46669.5175245114,51266.8505828204,54310.0158936319,2227.1143879872
2006148457,15871,3,0,28021.1715290055,56680.7577749171,28444.8629000771,53447.2410150075,61369.8839380583,42921.8060645612,46653.1641399814,51257.9194933524,54311.4030110697,2238.3086690643
2006148457,15871,3,0,27944.5393744146,56680.7091041298,28459.5371424456,53431.5446861059,61370.9668630756,42923.2175173926,46628.8895848196,51257.0677545748,54322.3052674230,2238.7102030595
2006200101,15872,3,0,27911.0903758483,56679.0299619682,28469.0644490580,53428.5027619002,61366.8541815494,42919.2021774411,46624.1198476650,51257.8586548683,54323.6802171640,2240.1703266782
2006200101,15872,3,0,27965.1636205295,56682.3152401104,28464.1973703288,53451.3780319273,61372.2444712420,42911.1349944475,46653.6508478543,51265.6824839254,54317.0974931828,2239.9391404386
2006200101,15872,3,0,28036.9286963912,56677.0952981734,28456.0693488511,53463.2050332392,61362.1817859694,42897.8478695168,46677.5360367178,51272.6424065082,54316.5621145226,2229.9859644374
2006200101,15872,3,0,28030.5041524687,56662.2385403526,28447.5276256814,53441.7655514372,61349.9532506624,42902.4959297032,46660.2335718355,51255.4859539878,54314.9924816325,2228.1851453076
2006200101,15872,3,0,27947.0945907474,56664.1488687538,28451.6889779948,53420.7397713272,61353.9929260076,42928.6686455693,46625.0324249268,51237.1370671788,54318.2290889874,2243.3339278522
2006200101,15872,3,0,27900.6991627615,56671.0236174587,28461.6908247833,53426.2760733816,61358.5558123162,42929.5082166501,46621.5402959386,51244.5593622408,54325.4810362938,2244.0274865711
2006200101,15872,3,0,27952.0711787480,56666.6919173897,28461.9950172038,53444.0774138336,61351.2551942224,42907.7767101243,46650.0978803820,51261.9226656071,54324.3251050957,2233.4659257288
2006200101,15872,3,0,28026.5253156076,56663.5161485190,28447.4302841068,53451.9499136780,61349.7950706037,42903.3963392681,46666.6459480612,51257.5179593572,54311.0379801650,2233.5389319097
2006205107,15873,3,0,28029.4942336324,56667.8721839816,28441.1760879398,53446.4136116236,61354.7594909074,42915.0164897340,46658.3110757375,51249.7306333906,54307.9717205656,2239.1847432355
2006205107,15873,3,0,27959.2866229640,56669.5148230527,28454.5970575355,53428.5879357780,61353.6278951029,42919.5550406489,46630.5930623748,51246.2628397960,54319.3363493982,2240.8517177003
2006205107,15873,3,0,27904.5441549576,56670.0015309256,28461.9220110229,53418.9754552878,61353.9077521298,42919.7375561013,46618.0846700409,51240.1546559909,54316.8298038527,2244.6480391090
2006205107,15873,3,0,27938.1269981889,56679.6991852935,28463.0901099179,53439.9403969138,61362.9118477788,42915.9655700862,46642.8824361660,51250.0834965984,54314.1529105517,2246.0351565469
2006205107,15873,3,0,28020.9525104627,56678.1417201001,28459.2207823282,53456.0382598105,61358.2151168051,42899.2228192578,46671.6225360618,51261.4481254311,54312.4007622092,2234.6826954111
2006205107,15873,3,0,28035.7119267089,56667.3733084118,28452.6623937406,53439.9647323074,61347.4223697232,42899.6973594339,46657.4836723535,51247.6256218402,54307.2051556658,2234.3906706873
2006205107,15873,3,0,27957.7413254675,56668.9794443925,28455.4122932226,53415.3129785441,61354.1632737631,42925.8700753000,46619.2527689359,51227.7192698379,54308.4097576512,2249.5029501414
2006205107,15873,3,0,27894.9803452547,56670.9627789746,28466.1807049109,53413.8650226222,61357.0348502133,42928.0724284250,46610.7353811598,51233.9856337017,54320.4679452028,2247.4101062879
2006248113,15874,3,0,27921.0678872431,56661.4476400591,28467.1297852631,53426.8357874355,61345.1591781141,42908.0322317576,46631.6516519984,51247.5161125688,54320.9424853789,2236.3983406631
2006248113,15874,3,0,28001.2895123968,56658.3448773692,28458.0526834332,53444.3816062541,61346.1082584663,42910.5752803936,46659.6495223880,51249.7549687842,54312.0478990013,2238.4060106389
2006248113,15874,3,0,28030.1999600481,56661.6788262987,28454.5727221418,53449.6258835848,61352.2286099683,42917.4256937049,46665.1614890488,51251.2150924030,54313.6175318915,2245.4024363121
2006248113,15874,3,0,27974.1555484816,56660.1335288022,28460.8877567930,53429.8168731571,61348.3349469849,42921.2463505073,46638.4412268256,51246.1046597373,54322.4634474817,2249.6976332906
2006248113,15874,3,0,27906.9411912317,56659.3304608119,28464.5745689303,53418.1237165102,61349.7220644227,42928.1210992123,46617.1842604760,51235.4944281077,54322.1592550612,2254.9175752276
2006248113,15874,3,0,27916.6875163869,56669.5634938400,28464.0391902701,53433.2968344484,61359.7482466048,42922.0615861945,46633.0996079204,51244.0118158838,54317.8762257795,2251.9364895060
2006248113,15874,3,0,27998.0529050419,56668.5049042164,28457.4077955016,53449.7597282499,61354.1267706726,42900.9627999035,46664.8572966283,51259.7933186631,54314.0799043707,2236.0333097584
2006248113,15874,3,0,28031.8425991192,56659.1357776627,28444.8629000771,53439.7213783709,61345.1956812046,42899.1376453800,46661.1583167941,51251.2880985839,54304.1632314600,2233.4294226383
2006278395,15875,3,0,27971.9410276599,56662.6157389541,28443.4636149425,53421.7496901635,61352.8613302030,42919.0561650792,46629.1207710593,51230.7490263468,54303.0559710492,2245.7796349136
2006278395,15875,3,0,27899.9447655585,56665.8401786121,28455.3636224353,53420.3625727257,61355.1001864185,42922.0737538913,46617.0625835077,51236.1028129489,54315.3940156276,2246.8503922340
2006278395,15875,3,0,27904.3859748989,56658.7342436675,28458.3933789442,53426.2760733816,61345.0131657523,42901.3399985050,46628.2811999785,51243.5251080109,54314.0677366739,2238.1261536120
2006278395,15875,3,0,27980.6409308883,56656.6657352076,28445.7389742484,53439.9403969138,61344.3561101238,42895.2926531840,46651.9960410864,51242.9410585634,54301.7296920955,2237.7367873136
2006278395,15875,3,0,28027.0606942678,56657.6269832567,28438.1098283404,53444.5641217065,61344.6116317571,42895.2074793062,46659.9902178991,51242.9167231697,54296.9356195472,2237.9193027660
2006278395,15875,3,0,27986.0555559745,56650.1195143169,28438.9737348148,53424.6821050978,61335.2668405971,42897.4098324312,46633.8540051234,51233.9491306112,54299.7828606038,2237.0188932011
2006278395,15875,3,0,27905.9677754859,56650.3993713438,28443.0620809473,53406.9659385236,61339.2700128518,42910.3319264572,46605.4546007386,51221.4772413677,54301.4254996749,2246.7043798721
2006278395,15875,3,0,27893.6297309074,56660.1821995895,28447.2234332608,53420.0583803051,61349.0528410975,42912.0962424965,46616.5758756348,51234.0221367921,54303.5061758316,2245.8891441850
2006316871,15876,3,0,27970.2253824078,56655.9356733983,28442.8430624045,53441.6560421658,61342.0199123338,42891.3016486261,46650.0127065043,51250.3390182317,54301.9608783351,2228.3919961536
2006316871,15876,3,0,28022.4248017782,56648.4890429426,28430.9795580022,53438.2004162681,61334.9748158733,42888.3692336917,46651.1321346120,51241.4809349446,54290.4989079279,2226.3234876937
2006316871,15876,3,0,27984.8631216858,56652.5287182878,28431.2350796354,53421.8470317380,61341.1195027689,42907.7888778212,46623.9494999095,51222.7305141405,54290.6935910770,2240.2676682528
2006316871,15876,3,0,27909.6424199264,56656.7995798727,28445.7754773389,53411.6626694972,61342.0807508179,42909.6870385255,46602.2301610806,51220.9418627075,54301.0726364670,2243.1392447030
2006316871,15876,3,0,27895.3332084626,56654.3660405081,28450.3748667379,53410.7622599323,61335.9238962255,42898.9794653213,46605.1382406213,51225.3344012606,54302.6422693572,2237.4325948930
2006316871,15876,3,0,27960.0531878638,56655.8991703078,28439.4847780814,53428.0038863305,61338.7224664948,42893.8690326557,46632.5277261697,51231.4425850657,54292.5187456005,2236.3740052694
2006316871,15876,3,0,28018.1539401934,56654.6824006255,28431.5271043592,53439.1859997107,61337.1771689983,42890.0605435501,46650.8766129787,51238.7675385531,54290.6814233802,2230.5943492786
2006316871,15876,3,0,27996.6779553009,56646.3475283018,28432.5126878019,53423.5018385060,61329.9252216918,42894.8424484015,46631.8341674508,51230.5421755008,54294.0518754002,2228.8178655424
2006345466,15877,3,0,27912.2463070465,56646.3840313923,28440.2635106781,53405.8586781127,61334.6462880591,42914.7001296166,46600.9282175205,51215.1013682325,54298.4930847405,2241.2410839986
2006345466,15877,3,0,27883.7982318745,56657.3714616234,28448.7687307573,53416.0552080503,61346.1690969504,42915.3936883355,46606.5740288464,51224.5921717544,54305.7328643502,2244.6237037154
2006345466,15877,3,0,27948.4573727916,56652.7720722243,28443.7556396663,53436.0589016272,61335.4615237462,42886.8361038920,46639.4633133588,51243.9023066124,54303.8468713426,2229.1585610534
2006345466,15877,3,0,28014.5157988433,56645.0577524386,28427.5117644076,53435.5478583607,61330.5092711393,42884.1592105910,46652.2028919324,51237.1370671788,54292.7377641433,2228.6596854837
2006345466,15877,3,0,27996.5076075454,56646.1285097590,28421.7199407199,53421.8348640412,61337.3353490570,42901.3765015955,46633.7323281552,51221.8787753628,54287.8220146268,2237.5056010740
2006345466,15877,3,0,27916.4806655409,56645.8608204289,28435.8831398218,53406.4548952570,61335.9847347096,42903.2989976935,46607.5231091985,51217.4619014161,54294.3195647303,2239.0387308737
2006345466,15877,3,0,27879.7342211356,56643.5611257293,28444.5465399597,53400.1155252123,61330.3875941711,42894.5017528905,46599.7844540192,51215.0405297483,54292.1780500894,2234.1351490540
2006345466,15877,3,0,27927.9548036449,56646.9194100525,28437.4771081056,53418.0142072388,61334.7071265432,42886.3737314128,46622.5988855622,51220.1874655045,54282.9671035945,2228.0999714298
2006370001,15878,3,0,27998.7586314576,56644.3398583260,28424.9200449843,53429.3788360714,61330.6796188948,42874.6319039786,46642.2983867185,51228.6683501900,54277.3699630559,2211.7952576871
2006370001,15878,3,0,27999.5616994479,56634.6543716549,28414.7478504404,53415.7510156298,61322.7949513536,42876.0311891133,46628.3420384626,51220.4429871377,54274.9364236913,2204.6771550457
2006370001,15878,3,0,27921.4450858446,56638.9495686334,28415.6239246116,53397.5359734858,61332.6142826897,42898.2737389056,46592.0336311429,51202.9215037127,54279.4506392126,2221.4077381772
2006370001,15878,3,0,27879.8315627102,56651.8594949626,28430.4320116451,53404.5080637654,61345.6580536839,42908.5189396305,46593.7979471823,51214.4078095136,54290.0122000550,2230.8255355182
2006370001,15878,3,0,27934.5010245357,56654.4268789922,28437.4649404088,53426.7506135577,61342.0077446370,42889.3913202249,46628.8530817292,51238.1226506215,54296.3880731902,2225.1797241923
2006370001,15878,3,0,28014.4671280560,56652.1150165959,28426.7573672046,53437.2148328254,61342.2510985734,42888.2597244203,46650.2803958344,51240.3006683528,54288.6859211013,2229.7791135914
2006370001,15878,3,0,28021.4148829419,56654.2686989335,28422.1214747151,53436.3265909573,61351.2673619192,42903.3355007840,46644.4642367530,51233.0243856527,54288.1383747442,2241.0707362431
2006370001,15878,3,0,27950.2216888309,56651.0077561850,28431.5879428433,53419.7055170972,61347.9942514739,42903.0069729697,46619.6543029310,51229.5200889676,54298.8459479484,2240.9612269717
2006398447,15879,3,0,27888.7869875719,56642.4051945312,28435.9439783059,53405.9316842936,61339.1726712772,42896.9109568614,46603.5807754279,51220.9053596170,54296.3759054934,2236.5078499345
2006398447,15879,3,0,27913.9132815112,56644.6805538370,28434.8123825014,53422.0052117967,61341.2533474340,42892.1047166164,46622.2460223543,51225.8941153144,54290.2677216882,2236.3131667853
2006398447,15879,3,0,27995.3030055599,56642.3808591375,28429.1544034787,53438.0787392999,61334.2325863671,42877.4669773384,46648.3822351300,51237.3560857216,54286.4592325827,2227.7106051315
2006398447,15879,3,0,28020.9160073722,56636.5890354498,28428.0228076742,53429.2449914064,61327.9540548065,42882.0785344343,46641.4953187282,51229.7391075105,54286.7512573064,2227.9661267648
2006398447,15879,3,0,27951.8399925084,56644.0965043895,28432.5005201050,53410.8961045974,61339.0388266122,42909.1273244717,46606.7930473892,51212.9233505012,54288.9536104314,2243.6989587569
2006398447,15879,3,0,27888.9086645401,56657.1524430806,28448.3063582780,53414.6559229157,61351.5472189462,42915.1259990054,46599.2490753589,51222.6940110500,54298.2375631073,2246.6800444785
2006398447,15879,3,0,27916.8213610519,56658.4908897311,28454.2441943276,53432.2017417344,61350.0505922369,42899.7581979180,46623.2802765843,51241.2375810081,54301.6445182177,2236.4470114504
2006398447,15879,3,0,27998.1624143133,56659.2331192373,28443.3176025806,53446.5352885918,61351.5715543398,42895.6211809982,46646.6179190907,51244.2186667298,54292.9324472925,2237.7367873136
2006426754,15880,3,0,28024.8583411428,56662.1655341716,28435.9196429123,53447.2045119171,61357.4363842085,42901.7293648033,46646.7274283621,51238.3295014675,54290.5719141088,2242.3118413190
2006426754,15880,3,0,27969.4709852048,56657.9676787677,28442.2590129570,53428.3689172351,61351.2795296161,42903.4815131458,46620.7858987356,51232.0996406941,54299.2353142467,2241.1802455145
2006426754,15880,3,0,27900.1394487077,56653.8671649384,28446.2986883022,53413.4148178397,61347.4223697232,42906.3165865056,46598.2634919163,51222.2681416612,54302.1677291811,2244.6115360186
2006426754,15880,3,0,27901.0276905757,56657.2497846551,28443.7678073631,53423.1246399045,61349.7829029068,42900.2814088814,46612.0373247199,51226.9162018475,54300.7197732591,2246.8138891435
2006426754,15880,3,0,27980.2393968931,56652.1028488990,28435.0070656506,53439.9525646106,61341.6305460355,42877.0411079496,46642.6390822296,51241.5661088224,54296.7531040949,2233.1373979145
2006426754,15880,3,0,28016.7668227556,56637.8179728289,28421.4887544803,53429.1233144382,61329.6088615744,42869.9716760955,46639.4754810556,51232.9757148654,54287.0797851206,2230.4118338262
2006426754,15880,3,0,27959.9071755020,56637.2095879878,28418.8483642697,53409.8010118833,61336.0577408906,42892.7252691544,46606.3428426067,51213.8602631565,54284.1352024895,2244.5993683218
2006426754,15880,3,0,27886.3656159041,56643.4516164579,28431.0768995767,53406.1263674428,61341.6183783387,42896.6797706218,46591.8146126001,51215.4055606530,54295.3173158698,2246.4366905420
2006460345,15881,3,0,27887.4120378309,56640.2880152840,28434.2648361444,53412.0885388860,61332.6994565674,42878.3917222969,46603.2765830073,51223.4605759498,54294.4047386080,2234.6096892301
2006460345,15881,3,0,27960.9170943383,56641.5899588440,28422.6690210721,53429.4883453429,61333.7580461910,42874.1938668930,46629.9846775337,51229.3862443026,54285.2302952035,2231.7259450831
2006460345,15881,3,0,28006.0714172482,56645.9338266098,28416.6338434479,53438.1274100871,61338.6981311011,42879.0487779254,46639.6701642048,51231.2965727038,54283.8188423721,2233.0887271273
2006460345,15881,3,0,27970.8459349458,56642.9649085850,28423.8857907544,53421.6036778016,61333.9892324307,42887.0064516476,46619.9463276548,51226.7215186984,54290.7787649548,2231.9449636259
2006460345,15881,3,0,27897.0488537146,56645.0577524386,28434.7515440173,53407.1971247632,61340.3772732627,42900.8532906321,46596.2558219405,51218.8125157635,54292.7012610528,2241.8007980525
2006460345,15881,3,0,27885.2096847059,56657.7364925281,28442.9404039791,53422.0295471904,61350.9266664082,42905.8420463295,46608.3748479762,51227.9991268648,54295.5850051999,2244.8670576519
2006460345,15881,3,0,27963.5696522457,56661.3746338781,28444.4613660820,53446.1580899903,61349.3935366085,42889.1114631979,46647.3114778096,51249.9739873270,54299.5273389705,2232.3221622274
2006460345,15881,3,0,28023.2887082527,56657.2862877456,28436.8687232645,53445.2698481222,61342.9324895955,42886.2398867477,46653.7238540353,51244.4620206662,54294.5385832731,2231.4947588434
2006510039,15882,3,0,27990.5089330117,56662.3723850176,28435.7614628536,53429.7925377634,61350.5251324130,42910.5996157873,46627.1617718708,51226.8188602730,54293.5529998304,2246.8868953245
2006510039,15882,3,0,27913.1102135209,56666.1200356391,28448.1968490066,53419.8028586718,61354.6499816360,42915.8560608148,46605.4424330418,51228.1086361362,54305.2218210836,2247.7751371925
2006510039,15882,3,0,27898.3142941842,56660.0118518340,28454.2685297213,53422.5527581538,61348.2376054103,42900.8532906321,46610.2000024996,51235.3119126554,54308.7139500718,2239.4037617784
2006510039,15882,3,0,27962.8152550426,56659.0019329976,28443.4636149425,53437.4216836714,61349.0041703102,42894.7329391301,46637.6381588353,51240.2398298687,54299.3569912150,2235.4249249173
2006510039,15882,3,0,28023.0940251035,56661.3137953940,28432.9385571907,53447.9589091201,61350.7441509559,42893.7595233843,46654.5512574192,51245.0339024169,54295.9378684077,2232.8575408876
2006510039,15882,3,0,28006.8623175417,56653.4899663369,28435.0557364378,53432.3964248835,61342.0199123338,42899.3323285292,46635.8130043119,51238.6093584944,54300.1357238116,2232.4925099829
2006510039,15882,3,0,27928.4658469115,56655.5584747968,28443.9989936027,53413.3661470525,61347.3736989359,42919.3603574998,46604.9800605625,51223.1442158324,54303.8225359490,2246.0351565469
2006510039,15882,3,0,27898.0831079446,56667.2029606563,28453.4167909437,53422.2972365205,61359.3710480033,42924.7993179796,46606.2576687290,51231.7467774862,54311.7437065807,2250.4763658872
2006548378,15883,3,0,27961.7931685095,56665.0249429250,28456.0085103670,53441.6438744690,61352.0947653032,42895.3899947586,46639.6336611143,51249.8523103588,54313.0213147471,2236.1671544235
2006548378,15883,3,0,28027.4987313534,56653.9158357257,28443.3541056711,53439.8187199455,61342.1902600893,42884.3417260433,46651.2538115802,51243.7319588568,54300.8292825306,2231.8597897481
2006548378,15883,3,0,28008.6509689747,56651.0807623659,28434.0214822079,53426.8966259196,61344.2222654588,42897.2881554630,46631.0797702478,51223.4605759498,54290.5597464120,2239.9878112259
2006548378,15883,3,0,27928.4293438210,56650.3993713438,28440.5555354018,53412.9889484509,61342.4092786321,42897.7505279422,46606.0751532766,51213.9819401248,54293.8936953415,2240.6692022479
2006548378,15883,3,0,27889.3710370194,56646.7490622969,28446.4325329673,53409.0709500740,61337.7125476585,42889.9997050660,46598.2513242195,51215.3325544721,54292.5674163878,2237.4082594994
2006548378,15883,3,0,27936.3748498464,56652.7112337402,28439.9106474702,53426.7992843450,61345.0861719332,42883.1736271483,46621.2847743053,51222.3168124485,54283.5389853452,2238.4546814262
2006548378,15883,3,0,28010.0259187157,56655.4854686158,28434.6663701395,53442.7389671830,61345.9014076203,42881.2998018376,46647.6400056238,51235.8351236188,54282.3830541470,2232.3708330147
2006548378,15883,3,0,28016.4261272445,56649.6814772313,28435.0314010442,53432.6154434264,61339.6837145438,42885.7896819653,46640.7895923125,51234.9955525380,54286.9946112429,2231.2270695133
2006556149,15884,3,0,27940.8038914899,56652.4435444101,28440.3121814654,53412.8429360891,61345.6945567743,42914.1404155627,46609.1292451792,51220.8688565265,54291.4601559769,2245.9864857596
2006556149,15884,3,0,27898.6793250889,56670.9141081873,28457.0914353842,53427.1521475528,61364.6761638181,42928.6564778725,46613.1567528276,51236.4313407631,54307.0469756071,2253.5304577898
2006556149,15884,3,0,27950.9152475498,56675.4891621927,28464.5745689303,53453.0328386952,61365.1993747815,42907.8983870926,46648.5160797950,51262.3728703896,54315.0046493293,2239.5132710498
2006556149,15884,3,0,28031.0638665225,56669.9893632288,28452.1270150804,53461.1851955666,61362.0114382139,42899.6365209498,46667.9722270149,51264.4170434558,54307.1929879690,2234.4393414746
2006556149,15884,3,0,28038.4983292813,56673.5301630042,28442.5632053776,53455.5393842408,61369.4824040632,42912.5951180662,46660.5134288625,51254.0136626722,54304.5769331520,2240.7300407321
2006556149,15884,3,0,27968.3393894003,56672.8609396790,28452.4068721074,53438.4559379014,61369.6527518187,42922.1345923754,46635.1072778962,51250.3268505349,54317.5355302685,2242.3361767127
2006556149,15884,3,0,27913.0858781273,56670.3908972239,28463.3943023385,53429.8655439444,61367.7789265080,42925.8214045128,46621.7228113909,51250.8135584078,54323.4733663181,2242.1414935635
2006556149,15884,3,0,27938.3095136412,56675.5500006768,28463.5524823972,53446.0364130221,61372.8406883863,42924.7141441019,46642.0793681757,51255.1330907799,54322.1105842739,2242.7742137983
2006576651,15885,3,0,28014.6861465988,56671.8875239331,28455.6556471591,53460.5646430287,61365.6009087767,42907.8618840021,46669.1524936068,51266.0840179206,54320.0177404203,2232.8940439781
2006576651,15885,3,0,28034.9210264154,56656.4953874521,28445.1062540136,53446.7421394378,61351.5228835525,42898.4319189643,46661.3408322464,51257.2624377240,54315.4305187181,2228.4650023345
2006576651,15885,3,0,27961.3916345144,56651.1050977596,28440.7137154605,53420.0097095178,61350.2817784766,42917.9367369715,46620.8102341292,51232.5620131734,54312.5954453583,2241.0707362431
2006576651,15885,3,0,27893.2403646091,56656.7387413886,28449.3406125080,53416.4202389550,61355.9519251961,42922.8038157007,46606.5740288464,51231.9049575449,54317.9735673541,2243.4191017299
2006576651,15885,3,0,27910.8226865182,56649.4137879012,28451.7011456916,53423.9398755916,61344.4777870920,42895.4508332427,46623.5601336112,51242.6246984460,54316.0632389529,2228.1851453076
2006576651,15885,3,0,27985.8000343412,56642.2226790788,28439.2900949322,53431.6785307710,61337.8828954140,42882.8085962437,46643.7220072468,51242.0163136048,54302.4962569953,2224.9607056495
2006576651,15885,3,0,28014.7226496893,56642.6850515581,28430.0791484373,53433.8200454118,61343.6138806176,42893.0172938781,46642.7120884105,51236.2488253107,54295.0496265397,2230.6308523690
2006576651,15885,3,0,27965.0054404708,56644.6440507466,28438.5843685165,53423.6113477774,61343.9545761287,42906.4625988675,46622.4893762908,51233.3285780732,54306.0735598612,2235.1694032840
2006627179,15886,3,0,27902.8771804928,56646.3840313923,28450.7764007331,53414.4490720697,61347.8969098993,42914.8704773721,46603.8849678485,51232.2213176623,54316.7446299750,2241.3505932700
2006627179,15886,3,0,27909.9952831343,56659.6833240197,28456.0206780638,53427.4320045798,61360.0646067222,42918.0340785461,46617.6466329552,51241.7486242747,54316.0632389529,2246.0351565469
