steady_timestamp,sequence,battery,flags,EEG-ch1,EEG-ch2,EEG-ch3,EEG-ch4,EEG-ch5,EEG-ch6,EEG-ch7,EEG-ch8,EEG-ch9,EEG-ch10
8554057796,9511,-2,0,55574.5437859561,58644.8917314700,39049.0350166647,56446.1889155644,56542.2163788911,62713.0516549493,64963.1873253255,58620.0939653449,67919.3657715497,28368.3767578481
8554057796,9511,-2,0,55571.2341724203,58701.3498447285,39077.3492471717,56482.3391428254,56602.9331860375,62690.0182048634,64965.1949953012,58669.1054481477,67905.5311002620,28373.4993582106
8554057796,9511,-2,0,55554.1020552936,58655.7088139456,39037.3296923211,56421.6710064662,56560.1515640081,62672.1073551401,64921.8779946116,58600.3579610980,67882.7410041126,28380.6174608520
8554057796,9511,-2,0,55546.0713753904,58571.6786996864,38986.3105395425,56352.2907991818,56474.9046800665,62681.2939662414,64894.6345214250,58511.7527928334,67883.3128858633,28383.1240063975
8554057796,9511,-2,0,55555.5621789123,58561.1293065409,38986.3227072393,56364.6896822443,56459.3786989205,62706.6636141172,64916.9987481856,58518.0678274845,67903.7546165259,28381.9437398057
8554057796,9511,-2,0,55568.0949066400,58631.2030725442,39030.7226329462,56435.5665162380,56527.5664719162,62710.3869293450,64955.7893656571,58599.5305577141,67916.4820274027,28373.6453705725
8554057796,9511,-2,0,55564.1282374757,58689.3768310547,39057.2847151107,56475.9754373870,56589.5973903196,62693.2061414310,64959.7803702150,58654.5650504443,67905.1417339637,28371.2118312079
8554057796,9511,-2,0,55552.2769007701,58663.3379598536,39035.5288731913,56438.3407511136,56571.4675220534,62679.0551100260,64924.7374033650,58614.7645141364,67887.4742381768,28377.9527352478
8554066877,9512,-2,0,55546.2903939333,58579.5633672276,38990.5327303400,56360.5770007182,56486.6586751975,62688.0348702813,64887.9179527787,58520.0389943698,67883.6170782839,28382.4061122850
8554066877,9512,-2,0,55555.4770050346,58551.9913662269,38988.0748555818,56352.1569545167,56452.4309440346,62717.9187336784,64902.3731766044,58501.6171013799,67905.7014480175,28380.7269701234
8554066877,9512,-2,0,55573.1931716088,58627.0295525339,39042.4036218962,56431.5755116800,56522.6507223998,62723.9052405153,64952.8569507228,58597.0848506527,67925.6199677167,28377.7945551891
8554066877,9512,-2,0,55567.7663788257,58693.1974878571,39070.9733740365,56479.6987526148,56596.4113005404,62694.0700479055,64964.7569582156,58665.0779404993,67911.9313087909,28373.4628551201
8554066877,9512,-2,0,55549.3323181390,58665.9661823674,39038.7168097589,56435.1649822428,56577.0281595015,62676.3052105440,64925.8081606854,58620.3373192813,67888.8370202209,28375.0081526166
8554066877,9512,-2,0,55541.2773028422,58586.1460912089,38990.2163702226,56364.7870238189,56497.9381301524,62683.6058286377,64892.9067084761,58532.4500451292,67886.0871207389,28382.2357645295
8554066877,9512,-2,0,55557.4603396167,58557.7710222177,38984.9234221047,56360.6743422928,56464.0389268037,62712.1755807780,64907.0455721844,58515.5977850294,67907.6239441155,28389.0740101439
8554066877,9512,-2,0,55575.5902078829,58616.1516315742,39028.9826523005,56424.8832784274,56518.4285316022,62723.1630110091,64952.2363981848,58588.0685873069,67924.9020736041,28387.2731910142
8554090618,9513,-2,0,55574.2639289292,58687.7463596804,39065.7169290090,56480.7330068447,56593.4545502125,62702.8186219212,64972.1549178840,58662.6809042252,67916.9565675787,28381.2988518741
8554090618,9513,-2,0,55555.7811974551,58679.8616921392,39046.8326635398,56456.4949547734,56591.3008678748,62673.9446773603,64940.2877199047,58640.3045097678,67888.4963247099,28379.8143928617
8554090618,9513,-2,0,55541.1556258740,58590.7698160016,38988.0748555818,56370.6761890812,56505.3969283048,62675.2222855267,64892.4565036937,58535.3459569731,67874.2236163366,28379.8265605585
8554090618,9513,-2,0,55551.6198451417,58543.6564939031,38972.3785266802,56345.8419198656,56456.3367747147,62714.7186294140,64900.2925004477,58495.4237436970,67899.4959226378,28379.6440451062
8554090618,9513,-2,0,55575.2251769782,58608.0236100965,39027.5346963786,56422.1698820359,56515.5812905456,62734.9291738369,64956.7506137061,58582.9946577317,67933.6749830135,28377.0036548956
8554090618,9513,-2,0,55579.9462433455,58692.3700844731,39073.5894288534,56489.6397609191,56602.4708135583,62714.2075861474,64981.9012430391,58670.0788638935,67931.8619961869,28367.5858575546
8554090618,9513,-2,0,55563.7267034805,58687.8680366486,39053.1355304941,56463.4183742657,56601.0715284236,62679.8338426226,64950.3869082677,58645.3419362525,67900.7005246233,28363.4366729380
8554090618,9513,-2,0,55545.5846675175,58608.0966162774,38997.1519574117,56387.4311076064,56520.1928476415,62670.9027531546,64904.0888218564,58552.3563971315,67882.2907993302,28370.3114216430
8554120785,9514,-2,0,55549.7095167405,58551.5654968380,38970.4560305822,56354.0064444338,56462.2989461580,62690.8821113379,64901.2172454062,58500.9235426610,67892.8766955661,28376.1519161180
8554120785,9514,-2,0,55567.2796709528,58587.5088732530,39002.4935763170,56402.0688468844,56493.3874115406,62711.5550282400,64938.3043853225,58550.5799133954,67913.7564633143,28373.3290104551
8554120785,9514,-2,0,55575.6267109734,58672.1230369598,39054.8998465334,56473.3593825700,56579.1210033550,62704.1205654812,64972.2400917617,58642.9935707656,67916.4576920090,28371.5160236284
8554120785,9514,-2,0,55565.7952119404,58690.8004515830,39057.6984168027,56473.1160286336,56603.3833908200,62680.2353766178,64954.9741299700,58649.0165806930,67895.1277194784,28375.0446557071
8554120785,9514,-2,0,55551.9605406527,58617.0642088359,39009.4900019902,56393.4054467465,56531.9955135598,62682.5229036205,64909.6737946982,58555.4226567309,67881.8892653350,28384.1947637180
8554120785,9514,-2,0,55557.6671904627,58550.5677456986,38983.3537892145,56347.9225960223,56461.0091702947,62710.1800784990,64904.6972066976,58493.6594276577,67899.5324257283,28387.4800418601
8554120785,9514,-2,0,55572.2197558629,58580.6462922449,39016.2065706364,56395.8633215047,56487.2670600386,62717.5780381674,64944.9479477879,58546.9904428326,67920.5947089288,28377.2835119225
8554120785,9514,-2,0,55576.6487975065,58661.0139297604,39057.9661061328,56463.9902560164,56564.9943073436,62697.4526676223,64971.8872285539,58633.6366119088,67916.3968535249,28370.3844278239
8554160672,9515,-2,0,55565.5518580040,58682.9887902226,39052.4541394720,56463.5278835371,56588.2346082754,62666.6927300539,64949.2431447664,58637.0922378065,67889.7617651795,28371.5768621126
8554160672,9515,-2,0,55552.9461240954,58624.1701437805,39004.4404078087,56400.1950215737,56530.5232222442,62657.3236035002,64906.9725660035,58560.7764433330,67866.8621597587,28377.8553936732
8554160672,9515,-2,0,55556.4139176899,58555.5686690928,38965.9661504545,56349.3827196411,56459.9262452775,62678.4588928816,64891.4222494638,58489.3642306792,67875.0266843269,28382.0775844708
8554160672,9515,-2,0,55572.3049297407,58569.8657128598,38984.7409066523,56378.6581981971,56468.5288069313,62705.8362107333,64923.5693044700,58518.6518769320,67898.7658608285,28379.5588712284
8554160672,9515,-2,0,55582.4771242847,58657.2176083517,39042.5374665613,56459.6220528569,56554.4935849854,62700.2025671042,64966.5456096486,58620.2034746163,67909.3760924581,28376.8089717464
8554160672,9515,-2,0,55565.7100380627,58690.8734577639,39050.1179416820,56473.4080533573,56595.4500524914,62663.2492718530,64955.1444777255,58649.5762947468,67885.4787358978,28371.5525267189
8554160672,9515,-2,0,55546.1322138746,58623.7321066949,38997.5413237100,56398.2116869915,56534.3560467434,62650.9112272745,64906.3155103750,58564.8769571623,67860.8513175282,28368.5471056036
8554160672,9515,-2,0,55547.9086976107,58543.6564939031,38955.3680865217,56339.6728975764,56450.1799201223,62671.1096040006,64892.4930067842,58485.8842693878,67868.4682957393,28372.1365761664
8554196839,9516,-2,0,55566.1724105419,58551.0666212683,38975.5542955510,56376.4923481626,56458.7703140793,62697.1363075049,64932.1353630333,58518.4571937828,67893.4607450136,28374.4241031691
8554196839,9516,-2,0,55580.3842804311,58631.4707618743,39030.4184405256,56455.1808435166,56541.6566648372,62699.2656544489,64974.4667802803,58614.4481540190,67903.4990948926,28374.2902585041
8554196839,9516,-2,0,55577.4883685873,58681.8936975086,39052.1986178387,56481.6334164096,56596.1436112103,62684.3237227503,64973.2500105980,58654.8935782585,67891.2827272823,28380.0090760109
8554196839,9516,-2,0,55563.8362127519,58644.8917314700,39022.5702760748,56431.9892133720,56559.4580052892,62667.8608289489,64934.5323993074,58598.6909866333,67874.1506101556,28387.7964019775
8554196839,9516,-2,0,55555.4039988536,58566.0815591478,38974.4226997465,56362.4873291194,56473.4932272351,62676.5120613900,64903.1032384138,58508.0173099087,67874.7224919063,28391.2763632689
8554196839,9516,-2,0,55565.0043116469,58554.1693839582,38978.1338472775,56366.2471474377,56452.7838072424,62699.0344682092,64922.5715533305,58503.8316222017,67893.5337511946,28385.2046825543
8554196839,9516,-2,0,55578.9119891156,58633.1620717327,39029.8222233813,56444.7409596425,56528.6128938430,62696.3575749082,64968.5046088371,58598.9221728729,67906.9790561839,28375.8842267879
8554196839,9516,-2,0,55575.4198601274,58689.7418619594,39053.0138535258,56480.1854604877,56587.2611925296,62665.9870036381,64970.0255709400,58649.7953132897,67886.4278162500,28371.0779865428
8554215750,9517,-2,0,55564.1890759598,58650.3793627372,39013.5905158195,56423.3258132341,56549.6386739530,62651.6047859934,64926.3192039519,58587.7400594927,67861.1068391614,28373.4871905138
8554215750,9517,-2,0,55557.3629980421,58567.6998628253,38963.8003004200,56352.5098177246,56465.6450627843,62665.4881280684,64895.2794093566,58497.0542150713,67863.3456953769,28376.2005869053
8554215750,9517,-2,0,55565.6370318817,58552.7579311267,38968.7525530270,56359.9686158770,56446.7973004055,62696.2967364241,64916.1713448016,58497.9667923330,67886.0627853453,28375.5556989737
8554215750,9517,-2,0,55574.5924567434,58622.8925356141,39021.4143448767,56428.1563888728,56514.7538871617,62705.4468444349,64956.3855828014,58583.0311608222,67903.7911196163,28373.1951657900
8554215750,9517,-2,0,55570.7109614569,58688.7076077294,39054.9241819270,56470.4756384230,56582.9903309447,62689.0082860271,64966.3995972867,58645.2080915874,67894.2638130040,28372.0757376823
8554215750,9517,-2,0,55555.2093157045,58666.9639335068,39030.6861298557,56434.6661066731,56567.7928776129,62663.0302533101,64933.0114372046,58610.8708511531,67869.8310777835,28376.1397484212
8554215750,9517,-2,0,55544.3313947448,58578.2979267581,38973.0355823086,56354.7608416368,56478.2021259056,62664.4052030511,64891.3857463733,58510.3413400019,67860.6079635917,28383.9270743878
8554215750,9517,-2,0,55557.3264949517,58541.5271469591,38961.8047981411,56342.9703434154,56434.7391128540,62691.5391669663,64902.2393319393,58481.1388676269,67882.2664639365,28385.0830055860
8554243224,9518,-2,0,55576.0890834526,58609.2768828693,39012.4589200150,56419.5416595222,56497.6461054286,62698.1827294316,64955.5703471143,58571.3988426594,67902.2823252103,28384.4624530481
8554243224,9518,-2,0,55570.3094274617,58678.1825499776,39045.7984093098,56470.5364769071,56570.3967647330,62669.6616480787,64966.8619697660,58640.4140190392,67886.9875303038,28382.6981370087
8554243224,9518,-2,0,55550.0502122515,58654.9179136521,39017.6301911647,56428.1442211760,56552.1573871954,62651.2397550887,64925.8203283822,58597.6567324034,67859.8657340855,28383.6593850577
8554243224,9518,-2,0,55541.9343584706,58576.5092753251,38971.5389555994,56355.0772017542,56474.4788106777,62667.0820963522,64887.9179527787,58509.7937936449,67856.9211514544,28387.3705325887
8554243224,9518,-2,0,55554.8077817093,58544.9949405537,38967.0734108654,56347.1438634256,56440.7864581750,62698.2679033094,64901.9108041251,58490.8243542979,67884.5053201520,28387.8207373712
8554243224,9518,-2,0,55571.6235387186,58600.3336257044,39010.5485916138,56408.7245770466,56493.3509084501,62708.1115700392,64943.4999918659,58563.4411689372,67905.7622865016,28383.9514097815
8554243224,9518,-2,0,55572.4509421026,58677.7810159824,39050.0814385915,56469.0155148042,56568.7662933587,62687.2683053815,64965.3288399663,58641.3509316945,67899.2404010045,28380.6539639425
8554243224,9518,-2,0,55554.1872291713,58676.1627123050,39034.8718175628,56449.1091628019,56572.9033102785,62659.9761614076,64937.6108266036,58624.4743362011,67870.0257609327,28380.8243116980
8554281129,9519,-2,0,55537.0186089542,58592.4489581631,38980.3118650088,56364.7748561221,56492.4018280979,62663.2614395498,64891.5074233415,58523.6771357199,67855.4366924419,28382.5277892532
8554281129,9519,-2,0,55547.3976543441,58537.5848131885,38958.6411969671,56333.9540800696,56434.3984173430,62697.9637108888,64896.5691852199,58475.3348762423,67875.9635969823,28383.9514097815
8554281129,9519,-2,0,55571.0029861806,58589.2610215955,39003.5521659406,56401.6794805861,56480.3314728496,62709.3405074183,64949.0241262236,58547.1607905881,67900.8465369852,28382.3817768913
8554281129,9519,-2,0,55572.0615758042,58664.6642388073,39040.5784673728,56465.4138765446,56558.5210926338,62679.4201409307,64971.3518498937,58627.2485710768,67891.2948949792,28378.1717537906
8554281129,9519,-2,0,55552.7636086431,58661.2937867873,39021.4265125735,56439.9103840038,56559.7013592256,62646.7620426579,64935.9316844421,58608.1209516711,67857.8458964129,28375.7138790324
8554281129,9519,-2,0,55537.2011244065,58586.1339235120,38971.4416140248,56365.0060423617,56486.4761597452,62652.1766677441,64889.1468901579,58522.4603660376,67843.9503866411,28377.0279902892
8554281129,9519,-2,0,55540.7175887883,58529.6393071631,38947.7389406137,56326.7386358536,56426.1730542907,62680.3935566765,64884.2554760350,58470.7111514496,67857.8337287161,28378.2204245779
8554281129,9519,-2,0,55562.5707722823,58566.6899439890,38985.9576763346,56373.1583992331,56457.3345258542,62712.0782392034,64927.5846444215,58522.8862354264,67887.5107412672,28381.3353549646
8554304623,9520,-2,0,55574.7993075894,58656.1468510312,39041.0530075489,56448.8414734718,56544.7837629207,62701.7235292071,64967.8110501182,58617.9524507040,67895.5535888672,28382.1992614390
8554304623,9520,-2,0,55560.6239407907,58678.3163946426,39039.3251946000,56448.5251133544,56570.3967647330,62666.7779039316,64947.1989717001,58627.5040927100,67871.5832261260,28377.5755366463
8554304623,9520,-2,0,55543.4918236640,58608.3643056075,38985.5196392490,56369.5567609735,56499.4955953457,62657.0315787764,64895.3645832344,58534.2751996526,67852.3582651457,28381.3596903582
8554304623,9520,-2,0,55544.5990840749,58536.5748943522,38949.7344428927,56314.2302435196,56422.5349129406,62681.2331277573,64882.2599737561,58460.4294476342,67862.0924226041,28380.1672560696
8554304623,9520,-2,0,55563.2278279108,58567.8702105808,38982.0640133513,56365.2858993887,56447.4178529435,62702.0277216277,64927.0005949740,58511.7649605302,67888.4598216194,28376.2370899957
8554304623,9520,-2,0,55570.0052350412,58652.1315110797,39035.1638422866,56441.9667247668,56533.2001155453,62688.7284290002,64960.3400842689,58605.6509092160,67889.8469390572,28368.8147949338
8554304623,9520,-2,0,55556.9614640470,58678.2798915522,39038.6194681843,56444.3880964346,56567.7563745224,62662.4827069531,64942.4170668487,58619.0475434181,67868.0180909569,28364.0815608696
8554304623,9520,-2,0,55542.0560354389,58619.4977482005,38995.0834489518,56379.5221046715,56515.4717812742,62656.7760571432,64898.3091658655,58546.5645734438,67851.6525387300,28367.7440376133
8554336119,9521,-2,0,55545.1466304319,58548.4627341482,38958.0084767323,56327.9919086263,56446.0064001120,62682.3282204713,64881.8706074577,58477.1478630689,67863.9175771275,28374.9351464357
8554336119,9521,-2,0,55566.7686276863,58562.7597779152,38978.3285304266,56358.9586970407,56452.3336024600,62706.7974587823,64918.2276855647,58502.7852002749,67892.3291492091,28380.3011007346
8554336119,9521,-2,0,55581.7835655658,58648.8340652406,39031.6838809952,56442.8549666349,56533.9301773546,62695.8221962480,64964.3675919173,58600.0902717679,67904.2656597924,28376.8089717464
8554336119,9521,-2,0,55567.9853973686,58690.8734577639,39042.6956466200,56463.4062065689,56580.0822514040,62660.2560184345,64956.0205518967,58636.3135052098,67879.0541919753,28373.7670475407
8554336119,9521,-2,0,55548.8212748724,58631.7627865981,38994.6697472598,56394.0016638908,56524.6827277692,62646.7863780515,64908.6882112555,58558.8174441445,67852.8449730187,28375.5678666705
8554336119,9521,-2,0,55548.2250577281,58548.8155973561,38952.1679822573,56330.1577586608,56440.2632472116,62673.0199324018,64887.8692819915,58474.0816034696,67858.9288214301,28378.5124493016
8554336119,9521,-2,0,55565.9533919991,58553.1959682123,38972.6827191008,56360.8325223515,56441.0663152019,62703.0254727672,64924.7009002745,58501.9699645877,67888.3259769544,28375.5800343673
8554336119,9521,-2,0,55582.7204782211,58633.4054256692,39024.4441013856,56438.8152912897,56516.7737248343,62693.7293523944,64969.3806830083,58596.2452795719,67897.6342650239,28371.9175576236
8554367955,9522,-2,0,55571.5261971440,58676.8684387207,39036.6604689958,56459.5977174633,56563.2056559106,62665.6706435207,64963.4063438683,58631.6897804171,67878.8473411293,28367.1356527722
8554367955,9522,-2,0,55551.0966341783,58634.9872262561,38998.5755779400,56404.8674171537,56524.9260817057,62644.7787080757,64919.2497720978,58572.2262460434,67853.4046870725,28365.6511937598
8554367955,9522,-2,0,55541.6666691405,58551.3829813857,38951.2189019051,56333.9419123728,56442.0032278573,62658.3213546397,64885.5574195951,58481.6255754998,67852.0905758156,28368.0725654276
8554367955,9522,-2,0,55554.5765954697,58535.7961617555,38957.7164520086,56337.7625691752,56417.8381819669,62687.9010256162,64906.3276780719,58472.5119705794,67878.0564408358,28369.2771674130
8554367955,9522,-2,0,55573.2540100929,58614.4359863222,39013.5296773354,56421.5128264075,56492.7546913058,62693.1453029469,64955.2296516033,58570.0603960089,67894.3733222754,28370.2870862493
8554367955,9522,-2,0,55570.8448061219,58680.7377663104,39044.5329688402,56468.1516083298,56565.8338784244,62669.8684989246,64966.2170818344,58634.7073692292,67882.9965257459,28374.2537554136
8554367955,9522,-2,0,55555.3066572790,58647.4469478028,39012.9212924942,56418.5074052922,56540.5007336390,62658.0171622191,64925.7473222013,58581.5588695066,67861.0216652837,28381.3353549646
8554367955,9522,-2,0,55548.3954054836,58562.8084487024,38965.7227965181,56346.0244353179,56456.5679609544,62670.4890514626,64893.2960747745,58490.8608573884,67861.2163484328,28385.8130673954
8554405796,9523,-2,0,55558.3850845753,58539.9940171594,38966.1730013005,56345.0753549657,56428.5457551711,62687.0006160513,64911.3164337693,58484.9473567324,67882.3638055111,28382.2844353167
8554405796,9523,-2,0,55570.1147443126,58599.6644023791,39007.3119842589,56410.3793838145,56483.5559125076,62684.9686106819,64948.8416107712,58559.2311458365,67890.8568578935,28374.8013017706
8554405796,9523,-2,0,55568.3139251828,58661.4519668460,39034.0809172693,56453.7572229883,56545.1244584317,62661.4484527232,64956.3977504983,58617.4900782247,67874.4061317889,28370.9684772714
8554405796,9523,-2,0,55552.6784347653,58644.1981727511,39009.7941944108,56420.3933982998,56533.2244509389,62642.6371934349,64921.6346406751,58584.8806507393,67849.6935395415,28375.0081526166
8554405796,9523,-2,0,55545.4386551556,58562.7354425215,38961.5614442046,56345.7567459878,56455.1565081229,62650.2176685556,64881.8097689736,58491.2380559899,67843.5731880396,28382.1992614390
8554405796,9523,-2,0,55555.7690297583,58520.7325530887,38949.1260580516,56325.8138908950,56410.8417562937,62681.7928418111,64888.3438221675,58460.5632922993,67865.1586822035,28374.4606062596
8554405796,9523,-2,0,55573.9719042054,58584.4426136536,39002.4205701360,56398.8079041359,56473.9312643207,62692.8167751327,64939.1439564033,58550.5190749113,67889.0560387637,28369.4231797749
8554405796,9523,-2,0,55572.2440912566,58661.4763022397,39045.0805151973,56457.7603952430,56557.0244659246,62671.9856781718,64956.9331291585,58633.0647301581,67881.4025574621,28368.1820746990
8554441902,9524,-2,0,55553.2868196064,58646.8994014458,39020.8059600355,56421.6710064662,56548.7382643882,62648.6237002718,64920.2718586309,58600.5404765504,67855.1568354150,28372.5502778584
8554441902,9524,-2,0,55538.8924342649,58567.0671425905,38967.0734108654,56341.6805675521,56469.3683780121,62651.8724753235,64876.6263301271,58506.5206831995,67848.5254406465,28375.8963944847
8554441902,9524,-2,0,55543.3458113021,58527.1327616176,38953.7984536316,56321.5795324006,56425.3334832099,62682.5715744078,64882.0044521228,58477.3912170054,67870.7436550452,28376.2127546021
8554441902,9524,-2,0,55557.8618736119,58578.7846346310,38993.6841638172,56381.8826378551,56474.1867859540,62694.2525633578,64924.2141924016,58547.6718338547,67895.3345703244,28369.9098876478
8554441902,9524,-2,0,55561.5973565365,58656.2076895154,39034.2147619344,56445.8968908406,56551.8775301685,62665.5124634620,64950.3017343900,58628.7330300891,67889.8956098445,28368.2185777894
8554441902,9524,-2,0,55546.8744433808,58654.2851934173,39018.5184330328,56433.4006662035,56556.7689442913,62630.2504780691,64922.5107148464,58616.5653332662,67856.7994744861,28370.5791109731
8554441902,9524,-2,0,55532.1636979218,58572.0437305911,38961.1112394222,56353.9577736465,56475.6225741791,62629.7394348026,64874.8985171782,58519.4306095287,67837.0269671488,28376.2005869053
8554441902,9524,-2,0,55535.8140069687,58507.4940989454,38931.9574378344,56312.1495673629,56411.3893026508,62664.9162463177,64871.2968789186,58461.6705527102,67852.7719668377,28377.0766610765
8554467244,9525,-2,0,55554.0168814158,58554.1450485645,38975.4204508859,56372.6108528761,56456.2029300497,62686.7694298117,64921.7563176433,58530.3815366693,67883.3858920442,28369.7030368018
8554467244,9525,-2,0,55558.1538983356,58641.2049193327,39028.1552489166,56444.6071149774,56545.2339677031,62667.0334255649,64952.2242304880,58625.0218825581,67884.1281215504,28362.8526234905
8554467244,9525,-2,0,55545.2318043097,58653.6281377889,39022.1930774733,56433.2911569321,56563.1934882138,62639.2059029308,64927.2682843041,58616.9303641709,67860.1699265061,28361.8670400479
8554467244,9525,-2,0,55529.3164568653,58579.8797273450,38971.6241294772,56359.8469389088,56490.9052013887,62632.6475143433,64882.0409552133,58528.1548481507,67845.2279948075,28365.7363676375
8554467244,9525,-2,0,55532.3948841615,58518.3476845114,38943.4072405448,56319.4866885471,56425.7593525987,62654.6102071087,64875.1783742051,58469.1171831658,67857.1645053908,28369.1433227480
8554467244,9525,-2,0,55551.4494973862,58546.0535301773,38971.6484648708,56358.6180015297,56445.4466860582,62675.4778071600,64911.2555952851,58508.0659806960,67878.8960119166,28367.7318699165
8554467244,9525,-2,0,55563.1061509426,58630.9962216982,39022.0348974146,56431.5390085896,56527.0797640433,62661.3997819359,64946.1038789861,58594.7121497722,67877.7522484152,28364.7751195885
8554467244,9525,-2,0,55546.3390647205,58656.8647451438,39022.2539159574,56437.5133477296,56557.0853044087,62623.3027231832,64926.8424149153,58610.7978449721,67846.9923108468,28360.5285933973
8554514698,9526,-2,0,55522.8067390650,58586.1095881184,38969.2392608999,56361.1732178625,56490.7105182395,62610.6969892747,64875.6407466844,58520.0754974603,67821.6348306678,28361.3803321749
8554514698,9526,-2,0,55518.9860822626,58506.7762048328,38928.2097872129,56303.6930180709,56408.3595461419,62634.5943458349,64858.0584247752,58441.7155299205,67830.0305414756,28363.7165299649
8554514698,9526,-2,0,55535.0474420689,58525.7334764829,38955.4532603995,56345.7567459878,56423.1432977817,62654.0626607516,64898.4308428338,58483.3290530550,67856.4101081878,28361.3803321749
8554514698,9526,-2,0,55541.8248491992,58605.1033628590,39004.3917370214,56419.2252994048,56503.1094013021,62644.6326957139,64935.1651195422,58577.2271694376,67859.2573492443,28354.3595711081
8554514698,9526,-2,0,55532.3948841615,58635.0602324371,39008.0907168555,56428.2415627506,56538.4930636632,62624.3856482005,64922.7175656924,58596.9266705940,67838.0977244693,28355.1869744921
8554514698,9526,-2,0,55521.5534662922,58586.1825942993,38969.2270932031,56373.7911194679,56488.0701280290,62615.9656019990,64882.8075201131,58529.5297978917,67821.6713337583,28363.0716420333
8554514698,9526,-2,0,55520.6530567273,58512.7262085792,38929.7185816190,56320.1315764787,56410.1481975748,62633.8521163287,64864.0205962185,58454.0292391053,67826.8791079985,28364.3249148061
8554514698,9526,-2,0,55540.5350733360,58520.7203853919,38947.7876114010,56343.5422251661,56409.7709989733,62666.9117485967,64895.6687756550,58472.1104365842,67856.9454868480,28366.2960816914
8554529891,9527,-2,0,55554.7956140125,58604.3733010496,39006.2412269385,56423.8733595911,56491.6109278044,62663.0180856133,64939.4238134303,58570.5471038818,67872.5809772655,28363.9598839014
8554529891,9527,-2,0,55546.8136048966,58656.5240496327,39026.3300943931,56452.9663226948,56547.9716994883,62631.1508876340,64936.5035661927,58616.8938610804,67851.6038679427,28362.4267541017
8554529891,9527,-2,0,55528.3187057258,58605.7360830938,38980.6403928230,56388.2463432935,56503.8759662020,62614.0309382042,64888.3316544707,58547.2581321627,67825.5284936512,28362.1468970748
8554529891,9527,-2,0,55523.1839376665,58518.4206906924,38929.6212400444,56317.1139876666,56415.8670150816,62631.4915831451,64861.1976905556,58452.2162522787,67826.9277787858,28359.6890223165
8554529891,9527,-2,0,55535.3394667926,58516.1453313865,38941.0588750579,56334.5502972139,56408.7854155307,62657.2140942288,64887.9544558692,58467.0365070091,67854.2442581533,28359.2996560182
8554529891,9527,-2,0,55544.6477548622,58594.1524357183,38992.3943879539,56408.8097509243,56484.1886327424,62660.1465091631,64927.7549921771,58557.1991404671,67866.9595013333,28360.2609040672
8554529891,9527,-2,0,55538.6734157221,58647.8484817980,39016.0483905777,56438.0243909962,56542.8734345195,62636.2978233901,64927.6454829056,58604.8478412257,67852.3582651457,28362.6214372509
8554529891,9527,-2,0,55522.5268820380,58612.5986641019,38984.7652420460,56387.2607598509,56516.4330293232,62621.8060964740,64888.6115114976,58557.2843143448,67831.2351434611,28367.1113173785
8554558102,9528,-2,0,55521.3222800526,58535.9056710269,38941.1318812389,56319.7178747867,56440.3119179989,62637.8431208867,64863.1445220472,58475.2375346677,67836.2969053395,28375.6043697610
8554558102,9528,-2,0,55534.5850695896,58513.7604628092,38940.1219624026,56316.8828014270,56412.0463582792,62665.4759603716,64879.3640619122,58461.6583850133,67857.7972256256,28376.3952700544
8554558102,9528,-2,0,55551.8510313813,58587.5575440403,38993.6354930299,56395.5956321746,56481.5482425319,62674.9424284998,64928.6310663483,58552.4902417966,67879.8207568751,28370.5669432763
8554558102,9528,-2,0,55546.9839526522,58655.0760937108,39025.6487033710,56446.2375863517,56553.7878585697,62644.9490558313,64939.7523412445,58620.9092010320,67864.1852664576,28363.0838097301
8554558102,9528,-2,0,55526.4570481119,58622.0529645334,38988.7805819975,56400.1828538769,56528.1140182733,62620.8570161218,64896.8368745500,58567.3226642238,67832.8169440481,28357.1703090742
8554558102,9528,-2,0,55518.4993743896,58538.7407443867,38938.6740064807,56324.7431335746,56442.8427989381,62634.0467994779,64861.4167090984,58470.3096174544,67826.1612138859,28363.7043622681
8554558102,9528,-2,0,55526.6273958674,58514.7217108582,38935.8876039082,56319.2798377011,56409.9170113352,62659.2217642046,64877.9891121712,58457.8255605141,67847.4060125388,28364.1423993537
8554558102,9528,-2,0,55541.0339489057,58584.2600982013,38986.1645271806,56384.5716988530,56473.5784011128,62672.9712616145,64923.2894474430,58541.3202961131,67869.0888482773,28363.0959774270
8554588850,9529,-2,0,55542.7860972482,58659.3834583861,39025.6122002806,56433.6196847463,56548.1907180311,62654.4398593532,64938.5842423495,58614.0709554175,67864.0879248831,28359.5430099547
8554588850,9529,-2,0,55528.1848610607,58651.9124925369,39009.7698590171,56403.8209952269,56545.2583030968,62633.6696008764,64906.6197027956,58594.1646034152,67845.6295288027,28359.7985315880
8554588850,9529,-2,0,55520.6043859400,58573.3335064543,38962.2671706203,56330.8148142893,56468.8816701392,62643.2334105792,64868.4131347716,58505.4012550918,67838.4992584644,28371.0901542396
8554588850,9529,-2,0,55532.0176855599,58528.7997360823,38947.9214560661,56309.9958850252,56419.1644609206,62672.3385413797,64875.3730573543,58466.1847682315,67860.4497835330,28374.3997677755
8554588850,9529,-2,0,55554.5522600760,58587.3506931943,38995.5458214311,56380.4225142364,56472.3737991274,62685.4188154644,64926.0393469250,58542.9751028810,67886.4521516436,28368.7417887528
8554588850,9529,-2,0,55557.2534887707,58668.2050385828,39040.0187533189,56447.2840082785,56556.2092302374,62664.9162463177,64947.2111393969,58627.2120679863,67880.0762785084,28363.2419897888
8554588850,9529,-2,0,55541.4719859914,58660.8800850954,39021.1588232434,56418.5439083827,56556.5742611421,62643.8539631172,64912.8860666594,58600.3336257044,67853.4533578598,28361.5993507177
8554588850,9529,-2,0,55530.5210588507,58579.4538579562,38966.8908954131,56341.3763751316,56476.4499775631,62643.0387274301,64872.3433008454,58504.9875533998,67840.0688913546,28365.5173490947
8554642380,9530,-2,0,55539.0384466268,58534.3968766209,38949.8074490736,56319.5231916376,56429.0324630440,62668.4813814868,64879.4857388804,58469.5917233419,67858.9896599143,28370.4817693985
8554642380,9530,-2,0,55554.3210738364,58577.2150017408,38986.9067566868,56370.8465368367,56467.8352482124,62683.5206547600,64920.7220634134,58526.5000413828,67879.8207568751,28367.4641805864
8554642380,9530,-2,0,55559.5045126830,58655.4897954028,39033.2656815822,56434.6661066731,56545.4529862460,62672.8495846463,64948.4035736856,58606.1254493921,67880.8915141956,28366.5516033247
8554642380,9530,-2,0,55548.2128900313,58671.8796830233,39032.6816321347,56430.1883942422,56565.1889904928,62648.8427188146,64928.7649110134,58608.2669640330,67861.6178824280,28367.2816651341
8554642380,9530,-2,0,55533.4899768755,58603.3268791228,38984.4732173222,56359.3967341263,56498.1571486952,62653.6976298470,64884.8638608762,58522.0588320424,67846.0919012819,28372.1487438632
8554642380,9530,-2,0,55542.0925385293,58542.0503579225,38956.8160424437,56320.3505950215,56432.3542442767,62676.8284215074,64880.9823655897,58463.7390611701,67860.5227897139,28379.3763557761
8554642380,9530,-2,0,55556.0245513916,58574.4285991684,38985.8481670632,56371.4305862842,56456.6166317417,62688.6189197288,64922.3890378781,58518.0556597877,67879.8085891783,28374.7647986802
8554642380,9530,-2,0,55557.4725073135,58651.3892815735,39028.5567829117,56438.1704033581,56533.7598295991,62663.4804580926,64949.9488711821,58604.1542825068,67873.5300576177,28366.7219510802
8554656050,9531,-2,0,55538.2110432428,58657.5218007722,39018.2750790963,56422.6687576057,56546.2925573267,62633.0733837321,64921.2209389831,58595.0163421928,67843.2446602254,28363.4853437253
8554656050,9531,-2,0,55519.0712561403,58583.6517133601,38966.1121628164,56346.3164600417,56474.2719598317,62625.0062007385,64871.3577174027,58504.0749761381,67823.2287989516,28364.6656103171
8554656050,9531,-2,0,55522.0036710747,58519.9173174016,38936.5689949303,56305.3113217484,56405.9990129582,62650.5948671571,64861.9520877586,58442.8836288155,67834.1188876082,28367.4398451928
8554656050,9531,-2,0,55536.8725965923,58541.8678424702,38963.1067417011,56342.7756602662,56422.7052606961,62675.5751487346,64897.4695947848,58480.9441844777,67860.2185972934,28364.6777780139
8554656050,9531,-2,0,55545.9496984222,58627.0173848371,39016.4255891792,56416.7795923433,56507.1247412537,62671.5476410862,64934.5202316106,58575.8400519998,67870.7558227420,28364.1545670506
8554656050,9531,-2,0,55534.1470325040,58663.8490031202,39025.5756971901,56432.6949397878,56552.1330518017,62641.4690945399,64926.3313716488,58605.2737106145,67850.3627628668,28366.5029325374
8554656050,9531,-2,0,55517.1244246487,58605.0790274653,38974.7998983480,56362.2439751829,56497.4392545826,62625.9917841811,64876.8453486699,58523.8718188690,67827.1954681159,28369.9098876478
8554656050,9531,-2,0,55519.3754485609,58526.6095506542,38929.5360661666,56299.9575351463,56418.1302066907,62651.7751337489,64856.0385871026,58442.2874116712,67834.2040614859,28372.4164331933
8554677219,9532,-2,0,55541.7153399278,58544.3622203189,38956.5970239008,56340.1109346620,56432.7557782719,62678.6414083340,64901.1564069221,58484.0226117739,67865.4872100177,28370.7737941222
8554677219,9532,-2,0,55552.3255715574,58624.5351746852,39009.8063621076,56418.4952375954,56513.3911051175,62666.3276991492,64939.0466148287,58580.9748200591,67869.4052083947,28364.8116226790
8554677219,9532,-2,0,55542.3967309499,58656.6457266010,39019.1268178739,56432.6097659100,56551.2448099337,62631.9539556244,64927.6211475120,58602.0736063501,67845.3740071694,28364.1910701410
8554677219,9532,-2,0,55527.0167621657,58602.4873080421,38978.3650335171,56374.7523675169,56499.3860860743,62616.4644775688,64884.5231653651,58531.8903310754,67823.4356497976,28364.7751195885
8554677219,9532,-2,0,55522.8189067618,58521.2679317489,38931.9939409249,56311.2856608884,56418.1302066907,62624.9210268607,64862.0129262427,58450.7317932663,67822.0485323598,28365.6755291534
8554677219,9532,-2,0,55536.4467272035,58515.6221204231,38939.2823913218,56323.1004945035,56405.8895036868,62652.7363817979,64886.0927982553,58457.8255605141,67845.4470133503,28365.5416844884
8554677219,9532,-2,0,55548.7361009947,58595.6855655180,38990.6909103987,56396.7880664633,56481.7064225906,62653.4056051232,64928.4363831991,58548.8886035370,67859.2451815475,28361.4898414463
8554677219,9532,-2,0,55537.2984659811,58649.4546177786,39010.2078961027,56430.4804189660,56539.4543117122,62623.1202077309,64925.6621483235,58597.9244217335,67839.9837174768,28359.3483268055
8554706399,9533,-2,0,55513.5106186922,58603.5702330593,38966.4893614179,56370.4328351448,56499.2035706220,62605.1728549171,64876.3586407969,58533.1071007576,67814.5410634200,28362.6822757350
8554706399,9533,-2,0,55507.6822919141,58515.9749836309,38914.4846251966,56297.4996603880,56410.7322470223,62625.2617223717,64845.6230386222,58439.5740152797,67816.4027210340,28367.6831991292
8554706399,9533,-2,0,55526.4205450214,58506.0218076298,38922.2232803760,56315.3496716273,56394.5492102478,62650.1446623747,64877.1982118777,58450.3545946648,67844.7656223282,28366.6367772024
8554706399,9533,-2,0,55539.0506143236,58577.6652065233,38968.8742299952,56388.8425604379,56464.2214422560,62647.9179738561,64921.5859698878,58541.2351222354,67856.3736050973,28357.5840107662
8554706399,9533,-2,0,55532.5165611297,58633.6487796056,38993.1731205506,56421.8900250090,56527.2987825861,62627.0747091984,64924.8104095459,58593.3128646376,67842.1008967240,28354.8341112842
8554706399,9533,-2,0,55516.1388412060,58607.8410946442,38965.7592996085,56378.6581981971,56505.9809777523,62611.2688710254,64888.3073190771,58550.6529195763,67820.8682657680,28357.0851351964
8554706399,9533,-2,0,55510.2740113373,58530.3450335788,38919.9844241606,56312.5876044485,56429.6408478852,62617.6812472510,64858.4721264672,58465.1505140015,67818.4833971907,28360.4920903069
8554706399,9533,-2,0,55525.6783155152,58505.3282489109,38915.6283886980,56310.5799344727,56398.7470656517,62645.8129623057,64876.4681500684,58448.1400738430,67841.5655180638,28358.1802279105
8554759715,9534,-2,0,55546.9839526522,58579.1496655357,38969.2757639904,56389.2684298267,56467.1295217967,62661.4119496327,64928.5215570769,58537.9133410027,67864.4407880909,28357.4501661011
8554759715,9534,-2,0,55544.5625809844,58653.6524731825,39008.3340707920,56442.5021034270,56546.7549298060,62636.6871896885,64941.4193157092,58616.2003023615,67850.6547875905,28357.1581413774
8554759715,9534,-2,0,55526.4083773246,58633.7339534834,38983.5484723637,56397.7493145123,56534.4290529244,62615.1747017055,64897.8589610831,58576.6431199901,67826.7939341208,28360.8814566052
8554759715,9534,-2,0,55514.8247299491,58549.6308330432,38930.8866805140,56314.5101005465,56448.9631504400,62623.7407602689,64855.1868483250,58477.0261861007,67822.0728677534,28361.6601892019
8554759715,9534,-2,0,55525.2767815200,58516.3035114452,38926.3116265085,56303.8998689169,56412.8980970568,62653.1379157931,64868.9363457350,58459.5168703725,67846.8341307881,28356.0995517538
8554759715,9534,-2,0,55542.1168739230,58577.2150017408,38973.3276070324,56372.5135113015,56470.9380109023,62664.8797432272,64915.6846369287,58539.4586384992,67867.3853707221,28349.2004676552
8554759715,9534,-2,0,55545.4386551556,58650.2211826785,39012.9577955847,56428.1442211760,56549.4804938943,62649.8039668636,64937.3066341831,58613.8032660874,67861.9585779390,28351.6826778070
8554759715,9534,-2,0,55536.5197333844,58650.8173998228,39000.8266018522,56409.0166017703,56554.4205788045,62629.6785963185,64912.2290110310,58599.8834209219,67841.5533503670,28364.0572254760
8554779857,9535,-2,0,55528.6837366305,58576.4727722346,38951.1702311178,56337.0690104563,56480.2584666686,62628.4496589394,64873.0611949579,58511.5581096842,67833.0846333782,28374.0104014771
8554779857,9535,-2,0,55536.2155409639,58524.5167068006,38930.8623451203,56304.3257383057,56420.8679384759,62661.7039743565,64873.7182505864,58459.1031686805,67849.2433347591,28375.0689911007
8554779857,9535,-2,0,55557.1074764088,58576.2050829045,38975.9558295461,56366.8676999756,56464.6473116448,62677.0961108375,64919.0429212518,58524.3828621356,67876.8518388503,28372.3677624061
8554779857,9535,-2,0,55556.1097252694,58652.0463372019,39018.5306007296,56429.1054692250,56544.6620859525,62648.7940480273,64941.5044895870,58608.0966162774,67866.9838367269,28362.2564063462
8554779857,9535,-2,0,55535.5098145481,58645.3662716461,38998.4417332749,56400.3775370260,56546.5115758696,62618.1436197303,64905.2447530546,58585.4890355804,67836.4064146109,28357.3771599202
8554779857,9535,-2,0,55519.7526471624,58564.0738891720,38944.7335194985,56323.1126622003,56467.1538571903,62623.1445431245,64859.2995298512,58491.5544161073,67824.3482270593,28360.8814566052
8554779857,9535,-2,0,55527.6738177942,58513.2859226331,38926.3116265085,56298.4122376498,56412.1071967633,62652.0306553822,64864.9940119643,58452.2527553692,67844.8629639028,28364.2275732315
8554779857,9535,-2,0,55546.8866110776,58556.0432092689,38964.9683993150,56352.8261778420,56450.4597771492,62674.1393605095,64909.4182730649,58511.9474759826,67870.3056179596,28361.9278785320
8554797153,9536,-2,0,55558.3485814848,58640.2193358900,39017.9708866758,56423.5083286864,56534.6359037704,62669.3087848708,64943.2566379295,58600.2971226139,67875.1483612951,28361.0639720575
8554797153,9536,-2,0,55550.5125847308,58661.6831530857,39021.9253881432,56427.2316439143,56561.8793769569,62642.9900566428,64927.5724767247,58609.1308705074,67852.7354637473,28360.4799226100
8554797153,9536,-2,0,55534.3782187436,58588.6526367544,38970.9670738487,56355.9532759255,56493.3022376628,62626.9043614428,64880.4104838390,58518.9682370494,67828.7407656124,28367.1843235595
8554797153,9536,-2,0,55532.3218779805,58509.6234458894,38928.9033459318,56298.3513991657,56411.7299981618,62643.3429198506,64861.9277523649,58438.6979411084,67834.1188876082,28371.3456758729
8554797153,9536,-2,0,55545.9253630286,58535.4067954572,38957.3270857102,56342.5444740266,56431.5268408928,62666.6440592666,64900.6575313524,58484.0226117739,67858.2595981049,28367.3425036182
8554797153,9536,-2,0,55552.3864100415,58620.1183007385,39009.6846851393,56418.8481008032,56516.8954018025,62655.9973245465,64934.8974302121,58578.6264545723,67859.7075540268,28362.1712324684
8554797153,9536,-2,0,55541.2286320549,58646.4491966634,39008.2732323079,56418.5925791700,56545.4043154587,62631.0292106658,64915.9888293493,58585.7445572137,67837.4650042345,28361.5141768400
8554797153,9536,-2,0,55526.4692158087,58583.5422040887,38959.6754511971,56347.6062359049,56483.1543785125,62625.2617223717,64871.3942204932,58501.6292690767,67820.7222534061,28362.3537479208
8554836884,9537,-2,0,55526.9194205911,58517.3864364624,38927.4188869194,56299.3004795178,56414.4068914629,62649.6336191081,64859.5915545749,58435.3274890885,67832.0990499356,28359.0806374754
8554836884,9537,-2,0,55540.1457070377,58532.0120080436,38950.2454861593,56329.5493738197,56425.0414584861,62669.5643065041,64890.6800199576,58465.9049112045,67854.9378168722,28352.9846213671
8554836884,9537,-2,0,55550.6585970927,58614.2048000826,39001.9095268695,56403.4681320190,56505.5307729699,62667.0942640490,64930.5900655368,58554.6925949215,67863.4308692546,28355.3208191571
8554836884,9537,-2,0,55545.3778166715,58663.3622952472,39021.8767173559,56430.6385990247,56558.2655710005,62647.7476261005,64931.7094936445,58595.9167517577,67850.3384274731,28364.5926041362
8554836884,9537,-2,0,55529.1582768065,58613.1827135494,38982.2951995909,56370.6640213844,56513.8413099000,62637.3320776201,64887.2243940598,58525.8551534512,67831.4663297008,28373.6575382693
8554836884,9537,-2,0,55528.9514259606,58535.2607830953,38940.2436393708,56307.8300349907,56433.0843060861,62663.3831165180,64863.5825591329,58441.9953869475,67841.7967043034,28377.3200150130
8554836884,9537,-2,0,55549.1132995962,58543.2184568175,38960.4055130064,56338.4439601972,56435.5421808443,62694.0700479055,64900.8887175920,58471.2100270193,67872.5201387814,28372.9761472472
8554836884,9537,-2,0,55564.8948023755,58629.5847688668,39017.1313155950,56422.5470806374,56518.7692271132,62689.9208632889,64945.0939601497,58570.2429114613,67886.7320086706,28369.7030368018
8554876308,9538,-2,0,55557.4603396167,58674.3862285688,39033.0344953426,56442.0884017351,56565.9677230894,62663.6264704545,64941.6018311616,58600.2484518266,67866.5944704286,28368.4254286354
8554876308,9538,-2,0,55535.3272990958,58624.5108392916,38991.9563508683,56378.9867260113,56518.7813948101,62643.1360690046,64896.3258312834,58530.0895119456,67841.0423071004,28368.5836086941
8554876308,9538,-2,0,55526.1650233881,58544.2770464411,38947.0332141980,56312.4659274803,56439.0464775293,62659.3191057792,64869.4473890015,58447.1301550067,67842.1617352081,28372.3920977997
8554876308,9538,-2,0,55540.2917193995,58534.4698828018,38952.6303547366,56322.5042773592,56424.4939121291,62690.7239312792,64891.4587525542,58449.0039803175,67866.9229982428,28373.8400537216
8554876308,9538,-2,0,55557.9105443992,58613.9736138429,39009.1128033887,56400.1585184832,56500.7001973312,62701.2854921215,64938.9857763446,58544.1797048665,67888.0339522306,28368.9851426893
8554876308,9538,-2,0,55555.1363095235,58679.8373567455,39039.7510639888,56444.4854380092,56571.1146588455,62671.8518335068,64946.1890528638,58607.5977407077,67876.9613481217,28364.6047718330
8554876308,9538,-2,0,55533.2101198486,58641.6064533278,39003.0776257645,56391.9209877341,56540.3425535803,62649.7066252890,64901.7282886728,58549.2901375322,67849.0243162163,28362.4145864049
8554876308,9538,-2,0,55525.5688062438,58553.9138623249,38949.8682875578,56317.1018199698,56454.1952600739,62665.3299480097,64866.5393094608,58451.7295444058,67846.9193046659,28364.0937285665
8554892222,9539,-2,0,55542.1290416198,58540.6389050911,38956.1711545120,56329.1478398245,56436.5034288933,62694.5080849911,64895.9973034692,58454.7471332179,67874.5886472413,28366.0040569677
8554892222,9539,-2,0,55560.3805868542,58615.8961099409,39009.0641326014,56409.1991172226,56507.9886477281,62699.2899898425,64944.1692151912,58549.5578268623,67891.5260812188,28363.1324805174
8554892222,9539,-2,0,55557.4481719199,58675.8341844908,39035.8817363991,56447.8802254228,56571.3823481756,62671.4624672084,64951.1656408644,58605.0546920717,67877.3020436328,28365.3348336424
8554892222,9539,-2,0,55539.3791421378,58648.7123882724,39005.4624943418,56405.0499326060,56549.0911275960,62651.0815750300,64912.0586632755,58562.3582439200,67853.4898609503,28370.0193969192
8554892222,9539,-2,0,55524.2668626837,58564.6822740132,38953.2022364872,56330.0360816926,56467.6649004569,62655.8756475783,64872.7326671437,58470.8449961147,67844.4249268172,28372.7084579171
8554892222,9539,-2,0,55533.6116538437,58529.4446240139,38944.5510040461,56314.7047836957,56430.4682512692,62687.1101253228,64882.9657001718,58447.1666580972,67866.3876195826,28371.5890298094
8554892222,9539,-2,0,55554.3819123205,58595.0406775864,38994.9009334995,56387.7474677238,56491.1607230220,62697.8542016174,64935.1894549359,58529.8218226154,67888.3746477417,28363.9720515982
8554892222,9539,-2,0,55551.2548142370,58668.9959388763,39030.7956391271,56444.4611026155,56568.8392995396,62670.2822006166,64954.7307760335,58608.6928334218,67877.6427391438,28356.2333964188
8554925170,9540,-2,0,55531.7378285330,58652.0950079892,39002.9194457058,56405.4392989044,56555.3818268535,62641.8219577478,64916.0618355302,58569.7075328011,67848.0022296831,28355.2721483698
8554925170,9540,-2,0,55520.6773921210,58565.2298203702,38948.9922133865,56321.7255447625,56466.0587644763,62655.2185919498,64871.2482081313,58464.2622721334,67839.9715497800,28364.0085546887
8554925170,9540,-2,0,55531.1416113887,58527.9114942142,38945.5487551856,56308.6452706779,56427.7670225745,62688.0348702813,64884.2433083382,58440.3040770891,67867.1663521793,28374.3632646850
8554925170,9540,-2,0,55548.1398838503,58584.8806507393,38991.5548168732,56374.4603427932,56481.9254411334,62696.4549164828,64929.6653205783,58520.5743730300,67888.7518463432,28372.7936317949
8554925170,9540,-2,0,55546.5580832634,58654.0053363904,39028.1552489166,56426.1365512002,56555.9902116946,62670.3917098880,64946.5054129812,58591.4998778109,67878.2389562881,28365.6511937598
8554925170,9540,-2,0,55528.1118548798,58647.8484817980,39009.6846851393,56404.0521814665,56556.4769195675,62642.1748209556,64917.2907729093,58574.5502761366,67849.5353594828,28361.0761397544
8554925170,9540,-2,0,55514.3136866826,58568.2595768791,38954.4798446537,56330.9364912575,56480.3436405464,62633.3045699717,64874.0102753101,58484.0469471675,67830.9796218278,28362.8891265810
8554925170,9540,-2,0,55520.4340381845,58506.1313169012,38922.2232803760,56294.5550777569,56412.8494262695,62655.6079582482,64869.8610906935,58427.3211445790,67842.6727784747,28361.3803321749
8554954695,9541,-2,0,55540.2552163091,58549.2414667449,38956.9012163214,56354.8581832114,56451.1776712618,62672.3142059861,64919.8338215453,58490.8730250852,67864.7571482083,28358.0463832454
8554954695,9541,-2,0,55546.9961203490,58634.4640152928,39006.3264008162,56432.2934057926,56538.7485852965,62651.5682829029,64953.2463170211,58585.6715510328,67861.6787209121,28356.5010857489
8554954695,9541,-2,0,55534.6094049832,58642.5311982864,38997.2006281990,56420.2595536347,56552.4859150096,62622.2076304692,64926.7085702503,58579.1983363230,67834.7151047525,28361.2343198131
8554954695,9541,-2,0,55521.4926278081,58565.3636650353,38943.6384267844,56342.9703434154,56477.3138840375,62623.8137664498,64881.6029181276,58482.3678050060,67818.6902480367,28363.5218468158
8554954695,9541,-2,0,55528.5620596622,58511.2904203541,38923.9754287185,56311.3221639789,56417.6800019082,62654.4276916563,64879.7412605137,58431.4581614988,67835.8588682538,28365.4565106106
8554954695,9541,-2,0,55550.8532802419,58552.1373785887,38962.9242262488,56363.0835462637,56451.2750128364,62676.9987692629,64921.4277898291,58484.3268041945,67859.5858770586,28366.7949572611
8554954695,9541,-2,0,55557.8375382182,58635.6321141878,39012.4345846213,56428.3389043251,56530.8152469680,62668.4692137900,64949.2309770696,58567.6390243412,67860.9729944964,28366.0283923613
8554954695,9541,-2,0,55545.9131953317,58662.7539104061,39018.1899052186,56429.1906431027,56560.7112780619,62642.2478271366,64930.7239102019,58582.4592790715,67842.5876045969,28369.0703165670
8554987365,9542,2,0,55526.1406879945,58596.2087764814,38968.4483606064,56356.4278161016,56495.5410938783,62629.7150994089,64881.5907504308,58500.2664870325,67823.2531343453,28367.3546713150
8554987365,9542,2,0,55524.0356764441,58520.7812238760,38928.6478242985,56299.3734856988,56413.9931897709,62651.0694073332,64861.8060753967,58421.7848425246,67831.3324850357,28366.1865724200
8554987365,9542,2,0,55542.9929480942,58540.8092528466,38954.4555092600,56339.3200343685,56429.1541400123,62674.3583790523,64899.1730723400,58462.6318007592,67857.9554056843,28362.0860585907
8554987365,9542,2,0,55552.4472485257,58629.0493902065,39009.4778342933,56418.0937036002,56517.0779172549,62663.8576566941,64935.3963057819,58565.4001681257,67863.2361861055,28360.0175501308
8554987365,9542,2,0,55538.0650308809,58657.0350928993,39012.3129076531,56420.4299013902,56551.8531947748,62634.4726688667,64917.1569282443,58584.1505889299,67837.9152090169,28360.6259349719
8554987365,9542,2,0,55520.1785165512,58595.1015160705,38964.5060268358,56352.3273022722,56495.8574539956,62624.7385114084,64873.0490272611,58507.3845896739,67817.9115154400,28363.7895361459
8554987365,9542,2,0,55520.1541811576,58526.4878736860,38927.9177624892,56305.2383155674,56426.1243835034,62643.3794229411,64862.1467709077,58442.8471257251,67828.9111133679,28364.2275732315
8554987365,9542,2,0,55535.1812867339,58536.3315404157,38944.0886315669,56335.0613404805,56430.8211144770,62660.1343414663,64895.5592663835,58471.2586978066,67853.3073454979,28357.6448492503
8555061031,9543,2,0,55546.3390647205,58612.8541857352,38989.6566561688,56407.7146582103,56504.7763757669,62657.3844419843,64937.7933420560,58562.5042562819,67861.7273916994,28349.9061940709
8555061031,9543,2,0,55535.4124729735,58652.3992004098,39003.4426566692,56430.1883942422,56548.8842767500,62628.1089634283,64931.5634812826,58599.9685947997,67839.4361711198,28349.5533308630
8555061031,9543,2,0,55516.6863875630,58598.4232973032,38963.7029588454,56367.9384572961,56501.1017313263,62616.9755208353,64885.1802209936,58530.9655861168,67815.1859513517,28356.2577318125
8555061031,9543,2,0,55514.4962021349,58514.1376614107,38918.7311513879,56298.6555915862,56414.1635375264,62639.3397475959,64853.5928800412,58436.4104141057,67820.2233778364,28363.9720515982
8555061031,9543,2,0,55529.0244321415,58512.8722209411,38931.9209347439,56319.4988562439,56406.7169070708,62663.1397625816,64882.7710170226,58449.0283157111,67847.5155218102,28360.8327858179
8555061031,9543,2,0,55538.3935586952,58592.1325980457,38983.8891678747,56399.5014628548,56482.5338259745,62659.5502920188,64924.2993662793,58540.4320542451,67856.6291267306,28353.4348261496
8555061031,9543,2,0,55531.0929406014,58640.0246527408,39001.0091173046,56425.9783711415,56533.0054323961,62624.2031327481,64921.5251314037,58577.2758402249,67835.7493589824,28350.2347218851
8555061031,9543,2,0,55512.9874077289,58593.5318831804,38960.6610346397,56368.9970469196,56491.2823999902,62603.4328742714,64879.4249003963,58509.4774335275,67809.1872768179,28353.3983230591
8555066280,9544,2,0,55505.0297340067,58511.0835695081,38913.2556878175,56299.9575351463,56408.2135337800,62613.8849258423,64851.8407316987,58423.4883200798,67806.0845141281,28357.3649922234
8555066280,9544,2,0,55517.3191077978,58493.0388751197,38917.3318662532,56302.6830992346,56385.8249716258,62642.7101996158,64869.6177367570,58419.9961910916,67828.4365731918,28357.6326815535
8555066280,9544,2,0,55532.1271948313,58566.7021116858,38970.1518381616,56376.5045158594,56453.2826828122,62649.6944575922,64912.1316694564,58506.0096399330,67846.9679754532,28355.4911669126
8555066280,9544,2,0,55525.9216694516,58635.9849773956,39003.9050291484,56423.8003534102,56523.9891690503,62627.7561002204,64919.8338215453,58572.1167367720,67836.0413837062,28350.5145789120
8555066280,9544,2,0,55506.8427208333,58607.5612376172,38975.3109416145,56378.7068689844,56504.6060280113,62608.8596670544,64879.4979065773,58527.7411464587,67813.7258277329,28355.2599806730
8555066280,9544,2,0,55497.4857619764,58520.2458452158,38923.4400500583,56301.1012986476,56420.6124168426,62628.5956713012,64842.5811144165,58427.6131693027,67812.0101824809,28364.7872872854
8555066280,9544,2,0,55511.5272841101,58496.7135195602,38926.9078436529,56306.1265574355,56392.2860186388,62655.8634798814,64866.3811294021,58418.8524275902,67839.8985435991,28368.2794162735
8555066280,9544,2,0,55526.4205450214,58563.6601874801,38976.8075683238,56380.6171973856,56456.8478179813,62656.4962001162,64915.3196060240,58504.6833609793,67853.6237056153,28362.6579403413
8555103666,9545,2,0,55520.8599075733,58624.7055224408,39001.8365206885,56420.9166092631,56521.2636049619,62630.3843227342,64923.0460935066,58562.6624363406,67838.6087677358,28356.4159118712
8555103666,9545,2,0,55504.1901629259,58604.6653257734,38976.5642143873,56384.7542143054,56507.4776044616,62616.2332913291,64883.7444327685,58525.9768304194,67815.1007774739,28354.9314528588
8555103666,9545,2,0,55495.3320796388,58530.6370583026,38931.9696055312,56315.4470132019,56434.2280695874,62624.8115175893,64845.4283554730,58439.6713568543,67811.9858470872,28360.2000655831
8555103666,9545,2,0,55503.6061134784,58492.2114717357,38920.8361629382,56294.6402516346,56389.4022744917,62649.6822898954,64848.4094411946,58405.6504765373,67830.3834046835,28359.6038484388
8555103666,9545,2,0,55522.0645095588,58553.7070114789,38969.0689131444,56360.3823175690,56444.0839040140,62663.6508058481,64894.6466891218,58483.6819162629,67853.9887365200,28353.9458694161
8555103666,9545,2,0,55524.0721795346,58637.5059394985,39012.3980815309,56428.0468796014,56529.8296635253,62641.7854546573,64919.8824923326,58574.9518101317,67850.0585704462,28356.1968933284
8555103666,9545,2,0,55505.9179758747,58627.9299620988,38992.0171893524,56401.0954311386,56531.2046132663,62617.8029242193,64888.8305300405,58554.8872780707,67824.7375933577,28363.4488406348
8555103666,9545,2,0,55493.9327945041,58543.0602767588,38939.3553975027,56321.9080602149,56449.4498583129,62634.9837121333,64849.1638383977,58458.6164608076,67818.8240927017,28375.0081526166
8555113745,9546,2,0,55506.4411868381,58500.5463440595,38930.6433265775,56303.4009933472,56403.9183368015,62663.0180856133,64862.6821495680,58426.5180765887,67843.4515110714,28378.9626540841
8555113745,9546,2,0,55519.2172685022,58546.5889088375,38971.3929432375,56361.7207642195,56447.1136605229,62668.4813814868,64905.2204176610,58493.5742537799,67860.7296405599,28370.4696017017
8555113745,9546,2,0,55521.9306648937,58620.6901824892,39009.8793682885,56418.3613929303,56521.7138097444,62647.8206322815,64924.7860741523,58566.7994532604,67851.7498803046,28362.4024187081
8555113745,9546,2,0,55505.9909820557,58623.6591005140,38992.2118725016,56400.2558600578,56530.8639177552,62620.5163206108,64897.5669363593,58555.3739859436,67823.2653020421,28356.3915764775
8555113745,9546,2,0,55495.3442473356,58552.3320617379,38941.8376076546,56331.1798451939,56463.0533433610,62621.9156057454,64856.7078104279,58472.2077781588,67809.5644754195,28361.2464875099
8555113745,9546,2,0,55508.9355646868,58499.5850960104,38918.4026235736,56297.5118280849,56407.0332671882,62658.2483484587,64857.8272385356,58421.0304453215,67831.5271681849,28368.9121365083
8555113745,9546,2,0,55532.7842504598,58545.5424869107,38959.3590910797,56356.3791453143,56445.2398352122,62679.9433518940,64906.0113179545,58482.8423451821,67860.8026467409,28365.2739951583
8555113745,9546,2,0,55539.6468314679,58635.1940771021,39012.0573860198,56436.1870687759,56533.9910158387,62658.4551993047,64938.7180870145,58581.1451678146,67860.6566343790,28358.8494512358
8555142374,9547,2,0,55521.7116463509,58643.0179061593,39002.4935763170,56426.5502528922,56549.3466492293,62623.3148908801,64907.5444477541,58576.6309522933,67827.2319712064,28360.0540532212
8555142374,9547,2,0,55501.8052943486,58561.8350329566,38945.5122520951,56342.8364987503,56470.7311600563,62615.3815525515,64854.7609789362,58476.4908074405,67805.9993402503,28363.6070206935
8555142374,9547,2,0,55503.0829025150,58497.4314136728,38916.0055872995,56300.3955722319,56403.7601567428,62646.8350488388,64848.2512611359,58420.7140852041,67821.4279798218,28365.3713367329
8555142374,9547,2,0,55523.8896640822,58531.5253001707,38950.3184923402,56346.9126771860,56434.1307280129,62673.4823048811,64891.8237834589,58473.9234234109,67852.3217620553,28364.5926041362
8555142374,9547,2,0,55534.8770943133,58614.9835326792,39000.4250678571,56418.7385915318,56516.7493894406,62662.9085763419,64926.2218623774,58561.5795113233,67861.1068391614,28363.6800268745
8555142374,9547,2,0,55523.6584778426,58641.7646333865,39001.8121852949,56425.0414584861,56549.6265062562,62629.5934224407,64910.5498688694,58577.9572312470,67838.2437368311,28362.4875925858
8555142374,9547,2,0,55502.6570331262,58578.5656160882,38952.6790255239,56353.6779166196,56491.2458968998,62617.3527194368,64861.7939076999,58497.0542150713,67816.1958701880,28366.4177586596
8555142374,9547,2,0,55499.2014072285,58501.5075921085,38909.4350310151,56288.6780801914,56413.0076063282,62643.8904662077,64838.9673084600,58413.9975165579,67821.5009860028,28368.6322794814
8555178726,9548,2,0,55520.9937522384,58522.1683413138,38939.4040682900,56327.7850577803,56425.4308247845,62684.6887536550,64882.3451476338,58454.7106301274,67854.5727859675,28369.8733845573
8555178726,9548,2,0,55538.3813909983,58618.1471338532,39003.9780353294,56417.4123125781,56519.5479597099,62675.4656394632,64931.0524380161,58561.1414742377,67867.4705445998,28370.1289061906
8555178726,9548,2,0,55527.1749422244,58651.8029832654,39010.1592253154,56425.1022969702,56557.6693538562,62637.8066177962,64917.2299344252,58581.9239004113,67841.5776857606,28369.2284966257
8555178726,9548,2,0,55504.0441505640,58586.3772774485,38956.5848562040,56350.1979553282,56494.3243241960,62615.4788941261,64864.8236642088,58496.5796748952,67813.0931074981,28366.2717462978
8555178726,9548,2,0,55498.5321839032,58505.7541182997,38910.7248068784,56290.3450546562,56411.6934950714,62629.6420932280,64842.8123006561,58417.1002792477,67813.5554799774,28364.4952625616
8555178726,9548,2,0,55511.3082655673,58505.2187396395,38921.8339140777,56315.7390379256,56411.0607748366,62654.5980394119,64872.3676362390,58436.3495756216,67835.7128558920,28357.3041537392
8555178726,9548,2,0,55524.4250427424,58581.9847388954,38971.3686078439,56390.9840750787,56487.9484510607,62659.9031552267,64911.8153093390,58528.9457484442,67846.5542737612,28354.5177511668
8555178726,9548,2,0,55516.7958968344,58634.1719905690,38995.6188276120,56423.9585334689,56545.2583030968,62633.8764517224,64911.8639801263,58579.6242057118,67832.4884162339,28360.0053824339
8555229648,9549,2,0,55499.3230841967,58595.6612301244,38963.1310770948,56371.8929587635,56509.2662558945,62621.2342147233,64869.2648735492,58520.1728390349,67814.2977094836,28367.9995592466
8555229648,9549,2,0,55496.7557001671,58511.5216065937,38918.2809466054,56298.5825854053,56424.8467753370,62642.6006903444,64837.3855078731,58424.6320835811,67819.7610053571,28370.5304401858
8555229648,9549,2,0,55514.9950777046,58504.0993115318,38930.4973142156,56312.5632690548,56410.0265206066,62671.9856781718,64866.7583280036,58432.0178755526,67849.0851547004,28369.7030368018
8555229648,9549,2,0,55531.4823068997,58585.4525324899,38986.8459182027,56395.2549366636,56487.8876125766,62669.9658404992,64915.0032459066,58531.4766293834,67863.8689063403,28369.3745089876
8555229648,9549,2,0,55524.8630798281,58638.8565538458,39008.7842755744,56424.2262227990,56544.3457258351,62637.2347360455,64915.9523262588,58579.4538579562,67842.2834121763,28372.4407685870
8555229648,9549,2,0,55506.4168514445,58598.9221728729,38970.4560305822,56370.9925491986,56509.2784235913,62618.7763399651,64873.6087413150,58522.4360306439,67815.4536406818,28374.4241031691
8555229648,9549,2,0,55497.6804451256,58516.8145547117,38921.9920941364,56300.8579447112,56428.2780658410,62627.8777771887,64842.7149590815,58438.8317857735,67812.3387102951,28376.0545745434
8555229648,9549,2,0,55510.7120484230,58492.9537012419,38919.4490455004,56300.8336093175,56401.0345926545,62656.8490633241,64859.2873621544,58427.5766662123,67835.0192971731,28374.9108110420
8555234279,9550,2,0,55528.4890534813,58558.8296118413,38968.5822052714,56373.1949023236,56466.3751245937,62671.8031627195,64905.3055915387,58510.8523832685,67854.9743199627,28370.1410738875
8555234279,9550,2,0,55526.7490728356,58632.1278175027,39005.2434757990,56424.3965705545,56541.3403047198,62647.3095890149,64919.9311631199,58579.8188888609,67846.6394476390,28368.3280870608
8555234279,9550,2,0,55502.2189960406,58605.9185985461,38974.0211657513,56376.1759880452,56519.6574689813,62612.9115100965,64875.8841006209,58533.1922746354,67816.5974041831,28365.6633614566
8555234279,9550,2,0,55488.0801323323,58516.4130207166,38914.2047681697,56289.3594712135,56425.8445264764,62623.2297170023,64833.6378572516,58427.5644985155,67807.7028178055,28367.0139758040
8555234279,9550,2,0,55501.5497727153,58487.0888713733,38911.7225580178,56281.3896297945,56390.5338702963,62656.9829079891,64850.7821420751,58412.4887221518,67833.1941426496,28368.4862671195
8555234279,9550,2,0,55520.4583735781,58557.1869727703,38963.4352695153,56357.9122751140,56454.7306387341,62664.5390477162,64899.6111094256,58502.1768154337,67853.2465070138,28364.3005794124
8555234279,9550,2,0,55523.1230991824,58630.8380416395,39000.1087077397,56411.8030043428,56531.5453087773,62646.7255395674,64916.4268664349,58575.5723626697,67844.7899577219,28363.6435237840
8555234279,9550,2,0,55511.3326009609,58621.5784243573,38982.0275102608,56388.9642374061,56525.8264912705,62632.5501727687,64890.8016969258,58550.6650872732,67825.8570214654,28368.4254286354
8555268883,9551,2,0,55505.0540694003,58550.3122240653,38938.4793233315,56325.1933383571,56456.3976131988,62642.8805473714,64859.7619023305,58473.1446908142,67826.1612138859,28377.9770706414
8555268883,9551,2,0,55510.3348498215,58502.9798834240,38921.1525230556,56298.4000699529,56404.5997278236,62670.6715669150,64862.3901248442,58434.6339303696,67842.1130644208,28379.1086664460
8555268883,9551,2,0,55528.8784197796,58553.1594651219,38965.1144116769,56359.1047094026,56449.8635600049,62686.1610449706,64907.0820752749,58502.8582064558,67868.2127741060,28375.8477236974
8555268883,9551,2,0,55529.7423262540,58630.6798615808,39006.8252763859,56425.4064893908,56529.8296635253,62661.0347510312,64931.2349534684,58587.3506931943,67861.0216652837,28368.1090685180
8555268883,9551,2,0,55513.7174695382,58629.7429489255,38990.8369227606,56405.1716095743,56536.3028782351,62634.3509918985,64901.5822763109,58572.4087614957,67834.5812600874,28367.6101929483
8555268883,9551,2,0,55503.8494674148,58548.0246970626,38936.3378086906,56322.5772835401,56457.1398427050,62632.7813590083,64854.4446188188,58472.0374304033,67820.2963840173,28372.3920977997
8555268883,9551,2,0,55508.2906767552,58494.9492035209,38912.9028246097,56291.0507810719,56400.0611769086,62658.8202302094,64854.6758050585,58425.8975240507,67834.5204216033,28374.7891340738
8555268883,9551,2,0,55522.4173727666,58542.0746933162,38953.4090873332,56351.0010233185,56443.6336992316,62674.1636959031,64897.7372841149,58495.9469546604,67857.5052009019,28376.5047793258
8555301003,9552,2,0,55523.0257576078,58617.8551091294,38993.1974559443,56412.2288737316,56521.1297602969,62658.3821931238,64921.2939451641,58575.3046733396,67853.4168547693,28372.9639795504
8555301003,9552,2,0,55510.0549927945,58629.2075702652,38984.5827265936,56404.9890941219,56537.7873372475,62640.6781942464,64901.0225622571,58575.3533441269,67833.1698072560,28376.7359655655
8555301003,9552,2,0,55502.8882193658,58564.9986341306,38940.6451733660,56340.3664562953,56473.8582581398,62638.4150026373,64863.0958512599,58497.5409229442,67823.0219481056,28383.4525342117
8555301003,9552,2,0,55508.9112292932,58498.6116802646,38910.7248068784,56293.9345252189,56404.1130199507,62661.3389434518,64850.3076018990,58431.8231924035,67835.0192971731,28387.1880171364
8555301003,9552,2,0,55520.8112367860,58522.4847014312,38939.2215528377,56334.4407879425,56422.9729500262,62677.7409987691,64884.3406499128,58472.8648337873,67856.7143006084,28377.8675613700
8555301003,9552,2,0,55525.5566385470,58606.5391510841,38991.6521584477,56409.5763158242,56507.5262752488,62660.5115400678,64918.2398532615,58571.3501718722,67858.2109273176,28366.1622370264
8555301003,9552,2,0,55510.3105144278,58629.2319056589,38988.7927496944,56407.2522857310,56534.5994006799,62629.1067145678,64896.8977130341,58579.9892366164,67832.4884162339,28363.9720515982
8555301003,9552,2,0,55491.7426090760,58558.7079348731,38934.0746170816,56328.8314797071,56467.8474159092,62623.9962819022,64848.8718136739,58489.0722059554,67813.1296105886,28368.6566148751
8555352616,9553,2,0,55493.3122419662,58493.4890799021,38899.3115072584,56280.8299157406,56401.5213005274,62651.1667489078,64840.1840781423,58428.4405726867,67828.1688838617,28371.3456758729
8555352616,9553,2,0,55513.0117431225,58521.8519811964,38929.2075383524,56324.2685933985,56425.9662034447,62682.7175867697,64880.7633470468,58474.6169821298,67856.9819899385,28375.3853512181
8555352616,9553,2,0,55531.4093007188,58612.4769871337,38987.0771044423,56403.0787657207,56512.0404907702,62678.4832282753,64924.5183848221,58571.5083519309,67869.0766805805,28376.3831023576
8555352616,9553,2,0,55521.4561247176,58647.0454138077,38998.1618762480,56418.8724361969,56549.7968540117,62645.5574406724,64917.5097914521,58597.5958939192,67847.3330063579,28369.3380058971
8555352616,9553,2,0,55500.6615308472,58586.7058052627,38951.6447712939,56353.4710657736,56492.5721758534,62627.4762431935,64872.1121146057,58523.5676264485,67821.9755261789,28371.3700112666
8555352616,9553,2,0,55497.8872959716,58502.2863247051,38903.8622258702,56286.5609009442,56406.9480933104,62647.5407752545,64844.2845919717,58435.9723770201,67825.2608043210,28377.3200150130
8555352616,9553,2,0,55515.2262639443,58509.5869427989,38921.5905601412,56313.7435356467,56407.0089317945,62674.1515282063,64876.6141624302,58458.7746408663,67852.7354637473,28378.0865799128
8555352616,9553,2,0,55527.3452899799,58594.0794295374,38977.1482638348,56395.2062658763,56492.6330143376,62667.0577609585,64920.3205294182,58560.9102879981,67862.3844473278,28374.3024262009
8555358137,9554,2,0,55517.3677785851,58634.9385554688,38990.2893764036,56416.9621077957,56539.9531872820,62635.6042646712,64912.9104020531,58595.3570377038,67838.7426124009,28373.2681719709
8555358137,9554,2,0,55499.7611212823,58581.3520186606,38948.1039715184,56353.6779166196,56490.5158350904,62624.1544619609,64870.2504569918,58518.7613862034,67817.4613106576,28374.9594818293
8555358137,9554,2,0,55498.3618361477,58507.5914405199,38911.0776700862,56296.7574308818,56411.7786689491,62641.0675605447,64852.0110794542,58441.0463065953,67824.1778793038,28377.0644933797
8555358137,9554,2,0,55512.0626627703,58506.3016646567,38923.9997641122,56314.1572373387,56405.3906281171,62667.1185994427,64877.7457582348,58455.0148225480,67849.9977319621,28373.4141843328
8555358137,9554,2,0,55524.6440612852,58582.6904653111,38976.0653388176,56384.3891834007,56478.2751320865,62672.6914045876,64917.8748223568,58544.2892141379,67864.9883344480,28372.2825885283
8555358137,9554,2,0,55516.7472260471,58637.4451010144,38999.3421428398,56416.7430892529,56535.7188287876,62640.9823866670,64916.6945557650,58595.6855655180,67849.1581608813,28370.6399494572
8555358137,9554,2,0,55498.5200162064,58601.0515198170,38963.9463127819,56370.3476612670,56504.1801586225,62622.0129473200,64875.7015851685,58544.5204003776,67822.4744017486,28373.6088674820
8555358137,9554,2,0,55493.5555959026,58514.2471706821,38910.4206144578,56294.6402516346,56417.9233558447,62636.1153079378,64841.3278416437,58448.1522415399,67820.3328871078,28377.4295242844
8555401062,9555,2,0,55510.9675700563,58499.7432760691,38915.0930100378,56300.3103983541,56397.0435880965,62662.5557131341,64866.2594524339,58446.9719749480,67847.2113293896,28374.8256371643
8555401062,9555,2,0,55527.1019360435,58580.0257397069,38970.6020429441,56380.4468496300,56473.4932272351,62667.2646118045,64915.2952706304,58543.8998478396,67864.2704403354,28371.5768621126
8555401062,9555,2,0,55522.8675775491,58643.2004216116,38998.8797703606,56419.8823550332,56541.3038016293,62650.2663393429,64919.5052937311,58600.8446689710,67850.9954831016,28373.5723643915
8555401062,9555,2,0,55509.3736017724,58613.9736138429,38971.4537817217,56376.2854973166,56518.7205563260,62639.1450644467,64883.1847187146,58552.2833909506,67834.4595831192,28377.0158225924
8555401062,9555,2,0,55506.0639882366,58536.8790867728,38928.3436318780,56313.5001817102,56442.7697927571,62646.4700179341,64856.9024935771,58470.1514373957,67835.8832036475,28383.5012049990
8555401062,9555,2,0,55519.6188024974,58507.8712975469,38923.7807455694,56310.8111207123,56409.6371543083,62670.5255545531,64873.7425859800,58456.6696293159,67857.4808655082,28380.7756409107
8555401062,9555,2,0,55535.0352743720,58568.1257322141,38967.5966218288,56374.4603427932,56468.2732852980,62679.3349670529,64916.0618355302,58533.3261193005,67874.9780135396,28372.6719548266
8555401062,9555,2,0,55534.4633926214,58641.5212794501,39006.5210839654,56428.3510720220,56543.7495086907,62658.8202302094,64931.8555060064,58610.4084786738,67866.4971288540,28369.9950615256
8555433925,9556,2,0,55517.8909895485,58627.9056267052,38982.6723981924,56394.0259992844,56535.0496054623,62634.1319733557,64898.3821720465,58578.4196037263,67840.0445559609,28375.0081526166
8555433925,9556,2,0,55505.4069326082,58540.9796006021,38924.6203166502,56310.8719591965,56444.5341087965,62641.9314670192,64853.6537185253,58474.9333422472,67830.1522184439,28383.8540682069
8555433925,9556,2,0,55518.8035668102,58507.7982913659,38919.8627471924,56298.5217469212,56405.0134295156,62682.3525558650,64870.4816432315,58450.0260668506,67857.7485548383,28391.2763632689
8555433925,9556,2,0,55539.5494898933,58575.6575365475,38977.7566486759,56374.6428582455,56471.6072342275,62696.4792518764,64923.6666460445,58537.4753039171,67887.1578780594,28388.9401654789
8555433925,9556,2,0,55536.4102241130,58648.1283388249,39017.5085141965,56427.7913579681,56546.9496129552,62671.2069455752,64936.5765723737,58608.9240196614,67875.9270938918,28381.4691996296
8555433925,9556,2,0,55512.8535630638,58632.7362023439,38993.8423438759,56392.5293725752,56536.1203627828,62635.9449601823,64897.0558930928,58574.7692946794,67843.6705296142,28373.5966997852
8555433925,9556,2,0,55499.6394443141,58550.0567024320,38940.8276888183,56317.7223725078,56454.4994524945,62638.0743071263,64855.1746806282,58483.7427547470,67827.3901512651,28370.8102972127
8555433925,9556,2,0,55509.0207385646,58496.9568734967,38919.3882070163,56288.5077324359,56398.1630162042,62662.2393530167,64854.0309171268,58437.4081652452,67840.0810590514,28371.6011975062
8555465194,9557,2,0,55528.1240225766,58540.0183525531,38956.1711545120,56341.1816919824,56435.3961684824,62679.5661532925,64894.5250121536,58495.3750729097,67861.9220748486,28369.7030368018
8555465194,9557,2,0,55532.6747411884,58623.2819019125,39002.0190361409,56410.9877686556,56521.7989836222,62661.2781049676,64924.8469126364,58586.7788114436,67860.9486591027,28365.9675538772
8555465194,9557,2,0,55518.4142005119,58633.8312950580,38992.8324250396,56401.5091328305,56539.4299763186,62637.6119346470,64901.7404563696,58584.7833091647,67839.0954756087,28369.8247137701
8555465194,9557,2,0,55508.3636829361,58559.7908598904,38941.0223719675,56325.3393507189,56466.4968015619,62641.2379083003,64860.4797964430,58490.6175034519,67830.0913799598,28377.9649029446
8555465194,9557,2,0,55518.3655297246,58508.9663902609,38923.6834039948,56295.1391272044,56410.2820422399,62669.2114432962,64866.0647692847,58443.9178830455,67851.8593895760,28382.5034538596
8555465194,9557,2,0,55537.7608384604,58556.5177494450,38964.1166605374,56354.3228045512,56451.0073235063,62685.7595109754,64912.8617312658,58507.6644467009,67875.4768891093,28378.7923063286
8555465194,9557,2,0,55540.6932533947,58638.3333428824,39010.3052376773,56418.2397159621,56532.1050228312,62676.1591981821,64940.2633845110,58592.0352564712,67873.7490761605,28375.1419972817
8555465194,9557,2,0,55531.5796484743,58661.5858115111,39014.5152607780,56417.2419648226,56561.4778429618,62668.3475368218,64925.0780988760,58601.7085754454,67859.0018276111,28384.2921052925
8555493385,9558,2,0,55519.3632808641,58601.3435445407,38973.0720853991,56352.3881407563,56505.0075620065,62663.0667564006,64885.0707117222,58526.1836812654,67848.8783038544,28395.1578585554
8555493385,9558,2,0,55523.5002977839,58533.1071007576,38939.9151115566,56304.1918936407,56432.5489274259,62679.9555195909,64868.6078179207,58458.7138023822,67858.6854674937,28404.5513205027
8555493385,9558,2,0,55541.8491845929,58554.1937193518,38964.2991759898,56341.3642074348,56447.6125360927,62694.4107434165,64904.0158156755,58496.5431718047,67881.2808804939,28403.5170662728
8555493385,9558,2,0,55548.5657532391,58640.0489881345,39015.0141363478,56417.6434988178,56528.1018505764,62675.5021425537,64940.0200305746,58591.2565238745,67879.4557259704,28393.7220703303
8555493385,9558,2,0,55533.3682999073,58667.0126042941,39014.2110683575,56420.0892058792,56556.3552425993,62645.5331052788,64922.2186901226,58604.0569409322,67849.8638872970,28388.8914946916
8555493385,9558,2,0,55514.7395560714,58596.5738073861,38962.4983568600,56342.0821015473,56491.3189030807,62642.1869886525,64872.1242823026,58512.0083144667,67827.4388220524,28391.6292264768
8555493385,9558,2,0,55516.0293319346,58524.0299989277,38928.5869858144,56289.6879990277,56415.3194687246,62667.9338351298,64859.3360329417,58438.7709472894,67838.0247182883,28393.4908840907
8555493385,9558,2,0,55531.0077667236,58540.8700913307,38951.5839328098,56328.0527471105,56427.6696809999,62690.9672852156,64894.5371798504,58473.8504172299,67864.2826080322,28386.5796322952
8555522477,9559,2,0,55541.3016382358,58616.6140040535,38998.1983793385,56401.1806050163,56506.8205488331,62687.8401871321,64931.4053012239,58563.4776720277,67871.4615491578,28378.2325922747
8555522477,9559,2,0,55535.9356839369,58658.1058502197,39012.8604540101,56424.7616014592,56557.3773291324,62667.1794379268,64929.3854635513,58602.6089850103,67859.1356722761,28378.5002816048
8555522477,9559,2,0,55520.1420134607,58611.0777019991,38973.2789362451,56368.4495005626,56516.8102279248,62654.0748284485,64891.3979140701,58543.2549599080,67842.2469090859,28381.9194044121
8555522477,9559,2,0,55515.1897608538,58533.2287777259,38925.9952663911,56300.9674539826,56434.8729575191,62666.6562269634,64864.9818442675,58460.0400813359,67843.5366849491,28385.9469120605
8555522477,9559,2,0,55531.7134931394,58536.6113974427,38938.8078511457,56321.1293276182,56428.1442211760,62692.3909057439,64896.0946450438,58476.8558383452,67869.6363946343,28384.9856640114
8555522477,9559,2,0,55547.9086976107,58623.2940696093,38993.1731205506,56407.9336767531,56512.5880371272,62683.0217791902,64943.3174764136,58579.8432242546,67877.7400807184,28377.9527352478
8555522477,9559,2,0,55538.5274033602,58669.9693546221,39007.2633134716,56433.2303184480,56564.3737548056,62650.0473208001,64936.2845476499,58618.9623695403,67853.7575502804,28374.4362708660
8555522477,9559,2,0,55521.9793356810,58620.0939653449,38962.5713630409,56372.2336542746,56517.5402897341,62637.6727731311,64891.0815539527,58545.1531206124,67830.6754294073,28377.2226734384
8555552185,9560,2,0,55518.8035668102,58540.1035264308,38916.2854443264,56309.5943510300,56435.4813423602,62651.7507983553,64867.6587375685,58459.9549074581,67832.8047763513,28380.3497715219
8555552185,9560,2,0,55530.5697296380,58527.8263203365,38922.5761435839,56323.5141961955,56418.9211069842,62677.2664585930,64890.3514921433,58463.0820055416,67854.8039722072,28379.7292189839
8555552185,9560,2,0,55543.5161590576,58597.6567324034,38971.4902848121,56393.6488006829,56486.4761597452,62679.8216749258,64930.0181837861,58545.6641638789,67868.5778050107,28378.2325922747
8555552185,9560,2,0,55537.3471367684,58655.3194476473,38996.9329388689,56430.2492327263,56545.1366261286,62653.4786113041,64932.9627664173,58599.7252408633,67853.3803516789,28380.5322869742
8555552185,9560,2,0,55518.7548960229,58624.6811870471,38964.3113436866,56383.0385690533,56519.5966304972,62629.2648946265,64892.2861559382,58553.8286884471,67828.0228714999,28383.8175651164
8555552185,9560,2,0,55505.8449696938,58532.3648712514,38906.6486284427,56298.2297221974,56429.3609908583,62634.1076379620,64852.8506505350,58454.6497916433,67819.8218438412,28384.0365836593
8555552185,9560,2,0,55514.7517237682,58503.5517651747,38902.9496486085,56292.3770600256,56397.9561653583,62666.2425252714,64870.7128294711,58444.9399695786,67842.7579523524,28380.7269701234
8555552185,9560,2,0,55532.5408965233,58579.1740009293,38957.8746320673,56375.5432678104,56475.9511019933,62678.0086880992,64922.1700193353,58544.1432017761,67864.3069434259,28374.8864756484
8555581073,9561,2,0,55531.1294436919,58648.6515497883,38990.4718918559,56422.7052606961,56549.8211894054,62658.5403731825,64932.5368970285,58612.8541857352,67852.8084699282,28370.6764525477
8555581073,9561,2,0,55514.7882268587,58624.4013300202,38962.8755554615,56379.5342723683,56528.2600306351,62640.9337158797,64893.7219441633,58567.7607013094,67831.1986403707,28372.2095823474
8555581073,9561,2,0,55506.0518205398,58546.1508717518,38916.8329906835,56308.7547799493,56449.4620260098,62652.2740093187,64859.6888961495,58480.3114642429,67831.1134664929,28377.0523256829
8555581073,9561,2,0,55513.8878172938,58513.3832642077,38910.3719436705,56296.6965923977,56411.5353150127,62680.7220844907,64869.7029106348,58458.1175852379,67853.3803516789,28379.0721633555
8555581073,9561,2,0,55529.8275001318,58569.4155080773,38954.8692109520,56360.0051189675,56465.1461872145,62689.4949939001,64911.4137753438,58530.1990212170,67873.2867036812,28376.0545745434
8555581073,9561,2,0,55531.6891577457,58642.8840614942,38993.9396854505,56418.9454423778,56540.8900999374,62669.6251449882,64931.9163444905,58609.5810752898,67865.5115454113,28371.0171480587
8555581073,9561,2,0,55520.7017275146,58634.0503136008,38975.3474447050,56395.7903153238,56540.0626965534,62634.5943458349,64900.9617237729,58587.0951715610,67837.2338179948,28373.8887245089
8555581073,9561,2,0,55509.7386326771,58541.8556747733,38914.9713330696,56313.1229831087,56450.1799201223,62634.0589671747,64854.1890971855,58481.7107493775,67819.6879991762,28377.0279902892
8555610445,9562,2,0,55517.3434431915,58492.1141301612,38896.1357383876,56289.4446450913,56395.9119922920,62664.2956937797,64861.2220259492,58442.8471257251,67838.1828983470,28378.6219585730
8555610445,9562,2,0,55531.2146175696,58548.2315479086,38944.0642961732,56356.8658531872,56449.6567091589,62677.2907939866,64910.7688874122,58524.3463590451,67861.8003978803,28375.3731835213
8555610445,9562,2,0,55528.8297489923,58623.4644173648,38984.9964282856,56416.0982013213,56529.7931604348,62656.3258523607,64927.4021289692,58602.6698234944,67854.5606182707,28368.3767578481
8555610445,9562,2,0,55512.0383273767,58620.5806732178,38972.0865019565,56393.5271237147,56531.4844702932,62631.3699061769,64896.1311481342,58584.6616321965,67828.6312563410,28367.1721558627
8555610445,9562,2,0,55500.4303446076,58548.6939203878,38927.9177624892,56324.3659349731,56463.1385172388,62637.1008913805,64856.3792826137,58499.9622946120,67820.2963840173,28373.9738983867
8555610445,9562,2,0,55509.2640925010,58500.2178162452,38909.7027203452,56293.0097802604,56411.1459487143,62669.2479463867,64854.8583205108,58452.7759663326,67839.9107112959,28377.6607105240
8555610445,9562,2,0,55536.4345595067,58550.9936150874,38953.4090873332,56349.6869120616,56453.2705151153,62694.9339543799,64901.7526240664,58515.4761080612,67872.7513250210,28379.2425111110
8555610445,9562,2,0,55544.9641149795,58641.6064533278,39004.6594263515,56423.4718255960,56539.8923487979,62673.8108326953,64935.7004982024,58610.7370064880,67873.4813868304,28379.4128588665
8555643234,9563,2,0,55527.1262714371,58651.4744554512,38992.1266986238,56410.3672161177,56552.8752813079,62630.8588629103,64904.7823805753,58605.5292322478,67840.4582576529,28375.6043697610
8555643234,9563,2,0,55505.9301435716,58566.7629501699,38930.2052894919,56323.7453824351,56471.1326940514,62623.7650956625,64845.8542248618,58502.1403123433,67816.8407581196,28372.0392345918
8555643234,9563,2,0,55509.1789186233,58500.6801887245,38901.5990342611,56280.7690772565,56401.8376606448,62657.2992681065,64837.5558556286,58442.2752439744,67833.4618319797,28370.2992539461
8555643234,9563,2,0,55524.8995829185,58534.7740752224,38941.2048874198,56333.2848567443,56434.8364544286,62680.5030659479,64878.1716276236,58501.0695550228,67860.2429326870,28364.8237903758
8555643234,9563,2,0,55531.5674807775,58618.1227984595,38995.5944922184,56403.1274365080,56521.5434619889,62672.4115475606,64909.6737946982,58592.4854612536,67865.2925268685,28367.3911744055
8555643234,9563,2,0,55516.7107229567,58638.7713799681,39001.6540052362,56402.5677224542,56550.1983880069,62650.2298362524,64892.8337022952,58603.1200282769,67845.6781995900,28371.6133652030
8555643234,9563,2,0,55497.4979296733,58577.1784986503,38960.7827116079,56338.5047986814,56494.3121564991,62638.3784995469,64851.9745763638,58529.8704934027,67827.6091698079,28381.3718580550
8555643234,9563,2,0,55493.1053911202,58501.9699645877,38920.8483306350,56283.4459705575,56416.1225367149,62651.2519227855,64833.7473665230,58453.0314879659,67830.5902555295,28384.8761547400
8555710963,9564,2,0,55510.1036635818,58515.5247788485,38938.0656216395,56313.3298339547,56420.6245845394,62670.1361882547,64866.0769369816,58480.1532841842,67850.1315766271,28377.3443504066
8555710963,9564,2,0,55522.6728943999,58601.1731967852,38990.4962272496,56393.6122975925,56503.0363951212,62662.8599055546,64907.4106030891,58580.6462922449,67854.2929289406,28369.8247137701
8555710963,9564,2,0,55517.4772878565,58639.1485785696,38998.6485841209,56409.3086264941,56549.6873447403,62638.0378040358,64900.1951588731,58612.1362916227,67834.7881109334,28371.2483342983
8555710963,9564,2,0,55499.4325934681,58575.5601949729,38947.8362821883,56338.8333264956,56492.6451820344,62626.7826844746,64850.5266204418,58530.3450335788,67812.1318594491,28375.0203203135
8555710963,9564,2,0,55498.8363763238,58498.0276308171,38908.6928015089,56285.1007773255,56415.8061765975,62649.5971160176,64835.3413348068,58456.6939647096,67823.9101899737,28379.6197097125
8555710963,9564,2,0,55516.3456920520,58510.0006444909,38930.5824880934,56320.6912905326,56424.1897197085,62670.4890514626,64871.6862452169,58488.7801812317,67850.2289182017,28378.0622445192
8555710963,9564,2,0,55527.8928363370,58588.4092828179,38978.4258720012,56391.5559568294,56501.7952900452,62660.5723785519,64907.6417893287,58573.5768603907,67853.7453825836,28373.9982337803
8555710963,9564,2,0,55517.6963063993,58629.6821104413,38991.4331399049,56409.6614897019,56546.9252775615,62635.8111155172,64899.7084510002,58605.1642013431,67833.7660244003,28372.7814640980
8555727310,9565,2,0,55497.8994636684,58582.2159251350,38953.2022364872,56351.2200418613,56502.4401779769,62624.0206172958,64855.4058668678,58544.6420773458,67812.1196917523,28373.4871905138
8555727310,9565,2,0,55491.0125472666,58499.6215991009,38907.9505720027,56280.2215308995,56417.5826603337,62646.4700179341,64825.5341711675,58455.9030644161,67814.6505726914,28381.2015102995
8555727310,9565,2,0,55508.5218629948,58493.1848874816,38923.1115222441,56291.0386133751,56403.2856165667,62674.8085838348,64852.8141474446,58463.8242350478,67842.0157228462,28381.2501810868
8555727310,9565,2,0,55521.8211556223,58574.5381084398,38980.6890636103,56372.1971511841,56480.9763607812,62671.0974363038,64900.0734819049,58563.4046658468,67855.6313755911,28375.2758419467
8555727310,9565,2,0,55513.8148111128,58629.4022534144,39002.8342718280,56405.1837772711,56541.3524724166,62642.7832057968,64897.8467933863,58611.7347576275,67836.7714455156,28371.6985390808
8555727310,9565,2,0,55495.1252287928,58585.4403647931,38963.5812818772,56346.5354785845,56503.6691153560,62630.2018072819,64851.9259055765,58546.1387040550,67811.4261330334,28374.8621402548
8555727310,9565,2,0,55491.5114228364,58506.9587202851,38919.1205176862,56284.8574233890,56424.9562846084,62647.8084645847,64830.3404114126,58463.4957072336,67817.5708199290,28377.1740026511
8555727310,9565,2,0,55507.7552980950,58497.9911277266,38928.0394394574,56302.3545714204,56414.1757052232,62677.1082785343,64858.6789773132,58474.1302742568,67846.5177706707,28375.4948604895
8555733896,9566,2,0,55523.5611362680,58567.7850367030,38976.5398789937,56373.5599332283,56482.2174658571,62678.6657437276,64904.1618280374,58560.7277725457,67863.0293352595,28371.9662284109
8555733896,9566,2,0,55519.3267777736,58631.4099233902,39007.6526797699,56415.4168102992,56547.1807991948,62651.2519227855,64914.3948610655,58621.1160518780,67850.3384274731,28374.9473141325
8555733896,9566,2,0,55498.4713454191,58600.8081658805,38975.1892646463,56371.4670893747,56522.9792502140,62621.1612085424,64873.8399275546,58574.9639778286,67821.8173461202,28378.4516108175
8555733896,9566,2,0,55483.5050783269,58505.6324413314,38914.7036437395,56289.6636636341,56430.8332821738,62627.9386156728,64829.5860142096,58469.9932573370,67811.3409591556,28379.1086664460
8555733896,9566,2,0,55498.0819791208,58476.4543043500,38911.1871793576,56286.3175470078,56397.2017681552,62670.6228961277,64849.9790740848,58452.3257615501,67840.9693009195,28379.9117344363
8555733896,9566,2,0,55522.5998882190,58559.2433135333,38972.5002036484,56374.5698520646,56473.5662334160,62686.6112497530,64910.9757382582,58554.4735763787,67871.2181952213,28383.4038634245
8555733896,9566,2,0,55523.1474345760,58635.3157540704,39009.7333559266,56428.2780658410,56551.0257913909,62659.9639937108,64923.7761553160,58627.2850741672,67861.2528515233,28379.3033495951
8555733896,9566,2,0,55507.0739070729,58615.2390543125,38983.6093108478,56389.1345851616,56538.4200574823,62644.1946586282,64886.6890153996,58589.5773817129,67835.4938373491,28376.7481332623
8555769039,9567,2,0,55500.7223693313,58540.0183525531,38938.0534539427,56319.3528438821,56463.9659206227,62654.6102071087,64852.1327564225,58505.7176152092,67831.5758389722,28380.3376038251
8555769039,9567,2,0,55510.3470175183,58507.0560618597,38930.2661279760,56303.0724655330,56425.8323587796,62680.5517367352,64862.5483049029,58480.1411164874,67850.8494707397,28381.7368889597
8555769039,9567,2,0,55528.2943703321,58564.4754231672,38972.7557252817,56361.3922364053,56474.1137797730,62696.8321150843,64902.8720521741,58548.0003616689,67870.0987671136,28376.8211394432
8555769039,9567,2,0,55529.6328169826,58642.2878443499,39013.6026835163,56419.8336842459,56550.3200649751,62673.5188079715,64922.7175656924,58622.2354799857,67864.0149187021,28369.7517075891
8555769039,9567,2,0,55510.9554023594,58637.8588027064,38996.0812000913,56396.2405201062,56552.6927658556,62639.5465984419,64888.8426977373,58603.3512145165,67834.0215460336,28372.5016070711
8555769039,9567,2,0,55494.9792164309,58549.6795038305,38937.5545783729,56312.0887288787,56469.8185827945,62637.7579470089,64841.3400093405,58501.4710890180,67819.7366699634,28377.6850459177
8555769039,9567,2,0,55500.9900586614,58495.0830481860,38919.6802317400,56281.8520022737,56413.0319417219,62670.6107284308,64845.5865355317,58458.5556223235,67841.4560087924,28382.0045782898
8555769039,9567,2,0,55519.9473303116,58547.0877844072,38968.2536774572,56349.3827196411,56460.8023194487,62689.1542983890,64898.0293088386,58535.0904353398,67870.0865994168,28379.4858650475
8555836030,9568,2,0,55522.8554098523,58625.1678949200,39014.2962422352,56412.4600599712,56540.0505288566,62667.3497856823,64922.7053979955,58616.3463147234,67865.9617501938,28375.6165374578
8555836030,9568,2,0,55509.3492663788,58628.9033778447,39004.1118799944,56392.8579003894,56546.5115758696,62647.6624522228,64894.9995523297,58600.8325012741,67839.8255374181,28375.5070281864
8555836030,9568,2,0,55501.7566235613,58562.0662191962,38956.4510115390,56328.0040763232,56478.9443554118,62646.8107134452,64857.7542323547,58515.9871513278,67826.8426049080,28379.8508959522
8555836030,9568,2,0,55508.9720677773,58506.1921553853,38927.5770669781,56291.4888181575,56418.3127221430,62667.4349595601,64851.6338808527,58462.1207574926,67838.1707306502,28375.3001773404
8555836030,9568,2,0,55529.4381338335,58541.6001531401,38957.0593963801,56340.2569470239,56449.0969951051,62691.7095147218,64891.0937216495,58511.6432835620,67862.4209504183,28369.1189873543
8555836030,9568,2,0,55543.0172834879,58631.2760787251,39009.3926604156,56418.8115977128,56539.1622869885,62688.5215781542,64931.4539720112,58613.0367011875,67869.5025499693,28370.5182724890
8555836030,9568,2,0,55532.3218779805,58655.9886709725,39013.2011495212,56423.0216208135,56572.6477886452,62664.7824016527,64915.1005874812,58632.2859975614,67853.4898609503,28380.4471130965
8555836030,9568,2,0,55516.5160398075,58586.5597929008,38964.2991759898,56343.4083805010,56505.5794437572,62656.0703307274,64866.7948310941,58541.2351222354,67838.8277862786,28391.6535618704
8555849833,9569,2,0,55513.4254448145,58515.6342881199,38929.3778861079,56292.3527246319,56431.5390085896,62678.0695265833,64854.7609789362,58472.3294551271,67849.6205333606,28391.0938478166
8555849833,9569,2,0,55524.6075581948,58542.7804197319,38960.1986621604,56339.5268852145,56453.0028257852,62697.0998044144,64894.9143784519,58520.1850067317,67872.4227972068,28381.3961934487
8555849833,9569,2,0,55532.1028594377,58626.1656460595,39012.6779385578,56413.1292832965,56534.4777237117,62692.4639119248,64927.0370980645,58611.9781115640,67875.3430444443,28376.8333071401
8555849833,9569,2,0,55519.4241193482,58650.5010397054,39017.3746695314,56414.3217175851,56563.7045314804,62660.0735029822,64911.8518124295,58623.1723926411,67852.8693084123,28375.6652082451
8555849833,9569,2,0,55497.0598925876,58585.5863771550,38969.0324100539,56344.0167653422,56501.2842467787,62639.6682754101,64864.8358319056,58546.2360456296,67827.6821759888,28377.8067228859
8555849833,9569,2,0,55490.4284978191,58505.0848949744,38925.0461860390,56281.9736792420,56421.1112924123,62658.4308639111,64842.8609714434,58466.6836438012,67832.4519131434,28373.4506874233
8555849833,9569,2,0,55504.0928213513,58512.5193577332,38941.9592846228,56309.1319785508,56424.6885952783,62688.0957087654,64876.5046531588,58493.2457259657,67860.6688020758,28370.8711356968
8555849833,9569,2,0,55518.7062252356,58598.1069371858,38998.6729195146,56392.9187388736,56513.1234157874,62685.1389584374,64920.9897527435,58595.3813730975,67872.3984618131,28372.0635699855
8555861032,9570,2,0,55511.0162408435,58642.5068628927,39010.3904115551,56415.7210027198,56563.0839789424,62657.5791251335,64913.0807498086,58631.0327247887,67850.2167505049,28377.4295242844
8555861032,9570,2,0,55496.3176630814,58586.9856622896,38964.0923251438,56350.9766879249,56511.2617581735,62647.4434336800,64861.6235599444,58550.0810378257,67825.7718475876,28386.2267690874
8555861032,9570,2,0,55498.6295254778,58512.7383762760,38924.6568197406,56295.4311519281,56433.4371692940,62671.7301565386,64843.3598470131,58470.0297604275,67836.9417932711,28391.2763632689
8555861032,9570,2,0,55518.1465111818,58523.0809185755,38946.5465063251,56326.1180833156,56434.7756159445,62699.3751637203,64877.9769444744,58494.9978743082,67866.3146134017,28386.4701230238
8555861032,9570,2,0,55531.5553130807,58603.8622577831,39000.7657633681,56399.2702766151,56512.2960124034,62697.6351830746,64918.8117350122,58585.3551909154,67877.5575652661,28378.5367846953
8555861032,9570,2,0,55525.2646138232,58653.3239453683,39019.2606625390,56422.6079191215,56565.0794812214,62673.0077647050,64919.0429212518,58626.4089999960,67862.2627703596,28375.6773759419
8555861032,9570,2,0,55506.0761559334,58613.3895643954,38985.0937698602,56370.2016489051,56531.5209733837,62652.6877110107,64880.4956577167,58573.3335064543,67839.3631649388,28377.7580520986
8555861032,9570,2,0,55496.7557001671,58527.9358296079,38934.7560081037,56299.0206224909,56447.3326790658,62661.4727881168,64848.2025903487,58480.6034889667,67835.8345328602,28378.9991571746
8555907248,9571,2,0,55509.1789186233,58510.7428739971,38940.4991610041,56305.4208310198,56426.9274514937,62696.9051212652,64872.5258162977,58478.3402973576,67860.5349574108,28382.2966030136
8555907248,9571,2,0,55522.5147143412,58588.2389350624,38995.6553307025,56385.5572822957,56499.6537754044,62688.7649320907,64921.5738021910,58575.9130581808,67875.8784231045,28381.4813673264
8555907248,9571,2,0,55507.6214534299,58640.2436712836,39015.7076950667,56414.8814316390,56555.6616838804,62652.6755433138,64916.7553942491,58627.1268941085,67851.6647064268,28379.7292189839
8555907248,9571,2,0,55480.8890235099,58595.1866899483,38972.4758682548,56351.1592033772,56514.5105332252,62636.3343264806,64863.3270374996,58561.0076295727,67822.3405570835,28383.1848448816
8555907248,9571,2,0,55471.2522076262,58508.8447132927,38921.2620323270,56277.4837991143,56430.2614004232,62653.6124559692,64830.1822313539,58469.7255680069,67822.7055879882,28385.7887320018
8555907248,9571,2,0,55485.2693943662,58490.9338635693,38925.3868815500,56284.7235787240,56409.6614897019,62685.6743370976,64852.2544333907,58471.0031761733,67850.3140920795,28383.2091802753
8555907248,9571,2,0,55504.5916969210,58561.2996542964,38975.0067491940,56359.3845664295,56480.2341312750,62696.0533824876,64900.1099849953,58557.7588545209,67871.3277044927,28380.6417962457
8555907248,9571,2,0,55506.6967084714,58632.3955068329,39009.6603497457,56410.9877686556,56553.8973678411,62672.5575599225,64913.6039607720,58625.9101244262,67863.7472293720,28378.2447599715
8555942665,9572,2,0,55491.8886214379,58616.0786253933,38985.2762853125,56379.5464400651,56543.8225148717,62652.7120464043,64880.9458624992,58593.7265663295,67838.3289107089,28380.3619392187
8555942665,9572,2,0,55484.4054878918,58534.8105783129,38935.4739022162,56303.5105026186,56459.4395374046,62662.2393530167,64839.5148548171,58495.4115760002,67830.3712369867,28386.8838247158
8555942665,9572,2,0,55500.1748229743,58502.5783494289,38929.6942462253,56288.9336018247,56419.8823550332,62693.4373276707,64851.9867440606,58466.1969359283,67855.1933385055,28387.6868927061
8555942665,9572,2,0,55523.2082730601,58575.3168410364,38983.8770001779,56366.8190291883,56485.1377130946,62703.0863112513,64905.1352437832,58555.4591598214,67875.3065413538,28382.4304476786
8555942665,9572,2,0,55528.0996871830,58651.3406107862,39022.6554499526,56425.2361416353,56564.0087239009,62679.2862962656,64922.6445595114,58631.0813955760,67866.7526504873,28377.3686858003
8555942665,9572,2,0,55513.6566310541,58636.1066543639,38998.7702610892,56391.4221121643,56553.4106599682,62655.3889397053,64889.0617162801,58597.4255461637,67839.4970096039,28380.4836161870
8555942665,9572,2,0,55506.1248267207,58558.0387115479,38951.6569389907,56320.5696135643,56477.9101011818,62669.0289278439,64855.9655809217,58509.4165950434,67838.3897491930,28392.3957913766
8555942665,9572,2,0,55516.2483504774,58516.2913437483,38941.3143966912,56305.7128557435,56435.2258207269,62689.7748509270,64868.2306193192,58481.1145322332,67862.7251428389,28395.2552001300
8555991094,9573,2,0,55526.8707498038,58558.2698977875,38977.1604315316,56358.9100262534,56476.0849466584,62693.4373276707,64908.1406648985,58542.3667180399,67880.2709616576,28388.7454823297
8555991094,9573,2,0,55522.2591927079,58627.6622727687,39015.2574902843,56414.7962577612,56548.6895936009,62670.2091944357,64928.8257494975,58619.4125743228,67871.1086859499,28383.5742111800
8555991094,9573,2,0,55501.5254373216,58623.0385479760,39000.5102417348,56394.6708872161,56552.8509459143,62638.3906672437,64896.0703096501,58608.6684980281,67840.1540652323,28384.1217575370
8555991094,9573,2,0,55486.0846300533,58535.5771432127,38943.9547869018,56310.6894437441,56471.9235943449,62636.8332020504,64848.0930810773,58508.8082102022,67822.5109048391,28386.9568308968
8555991094,9573,2,0,55493.1905649979,58473.5097217189,38915.5675502139,56275.7194830750,56408.0675214181,62665.6706435207,64844.8929768128,58451.2063334424,67840.2270714133,28387.0663401682
8555991094,9573,2,0,55508.8990615963,58517.4837780370,38956.5240177199,56337.9694200212,56449.6080383716,62678.3128805198,64891.8724542462,58518.0313243940,67861.8247332740,28383.1726771848
8555991094,9573,2,0,55507.3172610094,58595.4665469752,38999.8896891969,56401.2901142877,56529.5376388016,62658.2483484587,64911.6084584930,58602.1344448342,67853.4898609503,28376.9428164115
8555991094,9573,2,0,55490.0756346113,58603.2782083356,38989.6201530783,56383.0507367501,56540.5737398200,62638.6948596643,64882.7831847195,58593.4710446963,67826.7330956366,28373.5358613011
8555999944,9574,2,0,55478.6258319009,58540.9187621180,38944.9890411318,56314.0720634609,56477.5572379739,62645.1924097677,64843.3111762258,58512.5193577332,67819.8340115380,28377.9770706414
8555999944,9574,2,0,55491.6817705919,58490.8973604789,38922.7829944299,56281.7668283960,56422.2915590041,62677.6558248913,64843.2746731354,58461.2446833214,67841.0058040099,28386.5309615080
8555999944,9574,2,0,55517.3921139788,58526.9137430748,38956.3780053580,56328.3812749247,56450.4597771492,62704.0962300876,64884.4623268810,58507.9199683342,67872.6904865369,28383.1726771848
8555999944,9574,2,0,55530.4237172761,58618.9623695403,39014.9289624700,56405.9990129582,56538.7607529933,62699.0466359061,64919.5904676089,58604.5436488051,67882.8018425967,28376.5534501131
8555999944,9574,2,0,55517.6719710057,58651.0120829720,39026.0989081535,56413.9080158931,56576.6144578095,62672.1925290178,64900.8035437142,58624.1701437805,67859.8170632982,28374.7526309833
8555999944,9574,2,0,55498.6416931746,58583.6030425729,38980.2753619183,56335.7183961089,56510.3491809118,62664.4052030511,64848.4459442851,58535.3581246699,67840.8232885576,28378.3664369398
8555999944,9574,2,0,55499.0310594729,58511.8988051953,38947.0332141980,56279.7348230265,56433.9482125605,62691.8068562964,64833.1024785914,58462.5831299719,67853.7940533709,28383.4160311213
8555999944,9574,2,0,55517.5381263406,58537.6943224599,38978.7543998154,56323.4533577114,56452.9298196043,62712.8569718001,64879.5587450614,58509.2340795910,67881.2078743129,28387.6503896157
8556019864,9575,2,0,55527.2357807085,58620.5928409146,39028.6906275768,56401.5213005274,56530.9490916330,62700.7379457644,64921.8536592179,58603.4120530006,67885.6369159565,28384.7179746813
8556019864,9575,2,0,55516.4308659298,58648.3716927614,39030.7348006430,56411.0242717461,56562.2930786489,62669.3574556581,64911.6084584930,58622.8560325237,67863.4308692546,28384.9126578305
8556019864,9575,2,0,55503.4235980260,58594.8459944373,38988.8900912689,56355.7585927763,56513.6831298413,62658.3943608206,64878.9990310075,58555.9336999975,67847.4668510229,28392.7729899781
8556019864,9575,2,0,55498.3618361477,58513.8699720806,38944.5510040461,56297.3901511166,56435.4691746634,62676.8770922947,64859.4942130003,58479.6179055240,67851.7377126078,28399.0880246292
8556019864,9575,2,0,55512.0139919830,58511.6554512588,38955.5749373677,56316.5542736128,56431.2469838658,62701.9547154467,64887.1027170916,58496.1294701127,67873.8099146446,28396.0339327267
8556019864,9575,2,0,55525.0820983709,58591.1105115126,39006.2533946353,56396.0580046539,56513.7926391127,62694.3864080229,64930.8090840796,58595.6003916403,67884.0186122790,28389.3660348677
8556019864,9575,2,0,55515.0680838856,58632.0304759282,39018.1899052186,56420.2473859379,56563.7045314804,62654.7318840769,64923.7274845287,58634.9750585593,67857.7363871415,28384.3286083830
8556019864,9575,2,0,55498.5078485096,58574.2460837160,38967.7791372811,56357.0362009427,56510.3248455181,62631.6132601133,64874.6551632417,58556.8097741687,67825.7475121940,28382.7711431897
8556053114,9576,2,0,55499.0918979571,58489.3642306792,38917.6847294611,56292.5960785684,56424.7981045497,62648.3925140322,64849.9547386912,58468.4114567501,67828.1688838617,28380.2889330378
8556053114,9576,2,0,55515.3966116998,58487.6607531240,38926.4211357800,56314.0842311577,56415.7940089007,62674.6382360792,64878.6948385870,58485.4340646054,67849.6692041479,28378.5124493016
8556053114,9576,2,0,55525.7026509088,58565.3758327321,38975.4326185828,56383.8416370436,56491.9759587091,62676.9866015661,64917.2177667284,58574.3069222001,67859.7197217236,28376.2005869053
8556053114,9576,2,0,55517.3191077978,58621.4932504795,39000.3642293730,56414.0175251645,56553.1794737285,62658.5647085761,64914.7598919701,58620.8848656383,67847.4425156293,28377.9162321573
8556053114,9576,2,0,55499.9558044315,58590.3804497032,38972.7192221912,56367.6464325723,56526.7269008354,62641.5786038113,64872.8300087183,58570.9243024833,67828.9476164584,28384.8883224369
8556053114,9576,2,0,55491.9372922252,58509.0758995323,38924.9245090707,56295.3824811409,56443.8892208649,62652.6877110107,64833.8690434912,58479.8734271573,67826.3558970351,28387.0906755618
8556053114,9576,2,0,55509.3492663788,58492.7711857896,38925.8857571197,56296.5140769454,56420.9166092631,62686.5260758753,64851.6338808527,58473.9112557140,67852.1635819966,28385.2898564320
8556053114,9576,2,0,55535.6071561227,58578.2979267581,38986.0915209997,56381.6027808282,56501.9899731944,62698.3409094903,64907.1185783653,58576.2902567823,67877.2655405423,28382.2844353167
8556086008,9577,2,0,55537.2619628906,58653.6524731825,39020.6477799768,56430.4804189660,56580.2891022500,62677.4489740453,64920.3326971151,58645.7678056413,67868.1519356219,28381.7125535661
8556086008,9577,2,0,55522.9405837300,58627.3094095609,38992.3578848635,56383.4279353517,56558.6306019052,62665.4637926747,64878.7191739806,58597.3160368923,67846.9679754532,28386.4336199334
8556086008,9577,2,0,55518.1951819691,58550.5920810922,38947.4225804963,56311.1274808297,56476.6324930154,62683.2164623394,64848.5189504661,58507.8956329405,67849.1094900940,28395.8514172743
8556086008,9577,2,0,55531.2632883569,58531.5253001707,38950.1116414942,56311.5533502185,56448.5372810512,62710.2774200736,64871.9174314566,58501.0938904165,67876.7788326694,28398.1389442770
8556086008,9577,2,0,55546.5702509602,58595.0163421928,38994.4385610202,56379.4369307937,56505.5916114540,62710.8249664307,64917.2786052125,58574.6597854080,67891.5990873997,28391.2763632689
8556086008,9577,2,0,55546.0348723000,58657.8138254960,39024.8456353807,56428.8377798949,56572.4896085865,62685.0294491660,64933.6563251362,58638.9538954204,67876.2677894028,28383.7688943291
8556086008,9577,2,0,55527.9780102147,58639.6839572298,39001.1186265760,56401.3752881655,56562.2200724680,62655.5471197640,64905.3542623260,58607.3543867712,67846.2014105533,28382.6372985246
8556086008,9577,2,0,55513.6566310541,58548.7182557815,38942.5676694640,56323.1491652908,56475.0750278221,62651.2397550887,64861.2950321301,58507.8347944564,67830.1765538375,28388.8914946916
8556117396,9578,2,0,55516.1388412060,58495.4602467875,38920.8118275446,56295.9665305884,56417.8381819669,62673.1902801573,64864.6533164533,58466.4767929552,67843.6826973110,28389.4147056550
8556117396,9578,2,0,55526.3353711436,58549.2414667449,38963.3865987281,56363.8866142540,56469.8064150977,62684.7130890486,64912.0951663659,58544.9462697664,67862.7129751421,28382.7833108865
8556117396,9578,2,0,55524.1451857155,58624.6081808662,39002.6274209820,56426.8909484032,56551.8653624716,62667.6783134965,64934.5080639138,58629.3535826271,67855.6313755911,28377.4781950717
8556117396,9578,2,0,55511.5272841101,58617.3197304692,38987.1136075328,56398.5280471089,56552.0965487113,62648.9887311765,64903.1884122915,58605.4197229764,67833.1576395591,28383.0388325198
8556117396,9578,2,0,55502.4015114929,58539.9088432817,38941.3752351753,56322.1392464545,56475.7077480569,62652.9188972503,64862.6578141743,58512.5680285205,67826.7695987271,28387.7842342807
8556117396,9578,2,0,55508.6678753567,58494.6936818876,38927.7960855209,56292.1458737860,56423.8368565007,62672.8374169494,64860.6014734112,58471.6115610145,67844.6926161473,28389.7554011660
8556117396,9578,2,0,55521.9550002874,58537.4996393107,38960.8557177889,56341.4250459189,56459.1110095904,62687.0492868386,64891.7994480653,58524.8330669180,67861.4962054598,28378.1595860938
8556117396,9578,2,0,55529.2191152907,58622.7951940396,39008.9424556331,56409.9656821225,56542.7760929449,62677.0231046565,64915.6968046255,58609.6054106835,67860.7904790441,28372.9153087631
8556140156,9579,2,0,55517.2095985264,58641.0832423644,39003.1384642486,56406.2301991979,56564.1790716565,62652.2010031377,64891.2153986178,58610.6031618230,67836.5767623664,28376.4561085386
8556140156,9579,2,0,55503.7521258402,58569.0748125663,38949.9412937387,56331.0338328321,56490.7835244205,62644.5353541393,64843.1164930767,58518.1164982718,67819.2256266969,28382.0654167739
8556140156,9579,2,0,55510.8215576944,58504.9875533998,38918.8284929624,56287.3883043282,56421.9995342804,62675.9645150329,64838.2007435602,58455.0878287289,67836.3090730363,28384.7301423782
8556140156,9579,2,0,55532.0541886504,58546.7592565930,38958.5195199989,56345.1361934499,56459.3908666173,62701.3950013929,64886.5064999473,58520.8177269665,67867.7990724141,28384.0974221434
8556140156,9579,2,0,55537.2254598002,58631.0448924855,39010.8649517312,56415.9035181721,56549.7846863149,62688.1200441591,64919.1889336137,58616.0177869092,67872.5201387814,28382.7833108865
8556140156,9579,2,0,55522.5633851285,58648.4203635487,39011.0839702740,56406.0476837455,56575.2273403717,62668.5787230614,64897.3235824229,58617.4414074375,67852.4799421140,28385.2898564320
8556140156,9579,2,0,55508.2663413616,58584.8198122551,38971.1617569979,56339.2105250971,56517.4429481595,62666.3033637555,64860.1025978415,58540.0061848563,67841.3221641273,28391.0208416356
8556140156,9579,2,0,55508.6435399631,58517.9339828194,38943.9669545986,56295.4676550186,56446.9554804642,62687.6698393766,64853.6293831317,58478.8635083210,67852.5772836886,28389.4268733518
8556173009,9580,2,0,55528.0388486988,58540.6145696974,38973.8264826021,56337.5313829355,56465.7545720557,62716.1909207296,64893.3082424713,58522.3995275535,67880.8428434083,28386.8716570190
8556173009,9580,2,0,55539.2087943823,58624.0606345091,39026.8654730533,56416.7309215561,56548.9694506278,62706.2012416380,64937.6351619973,58621.9434552619,67889.5184112430,28386.0929244223
8556173009,9580,2,0,55522.7580682777,58654.7962366839,39031.8055579635,56430.9427914452,56586.9326647154,62674.2853728714,64927.6211475120,58650.7322259450,67869.9649224485,28389.2321902026
8556173009,9580,2,0,55498.9702209888,58583.3718563332,38975.7733140938,56355.8437666540,56521.4826235048,62659.1609257205,64875.0445295401,58563.9400445070,67843.5245172523,28392.2741144084
8556173009,9580,2,0,55493.8111175359,58498.5143386900,38929.0858613842,56289.1769557612,56433.9238771669,62675.2952917077,64851.0376637084,58478.4984774163,67847.1139878151,28392.1037666529
8556173009,9580,2,0,55509.6412911025,58515.6586235135,38952.2166530446,56325.1446675698,56441.6990354367,62697.9393754952,64885.2288917809,58514.1984998948,67871.0600151626,28387.6260542220
8556173009,9580,2,0,55521.8819941064,58600.6743212154,39004.2578923563,56402.7624056033,56524.8409078279,62689.1542983890,64920.0406723913,58607.9992747029,67876.1339447378,28382.8806524611
8556173009,9580,2,0,55512.9265692447,58638.4915229411,39012.0087152325,56416.7065861624,56566.1745739354,62664.7093954717,64905.4029331133,58631.8844635663,67854.2442581533,28382.2114291358
8556206114,9581,2,0,55499.1770718348,58586.6084636881,38971.6241294772,56360.9907024102,56520.3266923066,62656.4840324194,64864.9331734802,58565.6678574558,67836.1508929776,28387.9545820362
8556206114,9581,2,0,55498.4956808127,58505.1579011553,38928.9276813255,56298.8989455227,56439.7035331578,62671.8274981131,64840.5491090470,58481.3213830792,67839.8012020245,28392.6026422226
8556206114,9581,2,0,55517.6963063993,58501.9212938004,38940.5113287009,56313.0743123214,56427.6940163935,62694.7149358371,64865.3833782627,58486.0302817497,67862.2140995723,28389.2686932931
8556206114,9581,2,0,55532.8207535503,58588.4822889989,38995.5458214311,56392.0426647023,56505.5186052731,62690.1277141348,64911.7666385517,58579.6607088022,67870.3299533532,28376.8941456242
8556206114,9581,2,0,55525.9338371485,58649.8196486833,39018.6157746074,56424.6764275814,56566.1989093291,62657.8346467668,64910.3551857202,58627.6622727687,67846.7611246072,28372.6354517362
8556206114,9581,2,0,55502.9977286372,58601.9154262914,38977.5984686172,56357.2308840919,56518.8178979005,62638.4758411215,64856.7321458215,58553.3541482710,67816.9867704815,28376.8211394432
8556206114,9581,2,0,55494.5290116485,58511.6067804715,38930.3026310665,56281.4261328849,56427.8156933618,62664.8554078336,64826.8726178180,58457.3145172475,67820.9899427362,28383.8297328133
8556206114,9581,2,0,55510.4200236992,58504.6955286761,38943.7236006622,56300.2252244764,56414.1270344359,62690.8091051569,64860.1269332351,58469.7012326133,67853.3073454979,28385.5697134589
8556253655,9582,2,0,55521.3831185367,58579.3808517753,38994.2317101742,56376.7965405832,56488.6055066892,62685.5526601294,64906.0234856513,58562.6259332501,67866.6674766095,28379.0113248714
8556253655,9582,2,0,55511.2717624768,58635.1089032244,39012.4224169245,56411.0364394429,56548.2150534248,62656.0703307274,64909.0897452507,58612.6473348892,67848.0630681672,28371.6133652030
8556253655,9582,2,0,55491.2072304158,58605.2615429177,38978.5232135758,56368.9240407387,56522.2005176173,62637.6484377375,64871.7349160042,58566.9698010159,67822.9976127120,28375.2028357658
8556253655,9582,2,0,55479.7209246149,58518.2746783305,38925.5693970023,56291.5983274289,56435.8828763554,62652.2375062282,64835.5481856528,58472.4024613080,67818.9336019731,28381.7733920502
8556253655,9582,2,0,55494.8818748563,58487.9162747572,38923.1358576378,56285.2346219905,56399.6961460039,62690.5049127364,64851.8894024860,58452.6907924548,67845.3618394725,28384.0244159624
8556253655,9582,2,0,55519.1807654117,58563.9887152943,38983.3416215177,56364.4706637015,56470.4878061198,62704.1692362685,64904.3565111865,58546.4063933851,67870.0379286295,28382.4912861627
8556253655,9582,2,0,55520.6043859400,58641.5699502374,39024.9673123490,56421.4154848329,56550.4782450338,62677.0717754438,64918.8360704058,58621.0065426066,67859.8048956014,28380.7756409107
8556253655,9582,2,0,55503.5817780847,58617.3805689533,38997.6873360719,56378.0863164464,56533.7111588118,62659.0027456618,64876.7358393985,58576.0225674522,67834.0945522145,28382.1749260453
8556288922,9583,2,0,55497.9846375462,58535.3094538826,38951.2797403892,56303.4131610440,56454.1344215898,62678.9942715419,64841.1453261914,58483.7792578374,67838.1585629534,28390.6436430341
8556288922,9583,2,0,55511.9896565894,58510.5725262416,38953.3847519396,56299.4343241829,56426.1243835034,62713.4045181571,64856.3427795232,58474.2641189219,67868.5169665266,28395.2673678268
8556288922,9583,2,0,55532.5895673106,58580.9261492718,39004.0753769040,56370.9438784113,56492.7425236090,62725.8034012197,64903.8576356168,58559.9733753427,67893.3025649550,28387.2975264078
8556288922,9583,2,0,55532.3218779805,58660.7340727335,39041.5518831186,56424.7981045497,56572.8668071880,62698.7059403950,64917.4489529680,58637.3112563493,67886.5008224309,28382.3087707104
8556288922,9583,2,0,55511.8558119243,58654.5772181411,39021.9010527496,56396.1431785316,56570.2020815838,62666.7535685380,64883.8782774335,58615.3485635839,67858.4664489509,28385.5088749748
8556288922,9583,2,0,55493.2879065725,58564.5119262577,38964.6520391976,56312.8309583849,56485.4054024247,62666.4858792079,64833.4310064056,58517.5081134306,67842.8674616239,28394.0749335382
8556288922,9583,2,0,55498.0941468176,58507.9443037278,38942.9570357623,56278.5180533443,56425.8080233860,62700.2999086788,64833.7473665230,58468.9711708039,67863.4552046483,28397.2993731963
8556288922,9583,2,0,55520.0811749766,58564.8039509814,38994.6210764725,56348.2024530492,56478.2142936024,62721.7150550872,64882.9778678686,58548.4749018450,67893.1078818058,28397.4088824677
8556325927,9584,2,0,55522.5633851285,58651.0850891529,39043.6325592753,56417.6556665146,56562.7067803409,62698.7181080918,64905.9504794703,58638.7105414840,67885.8802698930,28393.0285116114
8556325927,9584,2,0,55506.4533545349,58650.0021641357,39027.8875595865,56392.7118880276,56565.3106674610,62671.2921194529,64869.3743828206,58614.4116509285,67856.1059157672,28392.1037666529
8556325927,9584,2,0,55491.6209321078,58566.0937268446,38973.3154393356,56311.8697103359,56481.4874040478,62670.0023435897,64823.3804888299,58515.6707912104,67841.7845366066,28394.0871012350
8556325927,9584,2,0,55494.6871917072,58505.8757952679,38947.6294313423,56278.9317550362,56418.7872623191,62692.1110487170,64820.8861109812,58468.4966306278,67856.2640958259,28393.2962009415
8556325927,9584,2,0,55512.6953830051,58543.7903385682,38982.1856903195,56331.0581682257,56457.0181657368,62714.9133125632,64866.0526015879,58526.8894076811,67877.6549068406,28393.6733995430
8556325927,9584,2,0,55522.5633851285,58629.6212719572,39031.5622040270,56406.3275407724,56543.8103471749,62704.4369255986,64900.2438296604,58622.5883431936,67882.1691223620,28391.3858725403
8556325927,9584,2,0,55510.9919054499,58649.0895868739,39028.9583169069,56409.4181357655,56572.0394038041,62672.6427338003,64884.6813454238,58635.4374310386,67860.0969203251,28390.7166492150
8556325927,9584,2,0,55493.6894405677,58566.5439316271,38970.2978505235,56331.9342423970,56499.9823032186,62658.6012116666,64833.7108634325,58541.4906438687,67837.8543705328,28391.9212512005
8556332969,9585,2,0,55492.7768633060,58485.4583999990,38928.6599919954,56278.3598732856,56420.0892058792,62683.9465241488,64821.8960298175,58464.4812906763,67848.0630681672,28389.8040719533
8556332969,9585,2,0,55511.7341349561,58518.7735539002,38963.5569464836,56334.9518312091,56448.9388150464,62710.9831464894,64871.4063881900,58519.2115909858,67877.7279130216,28382.4426153754
8556332969,9585,2,0,55519.7404794656,58610.2989694024,39018.6279423042,56417.4001448813,56541.3524724166,62697.5135061064,64910.4160242044,58620.1304684353,67879.9546015402,28376.3344315703
8556332969,9585,2,0,55505.7841312097,58636.1188220607,39018.5671038201,56413.3239664456,56570.2994231584,62667.6296427092,64890.8625354099,58625.1192241327,67856.9941576353,28377.6363751304
8556332969,9585,2,0,55485.4762452122,58568.6732785711,38969.7868072569,56337.2028551213,56504.5695249209,62657.1897588351,64842.1430773308,58539.9696817658,67836.2360668553,28381.7490566565
8556332969,9585,2,0,55485.4397421217,58494.6206757067,38934.4396479863,56284.5532309684,56429.2393138900,62681.6833325397,64826.3007360674,58468.3506182659,67847.2600001769,28385.6670550335
8556332969,9585,2,0,55503.3140887546,58510.0858183686,38957.4730980721,56317.0044783952,56437.0996460377,62705.3008320731,64860.9543366191,58499.4999221327,67871.2668660086,28384.1339252338
8556332969,9585,2,0,55517.1244246487,58599.6644023791,39012.0817214135,56398.4428732312,56522.5533808252,62696.9902951430,64905.9991502576,58596.5738073861,67881.2565451002,28375.1906680690
8556370294,9586,2,0,55504.3118398941,58641.0345715771,39022.8257977081,56417.6434988178,56569.4111812903,62666.9360839903,64896.5691852199,58633.7096180897,67858.3934427699,28372.8301348853
8556370294,9586,2,0,55482.7628488207,58581.0113231496,38975.6516371256,56345.4768889609,56514.5227009220,62657.9806591286,64843.5910332528,58557.2721466480,67834.0580491240,28383.5133726959
8556370294,9586,2,0,55481.4122344733,58495.8009422985,38932.5293195851,56277.7514884444,56429.4948355233,62686.7329267212,64822.7234332014,58471.1978593225,67845.0576470520,28393.1136854892
8556370294,9586,2,0,55501.7444558645,58508.1754899674,38960.5515253683,56312.0035550010,56435.7125285998,62719.3301865099,64863.3270374996,58504.8415410380,67878.7378318579,28395.9122557584
8556370294,9586,2,0,55519.7526471624,58599.9442594061,39020.8546308228,56396.8854080378,56523.8918274757,62712.9421456779,64906.9360629130,58608.2061255488,67889.1898834288,28389.1713517185
8556370294,9586,2,0,55516.5403752012,58649.6127978373,39039.3251946000,56421.3668140456,56578.2327614870,62685.4066477675,64903.1762445947,58646.1693396364,67870.9383381944,28387.5773834347
8556370294,9586,2,0,55498.7998732333,58602.4264695579,39001.5809990553,56362.8401923272,56536.6435737461,62664.4538738384,64861.5018829761,58580.0500751006,67847.1748262992,28393.2962009415
8556370294,9586,2,0,55491.4749197459,58518.4206906924,38954.5528508346,56293.8493513412,56455.0348311547,62686.4774050880,64833.6013541611,58492.6738442150,67848.7079560989,28400.3778004925
8556405015,9587,2,0,55504.7498769797,58509.5504397084,38963.7029588454,56301.1134663445,56440.0807317593,62719.3788572972,64859.4455422131,58494.0852970465,67875.3308767475,28401.2052038764
8556405015,9587,2,0,55519.6188024974,58593.1425168820,39020.3314198594,56377.1250683974,56520.1076737638,62719.2328449353,64902.7138721154,58586.1095881184,67891.0150379522,28393.1501885796
8556405015,9587,2,0,55513.2307616653,58655.3924538282,39045.2630306496,56417.0594493703,56584.0245851747,62686.7937652054,64903.0180645360,58641.9593165357,67872.5079710845,28385.8739058795
8556405015,9587,2,0,55494.4681731643,58611.6495837497,39002.9194457058,56361.9397827623,56546.3655635077,62669.3087848708,64854.4689542125,58579.1740009293,67844.2302436680,28389.0983455376
8556405015,9587,2,0,55490.8421995111,58520.2458452158,38951.2432372988,56287.0476088171,56454.6941356436,62685.6378340072,64823.1736379839,58481.3700538665,67845.4956841376,28396.2042804822
8556405015,9587,2,0,55506.8062177428,58500.8870395705,38953.5429319983,56297.0372879088,56432.1960642180,62704.6072733541,64851.2931853417,58482.2582957346,67870.9626735880,28391.6292264768
8556405015,9587,2,0,55525.5809739406,58578.3222621517,39005.8883637306,56379.0475644954,56504.7033695859,62704.8384595938,64902.0324810934,58576.1320767236,67884.8581833598,28387.3948679824
8556405015,9587,2,0,55522.4903789476,58640.5113606138,39028.4229382467,56419.2618024952,56566.5031017496,62674.7234099570,64908.9802359793,58630.7893708522,67867.6165569617,28382.1870937422
8556422463,9588,2,0,55505.6137834542,58613.5720798478,38994.5480702916,56379.6559493365,56546.4507373854,62651.5074444188,64873.2072073198,58589.1393446273,67838.6087677358,28385.6548873367
8556422463,9588,2,0,55493.1053911202,58523.8474834754,38934.2571325339,56301.4419941587,56455.6918867831,62655.8269767910,64831.5815164885,58490.3011433345,67826.0517046145,28386.4336199334
8556422463,9588,2,0,55503.1072379086,58485.1420398816,38920.5076351240,56285.9403484062,56410.9147624747,62684.4332320217,64842.4716051451,58461.4150310769,67844.9481377806,28382.2600999231
8556422463,9588,2,0,55520.5800505464,58552.3077263442,38972.3176881961,56361.2462240434,56473.7852519588,62693.7050170008,64892.5538452683,58549.3266406226,67866.6309735191,28373.6210351788
8556422463,9588,2,0,55520.4705412750,58630.9353832141,39015.9997197905,56424.1167135276,56557.6085153721,62668.4327106995,64912.1681725469,58633.0160593708,67855.0473261436,28369.5691921368
8556422463,9588,2,0,55504.2875045005,58613.8397691779,38993.8423438759,56387.5406168778,56548.2880596057,62651.1180781205,64876.8940194572,58597.1578568336,67828.3392316173,28374.6796248024
8556422463,9588,2,0,55499.2014072285,58529.4324563171,38943.4924144225,56307.5015071765,56464.1971068623,62663.2006010657,64836.1200674035,58498.9158726852,67824.0927054261,28382.9293232484
8556422463,9588,2,0,55513.2916001494,58492.2236394326,38935.0602005242,56293.8493513412,56422.4375713660,62698.6451019109,64849.8817325102,58474.5318082520,67851.3118432190,28382.8928201579
8556470134,9589,2,0,55532.2002010123,58552.4659064029,38980.7255667007,56359.9564481802,56480.7938453288,62712.7596302255,64896.0581419533,58552.2833909506,67875.8297523172,28378.7679709349
8556470134,9589,2,0,55533.9280139611,58632.1399851996,39022.9474746764,56418.5317406858,56561.1614828444,62699.9835485614,64917.1204251538,58632.3590037424,67874.4061317889,28375.7747175165
