steady_timestamp,sequence,battery,flags,EEG-ch1,EEG-ch2,EEG-ch3,EEG-ch4,EEG-ch5,EEG-ch6,EEG-ch7,EEG-ch8,EEG-ch9,EEG-ch10
8361537560,21784,-2,0,43302.9226644494,61185.3851511321,40202.2528184527,57255.8639652534,70101.5205197761,50706.3334609748,43806.4219589827,61636.5876847204,30857.1939691032,22761.0518570540
8361537560,21784,-2,0,43308.1182709928,61191.5420057245,40213.2159132902,57263.1037448631,70107.1054926178,50716.4083139442,43809.1961938583,61642.1726575621,30865.4923383364,22768.8270153239
8361537560,21784,-2,0,43301.3895346497,61193.8782035145,40224.7873929688,57263.3227634059,70105.6697043927,50724.4511615442,43808.2227781125,61642.7445393128,30873.9975584156,22776.9915398921
8361537560,21784,-2,0,43306.7676566454,61197.7596988010,40224.3493558832,57259.0640695179,70115.6107126971,50732.3114936918,43803.6355564103,61646.8815562326,30870.9191311194,22787.3340821916
8361537560,21784,-2,0,43313.0218528124,61206.2649188802,40226.9045722160,57266.3525199148,70121.9744181355,50724.6823477838,43810.8875037167,61656.1411735149,30876.2485823279,22781.4692523229
8361537560,21784,-2,0,43300.0754233928,61206.0459003374,40226.7585598541,57269.7108042379,70112.7269685500,50707.3068767206,43821.9722755224,61654.2308451137,30881.8700582601,22763.0716947266
8361537560,21784,-2,0,43295.1353384827,61198.1247297057,40214.0798197646,57259.6237835717,70107.7868836399,50709.6552422075,43817.8109232090,61646.5043576311,30867.6338529772,22764.0816135629
8361537560,21784,-2,0,43314.0074362551,61205.5470247677,40221.0397423473,57266.3646876116,70127.6810679454,50739.3079193650,43817.3728861234,61660.8257367917,30872.3427516477,22788.6116903580
8361570101,21785,-2,0,43317.9619377225,61208.0779057069,40232.6842282069,57271.7306419105,70125.8315780283,50722.6260070207,43819.9402701530,61667.6274793157,30882.9894863678,22791.7022853510
8361570101,21785,-2,0,43306.6946504645,61198.3559159453,40223.5097848024,57263.7486327947,70120.1857667025,50711.6264090928,43811.3012054087,61658.2826881557,30872.0993977113,22775.0203730067
8361570101,21785,-2,0,43303.6162231683,61198.8912946055,40215.3817633247,57259.7576282368,70122.9356661845,50712.7701725941,43806.3124497113,61653.2330939742,30861.6351784435,22764.1911228343
8361570101,21785,-2,0,43296.4616174364,61198.7331145468,40218.8373892224,57259.0762372147,70120.4777914263,50707.6840753221,43809.5003862789,61652.2596782284,30869.6536906498,22753.9337544126
8361570101,21785,-2,0,43289.2948440077,61190.4955837977,40214.9072231486,57250.9360480401,70112.0090744375,50702.0260962995,43806.2759466208,61648.5485306974,30869.7388645276,22752.5953077621
8361570101,21785,-2,0,43300.8419882927,61183.1341272198,40196.3514854936,57243.2703990417,70104.5137731946,50699.5073830571,43792.8549770251,61647.9036427657,30846.9609360751,22767.2695501305
8361570101,21785,-2,0,43326.1021268971,61195.9223765807,40202.5570108733,57263.4444403741,70120.1979343993,50716.8341833330,43804.0127550118,61665.9240017605,30853.6531693277,22780.2768180343
8361570101,21785,-2,0,43322.2571347010,61207.3600115943,40222.2078412423,57279.1407692757,70129.9807626450,50719.0487041548,43823.2498836888,61670.2313664358,30876.5162716580,22765.0915323992
8361597838,21786,-2,0,43313.9344300741,61207.7128748022,40218.5088614082,57270.6355491965,70124.3592867128,50715.5687428634,43820.6581642656,61659.1830977206,30870.0795600386,22760.2122859732
8361597838,21786,-2,0,43316.5018141038,61206.5569436040,40213.2037455934,57259.3804296353,70130.4674705179,50715.9702768586,43807.2615300635,61655.5936271578,30867.6460206741,22763.9356012010
8361597838,21786,-2,0,43305.9767563519,61201.9575542049,40219.7743018777,57254.2943323633,70120.5751330008,50714.6439979049,43802.1632650947,61649.9599835288,30876.3824269929,22758.6426530831
8361597838,21786,-2,0,43296.6197974951,61196.6281029965,40215.2357509628,57252.1649854193,70109.1618333809,50700.9431712822,43800.3746136617,61641.1262356354,30865.5775122142,22758.7156592640
8361597838,21786,-2,0,43303.1295152954,61199.5848533244,40203.0193833526,57256.6183624564,70111.3885218995,50691.9025725428,43802.7229791485,61642.6350300414,30850.3678911855,22762.4511421886
8361597838,21786,-2,0,43297.7513932996,61196.6159352996,40198.2861492884,57259.7332928431,70099.5493528908,50682.7524645319,43805.7527356575,61641.5764404178,30850.3313880950,22751.9260844368
8361597838,21786,-2,0,43297.6905548155,61186.2490576065,40185.1937075069,57249.0622227294,70085.1427998524,50678.2747521011,43796.4444475879,61636.6241878109,30835.6571457265,22760.3217952446
8361597838,21786,-2,0,43310.9411766557,61188.0985475236,40184.7069996340,57244.0734670320,70111.6318758360,50703.4983876150,43786.0897375916,61644.0099797824,30831.8243212273,22776.6630120778
8361626233,21787,-2,0,43309.7974131543,61194.5960976270,40204.4308361840,57255.1704065345,70118.3362767854,50717.2478850250,43796.5417891625,61649.8018034701,30857.2548075873,22772.0879580724
8361626233,21787,-2,0,43293.1520039006,61195.8372027030,40219.1172462493,57263.8216389756,70109.4660258015,50712.1252846625,43815.3530484508,61643.9856443888,30876.3459239025,22758.7764977481
8361626233,21787,-2,0,43289.2340055236,61190.9214531865,40207.0833940914,57256.7522071215,70102.9198049108,50702.7561581088,43813.1141922353,61634.9085425588,30861.8420292895,22759.8837581590
8361626233,21787,-2,0,43297.7878963901,61193.3428248543,40200.1843099928,57251.6052713654,70111.3398511122,50702.5006364756,43802.9298299945,61638.5223485153,30854.8212682227,22768.3281397541
8361626233,21787,-2,0,43297.0943376712,61193.6835203653,40205.5259288981,57249.3542474531,70106.9716479528,50698.9598367001,43801.0195015933,61641.1384033322,30861.9028677736,22762.5971545505
8361626233,21787,-2,0,43304.3341172808,61194.7056068984,40199.5637574548,57243.9274546701,70096.3492486264,50694.4456211788,43793.9500697392,61643.9734766919,30849.5891585888,22764.4831475581
8361626233,21787,-2,0,43317.8524284511,61207.1044899610,40203.0072156557,57253.7711213999,70120.6603068786,50710.5434840755,43798.3182728986,61654.4863667470,30849.3944754396,22768.5228229033
8361626233,21787,-2,0,43305.5630546600,61210.8399728857,40223.1447538977,57265.2452595039,70120.0154189470,50715.8485998903,43812.7004905433,61653.2087585805,30876.4676008707,22759.5673980416
8361672413,21788,-2,0,43282.9189708725,61195.9953827617,40218.8495569192,57251.7026129400,70103.6985375074,50703.8269154293,43805.5215494178,61637.5611004662,30871.7343668066,22754.3231207109
8361672413,21788,-2,0,43285.1334916942,61186.2855606970,40203.4330850445,57238.7926866108,70104.0270653216,50701.1621898250,43788.4502707752,61629.8832837710,30853.6288339340,22761.1370309318
8361672413,21788,-2,0,43291.0834954407,61187.0764609905,40202.1311414845,57245.0468827778,70106.7769648036,50702.4763010819,43791.5043626778,61633.9351268130,30856.3787334160,22759.4092179829
8361672413,21788,-2,0,43289.1731670395,61189.6681804137,40202.3744954209,57254.0753138205,70101.4475135952,50694.9201613549,43804.6089721561,61632.5480093752,30856.7559320175,22750.5876377863
8361672413,21788,-2,0,43300.7081436276,61189.8628635629,40190.0364508425,57252.1528177224,70090.5817603323,50696.5019619419,43802.8203207231,61631.5989290230,30835.0365931886,22754.1041021681
8361672413,21788,-2,0,43325.5789159337,61200.6799460385,40198.7850248582,57258.7477094005,70113.1406702420,50723.3682365269,43804.4021213101,61649.6436234114,30844.9410984024,22766.0406127514
8361672413,21788,-2,0,43321.5149051948,61205.9485587628,40222.4511951788,57261.9599813617,70121.2565240229,50722.9545348349,43810.0235972423,61655.0460808008,30874.9831418583,22766.6611652894
8361672413,21788,-2,0,43305.6847316282,61200.6069398576,40219.2267555207,57248.9283780643,70116.8761531667,50704.6421511164,43803.9154134372,61645.1050724965,30875.5063528217,22765.0793647024
8361697832,21789,-2,0,43293.4440286243,61196.0805566394,40207.6066050548,57239.9607855058,70110.3177645791,50693.5938824012,43797.7828942384,61640.1893229800,30863.3021529083,22757.8639204864
8361697832,21789,-2,0,43278.6724446813,61192.3329060180,40202.9098740812,57240.1676363518,70098.7341172037,50686.1594196424,43804.5603013688,61634.1541453558,30862.3287371624,22741.6443806214
8361697832,21789,-2,0,43272.9779625681,61186.8087716604,40193.2730581974,57234.6556696910,70092.2974055843,50684.8574760823,43798.9388254366,61623.2275536088,30846.8392591068,22741.9729084356
8361697832,21789,-2,0,43283.7220388628,61184.7524308973,40183.7092484945,57226.2964619737,70088.3672395105,50690.5154551050,43783.4980181683,61622.8868580978,30830.4615391831,22759.1171932592
8361697832,21789,-2,0,43301.0731745323,61195.4721717983,40199.2473973374,57237.1622152366,70108.8819763540,50712.3443032053,43791.7598843111,61641.7346204765,30844.0771919280,22773.6575909626
8361697832,21789,-2,0,43297.6905548155,61203.5758578824,40216.2943405864,57249.2569058786,70110.0622429458,50712.5754894450,43804.8158230021,61646.5530284184,30862.4260787370,22767.7440903066
8361697832,21789,-2,0,43301.8884102194,61206.6299497849,40210.0401444194,57249.1838996976,70110.6341246965,50712.0279430879,43807.5413870904,61646.0054820614,30856.0258702081,22769.6787541015
8361697832,21789,-2,0,43306.8041597359,61209.7083770811,40213.1915778965,57253.6616121285,70118.4944568441,50720.2776415339,43809.9384233645,61651.4201071476,30870.4080878529,22770.3723128204
8361727004,21790,-2,0,43298.4206166249,61203.2351623713,40218.8738923128,57251.9581345733,70108.2979269065,50710.1906208677,43806.8843314620,61644.4723522617,30878.1710784259,22766.2596312942
8361727004,21790,-2,0,43301.3408638624,61195.1558116809,40209.3465857005,57244.9495412032,70110.8288078457,50706.4916410335,43799.9852473634,61644.0464828729,30863.9227054462,22771.7107594709
8361727004,21790,-2,0,43302.3872857892,61199.7795364736,40208.8355424339,57250.8143710719,70117.2290163745,50707.2095351460,43803.6112210166,61644.0099797824,30863.9592085367,22772.8301875786
8361727004,21790,-2,0,43291.1808370152,61199.8768780482,40214.5178568502,57259.3560942416,70105.8765552387,50702.6101457470,43818.3463018692,61640.3231676451,30876.5771101421,22763.4610610249
8361727004,21790,-2,0,43282.8581323883,61189.4613295678,40200.2694838706,57243.8057777019,70079.7403424630,50693.7155593694,43806.2516112272,61622.8625227041,30859.0799621107,22764.8968492501
8361727004,21790,-2,0,43301.8154040385,61189.1328017535,40190.5109910186,57233.9864463658,70100.1942408224,50711.5047321245,43790.4822761447,61636.3321630871,30844.2475396835,22786.7378650472
8361727004,21790,-2,0,43302.9104967525,61193.5740110939,40203.1653957144,57240.9707043421,70112.6417946723,50714.1207869415,43791.8937289761,61646.9545624136,30862.9614573972,22779.4494146503
8361727004,21790,-2,0,43288.2119189904,61189.9480374407,40203.5547620128,57242.9905420148,70100.3037500938,50698.4852965240,43794.6801315486,61640.9680555767,30866.1980647521,22766.3569728688
8361781374,21791,-2,0,43289.3678501886,61186.1638837287,40186.7025019130,57238.1234632856,70090.3384063958,50693.5208762202,43791.6382073428,61633.3997481528,30844.3083781677,22765.3105509420
8361781374,21791,-2,0,43294.8433137589,61188.5730876997,40192.2023008770,57243.2582313449,70099.2086573797,50700.8214943140,43797.1015032163,61635.6629397619,30850.5625743346,22755.5885611805
8361781374,21791,-2,0,43284.4886037626,61179.3864765984,40197.1545534839,57239.8999470217,70092.6746041858,50696.5993035164,43800.7153091728,61627.6565952524,30858.8609435679,22746.6818071061
8361781374,21791,-2,0,43285.5471933862,61171.0881073651,40185.8507631354,57230.7133359204,70090.5209218482,50692.3527773252,43792.3682691522,61619.4068968064,30845.5008124563,22746.7669809839
8361781374,21791,-2,0,43295.1840092700,61176.2958816053,40187.7245884461,57236.8336874223,70095.2176528218,50692.9733298632,43796.6391307371,61625.8192730321,30843.2984593314,22746.0247514777
8361781374,21791,-2,0,43288.9298131030,61178.4738993366,40194.9887034494,57243.2217282544,70090.6182634227,50687.6195432611,43803.8789103467,61624.4321555943,30845.6954956055,22736.9598173446
8361781374,21791,-2,0,43287.0316523986,61175.6874967642,40184.7556704213,57236.4808242145,70075.0314437926,50678.7614599740,43794.8383116073,61618.7255057843,30829.4029495595,22750.7458178450
8361781374,21791,-2,0,43301.0245037450,61179.7880105935,40185.1085336292,57233.9134401848,70100.6931163921,50703.2063628913,43785.2623342076,61629.7372714091,30829.2082664104,22769.8125987665
8361792722,21792,-2,0,43293.8577303163,61181.8200159630,40200.9265394990,57238.1234632856,70102.3479231601,50694.4456211788,43789.1559971910,61636.1618153316,30848.3480535129,22762.1469497681
8361792722,21792,-2,0,43278.6724446813,61176.1377015466,40198.5295032249,57236.7120104541,70092.7962811541,50677.8732181059,43792.4777784236,61625.0162050418,30845.1236138548,22747.5457135805
8361792722,21792,-2,0,43278.8914632241,61174.0935284804,40184.7313350277,57235.1302098671,70088.3429041169,50679.0413170009,43792.5021138173,61616.5718234467,30830.3033591244,22741.6930514087
8361792722,21792,-2,0,43278.9401340114,61173.7650006662,40185.4613968371,57236.2861410653,70083.1959683608,50688.6781328847,43793.2078402330,61615.7565877595,30835.5598041520,22742.0094115261
8361792722,21792,-2,0,43277.8937120846,61173.0592742504,40191.1923820407,57231.3095530647,70081.5289938960,50702.8656673802,43790.4092699637,61617.3505560433,30843.1159438790,22754.3839591950
8361792722,21792,-2,0,43294.1132519496,61177.2206265639,40190.2798047789,57226.9656852989,70089.1946428945,50711.7237506674,43779.3853366421,61625.5637513988,30836.0221766312,22777.9162848506
8361792722,21792,-2,0,43304.3827880681,61187.7456843157,40201.7904459734,57239.4984130266,70104.2825869549,50702.5979780501,43786.0167314106,61635.4560889159,30846.1335326911,22773.7427648403
8361792722,21792,-2,0,43292.4097743944,61189.7898573820,40209.7481196956,57248.0036331058,70091.4456668067,50689.9314056575,43803.0636746596,61632.0247984118,30858.6054219346,22760.3217952446
8361841252,21793,-2,0,43289.7207133965,61181.1264572440,40195.5240821096,57236.6876750605,70073.2914631469,50688.2644311927,43796.2497644387,61619.6015799556,30838.7234053259,22769.9586111284
8361841252,21793,-2,0,43298.9316598915,61182.4162331073,40193.4799090434,57229.2045415144,70089.4136614373,50706.0779393415,43785.7125389901,61624.4686586848,30834.3673698633,22785.0465551888
8361841252,21793,-2,0,43289.1731670395,61181.7591774788,40205.7449474409,57230.7985097982,70092.7719457604,50703.4253814341,43786.1749114693,61629.1410542648,30850.3313880950,22779.8996194327
8361841252,21793,-2,0,43278.4169230480,61174.6167394438,40200.5858439880,57228.0972811035,70087.9535378185,50693.8737394281,43785.8950544424,61623.8967769341,30847.3746377670,22772.2339704343
8361841252,21793,-2,0,43284.9753116355,61180.3355569506,40193.0540396546,57232.7088381994,70085.8728616618,50699.8967493555,43788.2799230197,61631.2095627247,30840.8040814826,22775.2758946400
8361841252,21793,-2,0,43293.7725564385,61189.9845405311,40197.9332860806,57242.1874740244,70095.4975098487,50704.7638280846,43801.3480294075,61647.0154008977,30850.2097111268,22776.2736457795
8361841252,21793,-2,0,43285.0604855133,61185.3486480416,40200.4398316261,57238.9630343664,70104.1852453803,50701.9895932090,43799.8635703952,61643.7544581491,30858.0335401839,22757.5232249753
8361841252,21793,-2,0,43278.7332831654,61171.7573306904,40190.3406432631,57225.3838847120,70095.8260376630,50689.4325300877,43784.1429060999,61630.4916686121,30844.3448812581,22747.2293534631
8361896632,21794,-2,0,43275.8982098056,61163.0939305524,40181.6772431251,57221.4780540318,70087.4668299456,50681.8520549670,43778.3997531995,61624.2861432324,30835.4381271837,22734.9521473688
8361896632,21794,-2,0,43264.7282641222,61157.2777714711,40179.6939085430,57225.7002448293,70077.3068030985,50670.0737244424,43786.5886131613,61617.7277546449,30837.2146109199,22723.1616491474
8361896632,21794,-2,0,43261.8688553688,61151.3764385120,40164.9466599936,57220.5533090732,70069.5803156159,50661.4103243045,43783.4128442905,61604.5501389856,30817.8436375778,22731.7155400139
8361896632,21794,-2,0,43266.6385925234,61146.0226519099,40158.4977806774,57218.2292789801,70070.2617066380,50664.0263791214,43778.5457655614,61602.1044319242,30810.9567211760,22743.0801688465
8361896632,21794,-2,0,43268.2690638976,61143.9176403595,40167.8304041406,57221.2468677922,70067.1224408577,50667.2508187795,43779.7747029405,61604.3676235333,30823.2460949671,22746.2437700205
8361896632,21794,-2,0,43266.4074062837,61137.7486180703,40161.3450217340,57214.6884792046,70054.7965639760,50657.3706489593,43772.5227556340,61599.2206877772,30816.1036569321,22752.3397861288
8361896632,21794,-2,0,43275.7278620501,61144.1001558118,40157.4513587506,57214.1896036348,70065.2364478501,50668.9299609411,43770.6610980201,61607.7380755532,30809.7277837969,22762.9621854552
8361896632,21794,-2,0,43270.8364479273,61157.2777714711,40174.6686497551,57226.9535176021,70077.0877845556,50679.4185156024,43786.1384083789,61619.5529091683,30832.0920105574,22758.4236345402
8361901253,21795,-2,0,43252.0495240327,61153.0190775830,40169.1201800038,57215.5402179822,70057.8749912722,50665.4865027402,43781.8675467940,61607.0080137438,30824.8765663414,22750.4781285149
8361901253,21795,-2,0,43257.5249876030,61146.4850243891,40153.7523789165,57200.3792677408,70069.7019925841,50673.6631950052,43759.0652829478,61602.1409350147,30810.3240009412,22753.7390712634
8361901253,21795,-2,0,43258.3523909869,61146.4363536018,40161.0773324039,57204.7961416875,70074.4838974355,50671.3269972152,43755.7191663215,61601.4838793862,30825.8499820873,22751.5610535321
8361901253,21795,-2,0,43248.4600534699,61141.1190700902,40165.1900139300,57206.2562653063,70059.4324564656,50665.4134965592,43762.2897226059,61592.7353053705,30830.5102099704,22742.2649331594
8361901253,21795,-2,0,43261.1387935594,61146.1078257876,40160.9313200420,57210.0404190182,70051.9493229194,50681.5721979401,43768.9454527681,61597.1278439236,30819.9243137345,22758.1681129070
8361901253,21795,-2,0,43279.1469848573,61157.2899391679,40174.4374635155,57220.1274396844,70075.6519963305,50701.5393884266,43774.5669287003,61611.2302045414,30830.4372037895,22765.7364203308
8361901253,21795,-2,0,43269.6440136386,61156.4990388744,40188.6736687983,57218.9836761831,70077.7570078809,50691.5375416381,43775.6863568080,61611.6804093238,30845.0141045834,22760.1757828828
8361901253,21795,-2,0,43260.5669118087,61146.9352291716,40176.7249905182,57205.8060605238,70074.5569036165,50678.9074723359,43762.8737720534,61604.6961513475,30833.6981465380,22759.0198516846
8361923505,21796,-2,0,43260.3235578723,61148.0181541888,40167.1003423312,57202.0705775992,70076.7957598319,50674.6609461447,43756.6560789769,61605.3045361886,30823.5867904782,22751.9504198304
8361923505,21796,-2,0,43260.6155825960,61158.4337026693,40173.9264202489,57214.5181314491,70080.9449444485,50676.6321130300,43772.3280724848,61610.6704904875,30833.0897616969,22741.2063435358
8361923505,21796,-2,0,43259.8733530898,61160.9524159116,40167.7573979597,57214.0800943634,70080.4339011820,50677.1918270838,43772.8512834482,61604.9760083744,30829.8896574325,22740.9751572961
8361923505,21796,-2,0,43272.3209069397,61162.1570178971,40160.5784568341,57208.4099476440,70083.9868686542,50681.7668810893,43761.8760209139,61608.4559696658,30822.1753376467,22758.2654544815
8361923505,21796,-2,0,43282.2375798504,61166.7442395993,40172.0769303318,57216.0634289456,70096.3249132327,50682.3387628400,43765.8913608655,61621.3780636917,30837.0685985580,22759.3970502861
8361923505,21796,-2,0,43272.3574100301,61165.1624390123,40176.1896118580,57222.2932897189,70088.8539473834,50677.2891686584,43773.5326744703,61616.4379787816,30843.5418132678,22743.9562430178
8361923505,21796,-2,0,43271.7246897954,61170.5040579176,40174.8755006011,57225.1283630787,70092.9057904255,50689.2500146354,43779.0446411311,61616.8760158672,30839.2709516830,22743.7615598686
8361923505,21796,-2,0,43273.8418690425,61174.9939380453,40183.0765282598,57227.2942131132,70096.7386149247,50698.7164827636,43784.6052785792,61624.8823603767,30850.3800588823,22742.6542994577
8361942439,21797,-2,0,43264.7647672126,61166.9510904453,40186.4713156734,57219.9814273226,70088.7201027184,50693.8372363376,43781.1739880751,61623.7750999659,30853.9086909610,22742.9706595751
8361942439,21797,-2,0,43271.3109881034,61162.3030302590,40179.2680391542,57216.6109753026,70094.2685724696,50692.5961312617,43774.4574194288,61623.1423797311,30841.7166587444,22754.4204622855
8361942439,21797,-2,0,43284.6589515181,61169.1899466607,40175.6420655009,57224.4348043598,70086.1770540824,50692.5231250807,43774.4574194288,61626.5736702351,30835.6936488170,22762.4146390982
8361942439,21797,-2,0,43288.7472976506,61175.3102981627,40179.5113930906,57232.1126210550,70080.3487273042,50694.8836582644,43783.0356456890,61629.8832837710,30836.3385367486,22764.8968492501
8361942439,21797,-2,0,43286.8978077336,61176.3202169990,40179.6695731493,57230.5186527712,70086.6637619553,50695.5407138928,43781.8432114004,61623.9454477214,30830.7900669974,22764.2397936216
8361942439,21797,-2,0,43281.9942259139,61174.3368824168,40182.7114973551,57228.6691628542,70096.5926025628,50698.9355013064,43777.8522068424,61619.3460583223,30837.3362878881,22760.6503230588
8361942439,21797,-2,0,43265.3488166601,61163.2156075207,40189.2455505490,57227.1603684481,70073.6686617484,50691.1360076429,43777.2681573949,61611.5222292652,30846.7175821386,22743.8102306559
8361942439,21797,-2,0,43259.5326575788,61154.4548658082,40183.8430931596,57222.9260099537,70070.0305203983,50684.5532836617,43777.1951512140,61605.0368468585,30837.2754494040,22733.2243344199
8361979170,21798,-2,0,43271.4326650716,61153.7734747861,40162.9998285019,57225.7610833135,70060.2355244559,50670.9132955232,43774.1897300987,61605.8277471520,30811.9301369218,22742.7029702450
8361979170,21798,-2,0,43284.5494422467,61161.5608007528,40159.5076995137,57237.5150784444,70075.7371702083,50676.9849762379,43781.2591619529,61613.9436009329,30812.7210372153,22743.8832368368
8361979170,21798,-2,0,43270.3254046607,61154.6860520478,40159.1913393963,57229.5695724190,70070.6997437236,50668.8812901538,43778.5822686518,61605.3288715823,30819.7904690694,22729.6957023413
8361979170,21798,-2,0,43262.2825570607,61143.0050630978,40145.8190405879,57215.4915471949,70064.0196781678,50661.9335352679,43764.3338956722,61590.4599460646,30808.7056972637,22729.6957023413
8361979170,21798,-2,0,43267.5755051787,61145.6332856115,40148.8001263095,57221.6727371810,70064.9322554295,50679.4428509961,43771.4154952231,61596.5802975666,30816.1036569321,22735.5970353004
8361979170,21798,-2,0,43271.0311310764,61153.8464809670,40164.2044304874,57240.2528102296,70054.5288746459,50682.1440796908,43794.7288023359,61604.8421637094,30830.9239116624,22736.5582833494
8361979170,21798,-2,0,43287.0438200954,61160.5995527037,40160.2864321104,57248.3808317073,70069.8601726428,50680.0147327468,43802.0659235201,61614.2964641408,30821.3966050501,22753.4713819333
8361979170,21798,-2,0,43295.5977109620,61161.5973038432,40159.4346933328,57246.4705033061,70086.8462774076,50680.4649375292,43795.8238950499,61620.7696788506,30823.1244179989,22753.3983757524
8362010134,21799,-2,0,43275.5453465978,61149.7216317440,40163.3161886193,57233.8160986103,70074.7637544625,50675.1719894112,43787.5376935135,61615.7322523659,30834.9514193108,22739.0769965918
8362010134,21799,-2,0,43257.1356213046,61137.1280655323,40159.4711964232,57218.8741669117,70061.7321511651,50671.4121710929,43777.1464804267,61604.4406297142,30830.3520299117,22729.9755593682
8362010134,21799,-2,0,43261.7593460974,61140.2308282221,40153.7523789165,57219.1296885450,70063.8128273218,50676.0967343698,43772.8147803578,61601.6055563545,30818.2573392697,22737.2883451588
8362010134,21799,-2,0,43267.8188591152,61148.0424895825,40160.4202767754,57229.0341937588,70061.7929896492,50678.3964290693,43778.0468899916,61605.3288715823,30824.7670570700,22748.0324214535
8362010134,21799,-2,0,43267.8553622057,61139.6467787746,40154.9204778115,57221.8795880269,70040.1709923948,50666.5815954542,43773.4231651989,61599.0503400216,30814.6922041006,22759.3118764083
8362010134,21799,-2,0,43283.9288897088,61134.0739736297,40144.1398984263,57214.6033053268,70051.1097518387,50672.2882452642,43759.1017860383,61602.2991150734,30799.4825830719,22771.8689395296
8362010134,21799,-2,0,43289.3070117045,61140.5106852491,40157.1593340269,57225.9192633722,70066.3315405642,50676.9849762379,43764.6259203959,61608.7844974800,30818.3425131475,22764.3493028930
8362010134,21799,-2,0,43274.7422786074,61139.3304186572,40166.4797897933,57238.9873697600,70052.8862355748,50674.0038905162,43785.3475080854,61604.5623066824,30836.1073505090,22744.8444848858
8362047759,21800,-2,0,43273.9757137076,61141.8369642028,40162.1480897243,57243.0027097116,70050.4770316039,50673.8213750639,43791.9180643698,61596.7628130189,30825.5457896667,22750.2226068816
8362047759,21800,-2,0,43282.6147784519,61144.7937145307,40159.5563703010,57240.5691703470,70058.7023946562,50674.0282259099,43783.8265459825,61598.3811166964,30818.0626561206,22757.4623864912
8362047759,21800,-2,0,43274.2677384314,61140.9365546379,40163.9732442477,57229.2653799985,70053.6406327778,50665.2553165005,43775.2848228128,61593.2706840307,30823.6962997496,22750.8674948132
8362047759,21800,-2,0,43264.9716180586,61131.5917634778,40153.3143418308,57212.4861260796,70044.1011584686,50653.8663522743,43761.5353254029,61585.2035010371,30813.9378068976,22749.7724020991
8362047759,21800,-2,0,43272.1627268810,61134.2321536884,40145.5513512578,57212.1819336591,70048.7613863518,50660.9601195220,43760.9756113490,61588.2210898492,30804.4105002852,22747.3510304314
8362047759,21800,-2,0,43269.8265290910,61140.9243869410,40152.5112738405,57225.4812262865,70051.2435965037,50667.9565451952,43776.1487292872,61595.4243663684,30816.4321847463,22734.1247439848
8362047759,21800,-2,0,43261.0049488943,61142.0438150488,40153.6915404324,57229.6912493873,70045.0624065177,50673.7727042766,43782.1839069114,61594.6456337717,30818.5980347808,22733.9300608357
8362047759,21800,-2,0,43283.9167220119,61144.5260252006,40145.1011464754,57229.9102679301,70057.0232524946,50683.3486816763,43776.2947416491,61607.8840879151,30804.8972081581,22763.0716947266
8362075087,21801,-2,0,43300.3309450261,61153.8099778765,40154.6284530877,57239.3158975742,70071.4663086234,50680.1607451086,43779.3975043390,61622.7286780391,30812.8913849708,22766.2839666879
8362075087,21801,-2,0,43291.7040479786,61159.5774661706,40168.9011614610,57253.0045565000,70081.0787891136,50681.8763903607,43797.6612172702,61626.0382915749,30832.8342400636,22751.2203580211
8362075087,21801,-2,0,43283.0893186280,61161.9258316574,40167.6235532946,57255.2677481091,70076.7227536509,50681.9007257543,43804.8158230021,61615.1238675247,30829.8288189484,22747.7160613361
8362075087,21801,-2,0,43277.5165134831,61157.3386099552,40163.4256978907,57244.9373735064,70068.6434029605,50680.5987821943,43793.7310511964,61604.0512634159,30819.7904690694,22746.5722978347
8362075087,21801,-2,0,43267.2834804550,61145.9739811226,40164.0949212160,57231.1635407029,70058.4712084165,50675.0138093525,43784.2280799777,61594.0615843242,30820.3380154265,22742.7151379418
8362075087,21801,-2,0,43265.3244812665,61137.0185562609,40157.3540171761,57220.9426753716,70058.8970778053,50673.5050149465,43774.3965809447,61588.8416423872,30808.6205233860,22743.9197399273
8362075087,21801,-2,0,43281.0208101681,61145.3534285846,40154.2147513957,57228.8881813970,70064.0318458646,50674.0890643940,43776.9274618839,61603.6132263302,30804.7146927058,22754.2622822268
8362075087,21801,-2,0,43282.5661076646,61157.5941315885,40162.4887852353,57244.8521996287,70078.6209143553,50678.7736276708,43792.0397413380,61614.5763211677,30824.8887340382,22745.7935652380
8362125296,21802,-2,0,43267.4903313010,61153.0434129767,40158.0840789854,57238.2208048602,70062.0241758888,50666.2287322464,43788.1460783547,61603.2725308192,30822.6742132165,22742.8489826069
8362125296,21802,-2,0,43274.7666140011,61149.1254145997,40148.3255861334,57224.3861335725,70071.0526069315,50679.3211740279,43774.2384008860,61604.9638406776,30811.7232860758,22758.7521623545
8362125296,21802,-2,0,43278.8914632241,61154.3210211431,40167.0760069376,57228.4988150986,70083.1472975735,50687.8750648944,43775.4186674779,61610.0499379496,30828.5147076915,22758.5939822958
8362125296,21802,-2,0,43269.1086349784,61152.1186680181,40179.4627223033,57233.2077137691,70070.5293959681,50676.4252621840,43784.5322723982,61604.2459465650,30834.3186990760,22750.8796625100
8362125296,21802,-2,0,43270.1185538147,61149.3079300521,40166.2486035536,57232.8061797740,70057.6924758199,50666.6667693320,43784.8242971220,61594.6456337717,30815.5439428782,22751.1473518401
8362125296,21802,-2,0,43286.2407521051,61154.1993441749,40161.0773324039,57238.2208048602,70061.0872632335,50680.3797636515,43790.3119283891,61602.5181336162,30811.4799321394,22764.6899984041
8362125296,21802,-2,0,43288.8568069221,61156.1218402729,40172.3324519651,57245.2902367143,70071.5879855917,50692.0364172078,43796.0550812896,61609.4537208052,30830.0965082785,22764.6534953136
8362125296,21802,-2,0,43285.0483178165,61152.8365621307,40172.4662966301,57240.6421765279,70075.8831825702,50685.3928547425,43790.9446486239,61602.9805060954,30829.4272849532,22764.5926568295
8362131707,21803,-2,0,43285.7297088386,61149.4539424139,40160.4932829564,57231.3095530647,70066.7087391657,50678.0557335583,43780.5169324467,61606.9228398661,30815.2519181545,22767.1357054655
8362131707,21803,-2,0,43280.5706053856,61157.3751130457,40169.3513662435,57237.5272461413,70078.9494421696,50689.4933685718,43789.4480219147,61615.7444200627,30826.1176714174,22750.0157560356
8362131707,21803,-2,0,43264.5457486698,61156.5477096617,40171.4685454907,57234.2784710895,70074.6055744038,50689.6637163274,43791.6990458270,61609.2468699593,30829.7923158579,22740.7926418438
8362131707,21803,-2,0,43271.2866527097,61158.0686717646,40168.8889937642,57228.9490198811,70081.8818571039,50696.3072787927,43784.4714339141,61611.3032107223,30823.9396536861,22756.6958215914
8362131707,21803,-2,0,43278.9644694050,61160.2953602832,40178.1121079560,57231.1027022187,70076.9904429811,50690.1504242003,43784.8242971220,61619.0175305081,30832.2136875257,22767.6954195193
8362131707,21803,-2,0,43282.7851262074,61160.0763417404,40181.7745846997,57236.2131348844,70077.9760264237,50695.3216953500,43790.0929098463,61620.5506603078,30836.3872075359,22771.7715979550
8362131707,21803,-2,0,43291.6310417977,61166.6225626311,40181.2148706458,57244.9130381128,70084.0598748352,50704.3744617863,43797.2475155782,61621.9256100488,30834.8419100394,22778.8897005964
8362131707,21803,-2,0,43296.9969960966,61170.6500702795,40185.1328690228,57254.6350278743,70085.7146816031,50706.6133180017,43808.0645980538,61628.1189677316,30848.0681964859,22784.2434871985
8362160075,21804,-2,0,43286.5084414352,61159.1272613882,40176.7858290023,57245.8377830713,70066.9399254053,50685.2711777743,43804.6454752466,61619.2487167477,30844.4908936200,22783.5012576923
8362160075,21804,-2,0,43287.5913664525,61148.4196881840,40160.7853076801,57233.3780615246,70075.1652884576,50679.7105403262,43787.4403519389,61613.3717191822,30829.6584711928,22782.0898048609
8362160075,21804,-2,0,43285.7662119290,61150.4760289471,40160.1890905358,57231.4799008202,70072.3302150979,50676.6321130300,43778.0590576884,61608.3829634848,30829.8288189484,22769.2893878031
8362160075,21804,-2,0,43274.0608875854,61150.6463767026,40168.2684412262,57234.3149741800,70064.9079200359,50681.1098254608,43788.8153016799,61609.5632300767,30838.4192129054,22756.2091137185
8362160075,21804,-2,0,43266.1397169536,61151.5467862675,40169.5703847863,57230.7376713140,70057.6803081230,50690.2477657749,43791.0298225017,61606.2049457535,30835.6693134234,22753.1793572096
8362160075,21804,-2,0,43285.9365596845,61157.3142745615,40173.3180354078,57230.0319448983,70065.0052616105,50708.1221124078,43786.0288991075,61617.6912515544,30829.8044835547,22773.7671002340
8362160075,21804,-2,0,43294.7946429716,61161.4634591782,40185.4492291402,57233.6700862484,70081.1396275977,50711.8940984229,43787.3795134548,61626.8170241716,30843.5296455710,22779.4615823471
8362160075,21804,-2,0,43287.0073170050,61160.7942358529,40190.6205002900,57238.0869601951,70083.8165208987,50702.7561581088,43793.8527281646,61622.7651811296,30852.8987721247,22772.4408212803
8362191523,21805,-2,0,43285.0969886038,61160.6847265815,40179.6939085430,57237.9652832269,70078.3532250252,50694.6524720248,43795.7387211722,61618.4091456669,30840.8770876636,22772.6963429136
8362191523,21805,-2,0,43279.2443264319,61159.6383046547,40176.8588351832,57239.1455498187,70071.7461656504,50689.7488902051,43798.5981299256,61610.6948258812,30840.6702368176,22760.8571739048
8362191523,21805,-2,0,43263.4506559557,61148.3101789126,40174.2792834568,57227.7444178956,70057.4734572771,50687.3396862342,43792.4291076363,61598.6244706328,30834.9027485235,22751.7557366813
8362191523,21805,-2,0,43265.6773444744,61140.4620144618,40156.8673093031,57214.3234482999,70058.7632331403,50682.1075766003,43773.3136559275,61593.3680256053,30819.4497735584,22760.2974598510
8362191523,21805,-2,0,43278.8062893463,61146.7527137192,40155.4436887749,57223.3640470393,70069.5316448286,50687.5222016865,43773.1554758688,61603.1995246383,30822.6255424292,22763.6800795678
8362191523,21805,-2,0,43288.2484220809,61157.7766470408,40167.5992179010,57244.4871687240,70062.2918652189,50684.6262898427,43795.1790071183,61613.3960545759,30834.7567361616,22765.3713894261
8362191523,21805,-2,0,43291.6553771913,61161.9745024447,40169.2783600625,57244.2559824843,70071.2229546870,50680.2824220769,43792.7576354506,61610.2081180083,30824.5967093145,22768.8391830207
8362191523,21805,-2,0,43284.7441253959,61157.5576284980,40168.0007518961,57230.8106774950,70070.6145698458,50680.0390681404,43776.9152941871,61601.7150656259,30819.4741089520,22763.4488933281
8362243660,21806,-2,0,43272.2113976683,61148.6508744236,40172.2837811778,57223.9724318805,70061.1602694144,50686.5852890312,43771.7926938246,61597.1643470141,30830.0356697943,22752.4249600065
8362243660,21806,-2,0,43270.7026032622,61146.6797075383,40172.3446196619,57222.8165006823,70058.5198792038,50686.0012395837,43772.4619171499,61595.3756955811,30832.2866937066,22752.8629970922
8362243660,21806,-2,0,43283.3691756549,61151.1574199691,40164.1679273969,57226.9535176021,70064.6645660994,50681.9128934511,43772.5592587245,61596.9696638649,30820.8490586930,22757.4745541881
8362243660,21806,-2,0,43285.6688703544,61154.8320644097,40164.8858215095,57231.6015777885,70054.5653777364,50670.5360969217,43776.5989340697,61596.3004405396,30819.7661336758,22751.8652459527
8362243660,21806,-2,0,43282.7486231169,61148.7482159982,40158.5099483742,57222.0986065698,70033.9654670151,50670.7429477677,43770.0162100885,61593.6478826322,30808.9247158065,22751.8287428622
8362243660,21806,-2,0,43300.6594728403,61154.5400396859,40158.2300913473,57221.5145571223,70056.6217184994,50694.6889751152,43762.3383933932,61606.3631258122,30802.8530350919,22768.7905122334
8362243660,21806,-2,0,43312.7419957855,61169.5184744750,40176.2139472516,57238.2694756475,70086.2865633538,50707.1000258746,43770.6976011106,61624.4564909879,30829.5246265278,22769.5205740428
8362243660,21806,-2,0,43294.4174443701,61172.5969017712,40186.9945266367,57249.1960673945,70079.8133486440,50685.7335502535,43789.2655064624,61618.8836858430,30848.4332273906,22746.5236270474
8362260541,21807,-2,0,43281.7508719775,61164.6757311394,40169.9232479942,57240.2771456232,70062.7907407887,50676.9363054506,43788.4259353816,61601.4352085989,30832.8464077604,22743.6155475067
8362260541,21807,-2,0,43288.8081361348,61167.2066120786,40165.4577032601,57235.0085328989,70072.6587429121,50693.2410191933,43782.2569130924,61602.4451274352,30826.9815778918,22755.3817103345
8362260541,21807,-2,0,43282.5782753614,61164.5783895648,40174.7173205424,57232.0031117836,70073.2062892691,50695.3581984405,43778.9716349502,61602.8223260367,30837.9081696388,22756.7323246819
8362260541,21807,-2,0,43277.6016873608,61158.5797150311,40174.7538236329,57223.4248855235,70064.0683489551,50687.7533879262,43770.8436134724,61598.1012596694,30830.7778993005,22754.3839591950
8362260541,21807,-2,0,43292.3976066975,61159.7356462293,40167.3436962677,57223.9967672741,70068.0228504226,50692.4379512030,43768.1423847777,61604.6231451665,30815.0937380958,22765.7364203308
8362260541,21807,-2,0,43295.2448477541,61172.5847340743,40180.4848088365,57243.5989268559,70079.9471933090,50697.8404085924,43786.4669361931,61615.4888984294,30836.4115429296,22765.1280354897
8362260541,21807,-2,0,43282.0428967012,61172.2927093506,40183.9160993405,57248.7580303088,70075.3964746972,50690.6006289827,43797.1988447909,61608.2247834261,30846.2552096593,22759.1536963496
8362260541,21807,-2,0,43278.7211154685,61161.6824777210,40169.9840864783,57236.9188613001,70075.3356362131,50688.8484806402,43786.5764454645,61598.7704829947,30832.3353644939,22759.8594227654
8362289268,21808,-2,0,43278.8792955272,61154.6373812605,40163.8880703700,57232.1612918423,70071.8800103154,50676.4009267904,43778.6066040455,61598.6731414201,30827.7359750948,22752.5588046716
8362289268,21808,-2,0,43273.2699872919,61148.2980112157,40163.2796855288,57232.8791859549,70062.4135421872,50668.7717808824,43784.8608002125,61595.4243663684,30828.7337262343,22736.9476496478
8362289268,21808,-2,0,43278.7941216495,61150.8532275486,40159.1913393963,57234.3514772705,70057.0962586755,50676.0480635825,43784.2767507650,61591.4455295073,30817.9653145460,22736.4609417748
8362289268,21808,-2,0,43301.4260377402,61162.3638687431,40163.1093377733,57240.7273504057,70069.9696819142,50687.1815061755,43786.3330915280,61602.7371521590,30818.0504884237,22748.7868186565
8362289268,21808,-2,0,43300.6473051435,61166.9145873548,40174.9120036916,57242.2483125085,70065.5771433611,50683.3000108890,43787.8175505404,61606.1076041789,30831.4592903226,22751.0135071751
8362289268,21808,-2,0,43298.4449520185,61158.1660133392,40164.1679273969,57228.4379766145,70061.3549525636,50676.4374298808,43773.1919789593,61600.8024883641,30817.6732898222,22763.5340672059
8362289268,21808,-2,0,43304.4314588554,61162.7410673446,40165.5793802284,57232.2464657201,70077.6231632158,50689.2378469386,43770.6610980201,61606.5578089614,30822.9662379402,22767.5250717638
8362289268,21808,-2,0,43294.8433137589,61167.2674505627,40180.1076102350,57245.5700937412,70073.4496432056,50688.1670896181,43787.0023148533,61609.2347022624,30843.2984593314,22750.3807869403
8362319303,21809,-2,0,43281.3736733759,61162.2665271685,40180.4604734428,57244.4871687240,70066.0638512341,50688.7633067625,43793.4025233822,61603.1630215478,30843.8095025979,22740.1477539122
8362319303,21809,-2,0,43281.7387042806,61158.3971995788,40173.4518800728,57232.6479997152,70074.9219345212,50689.1405053640,43781.0279757132,61599.6100540755,30832.0555074670,22742.3257716435
8362319303,21809,-2,0,43280.5584376888,61154.7468905319,40176.3112888262,57227.7079148051,70074.6299097974,50681.4505209719,43774.7616118494,61598.1620981536,30834.7202330712,22744.2482677415
8362319303,21809,-2,0,43273.5255089251,61151.4007739056,40174.4861343028,57227.4645608687,70066.4045467451,50679.8443849912,43778.1685669598,61598.5027936646,30837.8838342451,22743.8954045337
8362319303,21809,-2,0,43283.4543495327,61157.9104917059,40168.5117951627,57235.5682469528,70075.5546547559,50683.3000108890,43786.4912715867,61606.9958460470,30831.7026442591,22753.4105434492
8362319303,21809,-2,0,43289.1244962522,61160.6238880974,40166.7961499107,57239.9607855058,70077.7691755777,50677.3378394457,43788.6571216212,61611.6560739302,30831.5931349877,22750.9161656005
8362319303,21809,-2,0,43290.1222473916,61157.3142745615,40166.3581128250,57236.0671225225,70064.0683489551,50673.6875303988,43786.8319670978,61612.1184464095,30832.4692091589,22760.5286460906
8362319303,21809,-2,0,43296.2182634999,61154.8685675001,40163.3161886193,57229.6304109032,70078.2437157538,50686.1350842487,43777.5115113314,61613.8219239647,30831.1185948116,22771.2727223853
8362373110,21810,-2,0,43302.5332981510,61160.7333973688,40175.0823514471,57237.3812337794,70087.8196931535,50705.8345854050,43779.9693860896,61621.2198836330,30843.7364964170,22773.5359139943
8362373110,21810,-2,0,43294.3809412797,61169.6644868368,40196.0107899825,57253.7467860062,70089.7908600388,50709.3632174837,43801.0316692902,61623.8481061468,30868.3882501803,22755.6859027551
8362373110,21810,-2,0,43276.2389053167,61161.1836021512,40192.9201949895,57246.3244909442,70074.5690713133,50693.7155593694,43801.6643895249,61609.5875654703,30860.6860980913,22745.3190250619
8362373110,21810,-2,0,43270.2037276925,61148.5778682427,40173.5370539506,57226.4911451228,70067.0981054640,50684.8209729918,43782.4759316352,61600.6808113959,30836.4480460200,22749.2978619230
8362373110,21810,-2,0,43266.1397169536,61141.0460639093,40169.4852109085,57217.7304034103,70064.7375722804,50675.5370203159,43774.0923885242,61602.7249844622,30833.1871032715,22746.7548132870
8362373110,21810,-2,0,43266.3587354964,61138.4665121828,40167.2828577836,57218.0467635277,70050.8298948117,50671.4000033961,43776.7449464316,61604.7326544379,30830.9969178434,22747.1076764949
8362373110,21810,-2,0,43295.1840092700,61151.1939230596,40165.0074984777,57231.5650746980,70072.9751030295,50687.2666800532,43784.7634586379,61616.5961588403,30822.3091823118,22761.7454157729
8362373110,21810,-2,0,43306.8893336137,61167.8758354039,40181.1540321617,57248.7093595215,70089.9855431880,50703.4740522214,43796.9919939449,61628.0459615507,30842.1790312236,22759.9324289463
8362385370,21811,-2,0,43284.0992374643,61157.5211254075,40187.0188620304,57242.4308279609,70074.0215249563,50699.6533954190,43796.5904599498,61618.2631333051,30850.1853757331,22744.0170815019
8362385370,21811,-2,0,43276.8837932483,61147.1299123207,40178.7813312813,57229.8250940523,70073.9728541690,50699.2518614238,43786.5277746772,61612.0576079254,30839.0762685338,22746.5722978347
8362385370,21811,-2,0,43283.6977034691,61148.1763342475,40179.8885916921,57233.4023969183,70085.7146816031,50702.2572825391,43783.7413721047,61618.6524996034,30839.1492747147,22755.1261887012
8362385370,21811,-2,0,43277.7476997227,61151.3642708151,40188.2843025000,57240.3014810169,70082.7092604878,50690.4181135304,43794.7044669422,61622.6921749486,30850.6112451219,22752.8873324858
8362385370,21811,-2,0,43269.5953428513,61151.9969910499,40179.9372624794,57236.0914579161,70074.5690713133,50688.9701576084,43794.8018085168,61614.6371596518,30842.2885404950,22754.4082945887
8362385370,21811,-2,0,43274.1825645536,61155.2701014953,40168.0494226834,57227.0265237831,70081.7601801357,50692.0972556919,43783.5466889556,61614.6614950455,30829.8166512515,22763.6557441741
8362385370,21811,-2,0,43276.3240791944,61155.8906540333,40175.7759101660,57225.9435987658,70086.0310417205,50690.9656598874,43782.2204100019,61622.5096594963,30841.0717708128,22767.2087116464
8362385370,21811,-2,0,43273.4038319569,61149.1740853870,40176.3477919167,57225.2378723501,70080.8354351771,50688.0089095594,43783.5953597429,61619.7232569238,30844.6855767692,22757.3650449167
8362413603,21812,-2,0,43287.0681554891,61149.3079300521,40172.7096505666,57232.2708011137,70079.6916716758,50693.6547208853,43786.5277746772,61621.2563867235,30835.2069409441,22764.0207750788
8362413603,21812,-2,0,43298.5666289868,61160.5387142196,40183.8674285532,57249.8166199324,70093.0518027873,50702.6709842311,43802.7473145422,61631.9761276245,30846.5715697767,22766.2596312942
8362413603,21812,-2,0,43286.0704043496,61160.7577327624,40194.6236725447,57250.9117126465,70090.0828847625,50703.8269154293,43807.1155177016,61624.2009693547,30855.4539884575,22756.6349831073
8362413603,21812,-2,0,43288.4066021396,61159.4436215056,40187.3230544510,57238.5736680680,70082.8431051529,50701.2595313996,43792.2952629713,61618.8715181462,30839.1857778052,22766.2839666879
8362413603,21812,-2,0,43307.0961844596,61165.8681654281,40183.6727454041,57238.2451402538,70094.2807401665,50693.3991992520,43783.6805336206,61627.3402351350,30829.6828065865,22771.3822316567
8362413603,21812,-2,0,43299.1628461311,61169.7009899273,40191.8616053659,57246.7990311203,70093.4411690857,50690.0774180193,43793.8405604678,61627.1212165922,30842.6779067934,22755.3087041536
8362413603,21812,-2,0,43290.6332906582,61169.1412758734,40187.5055699033,57246.4340002156,70073.7903387166,50678.5789445217,43799.9244088793,61613.6759116028,30837.7864926706,22748.8476571406
8362413603,21812,-2,0,43301.4503731338,61165.9168362154,40171.4563777938,57240.0824624741,70078.0612003015,50681.8763903607,43793.0983309616,61614.9900228597,30818.9265625950,22753.4470465397
8362441497,21813,-2,0,43302.8618259653,61166.4157117851,40177.7835801418,57238.3424818284,70079.5091562234,50686.1472519455,43786.2844207407,61619.0296982049,30824.8522309478,22750.8309917227
8362441497,21813,-2,0,43292.2394266388,61161.5851361464,40182.8210066265,57232.4046457788,70086.6272588648,50687.4735308992,43779.9085476055,61615.0143582533,30829.9748313102,22748.2514399963
8362441497,21813,-2,0,43289.4651917632,61165.7343207630,40181.3122122204,57234.7408435688,70092.8449519414,50696.1977695213,43781.1131495910,61615.9877739992,30832.9315816382,22754.8341639775
8362441497,21813,-2,0,43289.0393223744,61171.0394365778,40187.4203960255,57245.6917707094,70090.3992448799,50696.6601420005,43797.3448571528,61619.9057723762,30846.7662529259,22751.0865133560
8362441497,21813,-2,0,43286.3867644670,61167.9123384943,40187.0188620304,57248.1618131645,70078.9494421696,50686.5852890312,43808.9041691346,61616.4379787816,30845.0871107643,22744.6741371303
8362441497,21813,-2,0,43293.6508794703,61158.0078332805,40170.0449249624,57235.0815390798,70077.3068030985,50678.5546091280,43792.3317660617,61608.6506528149,30819.7417982821,22741.5957098341
8362441497,21813,-2,0,43305.9524209583,61155.5377908254,40164.5694613921,57231.5772423948,70071.3081285647,50676.0480635825,43777.6210206028,61614.7710043169,30809.4357590731,22748.2757753899
8362441497,21813,-2,0,43305.3927069044,61158.5918827280,40172.9773398967,57238.9995374568,70077.6231632158,50675.3301694699,43780.7846217768,61618.4578164542,30818.4763578125,22744.1874292574
8362496388,21814,-2,0,43301.2678576815,61161.4026206941,40171.0913468892,57242.4429956577,70075.6641640274,50676.5712745459,43787.3186749707,61614.1991225662,30814.2541670150,22744.1995969542
8362496388,21814,-2,0,43308.2034448705,61168.2043632181,40172.9408368062,57248.2956578296,70084.2058871971,50689.3108531195,43794.5949576708,61615.0508613438,30822.6012070355,22743.1896781179
8362496388,21814,-2,0,43298.5179581995,61163.0695951588,40180.0711071445,57242.7106849878,70077.3676415826,50679.9052234754,43795.1060009374,61610.0621056464,30836.4845491105,22736.6799603177
8362496388,21814,-2,0,43281.3980087696,61146.0469873035,40165.1048400523,57222.2324512348,70064.8227461581,50663.6735159136,43778.8377902851,61598.4054520900,30822.4916977641,22741.2915174135
8362496388,21814,-2,0,43291.7527187659,61145.9009749416,40158.9479854599,57221.2590354890,70065.2364478501,50672.3369160515,43774.1775624019,61605.0855176458,30812.2830001297,22759.4700564670
8362496388,21814,-2,0,43310.0407670908,61157.1074237156,40170.4099558671,57242.0414616626,70065.3581248183,50681.0733223704,43793.3903556853,61621.0738712712,30819.3767673774,22772.0879580724
8362496388,21814,-2,0,43315.3337152088,61166.2696994232,40180.8133366507,57255.2312450186,70078.6817528394,50693.6790562789,43805.6918971733,61627.0725458049,30827.5291242488,22770.8590206933
8362496388,21814,-2,0,43315.3337152088,61171.7694983872,40183.5389007390,57254.5620216934,70092.7597780636,50698.4001226462,43803.6963948944,61629.3357374139,30831.2646071735,22768.6201644779
8362520136,21815,0,0,43308.4224634133,61169.9686792574,40187.5542406906,57250.6440233164,70092.5650949144,50696.6601420005,43802.9054946009,61629.0072095997,30841.1082739032,22764.9698554310
8362520136,21815,0,0,43294.7216367907,61166.4887179660,40192.6038348721,57248.5633471597,70085.1914706397,50684.5167805713,43808.6121444108,61624.1401308705,30848.9442706572,22755.5763934837
8362520136,21815,0,0,43292.1785881547,61162.5585518922,40183.3077144994,57241.2262259754,70080.5069073629,50681.8763903607,43803.3435316865,61617.9102700972,30836.2168597804,22757.7422435182
8362520136,21815,0,0,43291.6432094945,61163.6779799999,40176.7128228214,57237.7340969872,70081.5776646833,50686.5001151534,43794.9234854850,61617.3870591338,30831.2281040830,22760.0419382177
8362520136,21815,0,0,43288.5161114110,61161.9014962638,40183.3928883772,57236.8215197255,70074.0945311372,50689.8949025670,43794.0960821011,61619.8571015889,30839.3074547734,22757.8274173959
8362520136,21815,0,0,43303.0930122049,61161.7189808114,40180.8620074380,57236.5416626986,70081.9061924975,50700.5294695902,43789.8008851226,61626.6831795065,30830.1208436721,22774.0834603514
8362520136,21815,0,0,43321.7095883440,61172.2075354728,40187.5299052969,57247.4560867488,70108.6021193271,50710.3853040168,43793.3903556853,61640.1163167991,30833.9901712618,22778.7680236282
8362520136,21815,0,0,43318.3513040209,61179.9340229554,40200.0748007214,57264.8315578119,70106.0347352974,50698.2176071939,43813.6009001082,61642.5255207700,30853.4706538753,22762.5119806728
8362536538,21816,0,0,43305.3197007235,61175.0304411358,40191.0828727692,57263.4201049805,70090.6060957259,50678.4329321598,43820.1471209990,61629.5912590472,30848.2507119383,22752.4736307938
8362536538,21816,0,0,43304.7113158823,61163.9335016332,40170.8966637400,57246.4340002156,70084.4492411335,50674.0160582131,43803.5017117452,61618.1414563368,30826.7868947426,22756.2942875962
8362536538,21816,0,0,43304.7478189728,61159.0907582977,40171.2495269479,57239.7539346598,70085.3861537889,50686.8164752708,43794.8626470009,61618.8593504494,30831.7513150464,22758.1802806038
8362536538,21816,0,0,43302.7279813002,61160.7212296720,40180.4969765333,57241.1045490072,70072.0625257678,50685.6118732853,43796.9068200672,61620.0031139507,30840.4877213653,22760.2974598510
8362536538,21816,0,0,43320.6753341141,61171.9885169300,40180.3631318682,57248.8797072771,70090.2532325181,50692.9489944696,43799.8514026983,61629.1045511743,30832.5665507335,22770.2749712458
8362536538,21816,0,0,43328.6573432299,61187.5023303793,40193.4312382561,57263.5174465551,70102.4209293410,50699.0328428810,43813.0168506608,61639.9216336499,30843.0672730917,22762.4633098855
8362536538,21816,0,0,43311.7320769492,61182.9759471611,40200.5371732007,57259.2587526670,70089.2676490754,50693.1071745283,43815.4017192380,61632.0004630182,30850.9762760266,22744.2969385288
8362536538,21816,0,0,43300.9636652609,61168.9709281179,40192.9566980800,57239.6809284789,70083.5001607813,50687.8994002880,43797.4665341210,61619.9422754666,30842.2520374046,22747.8255706075
8362565302,21817,0,0,43303.3607015350,61160.6603911879,40181.6529077315,57228.2797965558,70070.7605822077,50678.4816029471,43780.3830877816,61611.8142539889,30827.7481427916,22750.8674948132
8362565302,21817,0,0,43310.9776797462,61161.2444406354,40182.9305158979,57238.9752020632,70065.5041371802,50681.3410117005,43787.2578364866,61620.1247909190,30833.0167555160,22751.5853889258
8362565302,21817,0,0,43315.3823859961,61166.4157117851,40185.4978999275,57247.2249005091,70080.4217334851,50686.8043075740,43798.1600928399,61623.5560814230,30834.5012145284,22753.9945928967
8362565302,21817,0,0,43316.2827955610,61168.9952635116,40184.5609872722,57247.9792977122,70091.6403499559,50685.8917303122,43797.2475155782,61620.0274493444,30836.8617477120,22755.4912196059
8362565302,21817,0,0,43304.4922973395,61164.2620294474,40186.3253033115,57241.8346108166,70086.0675448110,50684.6384575395,43796.9919939449,61616.2919664197,30846.0361911165,22747.7160613361
8362565302,21817,0,0,43296.6684682824,61156.7302251140,40185.0111920546,57237.2838922048,70068.6312352637,50672.8601270149,43796.8094784926,61606.9836783502,30845.9510172388,22745.3190250619
8362565302,21817,0,0,43315.6622430230,61160.0641740435,40175.4473823518,57239.2672267869,70078.1585418761,50679.7227080230,43795.6048765071,61612.3618003459,30826.8964040140,22764.1181166534
8362565302,21817,0,0,43324.1431277086,61172.8159203140,40187.0066943336,57250.5953525291,70092.4677533398,50687.5222016865,43803.3435316865,61624.8701926799,30839.2831193798,22762.7431669124
8362602698,21818,0,0,43307.0840167628,61170.5040579176,40194.4411570924,57249.7314460547,70080.0810379741,50693.7155593694,43810.3521250565,61619.2608844445,30852.9717783056,22749.8940790674
8362602698,21818,0,0,43310.2841210273,61173.8623422407,40199.5880928485,57247.4925898392,70090.8981204497,50719.4867412404,43807.8577472078,61623.6169199072,30859.7248500423,22770.9563622679
8362602698,21818,0,0,43318.5216517764,61175.5536520991,40201.7296074893,57243.0270451052,70099.4155082257,50709.1441989409,43797.3205217592,61627.8512784015,30861.1728059643,22784.2434871985
8362602698,21818,0,0,43305.1493529680,61168.8127480592,40197.1545534839,57237.3934014762,70086.7367681362,50681.6817072115,43793.4146910790,61620.7940142442,30859.0069559298,22767.8901026685
8362602698,21818,0,0,43298.4084489281,61161.1349313640,40182.3342987536,57227.8174240765,70064.5915599185,50675.7195357683,43788.3042584134,61611.6195708397,30836.3872075359,22764.4344767708
8362602698,21818,0,0,43313.5328960790,61167.0119289294,40179.7182439366,57229.2532123016,70082.3563972800,50699.1301844556,43786.7224578264,61618.7255057843,30828.8554032025,22771.7472625614
8362602698,21818,0,0,43316.9520188862,61173.4121374583,40199.4542481834,57242.7593557751,70095.7773668757,50715.1063703841,43799.7783965174,61628.8125264506,30856.4030688097,22764.5683214358
8362602698,21818,0,0,43306.1471041075,61165.8803331249,40201.0360487704,57242.4916664450,70089.0364628358,50697.6335577464,43805.3998724496,61623.9089446309,30862.8276127322,22755.0288471266
8362633178,21819,0,0,43300.4526219943,61156.5112065712,40182.2612925726,57231.7962609376,70077.9151879396,50682.8376384097,43794.4124422185,61612.1671171968,30843.0307700012,22751.7435689845
8362633178,21819,0,0,43297.2281823362,61155.3066045858,40177.7470770513,57230.8836836759,70073.2792954501,50683.3608493731,43794.9478208787,61609.8065840131,30842.1425281332,22745.5502113016
8362633178,21819,0,0,43293.1641715974,61159.3341122342,40183.8552608564,57236.1157933098,70071.9773518900,50688.9823253053,43802.4796252121,61613.0796944585,30848.3115504224,22745.2216834874
8362633178,21819,0,0,43301.7545655544,61163.6779799999,40178.7934989781,57233.7187570357,70083.0377883021,50691.6957216968,43797.0650001259,61617.3505560433,30839.1492747147,22759.8472550685
8362633178,21819,0,0,43311.0506859271,61166.1966932423,40177.8809217164,57230.9080190696,70083.6340054464,50687.8994002880,43791.1271640763,61622.5948333740,30838.3462067244,22766.7098360767
8362633178,21819,0,0,43307.1448552469,61160.9037451243,40178.8421697654,57234.9963652021,70082.1130433435,50684.4072712998,43793.3295172012,61624.7971864990,30840.5242244557,22757.6205665499
8362633178,21819,0,0,43308.0209294182,61157.3386099552,40172.7218182634,57239.3889037552,70071.7461656504,50679.5766956611,43795.4710318421,61614.4059734122,30829.5976327087,22742.8611503037
8362633178,21819,0,0,43318.1566208717,61165.0894328314,40173.0868491681,57243.7449392178,70082.6849250942,50691.3306907921,43792.1614183062,61620.0882878285,30826.0324975396,22743.0558334529
8362660415,21820,0,0,43309.2742021910,61169.4333005972,40187.3960606319,57240.6178411343,70087.6371777011,50696.5993035164,43797.3083540623,61631.7571090817,30841.7531618348,22747.3997012187
8362660415,21820,0,0,43295.0988353922,61167.2309474722,40194.9278649653,57233.9621109721,70094.2929078633,50698.0107563479,43795.1668394215,61631.9031214436,30850.9397729362,22757.7300758213
8362660415,21820,0,0,43296.5589590110,61167.4621337119,40189.3915629109,57231.6624162726,70097.4686767341,50690.8561506160,43794.7409700327,61631.1487242406,30848.6887490239,22767.3303886146
8362660415,21820,0,0,43294.8798168494,61169.1291081766,40189.9269415711,57238.5980034617,70089.2189782881,50678.5789445217,43802.8689915104,61629.3722405044,30855.0524544623,22757.9734297578
8362660415,21820,0,0,43284.8049638800,61161.8284900829,40186.0211108909,57236.2374702780,70072.1355319487,50674.0160582131,43806.4219589827,61619.5164060778,30848.7739229017,22746.4019500792
8362660415,21820,0,0,43291.3633524676,61158.5918827280,40172.2837811778,57227.0021883894,70068.0958566035,50681.5843656369,43791.7355489174,61612.9701851871,30830.8630731783,22756.5254738359
8362660415,21820,0,0,43315.4432244802,61163.4102906698,40171.5293839748,57230.8228451918,70075.7736732988,50697.5118807782,43788.8274693767,61629.0072095997,30830.7535639069,22778.8410298091
8362660415,21820,0,0,43321.9286068868,61172.0371877173,40190.7543449550,57248.6971918247,70093.8061999904,50716.6029970934,43802.2849420629,61641.2600803004,30856.3787334160,22781.5909292911
8362711250,21821,0,0,43314.2872932820,61174.0448576931,40198.2374785011,57251.9459668764,70094.7309449489,50708.0734416205,43810.5954789930,61635.2492380699,30861.5986753531,22775.2150561559
8362711250,21821,0,0,43303.3241984445,61172.8037526172,40198.3469877725,57246.1541431887,70091.7741946209,50701.0891836441,43809.2083615552,61626.5736702351,30858.0092047903,22764.9698554310
8362711250,21821,0,0,43287.6643726334,61161.4512914813,40194.2221385496,57233.0982044977,70075.3721393036,50678.8709692454,43802.4066190311,61615.0995321311,30856.7559320175,22752.0112583146
8362711250,21821,0,0,43277.4800103926,61143.8933049658,40172.2594457842,57214.0435912730,70061.9146666174,50667.4698373223,43782.7436209653,61600.3401158849,30838.7720761132,22746.0612545681
8362711250,21821,0,0,43289.2948440077,61144.5138575038,40159.5076995137,57212.3887845051,70063.0949332093,50671.4973449707,43773.8612022845,61604.0877665063,30823.8544798083,22748.4096200550
8362711250,21821,0,0,43301.3165284687,61152.3863573483,40162.1480897243,57228.5596535827,70056.6703892867,50667.4941727160,43785.6882035964,61615.9026001214,30822.6863809133,22746.8521548616
8362711250,21821,0,0,43305.3440361171,61162.6680611636,40167.3558639645,57240.4961641660,70073.9363510785,50673.2373256164,43797.3326894560,61619.7232569238,30825.8256466936,22740.6344617851
8362711250,21821,0,0,43306.5851411931,61166.5982272375,40168.2806089231,57236.6146688795,70086.0918802046,50679.0899877882,43793.7675542869,61615.7200846691,30824.3411876812,22740.2572631836
8362733098,21822,0,0,43297.2890208204,61159.9059939848,40168.1102611675,57226.5276482133,70080.5190750597,50678.2139136170,43786.9049732787,61613.3230483949,30830.6805577260,22733.7475453833
8362733098,21822,0,0,43285.4133487212,61151.3886062088,40171.8822471826,57224.4469720566,70070.6997437236,50668.6379362173,43788.3285938070,61606.4969704773,30834.3186990760,22727.8218770305
8362733098,21822,0,0,43286.0947397432,61152.1065003213,40166.1877650695,57227.6957471083,70068.8745892002,50669.5870165695,43787.4160165453,61602.7249844622,30820.2893446392,22735.8768923273
8362733098,21822,0,0,43299.1871815247,61160.7333973688,40168.2197704389,57239.2428913933,70076.1508719003,50677.2526655680,43793.6093742282,61608.8210005705,30820.4961954852,22743.0558334529
8362733098,21822,0,0,43303.2146891731,61161.6338069337,40172.9408368062,57241.6885984547,70063.3261194489,50669.1246440902,43795.5440380230,61612.6051542824,30823.9031505956,22751.7192335908
8362733098,21822,0,0,43308.4346311102,61156.7545605077,40169.2418569721,57232.1126210550,70074.0336926531,50679.3698448151,43785.7368743837,61613.6637439060,30820.6543755439,22762.5971545505
8362733098,21822,0,0,43313.1678651743,61159.4801245960,40175.8610840437,57232.1491241455,70086.1162155983,50686.2689289138,43781.1618203783,61618.2509656082,30828.0036644249,22770.6521698473
8362733098,21822,0,0,43299.4183677644,61158.0686717646,40180.0589394477,57239.5227484202,70077.9760264237,50679.5888633580,43791.8085550984,61616.1094509674,30844.3570489549,22757.7665789118
8362761645,21823,0,0,43287.8225526921,61156.5233742681,40174.1941095790,57240.6665119216,70066.2341989896,50678.7614599740,43800.6423029918,61607.7259078564,30840.3660443970,22752.1085998891
8362761645,21823,0,0,43295.8532325952,61159.2246029627,40164.7398091476,57237.1743829334,70070.8944268728,50682.7524645319,43793.2686787171,61607.8719202183,30827.3344410997,22759.4578887702
8362761645,21823,0,0,43295.5247047810,61155.6594677936,40164.4356167270,57231.5529070012,70064.8105784613,50675.7803742524,43783.3276704128,61604.0025926286,30828.9527447771,22755.2965364567
8362761645,21823,0,0,43293.8820657099,61147.7139617682,40161.1868416753,57228.2432934653,70060.5032137860,50670.9011278264,43779.7625352437,61603.3820400906,30827.0667517695,22755.0653502171
8362761645,21823,0,0,43299.7955663659,61149.1254145997,40157.8893958363,57229.0220260620,70067.4631363687,50673.1399840418,43779.2028211898,61603.1630215478,30823.7936413242,22755.1870271853
8362761645,21823,0,0,43297.7757286933,61153.9438225416,40165.6280510157,57239.9121147186,70069.0206015620,50679.5523602675,43790.4092699637,61605.7060701838,30833.1019293937,22749.9427498547
8362761645,21823,0,0,43294.9528230303,61158.8595720581,40176.9196736673,57249.7314460547,70054.2855207094,50689.5055362687,43805.5337171146,61611.0841921795,30845.6103217277,22760.3096275478
8362761645,21823,0,0,43306.2322779852,61163.7144830904,40179.8399209049,57249.9869676879,70074.7394190688,50709.0833604568,43802.5526313930,61618.6646673002,30847.6423270971,22781.6761031689
8362790314,21824,0,0,43323.5590782611,61171.8060014777,40182.5289819027,57253.5155997666,70083.4271546004,50707.3312121143,43798.8414838620,61632.1951461673,30848.5427366620,22795.4256005788
8362790314,21824,0,0,43315.4797275707,61170.3093747684,40191.6425868231,57256.8495486961,70086.7489358330,50690.2964365622,43801.2385201361,61631.2947366024,30856.9019443794,22777.3687384936
8362790314,21824,0,0,43288.6499560761,61157.0830883219,40182.1761186949,57250.5953525291,70070.4320543935,50676.0967343698,43805.5337171146,61611.9967694412,30847.2042900115,22746.0734222650
8362790314,21824,0,0,43282.6391138455,61148.0303218856,40165.5550448347,57241.7372692420,70063.1679393902,50669.8547058996,43797.7463911480,61599.1111785058,30827.6508012170,22730.8272981458
8362790314,21824,0,0,43277.7842028132,61141.6787841441,40159.0453270344,57236.0306194320,70057.2544387342,50662.5175847154,43795.2276779056,61598.5271290582,30823.0879149084,22727.3960076417
8362790314,21824,0,0,43275.6426881723,61136.8238731117,40155.0908255670,57233.3050553437,70055.5266257854,50661.3494858204,43790.3727668733,61597.9065765203,30820.7760525121,22735.9742339019
8362790314,21824,0,0,43289.9397319393,61143.7959633913,40153.9835651561,57236.6511719700,70062.3527037031,50676.2670821253,43785.5178558409,61601.6177240513,30810.1536531857,22750.7701532386
8362790314,21824,0,0,43312.7663311791,61163.8118246650,40174.7173205424,57255.9734745248,70072.0868611614,50696.7696512720,43803.1366808405,61622.9841996724,30825.4606157889,22765.4200602134
8362841384,21825,0,0,43319.4828998254,61174.5559009597,40192.6525056594,57264.8802285992,70075.9683564479,50700.8458297076,43818.3341341724,61629.4330789885,30842.9334284267,22764.7995076755
8362841384,21825,0,0,43319.5680737032,61171.7694983872,40188.3573086809,57256.3385054295,70086.0067063269,50698.6799796732,43809.2326969488,61622.8746904010,30842.2642051014,22766.6855006830
8362841384,21825,0,0,43316.0272739277,61169.4333005972,40185.7777569544,57252.9558857127,70086.4569111093,50698.8381597319,43800.1190920284,61620.8183496379,30845.7563340896,22767.0383638909
8362841384,21825,0,0,43307.5098861516,61168.6789033942,40192.7741826276,57260.2686715033,70079.8498517344,50697.9012470765,43807.6508963618,61621.5240760536,30858.7636019933,22766.9410223163
8362841384,21825,0,0,43302.8374905716,61167.9366738880,40190.5474941090,57261.0474041000,70074.0336926531,50691.6713863031,43810.8510006263,61615.6349107913,30848.8104259921,22767.9631088494
8362841384,21825,0,0,43308.1061032959,61171.0151011842,40185.9359370131,57257.7499582610,70078.2923865411,50691.8052309682,43805.7770710511,61616.0242770896,30834.2578605919,22771.8202687423
8362841384,21825,0,0,43311.1723628953,61169.3602944163,40188.0774516540,57255.3894250773,70065.2607832437,50690.2842688653,43803.3556993833,61618.8958535398,30833.2601094524,22772.0879580724
8362841384,21825,0,0,43320.6996695077,61170.7839149445,40188.4789856491,57256.1316545835,70078.1220387856,50703.0116797421,43800.8613215346,61626.4884963574,30836.9104184993,22784.4381703477
8362844662,21826,0,0,43333.6339312305,61180.5424077965,40193.9422815226,57262.1303291172,70091.6038468654,50709.8864284471,43799.4863717936,61633.2415680941,30837.7499895801,22794.8537188281
8362844662,21826,0,0,43335.2278995143,61191.7731919641,40208.1298160182,57272.8013992310,70104.6962886469,50713.0256942274,43813.5765647146,61638.2789945788,30856.0988763891,22785.9956355410
8362844662,21826,0,0,43319.3490551603,61191.9678751133,40214.3840121852,57273.5801318276,70094.3415786506,50705.4208837131,43823.6879207745,61629.6642652282,30866.1007231775,22767.3547240083
8362844662,21826,0,0,43317.2927143973,61184.1683814498,40199.1257203692,57262.4101861442,70091.5065052908,50702.0017609058,43815.9005948078,61620.2464678872,30852.4972381295,22759.8959258558
8362844662,21826,0,0,43329.1927218901,61181.7713451757,40193.0175365641,57260.7797147699,70096.0693915994,50706.5038087303,43809.3422062202,61625.6367575798,30849.3579723492,22767.2330470401
8362844662,21826,0,0,43326.5888347700,61179.7271721094,40197.0937149998,57266.2551783402,70088.1847240582,50704.5691449355,43811.7635778880,61625.9409500003,30855.7581808780,22770.4939897886
8362844662,21826,0,0,43327.3675673667,61182.8907732834,40198.2739815916,57268.4818668588,70089.0364628358,50707.2947090238,43814.8298374874,61625.3569005528,30848.6279105398,22779.1938930170
8362844662,21826,0,0,43332.2954845800,61190.8727823992,40204.1996499444,57272.2781882676,70102.0924015268,50720.4479892894,43819.8307608816,61631.7327736881,30852.7040889755,22789.1105659277
8362886408,21827,0,0,43321.7339237376,61190.8241116119,40213.5322734076,57269.6986365411,70098.4664278735,50721.2145541892,43820.5121519037,61632.1708107737,30866.8307849869,22786.6648588663
8362886408,21827,0,0,43319.8600984269,61191.0796332452,40215.8441358039,57268.2993514065,70100.0482284605,50716.1649600077,43823.0673682365,61632.5966801625,30866.3440771140,22787.9789701232
8362886408,21827,0,0,43334.2909868589,61192.9412908591,40208.0203067468,57266.5228676703,70106.2415861434,50704.8124988719,43817.0930290964,61632.8643694926,30851.1466237821,22785.1195613698
8362886408,21827,0,0,43328.4018215966,61193.7565265463,40203.2992403795,57265.6346258022,70090.8737850560,50684.0422403952,43817.5188984852,61627.9121168857,30845.3913031849,22759.5673980416
8362886408,21827,0,0,43315.8325907785,61189.5100003551,40191.0342019820,57261.7287951221,70070.6267375427,50679.2481678469,43818.2854633851,61619.7232569238,30834.2213575014,22755.7954120265
8362886408,21827,0,0,43328.1341322665,61189.7168512010,40181.5799015505,57258.5773616449,70092.7841134572,50704.2649525149,43813.1750307194,61629.5425882599,30824.2681815003,22774.5701682243
8362886408,21827,0,0,43336.0553028982,61197.3459971090,40198.8215279486,57263.5782850392,70114.8076447068,50716.2623015823,43813.9050925288,61639.4470934738,30851.6941701392,22777.7459370951
8362886408,21827,0,0,43321.9042714932,61190.2400621644,40211.2934171922,57264.9288993865,70104.5746116787,50706.2117840066,43821.6802507987,61635.0058841334,30875.5428559121,22768.1456243018
8362913729,21828,0,0,43313.1191943870,61180.2990538601,40199.5272543644,57258.4921877672,70089.5718414960,50698.6434765827,43819.5509038547,61620.4046479459,30863.6793515098,22764.2519613184
8362913729,21828,0,0,43319.0935335271,61181.9660283248,40197.3249012394,57260.5728639239,70091.1658097798,50705.2018651703,43820.1227856053,61620.6966726696,30853.3611446039,22765.2862155484
8362913729,21828,0,0,43315.6500753262,61181.3576434837,40205.6111027758,57262.7022108679,70088.0873824836,50703.5105553119,43820.9866920798,61619.2487167477,30856.2813918414,22760.0784413082
8362913729,21828,0,0,43313.4963929885,61174.6897456247,40200.9265394990,57252.0189730574,70073.9850218658,50697.1103467830,43807.1520207921,61615.4888984294,30845.6468248182,22759.9445966431
8362913729,21828,0,0,43337.6371034852,61182.5865808628,40200.9752102863,57256.1681576740,70099.1843219861,50721.0928772210,43802.9541653882,61634.7016917129,30844.5273967105,22775.6895963320
8362913729,21828,0,0,43342.2243251875,61196.3725813632,40219.5187802445,57272.6675545659,70109.1983364714,50723.1978887714,43818.9060159231,61651.6026225999,30871.0529757845,22778.4029927235
8362913729,21828,0,0,43328.8033555918,61195.0584701063,40224.3493558832,57275.8433234367,70103.8323821725,50710.1541177772,43827.8006023006,61644.3263398998,30878.3170907878,22771.0902069329
8362913729,21828,0,0,43326.5158285891,61187.6483427411,40210.4903492018,57265.1114148389,70093.9522123522,50706.1996163097,43820.5608226910,61633.1442265195,30860.3940733676,22772.2461381311
8362954700,21829,0,0,43331.3829073182,61179.7150044126,40201.3037381005,57254.7810402362,70092.7962811541,50705.9319269796,43807.0181761270,61630.7593579422,30849.1267861095,22774.8135221608
8362954700,21829,0,0,43323.7294260166,61177.0137757179,40204.4673392745,57256.3141700359,70095.1933174282,50711.0423596453,43807.2128592762,61630.5281717026,30856.7437643207,22773.9496156863
8362954700,21829,0,0,43323.1697119627,61182.3797300168,40204.7715316951,57262.3736830537,70104.2217484708,50721.2632249765,43813.1020245385,61632.1221399864,30860.0168747661,22777.2105584349
8362954700,21829,0,0,43326.3089777431,61191.4203287563,40207.8499589913,57271.3534433090,70107.6287035812,50718.1604622867,43823.2255482952,61638.2303237915,30866.6847726250,22777.7581047919
8362954700,21829,0,0,43312.8271696633,61188.0742121299,40210.6606969574,57266.8878985750,70094.9499634917,50706.8323365445,43828.5915025941,61633.1563942163,30868.1692316374,22768.1334566050
8362954700,21829,0,0,43306.6338119804,61174.0691930867,40194.5141632733,57247.8211176535,70081.2126337786,50692.4257835062,43809.0988522838,61620.1612940094,30845.5129801531,22766.2596312942
8362954700,21829,0,0,43331.4194104087,61173.8988453312,40183.7092484945,57240.6300088311,70084.6682596763,50699.6533954190,43792.4047722427,61627.8147753111,30825.1564233683,22780.4471657898
8362954700,21829,0,0,43346.7507084056,61185.3364803448,40201.2063965259,57261.7044597284,70105.7305428768,50709.6430745106,43806.0325926844,61645.0320663155,30846.3647189307,22782.4061649783
8362971467,21830,0,0,43341.1048970798,61190.3495714358,40213.9216397059,57274.6022183608,70101.8855506808,50707.3677152047,43821.3882260749,61642.7445393128,30859.8100239201,22775.6652609384
8362971467,21830,0,0,43333.3662419004,61187.7091812253,40206.2194876170,57269.7351396316,70101.3501720206,50698.8989982160,43817.6162400598,61628.8125264506,30851.4143131123,22769.4962386491
8362971467,21830,0,0,43316.2219570769,61172.8402557076,40195.7065975620,57253.4425935857,70087.0896313441,50682.9714830747,43804.7793199116,61616.4988172657,30846.6324082608,22750.2347745784
8362971467,21830,0,0,43295.4395309033,61150.5125320375,40178.1121079560,57233.0738691041,70066.0030127499,50666.5815954542,43790.1294129368,61601.7150656259,30833.2966125429,22731.9467262535
8362971467,21830,0,0,43302.5089627574,61146.3633474209,40164.3626105461,57228.8760137001,70069.0206015620,50681.5235271528,43785.0189802712,61601.0458423006,30817.3082589175,22734.5627810705
8362971467,21830,0,0,43322.5126563343,61164.0916816919,40179.5357284843,57251.7512837273,70086.0067063269,50703.3523752532,43803.1731839310,61616.9003512609,30831.6418057750,22746.0490868713
8362971467,21830,0,0,43333.4879188686,61178.6807501826,40199.5029189707,57268.0559974700,70080.8232674803,50705.9440946765,43820.6946673560,61627.2550612572,30847.9586872145,22759.4578887702
8362971467,21830,0,0,43342.2608282779,61178.4495639430,40201.8147813671,57262.4345215378,70097.0793104357,50711.1762043103,43813.7469124701,61628.8125264506,30848.9929414445,22771.7350948645
8363015278,21831,0,0,43342.5041822144,61178.4008931557,40204.5281777586,57256.9347225738,70100.6201102112,50707.3920505984,43800.6909737791,61626.8535272621,30852.9352752151,22772.2583058279
8363015278,21831,0,0,43331.3342365309,61174.1543669645,40210.7702062288,57258.2366661339,70089.3163198627,50698.6069734922,43807.6752317555,61631.6232644167,30867.1228097107,22766.6003268053
8363015278,21831,0,0,43319.9939430920,61170.5648964017,40206.6453570058,57256.8373809993,70085.5930046349,50695.7475647388,43812.3962981228,61624.2618078388,30861.5500045658,22766.8923515290
8363015278,21831,0,0,43321.3688928330,61174.5559009597,40200.1964776896,57255.1339034440,70088.5375872660,50703.8390831261,43809.5612247630,61622.3393117407,30852.9231075183,22772.7936844881
8363015278,21831,0,0,43318.5946579573,61175.8700122165,40204.5525131522,57257.6039458991,70090.4600833641,50711.8940984229,43814.1484464653,61624.7241803180,30861.7446877149,22773.8644418086
8363015278,21831,0,0,43319.4098936445,61172.8645911013,40203.8954575238,57252.7855379572,70078.5600758712,50708.0491062268,43812.1772795800,61627.2307258636,30857.2791429809,22781.6639354721
8363015278,21831,0,0,43332.8795340275,61177.1597880798,40200.0991361151,57256.3871762168,70098.6611110227,50713.2933835575,43808.2471135062,61632.8643694926,30849.5769908920,22787.8451254581
8363015278,21831,0,0,43334.9845455778,61186.4802438461,40206.8400401550,57270.7328907711,70106.2537538402,50711.2613781881,43820.2809656640,61639.1307333564,30862.1583894069,22786.3119956584
8363037630,21832,0,0,43317.4508944560,61181.6375005106,40206.3533322820,57269.3092702428,70089.5231707087,50699.0815136683,43827.1800497627,61626.3911547828,30865.6748537887,22777.2835646158
8363037630,21832,0,0,43312.8758404505,61171.4774736634,40193.5772506180,57251.8972960891,70084.1328810161,50694.6646397216,43810.7171559612,61613.3960545759,30845.5129801531,22783.4404192082
8363037630,21832,0,0,43321.7825945249,61170.3093747684,40190.5961648963,57245.5579260444,70091.7863623178,50697.6092223527,43795.4101933580,61614.1504517789,30836.7400707438,22789.0862305341
8363037630,21832,0,0,43318.6554964414,61169.8591699860,40195.3537343541,57247.3587451742,70075.5424870591,50685.6970471631,43796.4566152847,61614.7345012264,30840.8405845731,22779.1938930170
8363037630,21832,0,0,43320.8335141727,61170.7109087636,40189.0995381871,57249.7314460547,70081.9426955880,50689.8340640829,43801.8834080678,61617.7399223417,30829.4881234373,22778.4516635108
8363037630,21832,0,0,43326.5523316795,61177.7925083146,40189.3428921236,57256.7035363342,70090.2167294276,50699.5925569349,43808.7459890759,61621.2320513299,30829.5124588310,22779.4980854376
8363037630,21832,0,0,43320.7726756886,61180.1773768919,40200.9508748927,57263.2497572249,70092.1635609193,50710.4339748041,43816.2777934093,61623.6169199072,30851.1222883885,22777.7216017014
8363037630,21832,0,0,43316.6478264657,61178.1697069161,40210.0279767226,57262.3736830537,70095.7530314820,50717.0045310885,43818.3341341724,61625.4177390370,30867.0863066202,22785.6671077268
8363070043,21833,0,0,43329.5334174012,61180.5667431902,40205.4650904140,57260.4268515620,70092.1513932224,50718.7201763405,43812.0677703086,61630.1874761915,30858.4594095727,22802.7870571567
8363070043,21833,0,0,43344.4753490997,61193.4523341257,40215.5886141707,57273.5922995245,70111.4980311709,50728.8802031877,43821.0962013512,61645.0685694060,30868.1935670311,22805.4761181546
8363070043,21833,0,0,43333.5852604432,61200.5095982830,40228.1335095951,57278.2646951045,70108.3222623001,50720.7156786195,43833.0083765408,61642.3308376208,30880.1909160985,22789.7189507689
8363070043,21833,0,0,43321.6974206472,61192.1260551720,40213.9459750996,57265.5251165308,70099.9630545828,50712.8675141687,43820.0619471212,61629.3235697171,30862.7546065512,22781.3597430515
8363070043,21833,0,0,43329.1562187996,61186.6627592985,40204.8567055728,57259.4534358162,70090.2654002149,50718.9026917929,43809.2326969488,61633.2659034877,30856.9141120762,22780.3011534279
8363070043,21833,0,0,43333.8772851669,61185.7380143399,40207.4362572993,57265.9509859196,70100.1820731256,50716.1406246141,43814.5743158541,61640.7125339434,30863.7766930844,22769.0460338667
8363070043,21833,0,0,43326.9051948874,61181.5766620265,40202.8733709907,57266.3525199148,70094.4632556188,50702.2207794486,43815.7424147491,61633.2780711846,30854.2615541688,22762.8040053965
8363070043,21833,0,0,43327.4284058508,61184.0467044816,40201.0238810736,57270.8545677393,70096.5560994723,50704.5691449355,43819.8185931848,61629.0315449934,30845.9145141483,22762.7796700029
8363096956,21834,0,0,43320.9795265346,61183.1827980071,40202.8977063843,57272.8257346246,70089.5353384055,50701.6732330916,43825.3548952392,61625.6732606702,30850.9032698457,22761.8062542570
8363096956,21834,0,0,43318.7406703192,61179.4473150825,40201.8999552448,57267.9951589859,70092.7719457604,50713.6340790686,43822.4468156985,61624.0427892960,30854.0912064133,22774.2294727133
8363096956,21834,0,0,43335.4712534507,61187.7578520125,40201.0725518609,57268.8834008540,70107.4218527352,50719.1460457293,43817.6892462408,61631.5259228421,30850.8059282711,22787.9059639422
8363096956,21834,0,0,43340.7520338719,61195.4843394951,40207.7891205072,57277.8023226252,70111.8022235915,50709.8985961439,43827.2652236404,61640.6151923688,30859.6275084677,22779.1330545329
8363096956,21834,0,0,43327.6595920904,61189.2544787218,40203.0802218367,57274.3223613338,70094.2685724696,50693.3505284647,43834.4198293723,61629.8832837710,30855.6243362130,22770.0316173093
8363096956,21834,0,0,43318.6189933510,61176.9407695370,40187.0675328177,57258.0663183784,70086.2257248697,50695.4677077119,43818.8330097421,61616.9733574418,30834.2821959856,22771.0050330552
8363096956,21834,0,0,43321.6244144662,61171.2097843333,40185.1815398101,57248.9162103675,70075.5424870591,50707.8665907745,43807.1033500048,61621.9621131392,30831.0212532370,22781.5665938975
8363096956,21834,0,0,43324.6176678847,61172.4508894093,40196.4123239777,57253.8562952776,70090.3992448799,50710.4339748041,43808.5269705331,61630.3091531598,30845.5251478499,22782.8685374575
8363151519,21835,0,0,43320.6875018109,61172.9862680695,40193.5042444370,57256.6061947596,70094.0008831395,50697.6822285337,43811.8000809785,61627.7539368270,30842.8482545489,22781.5057554134
8363151519,21835,0,0,43321.5270728917,61178.9727749064,40194.7088464225,57263.4809434646,70099.3303343480,50699.8359108713,43820.3174687545,61629.1288865679,30842.6292360061,22777.7581047919
8363151519,21835,0,0,43312.8028342696,61180.0922030141,40205.8666244091,57264.6247069659,70091.5551760781,50701.5272207297,43827.7032607260,61625.3082297655,30849.1876245937,22770.0437850062
8363151519,21835,0,0,43306.4512965280,61170.3580455557,40203.5425943159,57248.0644715899,70080.2878888201,50703.2185305881,43813.5887324114,61616.3649726007,30837.1416047389,22767.5494071575
8363151519,21835,0,0,43315.1998705437,61165.6369791884,40196.0229576794,57237.8557739555,70078.5235727807,50702.0504316931,43795.7995596563,61615.3915568548,30826.5800438966,22775.7260994225
8363151519,21835,0,0,43327.3553996698,61170.8690888223,40199.5150866675,57249.6341044801,70077.5014862476,50705.4087160162,43801.1898493488,61628.0702969444,30831.2281040830,22787.2002375265
8363151519,21835,0,0,43331.8452797975,61181.6131651170,40208.9450517053,57266.8878985750,70095.5826837265,50709.8255899630,43820.9745243830,61637.5489327694,30845.6589925150,22787.9668024264
8363151519,21835,0,0,43324.4838232196,61184.8132693814,40203.2140665017,57266.9852401496,70105.2316673071,50706.9661812096,43825.2575536646,61636.3686661776,30848.1655380605,22779.8387809486
8363182937,21836,0,0,43313.3260452330,61177.5004835908,40198.1401369266,57258.0054798943,70098.3325832085,50710.6529933469,43820.8285120211,61631.0757180596,30855.5026592448,22776.3953227477
8363182937,21836,0,0,43305.3805392076,61170.6744056731,40199.9287883595,57253.4182581920,70091.6403499559,50711.2492104913,43820.1714563926,61630.5525070962,30864.0687178081,22780.6053458485
8363182937,21836,0,0,43312.3891325776,61170.1633624066,40195.7917714397,57254.2943323633,70095.1446466409,50722.6746778080,43818.3219664756,61628.8003587537,30853.9451940514,22794.2696693806
8363182937,21836,0,0,43326.4063193177,61179.8366813808,40202.9707125653,57267.5814572939,70102.4817678251,50731.2164009777,43827.6667576356,61636.6971939918,30855.9285286336,22798.6135371464
8363182937,21836,0,0,43322.3301408820,61179.3743089015,40205.2339041743,57267.0947494210,70079.9715287027,50710.2636270486,43830.8546942032,61631.4772520548,30849.3214692587,22793.9533092632
8363182937,21836,0,0,43325.4329035718,61177.3058004416,40196.5096655523,57257.0563995421,70093.7210261126,50709.2415405155,43816.4359734680,61628.7030171791,30837.8351634579,22797.9929846085
8363182937,21836,0,0,43329.3387342520,61181.2116311218,40197.1180503934,57250.8995449497,70108.5777839334,50711.2735458849,43803.7450656817,61632.6940217371,30840.6580691208,22791.5806083828
8363182937,21836,0,0,43316.5626525879,61178.9971103000,40203.5912651032,57254.2213261823,70102.8954695171,50706.2847901875,43806.8843314620,61633.3754127592,30857.0114536508,22772.7085106104
8363189386,21837,0,0,43306.7676566454,61176.4053908767,40201.7174397925,57256.3141700359,70090.8372819656,50701.8435808471,43815.2070360889,61626.2694778146,30853.5558277531,22767.2573824337
8363189386,21837,0,0,43313.8370884996,61179.2039611460,40194.6601756352,57255.8152944661,70098.0892292720,50702.0869347836,43817.2998799424,61624.7485157117,30840.5485598494,22773.6210878721
8363189386,21837,0,0,43312.9610143283,61177.2692973512,40193.0905427450,57250.8873772528,70098.6246079322,50695.8935771007,43812.3232919418,61623.2518890025,30838.9545915656,22769.2772201063
8363189386,21837,0,0,43301.9979194908,61168.5207233355,40186.8120111844,57240.8368596771,70078.2193803602,50684.4194389967,43803.0880100532,61614.9656874660,30834.9757547045,22764.5439860422
8363189386,21837,0,0,43323.8632706817,61169.9200084701,40177.1386922102,57243.3677406163,70089.7056861610,50700.9553389790,43798.2574344145,61625.8679438194,30821.4087727469,22782.2358172227
8363189386,21837,0,0,43349.3910986162,61187.9768705554,40191.3627297962,57263.0307386821,70112.9459870929,50715.6782521348,43812.2381180641,61645.2024140711,30837.1172693453,22787.7964546708
8363189386,21837,0,0,43337.1017248250,61194.3284082969,40214.7125399994,57274.6873922385,70114.4061107116,50722.3826530842,43831.3048989856,61646.2731713915,30867.7190268550,22772.1487965565
8363189386,21837,0,0,43319.1178689207,61182.6717547406,40211.2325787080,57261.8261366967,70102.6886186711,50711.5655706087,43825.5617460852,61631.2338981183,30863.4238298765,22766.7341714703
8363238222,21838,0,0,43318.1201177812,61172.6334048616,40198.9797080073,57247.9184592280,70099.4155082257,50708.6574910680,43809.3057031298,61626.8535272621,30849.8446802221,22770.9928653583
8363238222,21838,0,0,43312.5473126363,61168.7519095751,40201.0968872545,57247.8089499566,70096.5926025628,50702.0382639963,43807.7725733301,61627.3767382254,30854.3710634402,22772.2948089184
8363238222,21838,0,0,43305.6847316282,61162.4855457113,40196.5583363396,57245.1928951397,70086.9557866790,50691.2455169143,43806.4219589827,61617.2532144688,30845.6589925150,22767.2573824337
8363238222,21838,0,0,43308.5684757752,61161.9136639606,40188.3816440746,57239.7782700535,70075.5789901496,50692.1459264792,43800.6423029918,61613.7002469965,30829.0135832612,22769.1555431381
8363238222,21838,0,0,43322.9141903295,61168.1191893403,40190.1459601139,57243.2217282544,70079.6551685853,50702.3181210232,43801.3845324980,61623.7142614817,30829.5124588310,22776.7846890461
8363238222,21838,0,0,43330.8718640517,61174.6775779279,40199.1013849756,57249.1838996976,70094.4997587093,50717.1383757536,43804.8523260926,61633.1563942163,30844.7342475565,22786.4823434140
8363238222,21838,0,0,43336.4325014998,61184.8376047750,40206.7913693677,57257.2510826912,70119.0176678075,50738.6873668270,43810.1939449978,61642.0631482907,30860.7104334850,22795.8758053613
8363238222,21838,0,0,43332.4049938514,61193.8903712113,40223.4976171056,57269.2119286682,70118.8108169615,50740.8167137710,43826.1822986232,61646.9058916263,30884.6077900452,22791.9943100747
8363261465,21839,0,0,43313.5085606853,61182.8299347993,40219.2267555207,57265.3791041690,70089.1824751976,50711.1883720071,43832.3634886092,61635.6994428523,30881.0913256634,22778.8775328996
8363261465,21839,0,0,43309.0916867386,61168.3990463672,40200.7075209562,57249.6827752674,70082.7822666688,50700.5416372871,43815.2800422698,61620.6601695792,30853.7870139927,22778.0988003029
8363261465,21839,0,0,43308.1304386896,61156.5842127522,40189.3793952140,57233.6214154611,70081.8818571039,50695.5163784992,43793.4268587758,61612.8120051284,30837.5796418246,22779.0965514424
8363261465,21839,0,0,43300.7811498085,61149.6242901694,40191.6790899136,57230.9810252505,70077.8421817587,50693.1436776187,43790.2024191177,61610.9381798176,30841.8383357126,22770.1776296712
8363261465,21839,0,0,43298.6152997741,61149.4782778076,40189.4158983045,57232.6358320184,70075.4086423941,50699.4708799666,43793.4876972599,61609.1251929910,30840.3538767002,22764.6413276168
8363261465,21839,0,0,43313.1922005679,61164.0065078142,40190.8151834391,57246.1906462792,70087.5398361265,50708.8765096108,43803.4773763516,61618.5186549383,30845.4156385785,22772.3921504930
8363261465,21839,0,0,43314.5671503089,61170.4553871303,40198.3226523789,57253.8806306713,70087.9657055154,50709.8499253566,43812.9438444798,61624.1644662642,30856.4517395970,22770.1654619744
8363261465,21839,0,0,43307.5707246357,61162.9235827969,40195.7065975620,57248.3443286168,70083.6340054464,50705.8102500114,43807.8942502983,61619.2487167477,30853.6896724181,22765.6147433626
8363303826,21840,0,0,43316.4653110133,61159.1880998723,40185.3153844752,57240.8611950707,70081.2491368691,50699.5195507539,43792.3682691522,61612.9093467030,30831.8121535305,22778.5246696917
8363303826,21840,0,0,43332.2346460958,61172.2440385633,40196.8625287601,57255.8396298598,70093.3073244206,50712.0887815720,43805.6310586892,61631.3677427834,30841.2786216587,22790.5220187592
8363303826,21840,0,0,43324.8366864275,61181.4428173614,40211.6827834905,57269.9176550839,70103.3578419964,50719.8761075387,43823.0430328429,61635.2857411604,30858.5324157537,22780.7270228167
8363303826,21840,0,0,43307.9844263277,61175.2129565881,40207.3267480279,57259.5629450876,70095.3393297900,50716.1162892204,43817.8595939963,61619.8936046793,30856.4882426874,22770.0802880966
8363303826,21840,0,0,43305.6847316282,61168.7762449688,40202.8125325066,57250.8508741624,70084.1815518034,50723.9766213681,43811.5445593452,61617.4722330116,30861.4404952944,22777.6607632173
8363303826,21840,0,0,43304.5896389141,61165.6734822789,40204.2361530348,57247.1518943282,70086.7002650458,50713.4393959194,43808.3931258680,61619.0175305081,30872.0993977113,22782.3453264942
8363303826,21840,0,0,43308.0330971150,61164.6392280490,40193.8936107354,57239.9729532027,70084.0112040479,50705.4208837131,43804.6333075497,61617.2045436815,30857.8145216411,22794.5130233171
8363303826,21840,0,0,43317.6455776051,61173.0592742504,40193.9179461290,57244.2924855748,70094.2807401665,50706.4064671557,43805.1686862100,61622.0229516233,30849.2119599873,22790.5341864560
8363326518,21841,0,0,43313.4598898980,61173.3391312774,40200.4154962324,57248.9162103675,70080.1175410646,50699.1423521524,43812.0921057022,61621.0617035743,30851.7428409265,22775.9694533589
8363326518,21841,0,0,43312.9245112378,61168.8005803624,40198.5295032249,57244.0247962447,70086.3352341411,50697.2685268417,43807.3953747285,61616.0972832706,30845.5738186372,22773.6697586594
8363326518,21841,0,0,43311.6712384651,61162.6437257700,40189.7200907251,57236.9066936033,70091.2996544448,50697.7795701083,43795.2641809961,61609.3198761402,30839.5873118004,22767.5615748543
8363326518,21841,0,0,43301.6207208893,61157.3021068647,40190.1824632043,57235.9697809479,70073.1819538755,50689.6880517210,43794.1447528884,61602.2504442861,30843.5904840551,22750.5754700895
8363326518,21841,0,0,43296.5832944046,61154.2966857495,40188.8440165538,57238.8048543077,70062.2188590380,50688.2522634959,43804.8888291830,61601.3013639339,30841.0231000255,22750.9405009941
8363326518,21841,0,0,43301.6207208893,61154.6373812605,40183.9891055215,57238.4154880093,70072.8290906676,50697.9255824701,43801.8712403709,61600.0602588579,30829.0500863517,22762.1226143744
8363326518,21841,0,0,43305.4292099949,61156.8153989918,40191.5087421581,57237.0648736620,70081.9791986785,50704.5083064513,43797.6368818765,61604.7083190443,30835.0974316727,22770.9076914806
8363326518,21841,0,0,43292.7017991181,61145.4994409465,40193.9787846131,57229.4843985413,70072.4518920661,50690.7709767382,43790.9568163208,61599.9507495865,30845.3548000944,22767.5494071575
8363353506,21842,0,0,43290.5116136900,61136.1546497865,40183.5875715263,57221.5145571223,70066.2098635959,50687.4856985961,43781.9162175813,61594.1345905052,30834.4038729538,22767.7075872162
8363353506,21842,0,0,43299.9537464246,61143.1632431565,40183.9282670374,57231.5285716075,70075.6276609369,50698.7164827636,43788.2920907165,61601.9584195623,30834.4282083474,22766.4908175339
8363353506,21842,0,0,43298.9924983756,61151.7049663262,40193.4434059529,57244.3411563621,70064.0805166519,50697.1468498735,43803.8302395594,61607.0445168343,30847.1191161338,22762.4511421886
8363353506,21842,0,0,43311.0141828366,61160.1006771340,40195.9256161048,57248.9162103675,70080.8476028739,50704.2284494244,43808.9650076187,61616.5353203562,30843.8946764757,22784.5841827096
8363353506,21842,0,0,43318.7406703192,61162.1448502003,40195.4875790192,57244.2316470907,70090.8616173592,50698.1446010130,43797.0771678227,61615.7322523659,30834.4890468315,22793.1015704856
8363353506,21842,0,0,43313.6789084409,61159.6139692611,40194.9887034494,57245.1807274429,70081.6506708642,50690.1504242003,43797.0893355195,61612.6173219792,30835.3651210028,22782.1749787386
8363353506,21842,0,0,43307.5585569389,61156.1705110602,40192.2023008770,57247.6872729884,70070.2252035475,50685.5510348012,43805.0226738481,61607.3243738612,30835.8639965725,22771.8567718328
8363353506,21842,0,0,43304.2246080094,61151.9361525658,40182.3099633599,57242.5525049291,70071.8921780122,50688.9823253053,43800.4597875395,61601.1918546625,30828.4782046010,22767.9752765463
8363384285,21843,0,0,43303.1295152954,61150.2935134947,40182.7845035360,57239.3402329679,70062.9245854537,50691.5497093349,43797.4056956369,61601.0215069070,30831.9703335892,22776.5778382001
8363384285,21843,0,0,43292.7869729959,61144.2461681737,40187.7367561429,57235.2518868354,70064.4333798598,50688.4834497355,43793.4025233822,61599.5978863787,30838.8572499910,22772.5990013390
8363384285,21843,0,0,43285.2430009656,61138.9045492684,40182.0057709393,57226.9291822085,70065.7231557230,50683.6042033095,43785.0798187553,61591.7010511406,30831.2767748703,22769.6909217983
8363384285,21843,0,0,43289.0271546776,61145.3169254941,40183.1617021375,57229.9954418078,70066.6113975911,50687.5222016865,43788.3042584134,61595.1810124319,30832.0555074670,22766.6855006830
8363384285,21843,0,0,43288.4431052301,61156.1461756665,40192.7133441435,57241.0680459167,70066.2098635959,50688.3131019800,43804.5359659752,61598.9651661439,30842.5805652188,22762.4268067950
8363384285,21843,0,0,43289.4286886727,61154.0533318130,40186.8606819717,57237.9409478332,70059.7731519766,50685.3320162584,43800.7031414759,61594.5969629844,30832.1893521320,22769.4110647714
8363384285,21843,0,0,43302.4481242733,61153.3232700036,40180.3022933841,57230.8228451918,70071.4419732298,50695.4433723183,43786.6129485550,61596.2030989651,30821.7129651675,22780.3011534279
8363384285,21843,0,0,43309.6635684893,61152.8243944339,40189.8417676933,57237.0040351779,70068.5217259923,50700.5781403775,43789.6548727607,61605.7912440615,30834.9149162203,22783.9392947780
8363429201,21844,0,0,43299.9050756373,61148.0789926729,40194.9278649653,57240.1919717455,70066.6844037720,50698.9355013064,43795.8603981404,61601.9705872591,30841.4854725047,22772.0271195883
8363429201,21844,0,0,43294.0889165559,61151.3886062088,40193.5894183148,57238.4641587966,70072.8777614549,50701.1256867346,43796.8946523703,61598.3932843932,30839.3196224702,22764.0451104724
8363429201,21844,0,0,43285.9487273814,61150.9018983359,40194.5019955765,57234.4123157546,70069.4586386477,50697.7552347146,43797.0041616418,61597.0426700458,30844.3448812581,22761.4533910492
8363429201,21844,0,0,43277.9302151751,61143.9784788436,40192.1171269992,57227.5740701401,70061.9633374047,50691.3428584889,43792.3561014554,61592.4919514341,30846.4012220212,22766.0162773578
8363429201,21844,0,0,43286.7517953717,61141.3259209362,40178.9030082495,57222.2446189316,70065.3946279088,50684.9426499601,43784.5201047014,61592.1025851357,30829.4637880437,22776.6386766842
8363429201,21844,0,0,43297.3376916076,61146.2295027559,40173.4275446792,57227.3428839004,70055.1372594870,50675.1476540176,43783.6927013175,61596.2517697524,30820.6665432407,22779.7779424645
8363429201,21844,0,0,43293.5778732894,61147.2880923794,40173.1841907427,57231.8205963313,70049.3332681025,50672.5072638070,43788.9004755577,61594.3171059575,30818.3546808443,22779.0722160488
8363429201,21844,0,0,43291.6675448882,61147.6409555873,40172.9408368062,57228.3041319495,70053.1174218144,50683.6528740968,43787.1969980025,61597.3225270728,30814.2663347118,22787.3340821916
8363455189,21845,0,0,43297.0943376712,61150.0744949519,40179.3045422446,57230.3848081062,70064.0805166519,50691.9999141174,43784.7269555474,61602.0800965305,30819.3402642870,22788.5630195707
8363455189,21845,0,0,43289.1001608585,61146.2295027559,40190.0364508425,57235.7020916178,70066.5383914102,50685.8917303122,43792.6846292696,61602.1287673178,30838.2853682403,22774.3998204688
8363455189,21845,0,0,43276.0198867739,61135.3515817961,40184.5001487880,57233.0373660136,70052.9835771494,50673.3711702814,43797.6247141797,61588.0750774873,30834.5985561029,22763.9477688979
8363455189,21845,0,0,43280.5462699920,61133.6724396346,40173.5492216474,57230.9931929473,70050.3918577261,50679.4185156024,43799.7662288206,61585.0939917657,30822.8688963656,22768.4498167224
8363455189,21845,0,0,43287.4940248779,61139.9388034984,40180.5213119269,57237.7462646841,70052.3143538241,50691.0143306747,43807.7482379364,61592.2729328913,30832.6638923081,22771.0172007520
8363455189,21845,0,0,43282.3227537281,61135.9356312436,40179.9007593890,57229.6060755095,70037.2020743700,50680.9516454021,43800.5571291141,61589.9854058885,30831.1307625084,22771.3457285662
8363455189,21845,0,0,43301.4625408306,61140.8757161538,40173.5613893442,57227.8539271670,70061.6469772873,50692.2676034475,43791.6625427365,61601.8124072004,30817.7584637000,22789.0862305341
8363455189,21845,0,0,43317.0250250672,61160.9524159116,40190.1216247202,57249.1230612135,70088.2820656328,50711.8210922419,43808.3079519903,61624.7241803180,30843.2497885441,22790.3273356100
8363484214,21846,0,0,43304.0907633444,61166.4157117851,40201.6322659147,57257.9933121974,70080.5920812406,50689.2743500290,43825.3305598456,61624.4929940784,30858.7757696901,22770.6643375441
8363484214,21846,0,0,43286.9829816113,61151.6076247516,40184.3419687293,57239.2915621806,70066.1368574150,50673.2129902227,43813.1263599322,61604.1121019000,30838.7477407196,22756.9878463151
8363484214,21846,0,0,43287.7617142080,61137.7607857671,40168.0250872898,57221.1860293080,70047.1917534617,50673.7362011861,43788.4502707752,61595.8259003636,30820.6787109375,22764.0451104724
8363484214,21846,0,0,43300.7689821117,61141.7761257187,40179.1828652764,57222.8165006823,70060.6978969351,50692.6691374426,43787.4038488485,61606.0954364821,30832.4570414621,22769.5814125269
8363484214,21846,0,0,43302.0587579749,61145.3169254941,40187.4325637224,57225.9922695531,70067.7186580020,50696.5628004260,43793.9987405265,61609.1130252942,30844.0528565344,22766.9653577100
8363484214,21846,0,0,43301.2313545910,61153.3232700036,40187.3717252383,57233.4754030992,70072.8412583644,50698.7043150668,43800.5936322045,61611.0111859986,30846.9609360751,22766.6124945021
8363484214,21846,0,0,43298.9559952851,61157.7036408599,40193.1392135323,57240.4231579851,70067.5239748528,50694.1535964550,43812.0556026117,61612.2157879841,30850.1002018554,22768.4376490255
8363484214,21846,0,0,43294.3444381892,61150.7680536708,40190.3893140503,57236.3834826399,70065.9786773563,50686.6096244248,43811.1430253500,61613.5055638473,30844.3448812581,22774.1077957450
8363513446,21847,0,0,43302.2412734273,61147.9816510984,40183.2955468026,57233.3780615246,70075.2139592449,50688.7268036720,43800.2042659062,61615.6592461850,30831.6053026845,22779.2303961075
8363513446,21847,0,0,43310.4544687828,61155.1849276175,40189.0508673998,57242.8566973497,70082.7335958815,50690.0044118384,43805.4850463273,61623.5317460294,30840.2200320351,22773.8766095054
8363513446,21847,0,0,43303.6405585619,61161.0984282735,40197.8846152933,57255.7057851947,70078.2680511475,50688.2887665864,43819.8794316689,61621.6457530218,30852.3633934644,22771.7472625614
8363513446,21847,0,0,43300.9149944736,61159.0299198136,40192.3118101484,57253.7102829158,70073.9971895626,50684.6871283268,43820.1106179085,61614.2599610503,30842.6657390966,22773.9131125959
8363513446,21847,0,0,43306.1836071979,61154.1385056908,40184.3054656389,57245.5092552571,70069.3612970731,50686.2324258233,43813.3575461718,61612.6294896760,30833.2479417556,22772.9153614564
8363513446,21847,0,0,43302.5698012415,61148.5170297586,40188.0166131699,57240.8611950707,70067.4874717623,50684.8818114759,43810.4738020248,61612.1427818031,30842.4102174633,22768.7418414461
8363513446,21847,0,0,43298.7734798328,61141.1069023934,40179.2072006701,57231.1635407029,70053.1295895113,50679.5036894802,43797.8924035098,61603.1630215478,30829.7193096769,22774.3389819847
8363513446,21847,0,0,43321.2350481679,61156.8275666886,40182.7601681424,57242.0536293594,70075.2017915481,50694.6403043279,43805.1078477258,61621.8282684742,30832.1041782542,22795.2065820360
8363551319,21848,0,0,43317.2075405195,61165.7343207630,40197.0328765157,57253.6981152189,70071.8800103154,50681.9372288448,43820.3783072386,61627.4375767096,30848.2507119383,22788.1858209692
8363551319,21848,0,0,43303.9325832857,61156.4503680871,40189.8782707838,57247.8211176535,70070.9796007505,50677.0579824188,43819.1615375563,61618.9931951144,30841.1326092969,22777.3930738872
8363551319,21848,0,0,43305.3927069044,61153.0920837640,40182.3099633599,57242.6498465037,70078.6087466585,50682.4117690209,43810.4494666311,61614.8196751042,30833.2722771492,22773.2560569674
8363551319,21848,0,0,43301.4260377402,61151.6684632357,40188.5398241333,57244.2924855748,70074.0093572594,50682.5821167764,43812.3354596387,61617.9224377940,30843.0794407885,22765.6269110594
8363551319,21848,0,0,43288.6377883792,61149.7946379250,40193.6989275862,57244.7305226604,70060.7222323288,50684.9304822632,43821.2787168035,61611.8872601698,30846.1822034784,22760.1149443986
8363551319,21848,0,0,43296.5589590110,61154.8929028938,40191.6669222168,57246.5191740934,70066.5748945006,50694.3969503915,43823.2012129015,61610.8530059399,30837.1902755262,22771.7472625614
8363551319,21848,0,0,43308.3494572324,61161.8041546892,40195.4024051414,57250.7048618005,70076.5037351081,50699.6412277222,43822.5441572731,61618.9080212367,30842.3372112823,22780.6053458485
8363551319,21848,0,0,43302.5698012415,61155.9149894269,40195.6214236842,57241.7372692420,70063.4234610235,50682.3509305368,43810.0235972423,61608.9791806292,30840.8405845731,22774.5823359211
8363575289,21849,0,0,43308.7144881371,61147.4462724381,40179.0490206114,57228.7908398224,70054.1760114380,50680.0147327468,43792.9279832061,61607.4460508295,30817.9288114555,22784.7788658587
8363575289,21849,0,0,43325.5424128432,61161.8649931733,40185.5222353212,57243.6354299464,70080.7137582089,50692.0607526015,43796.4201121943,61617.4478976179,30826.1906775983,22780.5566750612
8363575289,21849,0,0,43310.4301333891,61164.4810479903,40197.3370689362,57255.8274621630,70074.5447359196,50684.0787434856,43813.1628630226,61611.5100615683,30848.0681964859,22760.2609567605
8363575289,21849,0,0,43289.3678501886,61153.6152947274,40186.5929926416,57245.5457583476,70057.4126187929,50676.7172869077,43812.3841304260,61595.8015649699,30844.8802599183,22750.4781285149
8363575289,21849,0,0,43294.8676491526,61146.7527137192,40173.3180354078,57235.4830730750,70058.9335808958,50683.8962280333,43799.7297257301,61593.7208888132,30832.5178799462,22760.1271120955
8363575289,21849,0,0,43300.4282866007,61147.8721418269,40176.6641520341,57238.7805189140,70062.8759146664,50680.1120743213,43798.9144900430,61598.8069860852,30835.8153257852,22766.2961343847
8363575289,21849,0,0,43299.1993492216,61149.4052716266,40182.3586341472,57244.9495412032,70056.1350106265,50682.6429552605,43806.8964991588,61597.7240610679,30835.2434440346,22770.5913313632
8363575289,21849,0,0,43309.3715437655,61160.5265465228,40183.5510684359,57254.7688725394,70071.6974948631,50695.5650492865,43811.0213483818,61601.6420594449,30827.9184905472,22778.2691480585
8363594036,21850,0,0,43317.4387267591,61169.9565115606,40192.8350211118,57262.6900431711,70077.4771508540,50696.9034959370,43815.0731914238,61606.3266227218,30834.2456928951,22774.8135221608
8363594036,21850,0,0,43310.6126488415,61164.1646878729,40192.5308286912,57254.5376862997,70056.9259109200,50676.8146284823,43809.1718584647,61598.9895015375,30830.5467130609,22765.5660725753
8363594036,21850,0,0,43313.0948589934,61160.0520063467,40180.9471813157,57244.9495412032,70066.1490251118,50687.8994002880,43798.4156144732,61600.7173144864,30814.9963965212,22777.3930738872
8363594036,21850,0,0,43316.7208326466,61170.8690888223,40189.1725443680,57253.3817551015,70081.1639629913,50700.8336620108,43804.7671522148,61614.0409425075,30827.7481427916,22779.3155699852
8363594036,21850,0,0,43303.1538506890,61176.4053908767,40204.6863578173,57265.6832965895,70074.4717297387,50698.1446010130,43825.6590876598,61614.2721287471,30848.3845566033,22765.9676065705
8363594036,21850,0,0,43294.2592643114,61168.3503755800,40199.3690743057,57257.5552751118,70056.3783645630,50686.7678044835,43824.4423179775,61603.1508538510,30840.6580691208,22766.8680161354
8363594036,21850,0,0,43308.7753266212,61163.6414769095,40188.4181471650,57246.9085403917,70059.3229471941,50687.2423446596,43807.7482379364,61602.5303013130,30825.7283051190,22783.1240590908
8363594036,21850,0,0,43314.0074362551,61162.7654027382,40193.5529152243,57246.9815465727,70060.7222323288,50684.6749606299,43796.8581492799,61604.0755988095,30827.7846458821,22778.9018682933
8363670069,21851,0,0,43311.4278845286,61163.1669367334,40191.9589469405,57249.8044522356,70055.3927811203,50689.9192379606,43800.5084583268,61609.3077084434,30828.1496767868,22780.9217059659
8363670069,21851,0,0,43323.5225751706,61178.3522223684,40196.6556779142,57265.7563027705,70082.8431051529,50706.8810073318,43812.9803475703,61620.7696788506,30833.7468173253,22787.1880698297
8363670069,21851,0,0,43322.2449670042,61188.5122492156,40216.5255268260,57279.8464956914,70092.8084488509,50718.1969653772,43830.3071478461,61627.7052660397,30861.9637062577,22780.6296812421
8363670069,21851,0,0,43305.6847316282,61177.1476203829,40218.0464889289,57272.7892315341,70079.1562930155,50701.8800839376,43830.6356756604,61617.6182453734,30868.6072687231,22767.3425563115
8363670069,21851,0,0,43306.1349364106,61157.0100821410,40187.7732592334,57249.8287876292,70051.0610810514,50688.4591143419,43807.6752317555,61605.1463561299,30837.9446727293,22778.6220112663
8363670069,21851,0,0,43325.4694066623,61163.1669367334,40183.8917639469,57256.4480147009,70075.0192760957,50707.4163859920,43803.9884196181,61615.7322523659,30836.3993752327,22791.4345960209
8363670069,21851,0,0,43315.2120382405,61171.1246104556,40203.8832898270,57270.3556921695,70075.8223440861,50711.3100489754,43818.9303513167,61618.4213133638,30858.3742356950,22775.0690437940
8363670069,21851,0,0,43305.3318684203,61169.6158160495,40206.6696923994,57267.5692895971,70070.3468805157,50707.6719076253,43823.6392499872,61609.8187517099,30857.0114536508,22763.1690363012
8363676460,21852,0,0,43312.7054926950,61168.3138724895,40202.6178493574,57260.8648886477,70074.2527111959,50707.4042182952,43818.4679788374,61612.2887941650,30845.6954956055,22767.2573824337
8363676460,21852,0,0,43314.7374980645,61169.7131576241,40210.9162185906,57264.4421915136,70081.6750062579,50707.8300876840,43821.6194123146,61619.9909462539,30856.8289381985,22773.5724170848
8363676460,21852,0,0,43311.1845305922,61167.4012952278,40209.1153994609,57263.6512912201,70077.8543494555,50702.4641333851,43821.0596982607,61619.8571015889,30851.0736176012,22778.7801913250
8363676460,21852,0,0,43325.9804499289,61177.1354526861,40205.9274628932,57272.4607037199,70090.9711266306,50719.0000333675,43822.3616418208,61629.7007683186,30845.4886447595,22794.1114893219
8363676460,21852,0,0,43336.3473276220,61192.7831108004,40222.4998659661,57288.6072374040,70100.1699054288,50730.9000408603,43838.7150263508,61640.8463786084,30865.6261830014,22796.3138424469
8363676460,21852,0,0,43332.3563230641,61191.0796332452,40230.7130613216,57289.2034545483,70095.4488390615,50726.8725332119,43843.2049064785,61636.2469892094,30873.6811982982,22790.4490125782
8363676460,21852,0,0,43334.3639930399,61184.6429216259,40221.9158165186,57276.6342237302,70098.6489433259,50720.0829583847,43831.7551037681,61631.3555750865,30862.5112526148,22790.6680311210
8363676460,21852,0,0,43331.3707396214,61181.0169479726,40218.2655074717,57274.1276781847,70097.1279812230,50712.9648557433,43827.0705404912,61631.4042458738,30863.6428484193,22781.7491093498
8363703023,21853,0,0,43320.7118372045,61181.2116311218,40220.7477176236,57281.0145945864,70088.0022086058,50702.1721086613,43839.9317960331,61627.3158997413,30866.8794557742,22773.8644418086
8363703023,21853,0,0,43320.1034523634,61182.4040654105,40214.4205152757,57279.7734895105,70086.2378925665,50703.3767106468,43841.3432488646,61623.0572058533,30852.4120642517,22777.6972663078
8363703023,21853,0,0,43323.6199167452,61181.5766620265,40210.6120261701,57271.9496604534,70082.6362543069,50709.6795776011,43830.2828124525,61623.5560814230,30844.5273967105,22782.8198666702
8363703023,21853,0,0,43328.4504923839,61180.9804448822,40217.0487377894,57272.2173497835,70081.6141677738,50716.7855125457,43830.0272908192,61635.8089521237,30850.2705496109,22797.4211028578
8363703023,21853,0,0,43330.2756469074,61181.3454757869,40215.9658127722,57273.7748149768,70093.3681629047,50715.3862274111,43831.0980481396,61640.7490370339,30855.5513300321,22801.8988152886
8363703023,21853,0,0,43331.4437458024,61185.4824927067,40212.7292054173,57280.0046757501,70101.4110105047,50720.0951260815,43835.8799529911,61643.8152966332,30860.0655455534,22798.5770340560
8363703023,21853,0,0,43320.7483402950,61186.7235977826,40219.6282895159,57283.3264569828,70091.0928035988,50712.4538124767,43844.5190177353,61640.2501614641,30872.0750623176,22782.9780467289
8363703023,21853,0,0,43306.5121350121,61173.8745099376,40212.4128452999,57267.1190848146,70073.9728541690,50699.6655631158,43834.3589908882,61618.3726425765,30861.0146259056,22770.4818220918
8363729821,21854,0,0,43323.6929229261,61167.4986368024,40195.3902374446,57254.4768478156,70055.1129240934,50706.6376533954,43814.6716574287,61618.3361394860,30831.5566318972,22791.8848008033
8363729821,21854,0,0,43359.5389577665,61185.8475236113,40207.5457665707,57274.6630568449,70087.6858484884,50724.7675216615,43821.3030521972,61648.9013939052,30840.1713612479,22811.4504572946
8363729821,21854,0,0,43357.8841509986,61202.7971252857,40236.5413880998,57299.6433384224,70111.5588696550,50733.6012695550,43847.0255632809,61660.9960845472,30873.8393783569,22798.1389969703
8363729821,21854,0,0,43335.5685950253,61202.3834235937,40237.8920024471,57298.8037673416,70103.4795189646,50719.7909336610,43854.5451999174,61645.7499604281,30879.7650467097,22785.7887846950
8363729821,21854,0,0,43321.4784021044,61195.7155257348,40228.4863728030,57288.2787095897,70092.6989395795,50719.3893996658,43848.4248484155,61634.4948408669,30876.5284393548,22785.0465551888
8363729821,21854,0,0,43310.5153072669,61185.3121449511,40223.6436294674,57275.8798265272,70082.1738818276,50713.3420543448,43839.1652311333,61628.3014831840,30877.5626935848,22784.5233442255
8363729821,21854,0,0,43308.8361651053,61173.5581498202,40208.3731699546,57263.1645833472,70075.8101763892,50707.1851997524,43825.5617460852,61623.1302120342,30859.7613531328,22787.2489083138
8363729821,21854,0,0,43321.5514082853,61174.0691930867,40198.9188695232,57264.9775701738,70084.2423902875,50706.0171008574,43820.4634811164,61624.8093541958,30849.1024507159,22789.2079075023
8363760119,21855,0,0,43323.6807552293,61175.9065153070,40196.8868641538,57271.7914803947,70064.3238705884,50691.3915292762,43829.0782104670,61631.4042458738,30848.4453950875,22793.7464584172
8363760119,21855,0,0,43325.3477296941,61177.4883158940,40197.0937149998,57272.5458775977,70077.2216292207,50698.0472594384,43830.1611354843,61629.3357374139,30845.0992784611,22794.8902219186
8363760119,21855,0,0,43322.9750288136,61177.8411791019,40199.0283787946,57268.1046682573,70092.4434179462,50706.6741564858,43822.1061201875,61626.0382915749,30845.3913031849,22789.1470690182
8363760119,21855,0,0,43313.1191943870,61178.2427130970,40209.3587533973,57268.7252207953,70087.6493453979,50702.1477732677,43826.6811741929,61624.4321555943,30858.9582851425,22775.4705777892
8363760119,21855,0,0,43295.7072202334,61168.3382078831,40209.6021073338,57263.1524156504,70067.5361425496,50691.6105478190,43827.0583727944,61611.5587323556,30856.4639072938,22769.0460338667
8363760119,21855,0,0,43297.9947472361,61162.5950549827,40198.5173355281,57256.8130456056,70061.8051573460,50686.7434690899,43821.8384308574,61603.7592386921,30836.7157353501,22778.7436882346
8363760119,21855,0,0,43307.1326875501,61162.3760364399,40193.3825674688,57256.2168284613,70066.1490251118,50685.4415255298,43820.4026426323,61606.4726350836,30830.7778993005,22784.1826487144
8363760119,21855,0,0,43302.3994534860,61156.9614113537,40190.9003573169,57250.6318556196,70056.8650724359,50681.3166763068,43812.6639874529,61607.7867463405,30831.7999858337,22786.8230389250
8363818539,21856,0,0,43310.1381086654,61156.7180574172,40183.7335838882,57247.5655960202,70069.5194771318,50690.0530826257,43803.1731839310,61613.0188559744,30823.2339272703,22791.0452297226
8363818539,21856,0,0,43325.7614313860,61173.0592742504,40195.7552683493,57270.5625430155,70093.0274673937,50701.0040097663,43819.3318853119,61627.9607876729,30832.5300476430,22780.6540166358
8363818539,21856,0,0,43315.3702182992,61179.2039611460,40207.6552758421,57283.7766617653,70084.5830857986,50693.0950068314,43835.7096052355,61626.3668193891,30849.0659476254,22763.0838624234
8363818539,21856,0,0,43299.1750138279,61170.3458778589,40199.3204035184,57269.0780840031,70069.5438125254,50687.4978662929,43827.4477390928,61612.3861357396,30840.4877213653,22764.6778307072
8363818539,21856,0,0,43309.5783946115,61166.6955688120,40191.7399283977,57255.2799158059,70074.9219345212,50699.4343768762,43811.6540686166,61612.9458497934,30834.4768791347,22784.0244686557
8363818539,21856,0,0,43317.6334099083,61168.6058972132,40204.5525131522,57257.0198964516,70083.6340054464,50712.2834647212,43813.3940492623,61626.0869623622,30853.7748462959,22791.9456392875
8363818539,21856,0,0,43313.8005854091,61170.9907657905,40212.2181621507,57260.9865656159,70078.7060882331,50717.3087235091,43821.4247291654,61628.7881910569,30863.7158546002,22791.2155774781
8363818539,21856,0,0,43332.8551986338,61181.2724696059,40208.6165238911,57272.3511944485,70090.0098785816,50722.5530008398,43836.1476423212,61647.1127424723,30856.7802674112,22807.1065895288
8363825226,21857,0,0,43346.4830190755,61196.4577552410,40221.2344254965,57293.1944591062,70111.5345342614,50723.3682365269,43852.5375299417,61664.6098905036,30871.1259819654,22811.7181466247
8363825226,21857,0,0,43328.8885294695,61188.6460938806,40223.1934246850,57289.4711438784,70101.4718489888,50707.6110691412,43852.7443807877,61654.2186774169,30879.7407113161,22804.1741745945
8363825226,21857,0,0,43313.3990514139,61171.9033430523,40202.4596692987,57268.6157115239,70088.4524133883,50691.8904048460,43831.4874144380,61633.7039405734,30858.4472418759,22793.5761106617
8363825226,21857,0,0,43315.9299323531,61174.5437332628,40195.1590512049,57265.5372842277,70090.3140710022,50694.1900995455,43826.5960003152,61633.3267419719,30847.2286254052,22788.4656779961
8363825226,21857,0,0,43311.1845305922,61184.0710398752,40206.9738848200,57275.0645908400,70086.9436189822,50697.6700608369,43840.8443732948,61635.6872751555,30854.9794482814,22777.5755893396
8363825226,21857,0,0,43308.6536496530,61189.3396525995,40208.4340084388,57277.0722608158,70091.3848283226,50703.5713937960,43845.8087935986,61636.8188709600,30853.1664614548,22780.0091287041
8363825226,21857,0,0,43318.0106085098,61189.2058079345,40208.6530269816,57268.3966929811,70103.0049787885,50720.8860263750,43836.5248409227,61641.1505710290,30852.3025549803,22794.0749862315
8363825226,21857,0,0,43321.1742096838,61185.7380143399,40222.5850398438,57268.3966929811,70096.3249132327,50721.0198710401,43832.5825071520,61645.0442340124,30864.2268978668,22801.4121074157
8363858037,21858,0,0,43325.1652142417,61183.9493629070,40223.1812569882,57271.0370831916,70096.0815592962,50711.0910304326,43831.9132838268,61643.2920856699,30862.6694326735,22802.8722310345
8363858037,21858,0,0,43334.9358747905,61193.1968124924,40218.6062029827,57281.3917931880,70106.2780892339,50722.5408331429,43840.8078702043,61646.2731713915,30862.0245447419,22803.6752990248
8363858037,21858,0,0,43334.0476329225,61199.6091887181,40222.3538536042,57292.0385279080,70105.1221580357,50715.9581091617,43852.3063437020,61646.6503699930,30869.7753676181,22799.8181391319
8363858037,21858,0,0,43319.9209369110,61191.2256456071,40218.2411720781,57283.6063140097,70092.5285918240,50701.0526805536,43851.7466296482,61637.7801190091,30869.8483737990,22794.1723278061
8363858037,21858,0,0,43319.2152104953,61181.1994634250,40203.1532280176,57268.2871837096,70092.2974055843,50704.0094308816,43834.9065372452,61630.8566995168,30852.2052134057,22800.5238655476
8363858037,21858,0,0,43322.4639855470,61181.4306496646,40201.9364583353,57267.0339109369,70092.7962811541,50703.7660769451,43825.7564292344,61633.3997481528,30848.9807737477,22799.8303068287
8363858037,21858,0,0,43318.5216517764,61183.1097918262,40204.5281777586,57268.8103946730,70078.5357404776,50705.2992067448,43828.0196208434,61635.5290950968,30845.5616509404,22796.2286685691
8363858037,21858,0,0,43326.5766670732,61192.8804523750,40208.7747039498,57274.4075352116,70090.3992448799,50718.5376608882,43830.5261663890,61642.5255207700,30843.5661486615,22805.4274473673
8363896539,21859,0,0,43343.2707471142,61204.2937519949,40218.2655074717,57282.0245134228,70109.0523241095,50737.3975909638,43834.9552080325,61660.0591718919,30853.7991816895,22821.0020993006
8363896539,21859,0,0,43343.0517285714,61212.8719782551,40244.2678755823,57296.2607187056,70128.0095957596,50744.6495382702,43848.3761776282,61669.1971122059,30891.2513525106,22819.5419756819
8363896539,21859,0,0,43322.3179731851,61203.9408887871,40246.7865888247,57294.6180796345,70114.1992598656,50735.8279580736,43853.2310886606,61652.5395352553,30901.1680254213,22807.7879805509
8363896539,21859,0,0,43323.4495689897,61201.9210511145,40237.7216546916,57293.3891422554,70105.4628535467,50735.6089395308,43854.6912122793,61645.4701034012,30893.0156685499,22804.9529071912
8363896539,21859,0,0,43325.2990589068,61201.6776971780,40238.8532504961,57294.5694088472,70098.0770615752,50732.4940091441,43859.0229123483,61643.5354396063,30889.8398996791,22800.5725363349
8363896539,21859,0,0,43320.2981355125,61194.9124577444,40237.2836176060,57286.6482382155,70092.9422935159,50729.7927804494,43854.2166721032,61639.7634535912,30882.9894863678,22805.0137456753
8363896539,21859,0,0,43331.4680811960,61191.0066270643,40225.7486410178,57275.8554911335,70096.9941365580,50730.6566869239,43835.8312822038,61638.6683608771,30863.7766930844,22818.4712183615
8363896539,21859,0,0,43348.3811797799,61197.0904754757,40226.6855536732,57281.8419979704,70115.8418989367,50732.3723321759,43836.4640024386,61657.6134648305,30870.0187215545,22824.5550667729
8363915302,21860,0,0,43340.3870029672,61202.0792311731,40236.4318788284,57292.2210433604,70107.5678650971,50725.4732480773,43849.0819040440,61661.0690907282,30882.4297723139,22805.9384906338
8363915302,21860,0,0,43334.5708438858,61206.6177820881,40235.5314692635,57292.0263602112,70114.4669491957,50731.0460532222,43855.1170816681,61657.1145892607,30879.7528790129,22797.4454382514
8363915302,21860,0,0,43326.9416979779,61208.8688060004,40235.6409785349,57285.4314685332,70119.8450711915,50737.3854232669,43850.5663630564,61654.4985344438,30883.5978712089,22791.8239623192
8363915302,21860,0,0,43314.0074362551,61198.1855681898,40236.3467049506,57275.0524231432,70105.9130583292,50729.3669110606,43844.2999991925,61648.6093691815,30893.1616809118,22786.5675172917
8363915302,21860,0,0,43316.1002801086,61185.9935359732,40225.2984362354,57270.4408660473,70097.4078382500,50728.8315324004,43839.1408957396,61642.8053777969,30881.9795675315,22792.0673162557
8363915302,21860,0,0,43333.5365896559,61190.6902669469,40224.3980266705,57281.5378055498,70109.1131625936,50741.7657941232,43843.9106328942,61653.4886156075,30876.6014455357,22802.9817403059
8363915302,21860,0,0,43335.9457936268,61199.6578595054,40236.2736987697,57295.1656259915,70114.1870921688,50739.0767331253,43859.0350800451,61662.6508913151,30889.6938873172,22801.1079149951
8363915302,21860,0,0,43320.8091787791,61196.0440535490,40233.6454762559,57286.0276856775,70104.9153071897,50721.7134297590,43855.2022555459,61653.1965908837,30884.6321254389,22795.8149668771
8363945278,21861,0,0,43322.9020226326,61189.6316773233,40217.8761411734,57267.3624387511,70105.3411765785,50717.0045310885,43833.9939599835,61643.2190794889,30862.7181034608,22799.9398161001
8363945278,21861,0,0,43329.9714544868,61191.3108194848,40221.7089656726,57268.4940345556,70101.8247121967,50721.8716098177,43826.2431371073,61641.1384033322,30867.5730144931,22800.4995301540
8363945278,21861,0,0,43336.6150169521,61194.1823959351,40225.9676595606,57279.7856572073,70093.6966907189,50723.3073980428,43837.5955982431,61648.7310461497,30871.9290499557,22813.1661025467
8363945278,21861,0,0,43344.0373120141,61202.1400696573,40226.9532430033,57287.9136786851,70110.0014044617,50734.8423746309,43843.6064404736,61651.6634610840,30873.3039996967,22822.3527136480
8363945278,21861,0,0,43337.7831158471,61205.7903787042,40234.3877057621,57287.7311632327,70112.7999747310,50740.5611921377,43848.5100222933,61652.2718459252,30887.7957266129,22817.7533242489
8363945278,21861,0,0,43316.8668450085,61196.7619476615,40237.7094869948,57277.4616271141,70096.2884101422,50726.3493222485,43844.9083840337,61642.1726575621,30899.0873492645,22798.8690587797
8363945278,21861,0,0,43316.6964972529,61183.1219595230,40220.2366743570,57259.7576282368,70078.1463741792,50715.9459414649,43828.8591919242,61628.3379862745,30876.2850854183,22797.1777489213
