steady_timestamp,sequence,battery,flags,EEG-ch1,EEG-ch2,EEG-ch3,EEG-ch4,EEG-ch5,EEG-ch6,EEG-ch7,EEG-ch8,EEG-ch9,EEG-ch10
8752702479,10731,-2,0,54312.0478990013,56753.8734651261,37113.8358431567,53558.4415962724,55638.5458712448,61831.5141878239,62117.2847154076,57963.4155355075,66130.3371399757,21359.3453507479
8752702479,10731,-2,0,54302.5692631762,56689.5063489328,37070.7865317972,53493.5634368125,55582.5988012529,61841.2970160696,62080.1732400976,57887.9271444180,66126.3218000241,21339.4633341392
8752702479,10731,-2,0,54304.5039269711,56650.9712530945,37055.3578922257,53470.0432788537,55549.8068583151,61857.3948789663,62080.9641403911,57859.9779448157,66140.8013592434,21321.6984967777
8752702479,10731,-2,0,54327.6103832379,56695.5780296474,37095.8033164651,53526.0268519361,55588.4392957279,61898.0471540518,62129.6349276828,57919.3563053116,66170.1863470708,21326.9671095021
8752702479,10731,-2,0,54354.5618317007,56781.9321739998,37155.0234969024,53603.3282298522,55661.8348429639,61898.7650481643,62175.3367969498,58001.0137186904,66186.6370731755,21355.2205015249
8752702479,10731,-2,0,54345.2413759343,56794.3797278497,37150.3997721097,53597.6702508296,55667.3954804120,61856.3484570396,62152.8022224337,57996.1709753549,66160.9632328790,21366.5242918734
8752702479,10731,-2,0,54316.3795990703,56721.3857146089,37086.4950283956,53510.5373738805,55603.2108796710,61823.2279862875,62089.8587267686,57905.7771556572,66128.3538053936,21346.4354244188
8752702479,10731,-2,0,54302.6666047508,56654.3173697208,37041.1703577301,53450.8426532671,55545.2683074001,61835.6025339565,62065.3043145799,57844.8900007552,66128.9500225379,21314.8724188601
8752712954,10732,-2,0,54316.0632389529,56685.9290460668,37071.9181276017,53494.6220264361,55573.8258918436,61871.3268918286,62104.1070997483,57898.6468853190,66153.5531055139,21317.5371444643
8752712954,10732,-2,0,54339.2913721879,56775.1912699599,37130.8462833152,53579.6863949253,55650.2511955885,61869.7085881512,62149.9063105899,57992.4476601270,66167.7893107967,21350.1587396466
8752712954,10732,-2,0,54329.7275624850,56789.2692951841,37124.9449503561,53573.8824035407,55658.5252294281,61824.2865759111,62127.8584439467,57986.8870226790,66141.3732409941,21348.6621129374
8752712954,10732,-2,0,54300.2817361735,56718.1734426476,37066.2844839727,53496.5201871404,55594.9125104377,61797.8583384117,62074.7464473146,57903.2584424149,66111.6718930493,21319.3744666845
8752712954,10732,-2,0,54293.6016706177,56654.1105188748,37030.4992876164,53451.6943920447,55539.1844589887,61823.0333031383,62061.7148440172,57848.7471606481,66116.4537979007,21295.2702592783
8752712954,10732,-2,0,54321.1493362249,56676.7911057528,37058.3876487346,53494.9262188566,55562.4977661014,61860.1447784483,62103.8759135087,57891.8208074013,66145.5345933076,21305.0044167366
8752712954,10732,-2,0,54343.2823767458,56760.1033258995,37116.7560903943,53570.3172683716,55633.4962770633,61867.2993841802,62150.4416892501,57979.3917214360,66161.4986115393,21338.7089369362
8752712954,10732,-2,0,54335.5802246569,56795.4139820797,37130.6394324692,53582.5336359818,55662.7595879225,61833.1324915014,62138.0549738843,57999.9307936731,66144.4516682903,21355.1353276472
8752744035,10733,-2,0,54309.3588380034,56736.9481988454,37083.0150671042,53512.3381930103,55610.1099637696,61814.3333999099,62081.4265128703,57922.6294157570,66116.4781332944,21336.1172175129
8752744035,10733,-2,0,54310.6121107762,56671.1574621238,37042.2654504442,53459.4330472241,55553.1651426382,61844.5701265150,62059.4759878018,57856.6439958862,66127.5020666160,21320.0315223130
8752744035,10733,-2,0,54330.9321644705,56684.8461210496,37064.0942985446,53495.8752992088,55567.1214908941,61872.3733137554,62098.2909406669,57892.6360430884,66156.0961541499,21320.2627085526
8752744035,10733,-2,0,54347.6870829957,56757.9861466523,37119.5181575731,53570.0982498288,55629.6999556545,61874.5391637899,62140.5858548235,57977.1041944333,66166.5238703271,21332.9657840358
8752744035,10733,-2,0,54352.1039569424,56802.9822895035,37144.1699113363,53594.4458111715,55667.8335174976,61864.5129816078,62145.5867782177,58005.7591204513,66159.6247862285,21354.4052658378
8752744035,10733,-2,0,54341.2382036795,56763.1209147116,37110.9034282224,53546.1522224812,55632.2551719873,61833.7043732521,62110.6046498518,57949.7512119753,66140.4606637324,21345.5715179443
8752744035,10733,-2,0,54326.7464767634,56689.5063489328,37060.5169956786,53485.3380737602,55567.9610619749,61829.5430209386,62079.5526875596,57873.3137405336,66131.6999220199,21312.3415379209
8752744035,10733,-2,0,54332.1002633655,56677.7766891955,37060.7725173119,53489.3899168022,55559.2003202624,61858.5386424677,62093.1805080013,57874.4331686413,66147.8099526134,21293.9318126278
8752777872,10734,-2,0,54342.1872840317,56740.2213092908,37105.3062876839,53548.4762525744,55612.3488199850,61860.5828155339,62129.0265428417,57945.8210459015,66159.7829662872,21309.2266075342
8752777872,10734,-2,0,54334.7893243634,56783.6721546455,37127.5001666889,53574.3204406263,55650.8839158233,61831.4898524303,62128.7953566021,57984.3926448303,66143.9892958110,21331.0676233314
8752777872,10734,-2,0,54311.8167127617,56740.6715140732,37090.4982006503,53517.5581349473,55613.0910494912,61817.6795165363,62080.7937926356,57923.4081483537,66118.6926541162,21330.1550460697
8752777872,10734,-2,0,54311.0014770745,56673.6396722756,37052.3768065041,53458.9828424417,55555.6230173965,61840.6764635316,62059.2326338653,57851.9594326094,66125.7255828798,21322.3312170125
8752777872,10734,-2,0,54337.5270561485,56676.2800624862,37066.9415396011,53486.2871541123,55559.7113635290,61876.1696351641,62097.1106740751,57873.5692621669,66156.1448249372,21319.1311127481
8752777872,10734,-2,0,54360.6578478090,56747.3394119322,37117.5713260814,53560.5101047323,55618.1528113695,61876.0357904991,62144.4673501100,57953.0364901175,66172.3400294085,21325.1297872818
8752777872,10734,-2,0,54357.3725696668,56793.3819767102,37136.9788025140,53587.1451930777,55652.9280888895,61844.6553003927,62143.6156113324,57984.9036880968,66155.0740676167,21330.7755986076
8752777872,10734,-2,0,54334.7041504856,56763.6441256750,37106.8029143931,53537.4766546465,55624.6625291698,61819.0909693677,62098.9601639922,57937.5348443651,66128.0617806698,21323.8765145090
8752863142,10735,-2,0,54316.5864499163,56691.4531804244,37057.8035992871,53466.0644419926,55562.9601385807,61823.7755326445,62052.9419346078,57858.9801936762,66117.8044122481,21306.6470558077
8752863142,10735,-2,0,54327.2575200300,56671.7050084808,37053.0825329198,53456.2086075660,55547.3489835568,61855.8009106825,62064.5255819833,57848.0901050197,66138.1244659424,21294.6983775276
8752863142,10735,-2,0,54350.6560010205,56734.9040257792,37103.5784747350,53526.4770567185,55602.9310226440,61874.0767913106,62111.1886992993,57925.1481289993,66158.2741718812,21309.2022721406
8752863142,10735,-2,0,54359.2585626743,56801.6803459435,37145.0581532044,53584.2006104466,55664.1953761476,61859.6459028786,62133.4555844852,57989.5152451927,66154.3440058074,21332.3208961042
8752863142,10735,-2,0,54349.1593743113,56784.3048748803,37123.8741930357,53552.4307540419,55653.2931197942,61835.1644968708,62098.0719221241,57951.6250372861,66134.0117844162,21338.3804091220
8752863142,10735,-2,0,54337.0768513661,56709.8385703239,37072.1493138413,53482.8558636083,55589.1693575373,61827.3163324200,62057.3831439482,57865.5142468701,66123.7300806008,21322.0391922888
8752863142,10735,-2,0,54341.3355452541,56677.6185091368,37055.1632090765,53475.2510530939,55558.7744508736,61835.6755401374,62067.5796738858,57845.1820254790,66134.5593307733,21304.0310009908
8752863142,10735,-2,0,54351.0697027125,56720.1081064425,37085.8623081608,53529.4094716529,55591.8705862320,61838.5957873749,62103.3648702421,57902.5162129087,66138.9518693264,21290.7803791506
8752876656,10736,-2,0,54353.4667389866,56780.3625411097,37118.9219404287,53576.7904830814,55640.3953611619,61828.7886237356,62122.1761295304,57957.5750410325,66129.3758919267,21299.7236363155
8752876656,10736,-2,0,54338.6464842563,56778.1236848942,37108.7132427943,53558.2955839105,55638.8378959686,61808.6632531905,62098.7046423589,57943.1198172068,66111.4772099001,21310.3460356419
8752876656,10736,-2,0,54318.2777597747,56709.3640301478,37062.2813117179,53486.3601602933,55583.3166953655,61803.3703050725,62051.5304817764,57865.4412406892,66098.6037866615,21301.3176045993
8752876656,10736,-2,0,54319.5310325474,56667.8113454975,37044.0175987867,53455.3447010916,55546.9109464712,61833.8260502203,62045.6656519077,57830.6537954724,66117.0986858323,21295.1729177037
8752876656,10736,-2,0,54341.9804331857,56719.8647525060,37089.1232509094,53518.9817554756,55592.2842879240,61864.9388509966,62093.3265203632,57898.2088482334,66146.5201767502,21309.0197566882
8752876656,10736,-2,0,54356.0949615004,56797.2391366031,37139.0229755802,53589.9315956502,55660.5450671007,61844.2172633071,62123.5510792714,57975.5832323304,66147.3719155278,21329.3641457762
8752876656,10736,-2,0,54345.4117236898,56797.2148012094,37126.8674464541,53568.9058155401,55663.5018174287,61816.8642808491,62095.5045380945,57956.2974328661,66122.9270126105,21329.3398103825
8752876656,10736,-2,0,54332.8059897812,56732.1784616908,37083.2705887375,53499.8906391604,55611.7282674470,61822.2910736322,62053.7693379918,57881.4782651018,66113.3266998172,21315.9066730900
8752890272,10737,-2,0,54338.1232732929,56696.9286439948,37072.5143447460,53476.5529966540,55584.1684341431,61854.1947747019,62057.1519577086,57857.9824425367,66134.1334613845,21309.4456260770
8752890272,10737,-2,0,54353.7222606199,56733.2857221017,37104.4302135126,53519.2616125025,55616.8143647190,61866.4719807963,62093.2170110918,57911.3012900148,66155.0984030104,21315.1157727965
8752890272,10737,-2,0,54357.3238988795,56793.9660261577,37138.5971061914,53572.9333231885,55667.4076481088,61841.7837239425,62116.2504611776,57973.6729039292,66148.0168034594,21328.8652702064
8752890272,10737,-2,0,54342.7835011761,56801.8506936990,37128.6439301903,53568.7841385719,55673.3333164616,61805.0494472340,62095.9425751801,57973.2105314500,66120.0919392508,21335.9590374542
8752890272,10737,-2,0,54319.7743864839,56731.7647599988,37074.3881700568,53500.7667133316,55614.1131360243,61792.3342040541,62043.5606403574,57893.9258189517,66094.3815958639,21321.1266150270
8752890272,10737,-2,0,54319.2146724300,56671.8023500554,37044.6259836279,53456.6953154390,55561.0863132699,61825.2599916569,62032.8530671532,57841.4100394639,66107.3766960708,21305.5154600032
8752890272,10737,-2,0,54341.6640730684,56703.0003247094,37078.0384791037,53509.2110949268,55589.8142454689,61855.2655320223,62081.4751836576,57893.2444279296,66137.3457333457,21300.3685242471
8752890272,10737,-2,0,54359.9764567869,56785.4121352912,37134.4235861812,53589.2137015376,55664.5969101427,61851.6395583691,62125.7047616090,57981.8130931038,66147.6517725547,21322.6840802204
8752931773,10738,-2,0,54354.9633656958,56808.8106162817,37137.3438334187,53594.5188173524,55687.3748385953,61823.5200110113,62113.2450400623,57987.5562460042,66126.1027814813,21340.2664021295
8752931773,10738,-2,0,54339.8145831513,56756.2096629161,37094.1120066068,53532.8164267633,55644.4593719007,61813.4329903450,62070.5972626979,57919.0399451942,66111.7692346239,21335.9225343637
8752931773,10738,-2,0,54334.4242934587,56698.4982768849,37060.8698588865,53488.0271347580,55599.4753967463,61831.8792187286,62055.7526725739,57869.3835744598,66119.8607530111,21311.5019668401
8752931773,10738,-2,0,54352.8340187518,56714.3892889357,37078.6711993384,53518.2516936662,55618.2988237314,61864.8050063315,62088.1187461230,57899.4377856125,66144.0988050825,21296.1828365400
8752931773,10738,-2,0,54376.8287168867,56790.5712387441,37130.6881032565,53594.2876311128,55686.9489692065,61863.7585844047,62135.7674468816,57980.1582863359,66157.6901224337,21311.0639297545
8752931773,10738,-2,0,54371.2924148322,56827.7557202350,37143.5006880111,53613.4030828216,55719.1933657873,61830.6259459559,62130.3893248859,58004.9195493706,66142.2493151654,21326.1275384213
8752931773,10738,-2,0,54342.6861596015,56771.4436193385,37093.8929880639,53541.0539575124,55670.0602060162,61797.3472951451,62072.9942989721,57928.5550841098,66109.8832416163,21319.6664914083
8752931773,10738,-2,0,54326.5639613111,56689.3116657836,37041.2433639111,53467.9504350002,55602.4078116807,61807.3613096304,62036.5155438969,57847.3478755135,66104.8214797380,21305.3451122477
8752941771,10739,-2,0,54335.7384047156,56687.5351820475,37052.1577879613,53488.1731471199,55605.7904313974,61831.9035541223,62063.0776260613,57868.8725311932,66124.9468502831,21303.0819206386
8752941771,10739,-2,0,54351.8240999155,56758.1199913173,37102.6172266860,53565.0608233441,55669.1354610577,61835.3591800200,62107.9520919444,57952.3429313986,66133.6345858147,21317.9143430658
8752941771,10739,-2,0,54353.2720558374,56797.6650059919,37118.2648848003,53589.2623723249,55703.2780183428,61813.5059965260,62107.7452410984,57975.6075677241,66117.9747600036,21325.3001350373
8752941771,10739,-2,0,54339.1210244324,56764.3011813034,37086.3855191242,53540.7375973950,55672.3720684126,61801.7763367887,62070.0010455536,57919.0521128911,66101.3050153562,21311.2951159941
8752941771,10739,-2,0,54331.4553754339,56700.9926547336,37047.9477648605,53481.6512616228,55621.2434063626,61812.7637670198,62044.0108451398,57851.8985941252,66105.4298645791,21286.1809897516
8752941771,10739,-2,0,54339.8754216354,56692.9863102241,37054.5913273258,53484.6323473444,55614.6728500782,61843.1708413803,62061.6175024426,57853.8454256169,66126.4678123860,21279.2697379561
8752941771,10739,-2,0,54361.1202202882,56763.6562933718,37107.5329762025,53554.1098962034,55675.6330111611,61856.6404817633,62106.9665085017,57931.7065175869,66144.0988050825,21296.2193396305
8752941771,10739,-2,0,54364.6975231542,56823.4970263470,37143.0018124413,53595.5895746728,55727.9906105902,61842.0879163631,62119.5844101071,57983.0055273924,66136.9685347442,21317.3059582246
8752965865,10740,-2,0,54351.6659198568,56794.9151065099,37113.9575201250,53553.6961945114,55705.7115577074,61819.0301308836,62080.9641403911,57934.2130631324,66111.9760854699,21319.5204790464
8752965865,10740,-2,0,54350.2666347222,56726.7638366046,37068.8153649119,53495.6319452724,55651.5653068453,61842.3677733900,62055.8256787549,57863.1415459896,66117.0013442578,21309.0440920819
8752965865,10740,-2,0,54371.4384271941,56724.1599494845,37078.9997271527,53513.8104843258,55654.2422001464,61867.6157442976,62088.7392986609,57879.0203903436,66153.7964594503,21312.7552396129
8752965865,10740,-2,0,54377.0477354295,56776.6148904882,37116.2815502182,53566.5209469628,55697.8877286503,61850.0212546916,62121.2392168750,57943.2658295687,66158.7852151477,21308.4843780280
8752965865,10740,-2,0,54361.6799343421,56813.5073472554,37128.9359549140,53581.1343508472,55722.4299731422,61821.3054901895,62111.6267363849,57969.0005083492,66132.3326422547,21304.7610628002
8752965865,10740,-2,0,54339.9605955131,56786.3612156434,37098.6140544313,53535.4811523675,55695.4663569825,61803.2729634979,62070.7311073630,57925.7930169310,66102.2905987988,21296.0368241781
8752965865,10740,-2,0,54334.2417780064,56722.8580059244,37055.5039045876,53478.9135298376,55642.3300249567,61818.5555907075,62040.7012316040,57859.6494170015,66099.3338484709,21285.9863066024
8752965865,10740,-2,0,54346.2147916801,56696.1012406108,37048.1911187970,53472.4038120374,55625.5021002506,61847.6242184175,62053.7450025982,57846.5569752200,66120.1527777349,21279.7442781322
8753006551,10741,-2,0,54368.1166459614,56753.4232603437,37093.6252987338,53540.1535479475,55677.7745258020,61860.4976416562,62102.9633362470,57915.9493502012,66141.8599488670,21288.0183119718
8753006551,10741,-2,0,54376.2081643487,56824.8111376039,37136.4190884601,53599.2642191134,55739.7324380244,61847.0280012732,62130.3528217954,57985.2443836079,66140.6796822752,21304.2135164432
8753006551,10741,-2,0,54365.9142928365,56816.4640975833,37119.4086483017,53570.3051006748,55734.3421483318,61827.2554939359,62100.0917597967,57954.3262659808,66117.2446981942,21301.2324307215
8753006551,10741,-2,0,54361.2418972565,56752.7418693216,37072.6360217143,53503.9911529897,55679.7213572936,61835.1036583867,62067.2389783748,57875.3944166903,66115.4925498517,21287.3247532529
8753006551,10741,-2,0,54375.6362825980,56727.1045321157,37061.0645420357,53498.4670186321,55660.1070300151,61860.9600141355,62081.4508482640,57862.4358195739,66139.2682294437,21285.9254681183
8753006551,10741,-2,0,54398.8644158330,56778.9875913687,37103.8583317619,53561.6417005368,55703.8499000935,61872.5679969045,62129.3307352623,57928.9201150145,66161.8149716567,21299.2734315330
8753006551,10741,-2,0,54409.4259766753,56845.2528682664,37145.0946562949,53617.4670935605,55755.3922638355,61860.0839399642,62152.1695021989,57989.1137111976,66156.9478929275,21312.8404134906
8753006551,10741,-2,0,54394.0703432848,56843.4763845303,37137.6115227488,53598.3151387612,55749.3935893018,61837.4520238735,62127.2013883183,57971.4583831075,66131.3835619025,21313.1567736080
8753074602,10742,-2,0,54381.0265722906,56780.6545658334,37097.7623156536,53534.8362644359,55696.3059280633,61839.8125570572,62086.6464548074,57898.4522021698,66120.5664794269,21303.9214917194
8753074602,10742,-2,0,54387.5362900908,56738.6273410070,37082.9907317106,53505.6581274545,55663.3193019763,61885.1250600258,62085.0038157363,57863.6890923467,66144.7680284077,21298.0566618507
8753074602,10742,-2,0,54408.6229086850,56788.8190904016,37132.8052825037,53559.9625583753,55706.7701473310,61908.0003300530,62130.0242939812,57928.8957796208,66178.8497472088,21308.8372412359
8753074602,10742,-2,0,54419.0262894686,56868.4810015014,37187.5112474197,53626.4955246031,55773.4247905271,61892.6568643592,62163.2664417015,58012.1106581929,66182.9502610381,21320.6885779414
8753074602,10742,-2,0,54405.3984690269,56870.9632116533,37175.4895629586,53610.3003201318,55773.7776537350,61859.5485613040,62132.9202058250,57993.0438772714,66154.5143535629,21316.0648531487
8753074602,10742,-2,0,54396.9540874318,56811.0251371035,37132.2699038435,53546.3225702367,55720.7264955869,61868.5648246498,62093.6307127838,57918.0665294484,66144.7436930141,21309.5307999548
8753074602,10742,-2,0,54402.4782217894,56770.8108991037,37118.1310401352,53517.1566009521,55686.6326090891,61896.1368256506,62093.4481973314,57884.5566923980,66163.4576107278,21304.6272181351
8753074602,10742,-2,0,54416.4345700453,56801.5221658848,37150.5701198652,53556.1540692697,55711.6250583634,61912.3076947283,62126.5930034771,57929.1147981636,66183.5951489697,21305.8074847270
8753082559,10743,-2,0,54425.4630010879,56869.7099388805,37195.9191259243,53614.8388710467,55769.3364443946,61906.9539081262,62155.5156188252,57997.2173972816,66188.0728614006,21308.9710859009
8753082559,10743,-2,0,54423.2119771757,56896.3571949228,37205.4099294462,53626.5198599968,55791.4694849155,61886.7190283096,62148.9328948440,58012.1714966770,66174.0313392669,21315.4443006107
8753082559,10743,-2,0,54411.4458143479,56846.7251595820,37168.7243235250,53568.2244245180,55748.4323412528,61877.3620694528,62107.7695764920,57946.0643998380,66157.1912468639,21313.6434814809
8753082559,10743,-2,0,54409.6571629149,56789.9385185093,37138.9621370961,53517.1200978617,55697.1820022346,61908.4748702291,62092.6451293411,57886.9172255817,66170.0038316185,21306.3915341745
8753082559,10743,-2,0,54433.3598363260,56824.0932434913,37180.7946787734,53562.7489609477,55725.0338602623,61950.0032194857,62139.2109050825,57932.9476226629,66207.9062072220,21313.1202705175
8753082559,10743,-2,0,54452.1102571302,56907.7948299363,37243.6773359544,53640.6830590987,55794.8521046323,61952.5584358186,62183.8663524227,58023.2806038764,66221.1933321526,21329.4614873508
8753082559,10743,-2,0,54445.8073901759,56934.4055828881,37252.2677299114,53648.7502420923,55816.0360648011,61920.6425670520,62171.9298418394,58029.1332660482,66201.1774708789,21339.0983032345
8753082559,10743,-2,0,54429.3809994649,56883.3864301095,37209.5226109724,53591.0510237579,55771.2224374022,61908.6087148941,62130.8273619715,57959.4123632528,66184.1913661140,21328.7435932382
8753089266,10744,-2,0,54417.1889672483,56819.3600094272,37169.1866960043,53537.6104993115,55716.8084972100,61912.4050363029,62105.8592480908,57896.9799108542,66186.1625329994,21308.9467505073
8753089266,10744,-2,0,54423.5891757772,56821.7570457013,37178.8478472817,53553.5015113623,55720.4223031664,61929.3059671899,62128.7101827243,57917.2269583676,66201.1409677884,21303.6294669957
8753089266,10744,-2,0,54437.0588161602,56888.6915459243,37225.6204738691,53616.6640255702,55773.1814365907,61938.0180381152,62165.5904717946,57989.4787421022,66212.5907704988,21322.3068816189
8753089266,10744,-2,0,54439.5531940089,56935.0139677293,37251.0874633195,53648.7624097891,55811.3515015242,61927.8580112680,62171.0781030618,58025.3369446395,66202.1873897152,21342.3470782863
8753089266,10744,-2,0,54429.5148441300,56900.3968702680,37221.3617799811,53606.3336509675,55783.0251033204,61914.4492093691,62136.6191856592,57973.2835376309,66187.6834951022,21339.8161973471
8753089266,10744,-2,0,54425.4751687848,56828.4006081667,37180.3931447782,53546.2860671463,55725.2650465019,61923.8548390132,62111.5172271135,57902.4797098182,66193.8160143010,21320.3843855208
8753089266,10744,-2,0,54438.3850951139,56824.3122620341,37192.8285309313,53565.6692081852,55725.7274189812,61947.1803138228,62141.8512952931,57920.0011932432,66218.6746189103,21315.9310084837
8753089266,10744,-2,0,54453.8380700791,56895.7488100816,37244.0180314654,53638.0183334944,55786.7849216387,61948.5674312606,62185.5454945843,58004.2989968326,66231.0613342760,21328.2082145780
8753124281,10745,-2,0,54452.2562694921,56936.6931098908,37259.0573047386,53661.2221313358,55820.9396466207,61928.9166008916,62182.7347566182,58036.7259088657,66214.5010989000,21341.7995319292
8753124281,10745,-2,0,54440.2710881215,56904.2905332513,37225.7786539278,53618.2579938540,55790.2283798396,61912.9890857504,62148.7017086044,57989.6977606451,66195.1422932547,21343.3813325162
8753124281,10745,-2,0,54431.1696508979,56837.8062378108,37182.8996903238,53560.5222724291,55733.8311050653,61917.9048352668,62121.8232663225,57923.3229744759,66192.4532322568,21333.9270320848
8753124281,10745,-2,0,54442.3639319750,56825.0788269340,37186.5256639770,53566.8008039898,55724.5958231766,61950.8306228697,62142.2284938946,57923.7853469552,66214.1117326017,21335.0951309798
8753124281,10745,-2,0,54461.2968682315,56887.1097453373,37235.8413392004,53633.6014595477,55777.9390060484,61972.1605954003,62188.5022449122,57998.6531855067,66235.4295374355,21351.3146708448
8753124281,10745,-2,0,54465.2635373958,56947.7535463029,37274.7292982465,53680.4957631033,55830.0410838443,61957.6567007874,62206.1940760928,58053.3104796354,66232.5457932884,21370.7586503678
8753124281,10745,-2,0,54446.6226258630,56925.3893195423,37250.9414509577,53638.5658798515,55808.7597821009,61939.9283665164,62165.5418010073,58009.4702679823,66210.5465974325,21369.0795082063
8753124281,10745,-2,0,54435.6960341160,56854.2082931281,37204.9597246638,53566.5331146597,55746.7775344849,61951.4511754077,62128.3086487291,57929.6866799143,66209.3784985375,21347.8468772502
8753180439,10746,-2,0,54447.5960416089,56838.5241319233,37205.8844696223,53572.4222799220,55735.4980795300,61980.9700079001,62150.1374968295,57932.8989518756,66235.5390467069,21335.1072986766
8753180439,10746,-2,0,54469.3518835283,56898.9610820429,37250.6250908403,53645.9638395198,55790.6177461379,61977.2710280660,62202.8236240728,58009.8596342807,66251.0528601561,21338.7089369362
8753180439,10746,-2,0,54468.2202877238,56944.3587588893,37271.0059830187,53679.1329810592,55829.0311650080,61943.2744831427,62210.2215837412,58049.8548537377,66231.0369988824,21345.1334808587
8753180439,10746,-2,0,54445.4545269680,56915.2171249983,37237.7638352984,53636.8867376899,55804.3672435479,61912.0521730950,62169.4963024748,58007.4382626129,66197.7826834653,21336.9202855032
8753180439,10746,-2,0,54428.8942915920,56842.8436642955,37186.0876268914,53571.6435473253,55745.0010507487,61909.8011491827,62130.9490389397,57932.6799333328,66183.2666211555,21323.8035083281
8753180439,10746,-2,0,54438.1174057838,56808.8349516754,37171.8149185181,53558.6362794216,55717.4290497479,61945.7080225072,62138.4565078795,57910.9362591102,66198.7804346047,21323.5723220885
8753180439,10746,-2,0,54464.2657862563,56868.1159705967,37221.3739476779,53625.5829473414,55769.6163014215,61976.5044631661,62188.5144126091,57981.9469377688,66227.8733977084,21340.3515760073
8753180439,10746,-2,0,54473.3307203894,56948.2280864790,37274.0479072244,53688.5142753096,55835.2488580845,61970.0799192436,62216.3054321527,58056.0968822079,66234.9306618657,21364.0299140247
8753193214,10747,-2,0,54451.8547354969,56943.5313555053,37264.2894143724,53657.4258099270,55830.2844377807,61940.9626207463,62180.1065341044,58030.5812219701,66213.1991553399,21362.6184611933
8753193214,10747,-2,0,54431.8753773136,56870.8293669882,37214.0246587969,53577.7638988272,55765.1264212939,61945.1604761502,62133.6746030281,57945.0423133049,66205.2171462241,21336.1415529066
8753193214,10747,-2,0,54441.7190440434,56838.4389580456,37204.3513398226,53565.4380219456,55737.2137247820,61970.3597762705,62147.0347341396,57926.0485385642,66227.5692052878,21323.4506451202
8753193214,10747,-2,0,54466.4438039876,56888.0466579927,37244.6020809129,53629.8294735326,55780.5550608654,61988.9641847128,62196.8006141455,57994.7838579170,66249.2763764200,21338.5994276648
8753193214,10747,-2,0,54478.2829729963,56956.6603003773,37285.8140700522,53684.5111030549,55837.4998819967,61975.7135628726,62221.0630016104,58059.4673342278,66245.3583780430,21364.4801188072
8753193214,10747,-2,0,54470.6781624820,56962.8779934538,37277.6130423935,53674.9716287457,55842.8415009020,61949.4435054319,62199.1976504196,58048.9666118696,66224.1865855710,21367.6072168907
8753193214,10747,-2,0,54450.6379658146,56893.7168047122,37225.4866292041,53604.4233225663,55783.3414634378,61929.7805073660,62150.2591737977,57969.0126760461,66203.7935256958,21343.7706988145
8753193214,10747,-2,0,54447.0728306455,56837.9522501727,37194.8240332103,53562.2500853780,55735.9726197061,61959.1533274966,62136.6070179624,57918.6140758054,66214.1360679953,21332.3695668914
8753227699,10748,-2,0,54462.8543334248,56869.4422495504,37229.8304969699,53605.7374338232,55764.2625148194,61987.1025270989,62174.9595983483,57968.5868066573,66241.0753487613,21338.0883843982
8753227699,10748,-2,0,54472.9656894847,56944.2614173147,37282.1272579149,53676.4682554549,55832.0244184264,61979.4247104036,62211.5843657854,58051.3271450533,66246.7454954808,21360.4039403715
8753227699,10748,-2,0,54464.0346000167,56957.8649023628,37278.8419797727,53673.9008714253,55844.7396616064,61956.9753097653,62193.6248452747,58048.4920716935,66227.0459943244,21366.9866643527
8753227699,10748,-2,0,54446.9876567677,56894.9579097881,37230.2685340555,53601.8681062335,55787.7583373845,61948.8229528939,62148.1176591569,57969.0491791365,66214.4037573254,21352.1785773192
8753227699,10748,-2,0,54441.9745656767,56843.2817013811,37200.7740369567,53563.1383272461,55741.5819279415,61969.1186711946,62136.7286949306,57923.4324837473,66226.6687957229,21338.4169122124
8753227699,10748,-2,0,54458.4496271749,56870.4886714772,37227.9810070528,53605.4332414026,55764.7613903892,61994.2084620435,62172.5138912869,57967.3335338845,66249.5562334469,21348.7229514215
8753227699,10748,-2,0,54475.8859367222,56938.6399413825,37275.3985215718,53670.3844070435,55820.9274789239,61985.7640804484,62207.6663674084,58034.9615928264,66254.2651321174,21368.4954587588
8753227699,10748,-2,0,54470.9701872057,56957.6945546072,37281.7622270102,53680.8972970985,55836.4169569795,61955.6125277211,62197.5671790453,58044.7200856784,66230.6719679777,21374.0560962068
8753246721,10749,-2,0,54452.2441017952,56897.7443123606,37234.9774327260,53622.2733338055,55782.9886002299,61932.1167051560,62153.5079488495,57973.0158483008,66203.5988425466,21354.9649798916
8753246721,10749,-2,0,54443.2035030558,56823.6552064057,37185.7590990772,53560.4127631577,55718.4633039779,61939.5511679148,62125.5344138535,57901.9199957644,66202.3455697739,21321.0901119366
8753246721,10749,-2,0,54450.0174132766,56831.8927371548,37198.4378391667,53580.1244320109,55723.3547181007,61966.9163180696,62152.8387255242,57930.0273754254,66222.4709403190,21315.3956298234
8753246721,10749,-2,0,54465.3730466672,56911.7128283133,37256.2709021661,53658.2532133110,55794.9494462069,61982.7464916363,62198.3945824293,58021.0904184482,66237.7292321350,21344.0992266288
8753246721,10749,-2,0,54465.7137421782,56951.4281907434,37277.0654960365,53679.5831858416,55830.1749285093,61976.5653016502,62198.5405947912,58045.9490230575,66228.4574471559,21363.5188707582
8753246721,10749,-2,0,54463.9859292294,56917.4438135169,37257.1469763374,53635.8403157631,55806.4235843109,61979.4977165846,62171.8811710521,57995.5625905137,66227.5327021974,21369.7243961379
8753246721,10749,-2,0,54462.0756008282,56862.7256809042,37224.1603502504,53590.1506141930,55756.5603627305,61978.9014994402,62153.8608120573,57940.4794269963,66235.4052020418,21361.4868653887
8753246721,10749,-2,0,54471.0310256899,56864.0032890706,37233.3226259580,53607.6720976180,55756.0371517671,61984.0119321059,62177.2957961383,57955.4821971789,66249.9577674420,21358.6517920290
8753304339,10750,-2,0,54475.6425827858,56917.2491303678,37267.2218293068,53660.6380818883,55797.6263395079,61970.1650931214,62205.6586974326,58013.4977756307,66245.1271918033,21363.7500569978
8753304339,10750,-2,0,54465.6285683005,56953.1681713891,37281.3606930150,53683.1483210107,55824.1762539756,61945.1848115439,62203.8092075155,58041.1549505093,66224.1135793901,21374.5428040798
8753304339,10750,-2,0,54443.8848940779,56912.4428901227,37243.7868452258,53629.7808027453,55789.1819579128,61933.1266239923,62157.5476241947,57984.0641170160,66200.0215396807,21360.1970895255
8753304339,10750,-2,0,54435.4405124828,56838.4632934392,37198.4500068635,53564.6106185616,55726.8833501794,61954.6999504594,62125.1207121615,57907.6144778775,66206.1053880922,21342.0428858657
8753304339,10750,-2,0,54445.7343839950,56832.0630849104,37205.5194387176,53574.6124653501,55723.7927551863,61979.1691887703,62147.9594790982,57920.9016028081,66232.1564269901,21337.6625150094
8753304339,10750,-2,0,54461.4550482902,56896.5640457688,37249.9071967277,53645.0512622581,55779.7033220877,61971.2601858354,62190.6802626435,58001.3057434141,66239.7977405949,21346.4840952061
8753304339,10750,-2,0,54456.3567833214,56937.9585503604,37263.6201910472,53668.2063893122,55812.3614203605,61942.2037258222,62184.4990726575,58030.9340851780,66216.9954767487,21355.9262279407
8753304339,10750,-2,0,54440.5631128452,56905.8358307479,37230.4753849015,53619.7302851695,55781.8691721222,61928.3082160504,62145.6232813082,57981.3385529277,66197.0647893527,21355.1961661313
8753311750,10751,-2,0,54436.4260959254,56845.2650359632,37196.2598214354,53566.7399655056,55731.2758887324,61953.3128330216,62123.5510792714,57923.4811545346,66204.5965936861,21351.2051615734
8753311750,10751,-2,0,54455.9552493262,56833.7543947687,37204.4000106099,53576.3281106021,55723.9996060323,61988.2949613875,62151.0744094849,57927.7276807258,66236.6341394209,21347.2871631964
8753311750,10751,-2,0,54479.4997426786,56894.5077050057,37255.8937035646,53646.8034106006,55776.9169195153,62000.6573413597,62203.3711704299,58000.9285448126,66259.2417201179,21357.4715254372
8753311750,10751,-2,0,54482.3713191288,56949.7612162787,37286.1912686537,53695.4863655892,55825.2226759024,61966.6121256491,62219.5907102949,58052.8724425498,66247.2443710505,21372.6568110722
8753311750,10751,-2,0,54460.1531047302,56921.5564950431,37251.3794880433,53653.8363393643,55798.3077305300,61932.8832700559,62176.3102126957,58007.0123932241,66210.2180696183,21372.9245004023
8753311750,10751,-2,0,54438.3242566298,56839.8504108770,37191.3075688284,53571.4731995698,55727.0536979349,61935.0977908776,62128.4911641815,57916.4117226805,66194.4365668390,21349.9032180133
8753311750,10751,-2,0,54446.5131165916,56815.1743217201,37182.3521439667,53565.9490652121,55709.9824192923,61966.9284857665,62143.5912759388,57908.6974028947,66214.8539621079,21335.8738635765
8753311750,10751,-2,0,54465.4947236354,56873.8226204067,37224.7809027883,53631.7154665401,55761.7924723644,61968.9848265295,62190.2178901643,57984.7455080381,66230.8058126427,21350.3899258862
8753338161,10752,-2,0,54464.1319415913,56924.5254130679,37246.3055584681,53670.3844070435,55806.2045657681,61943.2623154458,62199.8182029576,58031.2991160827,66213.6615278192,21363.6162123328
8753338161,10752,-2,0,54451.5870461668,56908.2815378093,37222.3108603333,53642.9949214950,55793.8421857960,61925.9355151700,62168.9852592082,58001.1110602650,66192.5140707409,21365.5752115213
8753338161,10752,-2,0,54439.0178153487,56841.5417207354,37178.7018349199,53579.6255564411,55737.8342773200,61927.9918559330,62131.8859515951,57929.0174565890,66186.0651914248,21353.7238748157
8753338161,10752,-2,0,54442.7654659702,56806.6204308536,37168.3592926204,53557.7358698567,55705.6628869201,61964.8478096097,62131.4357468126,57901.2142693486,66207.5655117109,21344.6832760763
8753338161,10752,-2,0,54463.3167059041,56859.5012412461,37217.7844771151,53616.0799761227,55749.4665954827,61994.8290145815,62180.7027512487,57965.7639009943,66239.0311756950,21354.8798060139
8753338161,10752,-2,0,54474.2798007416,56935.7440295386,37267.9640588130,53684.3772583898,55813.6146931333,61974.3386131316,62214.7723023530,58042.4082232820,66240.8563302185,21365.0154974674
8753338161,10752,-2,0,54461.5523898648,56932.7994469075,37255.3583249044,53666.7706010870,55811.8868801844,61936.8621069170,62187.1881336554,58023.8646533239,66212.9071306162,21362.3629395600
8753338161,10752,-2,0,54442.4856089432,56854.1231192503,37193.9844621295,53586.5611436302,55743.4922563427,61929.2207933122,62139.0648927206,57933.5195044135,66193.3171387312,21339.8161973471
8753405733,10753,-2,0,54450.4676180591,56815.3933402629,37178.1177854724,53568.6989646941,55714.7399887501,61976.6261401343,62147.8621375236,57906.8114098872,66215.1216514380,21342.3714136799
8753405733,10753,-2,0,54478.3924822677,56867.3737410905,37223.9291640107,53631.9953235671,55760.5878703789,61994.5491575545,62198.6379363657,57975.7657477828,66246.7941662681,21368.4224525778
8753405733,10753,-2,0,54482.5903376717,56930.8769508095,37260.5052606605,53681.3109987905,55811.4001723115,61963.4606921719,62221.0508339136,58035.6308161517,66241.9514229325,21387.1607056852
8753405733,10753,-2,0,54459.8610800064,56923.3938172634,37241.7061690690,53659.1414551791,55801.4226609167,61921.1901134090,62186.8109350539,58016.1381658413,66208.8552875741,21378.9840134201
8753405733,10753,-2,0,54435.5743571478,56850.5214809908,37188.2413092290,53585.6363986717,55740.4381644401,61907.2824359404,62133.0783858837,57937.2184842477,66184.2400369013,21350.2560812212
8753405733,10753,-2,0,54429.1741486189,56786.1787001910,37148.7936361291,53534.4590658344,55687.0706461747,61931.5326557085,62111.6267363849,57880.8820479575,66185.7366636106,21325.9450229689
8753405733,10753,-2,0,54451.7695616191,56821.3190086157,37181.9992807589,53581.2195247249,55719.1690303936,61978.9501702275,62156.8297300821,57933.3613243548,66216.4235949980,21336.3605714494
8753405733,10753,-2,0,54480.5704999991,56916.0323606855,37245.6119997492,53668.5592525200,55800.1450527503,61970.3841116642,62206.9728086895,58030.3013649432,66231.2438497284,21362.3994426505
8753412099,10754,-2,0,54473.5862420227,56938.0072211477,37246.5854154951,53672.1973938701,55816.8756358818,61931.8125127355,62190.2057224674,58032.6010596428,66207.7845302537,21364.2732679612
8753412099,10754,-2,0,54453.1688467538,56871.8636212182,37190.7356870777,53599.4710699594,55756.5968658210,61910.0931739065,62139.2109050825,57946.6362815887,66182.9137579476,21344.2452389906
8753412099,10754,-2,0,54446.1967564742,56806.7542755186,37152.2735974204,53555.4240074603,55697.6322070170,61927.9188497521,62123.3320607286,57889.5454480954,66187.9998552196,21323.3533035456
8753412099,10754,-2,0,54465.4947236354,56825.1640008117,37176.0006062252,53595.5895746728,55713.2068589504,61952.6436096963,62159.2145986594,57925.7200107500,66208.9647968456,21328.3542269399
8753412099,10754,-2,0,54478.8183516565,56890.8330605652,37221.4469538588,53655.7953385528,55765.9538246778,61949.1636484050,62192.7852741939,57994.6013424647,66213.2478261272,21349.5868578959
8753412099,10754,-2,0,54471.6272428342,56917.5533227883,37231.9233408234,53664.5560802653,55787.9773559273,61917.6493136335,62181.5909931168,58012.0741551024,66196.4320691179,21360.3917726747
8753412099,10754,-2,0,54444.7366328555,56860.7788494125,37184.0191184315,53598.2421325802,55740.0974689291,61899.2395883404,62130.8395296683,57944.6164439161,66172.3156940148,21348.7959576024
8753412099,10754,-2,0,54436.4260959254,56790.3278848077,37141.7242042749,53539.4843246223,55686.4987644240,61925.0959440892,62106.4189621447,57880.0546445735,66182.1350253510,21332.8441070675
8753453220,10755,-2,0,54450.4189472718,56802.5807555084,37163.3948723166,53568.9058155401,55698.8124736088,61963.9960708321,62139.8436253173,57913.4063015652,66216.0098933060,21336.9081178064
8753453220,10755,-2,0,54470.9945225994,56885.9659818360,37227.7863239036,53654.5420657800,55775.3594543220,61966.9041503728,62190.4490764039,58010.4436837282,66236.6098040273,21361.1461698777
8753453220,10755,-2,0,54466.0422699925,56923.5763327157,37243.3366404433,53675.1176411076,55806.8007829124,61929.1842902217,62184.2678864179,58032.7592397014,66215.7300362791,21377.1466911999
8753453220,10755,-2,0,54444.0309064398,56870.4400006899,37195.5540950196,53611.6022636918,55758.2760079825,61893.4355969559,62132.0806347443,57955.7498865090,66182.9380933413,21365.4170314626
8753453220,10755,-2,0,54428.3710806286,56793.0169458055,37144.4984391506,53547.1864767112,55690.3194212264,61897.5239430884,62103.0971809120,57883.5589412585,66172.3643648021,21340.8139484866
8753453220,10755,-2,0,54435.7812079938,56786.8965943036,37146.0315689503,53557.6871990694,55684.4667590546,61915.8363268069,62122.1517941367,57893.7554711962,66184.7267447742,21328.6827547541
8753453220,10755,-2,0,54448.0949171786,56846.8955073375,37185.7347636835,53618.0511430080,55734.1596328795,61920.4722192965,62159.9933312561,57961.2740208667,66191.7475058411,21337.1149686524
8753453220,10755,-2,0,54447.6082093057,56892.9745752060,37207.7339595394,53652.2423710805,55772.3175301162,61899.0084021008,62167.8658311005,58001.2084018396,66179.6649828959,21353.7238748157
8753464899,10756,-2,0,54432.5932714262,56859.5255766397,37175.3678859904,53611.8091145378,55742.7743622301,61877.1673863036,62129.2698967782,57951.6615403765,66155.6581170642,21354.3930981410
8753464899,10756,-2,0,54425.8158642958,56783.1367759853,37126.1982231289,53546.1035516939,55679.6483511127,61892.8758829020,62096.4536184467,57874.5305102159,66155.2444153723,21338.6115953616
8753464899,10756,-2,0,54447.8150601517,56775.8483255884,37138.5119323137,53564.2090845665,55680.5852637681,61934.3312259778,62129.0265428417,57888.7910508924,66188.7785878163,21335.7521866082
8753464899,10756,-2,0,54473.9512729274,56849.4020528830,37198.2674914111,53646.4383796959,55746.3881681865,61943.7855264092,62179.9970248330,57978.5521503552,66209.9868833787,21350.8766337591
8753464899,10756,-2,0,54474.2189622575,56900.2995286934,37225.9124985929,53682.2965822331,55788.8047593113,61920.2410330568,62183.8663524227,58019.7398041009,66196.3590629370,21363.5432061518
8753464899,10756,-2,0,54457.7804038497,56875.8302903825,37199.4964287903,53639.4784571132,55763.7514715529,61905.2139274805,62146.5723616604,57976.4714741985,66175.5401336729,21357.0821591388
8753464899,10756,-2,0,54445.8682286600,56810.5505969274,37160.1460972649,53578.8589915413,55708.0355878006,61911.3221112856,62116.6641628696,57912.1286933988,66175.9294999713,21339.7431911661
8753464899,10756,-2,0,54448.6789666261,56784.0980240343,37150.2050889605,53569.2951818385,55688.5307697934,61922.8935909642,62124.8895259219,57899.7784811235,66189.6303265939,21328.3177238494
8753495005,10757,-2,0,54456.1134293849,56829.3740239125,37183.8731060696,53620.4725146757,55730.1199575343,61931.6543326768,62161.6968088113,57957.8670657562,66203.5380040625,21337.3583225889
8753495005,10757,-2,0,54455.9795847199,56887.9249810245,37219.0255821911,53668.7296002755,55782.1125260587,61911.4681236475,62180.2282110726,58016.1990043254,66195.6046657340,21361.7667224157
8753495005,10757,-2,0,54439.8208833390,56870.2453175407,37198.5960192254,53637.4586194406,55766.6717187904,61886.8893760651,62145.9761445161,57983.4313967812,66168.6897203616,21365.5630438244
8753495005,10757,-2,0,54421.1434687158,56790.8875988615,37144.7296253902,53561.4591850845,55698.3744365232,61893.5207708337,62100.3959522173,57894.2665144627,66158.9433952064,21348.1997404581
8753495005,10757,-2,0,54428.8334531079,56764.7757214795,37138.1469014090,53552.5037602228,55676.2657313959,61920.6182316583,62112.4054689816,57880.3101662068,66181.9646775954,21346.4232567219
8753495005,10757,-2,0,54440.8064667817,56819.1044877939,37180.1862939323,53612.5878471345,55722.6489916850,61931.7881773418,62157.9856612803,57950.7976339021,66199.4983287173,21359.5765369875
8753495005,10757,-2,0,54447.1945076137,56887.3774346674,37218.3928619563,53664.4344032970,55781.8570044254,61927.2739618205,62178.9140998158,58013.3274278752,66197.4906587415,21378.0349330679
8753495005,10757,-2,0,54443.6902109287,56890.2855142081,37206.4806867666,53648.3243727035,55780.9322594669,61903.5469530158,62156.4890345711,57994.0659638045,66178.6672317564,21375.0538473463
8753528127,10758,-2,0,54426.9231247067,56822.4384367234,37156.6783036703,53582.9838407643,55723.2573765261,61898.1566633232,62114.0359403558,57919.1737898593,66164.1146663562,21353.3223408206
8753528127,10758,-2,0,54428.0060497239,56778.3913742244,37138.4389261327,53554.1342315971,55684.9047961402,61920.4843869933,62110.2031158566,57882.9748918110,66177.8884991598,21338.4777506966
8753528127,10758,-2,0,54441.5365285911,56813.9697197346,37172.4354710560,53598.2908033675,55712.7201510775,61932.0193635814,62142.8490464326,57930.1490523936,66196.8457708099,21341.7265257483
8753528127,10758,-2,0,54444.4811112222,56883.7027902269,37216.3121857996,53657.4866484111,55769.3607797882,61915.4712959022,62165.3836209486,58000.4175015461,66191.8570151125,21354.0645703268
8753528127,10758,-2,0,54434.2237428005,56891.0642468048,37210.0944927230,53646.0733487912,55775.9678391631,61896.4775211616,62139.3204143539,57990.8901949337,66167.7163046158,21354.6242843806
8753528127,10758,-2,0,54426.6676030734,56831.9535756389,37167.7022369919,53580.2582766759,55725.2163757146,61900.1278302085,62098.9723316890,57913.4306369589,66157.6171162527,21349.1244854166
8753528127,10758,-2,0,54430.3179121203,56789.0137735508,37146.9319785152,53554.1098962034,55691.7065386642,61919.6813190030,62100.7974862125,57879.6531105784,66174.6518918049,21344.7684499540
8753528127,10758,-2,0,54447.1336691296,56824.9936530562,37178.7748411008,53602.6346711333,55724.4254754211,61936.1320451076,62143.4574312737,57937.0359687954,66195.1057901642,21354.3444273537
8753556991,10759,-2,0,54460.2747816984,56893.0597490838,37220.4978735067,53664.1667139669,55783.2319541664,61928.7827562265,62172.2705373504,58006.6960331067,66195.2274671325,21369.3471975364
8753556991,10759,-2,0,54458.9485027447,56911.2017850468,37223.4302884410,53664.9332788668,55796.4339052193,61912.8552410853,62159.0199155102,58007.4869334002,66179.9570076197,21377.4508836204
8753556991,10759,-2,0,54443.5076954764,56856.4958201308,37183.1065411698,53603.4742422141,55745.5607648026,61904.8488965758,62115.8124240920,57938.2892415681,66167.8623169777,21360.0632448605
8753556991,10759,-2,0,54437.7645425759,56793.6983368276,37148.9883192782,53551.4573382960,55695.1256614715,61923.4046342308,62097.1958479529,57881.2592465590,66178.3873747295,21332.8927778548
8753556991,10759,-2,0,54457.0016712530,56819.5060217891,37180.3809770814,53592.1461164719,55722.6489916850,61966.9649888569,62141.0847303932,57926.4014017721,66215.3771730712,21341.8238673229
8753556991,10759,-2,0,54480.8381893292,56905.4586321463,37241.0247780470,53677.1374787802,55799.4514940314,61967.0501627347,62194.3792424777,58023.6943055684,66234.2127677532,21378.0349330679
8753556991,10759,-2,0,54475.6304150889,56930.9499569904,37244.5534101256,53689.2686725127,55821.4506898873,61927.2739618205,62185.4968237970,58036.1418594182,66209.2203184788,21394.7046777154
8753556991,10759,-2,0,54453.8380700791,56863.7234320436,37187.4747443292,53617.4549258637,55762.9362358657,61904.5690395489,62132.6525164949,57953.1338316921,66178.7889087247,21375.8325799430
8753615253,10760,-2,0,54447.7055508803,56796.2535531604,37146.0802397375,53569.2708464448,55703.8255646999,61918.3063692620,62115.2648777349,57894.3151852500,66177.1462696536,21348.5526036660
8753615253,10760,-2,0,54464.3387924373,56812.2784098762,37167.7387400824,53603.8636085124,55719.5462289951,61947.1316430355,62151.9139805657,57930.4045740269,66200.2283905267,21346.4597598124
8753615253,10760,-2,0,54472.5641554896,56880.9163876545,37215.4117762347,53661.2829698199,55776.0043422536,61946.6814382531,62183.8541847259,58002.7536993361,66207.1274746253,21358.7613013004
8753615253,10760,-2,0,54462.4284640360,56915.3509696634,37234.4177186721,53672.6962694398,55805.5840132301,61936.0712066235,62178.4273919428,58027.3324469184,66196.6024168734,21370.6491410964
8753615253,10760,-2,0,54446.3914396234,56877.1078985489,37208.6465368011,53624.1714945099,55774.2035231238,61927.2131233364,62140.7196994885,57977.5422315189,66187.3914703785,21367.6923907684
8753615253,10760,-2,0,54440.2102496374,56805.4401642618,37164.2709464878,53564.6592893489,55714.8008272342,61926.7142477666,62113.2572077592,57906.8965837649,66189.5329850193,21346.7761199298
8753615253,10760,-2,0,54458.5834718400,56806.4744184917,37170.5494780485,53584.7968275909,55712.6349771997,61943.8098618029,62142.3988416501,57923.8461854393,66209.0499707233,21340.6679361247
8753615253,10760,-2,0,54471.2622119295,56874.3214959764,37211.3234301022,53654.0553579071,55766.7690603650,61933.2239655669,62181.1529560312,58002.0479729203,66210.7656159754,21351.0104784242
8753646044,10761,-2,0,54462.0025946472,56911.1287788658,37222.8827420840,53672.6841017430,55793.2703040453,61904.3378533092,62169.7761595017,58023.0980884240,66184.2887076886,21361.2070083618
8753646044,10761,-2,0,54442.7532982733,56866.0231267432,37183.6540875268,53614.9118772277,55756.4021826718,61893.2287461099,62122.6263343128,57958.2199289641,66160.4156865220,21356.8388052024
8753646044,10761,-2,0,54430.1597320616,56794.9029388131,37141.0914840401,53555.3266658857,55699.3478522690,61910.7502295349,62096.9403263196,57890.1538329366,66164.0781632657,21343.0771400956
8753646044,10761,-2,0,54444.4689435254,56792.4085609644,37150.2415920510,53572.1059198046,55700.1509202594,61944.6494328837,62126.6781773549,57905.8623295350,66191.5406549951,21344.5129283207
8753646044,10761,-2,0,54460.1531047302,56856.1672923166,37196.4788399782,53636.1566758805,55754.0781525786,61951.5728523759,62168.8149114527,57980.0001062772,66207.0179653539,21353.8820548744
8753646044,10761,-2,0,54461.0535142951,56910.4960586310,37224.7809027883,53673.4750020365,55800.1328850535,61934.2825551905,62181.3841422708,58028.4153719357,66198.4519067905,21369.4567068078
8753646044,10761,-2,0,54441.4513547133,56882.3886789700,37197.4157526335,53631.3504356355,55776.4423793392,61905.6276291725,62141.3524197233,57983.9789431383,66171.9993338975,21367.6315522843
8753646044,10761,-2,0,54431.8875450105,56812.0958944239,37153.2835162567,53564.1969168696,55717.0396834496,61917.9900091446,62106.2121112987,57904.8767460923,66170.9285765770,21354.3079242632
8753655671,10762,2,0,54444.5906204936,56793.9781938545,37154.9504907215,53567.7255489483,55704.8233158394,61948.9446298622,62126.3983203279,57905.2417769970,66194.5460761104,21348.5769390596
8753655671,10762,2,0,54465.8962576306,56861.9347806107,37208.0624873536,53646.9372552656,55766.9759112110,61955.4300122688,62182.9537751610,57994.9663733694,66217.9202217072,21364.5774603818
8753655671,10762,2,0,54461.6618991362,56911.3964681959,37229.4289629747,53682.1627375681,55810.0008871769,61923.0517710229,62189.3539836898,58039.9138454333,66202.9296192214,21371.4887121772
8753655671,10762,2,0,54441.8772241021,56880.1984935419,37196.2598214354,53632.2508452004,55779.5451420290,61905.5302875979,62147.6309512840,57989.9411145815,66176.0025061522,21362.1560887140
8753655671,10762,2,0,54435.8907172652,56814.8579616027,37155.5102047753,53572.4587830124,55725.5449035288,61917.0895995797,62116.5911566886,57919.3076345243,66179.1417719325,21347.8103741598
8753655671,10762,2,0,54445.1138314570,56788.7339165239,37146.7737984565,53562.8341348255,55701.5258700003,61929.0747809503,62124.2203025966,57899.0240839205,66194.4609022326,21327.3321404067
8753655671,10762,2,0,54462.2581162805,56838.8769951312,37186.1728007691,53619.1340680252,55742.5310082937,61947.9225433290,62164.1668512664,57956.6381283771,66209.0378030265,21331.3474803583
8753655671,10762,2,0,54471.0796964772,56913.1121134480,37233.6511537723,53678.2325714943,55805.9733795285,61941.4736640129,62192.3594048051,58029.8511601608,66212.0797272322,21364.5287895945
8753685666,10763,2,0,54454.7749827344,56908.6587364108,37218.6118804991,53654.0796933007,55802.3474058752,61908.6695533782,62160.0420020434,58007.4017595224,66186.1138622121,21374.8104934099
8753685666,10763,2,0,54434.5157675242,56829.0454960983,37157.8707379590,53570.5241192176,55734.0987943954,61902.5248664826,62107.4775517683,57917.1661198835,66165.6477961559,21354.5026074124
8753685666,10763,2,0,54444.1282480143,56792.9439396246,37140.4100930181,53552.6862756751,55702.8034781668,61943.3353216268,62115.3378839159,57895.3251040863,66185.8218374883,21345.0118038905
8753685666,10763,2,0,54469.8507590980,56852.6143248443,37189.8352775128,53625.6437858255,55752.6666997472,61961.3556806216,62169.7761595017,57971.5435569852,66213.4425092764,21358.3475996084
8753685666,10763,2,0,54474.1216206829,56917.6628320598,37226.0950140452,53677.6241866531,55803.3694924084,61932.1045374592,62189.1349651470,58029.1210983514,66202.9661223118,21369.5053775951
8753685666,10763,2,0,54453.9354116536,56905.6411475987,37206.6510345222,53651.5488123615,55786.4077230372,61893.5572739241,62155.9779913045,57997.3269065530,66169.7483099852,21359.5278662003
8753685666,10763,2,0,54430.8289553869,56833.2798545926,37157.7003902035,53584.2371135370,55723.1843703452,61882.6915206612,62111.6389040817,57917.2634614581,66151.8131248682,21339.6215141979
8753685666,10763,2,0,54432.8974638468,56783.5504776773,37133.6448535845,53552.4307540419,55681.8142011472,61908.2193485958,62107.5870610397,57877.7671175708,66161.6811269916,21333.3308149405
8753715715,10764,2,0,54455.9552493262,56819.1409908844,37171.0361859214,53604.9465335297,55714.9468395961,61944.8319483360,62152.6562100719,57932.3149024281,66188.9124324813,21348.5039328787
8753715715,10764,2,0,54475.0950364287,56904.3027009482,37228.5650565003,53680.7269493430,55789.8146781476,61947.5575124243,62194.2332301158,58020.1413380961,66204.2315627814,21373.8614130577
8753715715,10764,2,0,54456.8191558007,56914.8885971841,37221.9336617318,53665.8458561285,55796.5799175812,61901.1499167416,62165.7243164597,58011.6117826232,66181.2467834829,21373.4963821530
8753715715,10764,2,0,54426.1930628973,56838.5362996202,37159.3795323650,53576.3037752085,55727.6134119887,61881.2192293457,62102.1602682566,57916.1927041377,66156.4368496609,21344.2574066875
8753715715,10764,2,0,54423.4796665058,56782.3702110855,37126.1617200384,53532.9989422156,55680.0863881983,61906.4063617691,62086.8168025629,57864.3826510656,66164.0781632657,21323.9251852963
8753715715,10764,2,0,54446.8903151932,56820.8444684396,37160.9248298615,53587.9482610680,55713.6205606423,61936.3145605599,62132.5430072235,57919.1981252529,66190.4942330683,21327.6241651305
8753715715,10764,2,0,54466.9183441637,56895.5054561452,37208.7195429820,53658.3262194919,55775.8218268012,61926.9332663095,62169.0704330860,57993.9686222299,66193.6700019391,21344.2817420811
8753715715,10764,2,0,54459.3743721335,56913.4771443527,37206.4198482825,53657.9125177999,55789.3888087588,61898.6068681056,62156.0023266982,57997.0105464356,66173.2404389734,21352.2637511970
8753767670,10765,2,0,54439.8573864295,56854.2447962186,37160.0122525998,53596.7333381742,55739.8176119021,61884.4558367006,62115.6907471238,57933.0936350247,66152.0199757142,21348.2240758517
8753767670,10765,2,0,54435.5013509669,56787.2129544210,37121.2459705219,53548.6100972395,55683.6150202770,61900.9917366829,62097.7190589163,57878.4363408961,66158.1038241257,21331.3839834488
8753767670,10765,2,0,54454.8844920058,56801.3274827356,37142.9409739572,53581.4142078741,55698.6299581565,61932.8589346622,62133.4555844852,57912.2503703670,66184.2643722950,21333.3308149405
8753767670,10765,2,0,54470.3374669710,56876.4751783141,37196.9168770638,53657.3893068366,55766.7203895777,61922.1026906707,62174.8500890769,57997.7892790323,66191.8691828093,21348.8081252992
8753767670,10765,2,0,54463.0733519677,56907.6244821808,37206.1643266492,53670.6155932831,55789.9606905095,61895.5406085063,62164.0816773886,58014.1426635624,66169.7361422884,21353.6995394221
8753767670,10765,2,0,54443.7267140192,56853.6729144679,37159.8662402379,53603.8879439061,55740.9005369194,61890.6613620803,62117.8322617646,57938.7881171379,66150.4138397336,21344.0870589319
8753767670,10765,2,0,54440.2954235151,56797.1539627253,37132.9391271688,53555.5456844285,55690.8547998866,61925.9355151700,62103.2918640612,57883.8509659823,66169.7604776820,21337.5651734348
8753767670,10765,2,0,54460.7979926618,56816.7804577007,37162.8716613532,53589.5543970487,55709.7634007495,61953.0451436915,62141.5227674789,57920.2080440892,66203.9395380577,21346.3989213283
8753776694,10766,2,0,54473.4280619640,56881.0989031068,37210.6055359896,53651.4271353933,55765.9294892842,61941.5223348002,62176.5535666321,57991.0118719019,66207.6628532855,21357.5201962245
8753776694,10766,2,0,54466.2491208385,56910.9340957167,37216.5555397360,53665.1401297128,55789.7295042699,61905.2625982678,62167.4034586213,58008.8862185348,66183.3761304269,21358.2380903370
8753776694,10766,2,0,54447.8028924549,56867.5440888461,37175.6964138046,53614.4130016579,55752.5328550821,61882.4725021184,62123.8187686015,57951.6250372861,66155.6094462770,21348.4795974850
8753776694,10766,2,0,54439.5775294026,56795.9493607399,37127.8043591095,53550.2649040074,55692.0837372657,61892.4013427259,62091.8785644413,57877.9252976295,66152.7987083109,21329.9481952237
8753776694,10766,2,0,54452.0494186461,56789.7073322697,37133.8638721273,53558.5997763311,55686.5839383018,61916.0796807434,62115.0458591921,57886.3818469215,66173.8609915114,21323.9008499027
8753776694,10766,2,0,54473.4523973576,56865.8041082004,37189.6284266669,53638.7118922133,55750.2331603826,61933.8323504081,62168.5472221226,57976.1307786875,66192.8304308583,21348.1510696708
8753776694,10766,2,0,54475.9954459936,56919.9868621529,37219.2202653402,53676.4195846676,55794.7669307546,61915.2279419658,62176.4683927543,58020.4211951230,66178.9349210865,21370.0894270426
8753776694,10766,2,0,54462.0999362218,56884.9195599092,37187.9249491116,53629.9876535913,55761.9749878167,61898.8502220421,62140.8657118504,57965.1311807595,66156.3273403895,21366.6338011448
8753814823,10767,2,0,54448.8249789880,56808.6402685262,37141.1644902211,53565.9734006058,55693.6412024591,61899.2395883404,62110.3977990058,57889.2534233717,66152.2146588633,21342.6877737973
8753814823,10767,2,0,54453.1201759665,56791.2282943726,37137.5750196583,53567.5065304055,55677.4581656846,61918.7444063476,62126.8363574136,57891.4679441934,66173.6663083622,21326.9427741084
8753814823,10767,2,0,54469.1693680760,56846.9198427312,37178.3489717120,53625.8749720651,55724.4254754211,61929.2694640995,62164.5805529583,57957.5385379420,66190.4820653715,21338.0883843982
8753814823,10767,2,0,54474.1702914702,56903.2441113246,37211.1287469530,53669.6056744468,55773.3031135589,61924.1711991306,62179.0601121776,58008.0831505445,66185.1891172535,21359.5035308066
8753814823,10767,2,0,54467.5510643985,56890.0421602717,37196.5518461591,53641.8389902968,55761.7681369707,61901.5757861304,62149.4439381106,57978.1871194506,66169.3832790805,21369.2863590523
8753814823,10767,2,0,54447.0363275550,56814.1887382775,37144.8634700553,53561.7268744146,55696.0625741268,61895.1877452984,62105.0196770100,57889.4602742177,66158.2863395780,21351.1443230892
8753814823,10767,2,0,54441.6095347720,56782.5527265378,37129.4226627869,53540.6889266077,55665.3269719521,61914.4248739755,62107.6113964333,57867.8626123569,66171.9263277165,21334.6570938942
8753814823,10767,2,0,54457.9994223925,56847.4673890882,37176.0857801029,53610.6531833396,55720.9333464329,61934.4285675524,62157.0852517154,57947.9747282392,66191.5649903888,21338.7697754203
8753843020,10768,2,0,54465.7259098751,56912.7714179369,37211.5789517354,53663.7165091845,55776.6127270947,61920.4113808124,62177.2471253510,58007.5842749748,66185.6514897328,21348.3092497295
8753843020,10768,2,0,54457.0868451308,56898.6568896223,37192.0984691219,53629.3792687501,55765.7956446191,61903.1454190206,62144.4673501100,57974.2204502863,66167.1809259556,21353.6265332411
8753843020,10768,2,0,54439.0664861360,56826.6362921273,37143.5250234047,53558.2347454264,55706.8553212088,61901.0647428639,62104.5816399244,57899.5716302775,66157.5684454655,21344.2330712938
8753843020,10768,2,0,54440.3684296960,56793.9538584609,37133.8760398241,53540.5550819427,55683.6393556706,61924.8404224559,62107.0273469858,57879.5070982165,66171.1840982103,21344.3547482620
8753843020,10768,2,0,54455.4198706660,56840.0937648135,37173.4453898923,53592.9126813718,55722.2596253866,61938.9427830737,62143.9684745403,57936.1720623209,66184.0088506617,21356.5467804786
8753843020,10768,2,0,54462.1851100996,56906.7240726159,37213.8664787382,53648.4460496717,55775.7974914076,61923.1734479912,62171.1632769395,58001.3179111110,66178.3873747295,21368.9213281476
8753843020,10768,2,0,54451.8547354969,56907.0769358238,37203.9498058275,53636.0715020028,55774.3860385761,61899.0692405849,62155.1505879206,57987.6779229724,66157.8726378860,21372.8514942214
8753843020,10768,2,0,54436.3287543508,56831.2843523137,37149.5723687257,53561.7025390209,55708.0964262847,61886.6460221287,62109.9840973138,57896.9677431574,66144.8166991950,21352.0934034414
8753881703,10769,2,0,54436.0854004144,56780.9100874667,37123.6673421897,53533.8020102059,55664.3657239031,61904.0458285855,62109.4000478663,57857.8120947812,66158.4201842430,21329.8995244364
8753881703,10769,2,0,54452.5604619126,56826.1617519512,37160.9613329520,53593.5454016066,55702.5844596239,61930.2185444516,62156.4646991774,57925.2819736644,66183.5221427888,21330.6174185489
8753881703,10769,2,0,54462.9760103931,56896.2111825609,37203.6334457101,53654.4812272959,55764.6883842082,61919.7543251839,62183.6838369704,57994.5040008901,66182.1593607446,21349.8180441355
8753881703,10769,2,0,54454.0570886219,56901.2121059551,37198.0241374747,53640.8777422478,55771.3197789767,61910.4460371144,62160.8329023369,57981.5454037737,66164.7960573783,21360.9149836381
8753881703,10769,2,0,54447.6690477898,56851.4827290398,37168.7608266155,53586.7923298699,55731.0812055833,61913.8651599216,62128.4059903037,57920.8042612336,66162.0583255931,21361.2678468459
8753881703,10769,2,0,54449.2386806800,56804.9412886920,37148.3799344371,53553.7935360860,55693.1666622830,61925.7043289303,62120.2292980387,57884.0821522219,66175.9781707586,21348.2970820327
8753881703,10769,2,0,54463.3897120851,56827.0499938193,37171.3038752515,53587.0600192000,55712.7931572584,61938.2127212643,62153.3010980035,57923.0066143585,66196.1765474846,21346.0460581204
8753881703,10769,2,0,54474.3041361352,56895.2864376024,37215.1805899950,53651.6339862393,55769.2877736073,61927.6876635125,62187.2854752299,57997.5580927927,66196.5902491766,21362.8496474329
8753915802,10770,2,0,54459.8854154001,56906.7362403127,37211.8588087624,53645.9638395198,55775.4932989870,61893.0705660512,62167.1114338975,57993.8591129585,66168.6653849680,21367.5950491939
8753915802,10770,2,0,54438.1660765711,56837.9279147790,37156.6539682767,53569.0396602052,55713.5475544614,61879.0533793112,62114.2914619891,57908.8920860439,66146.7270275962,21353.7360425125
8753915802,10770,2,0,54434.2602458909,56778.0263433197,37122.4992432947,53521.3301209624,55662.7230848320,61907.6231314514,62098.5099592098,57853.0788607171,66157.0939052894,21338.5872599680
8753915802,10770,2,0,54454.1300948028,56809.8205351180,37154.2569320026,53566.8494747770,55690.4045951042,61932.6399161194,62138.4443401827,57902.1025112167,66182.6339009207,21343.7828665114
8753915802,10770,2,0,54469.1693680760,56885.9173110487,37201.9178004580,53636.2661851519,55754.6500343293,61928.4663961091,62172.8180837075,57976.9825174651,66187.4401411658,21349.0271438421
8753915802,10770,2,0,54462.8056626376,56910.0093507581,37206.0426496810,53643.1896046442,55770.8574064975,61901.5514507368,62160.9910823956,57984.3318063461,66166.6698826890,21348.4917651818
8753915802,10770,2,0,54444.7731359460,56857.7490929036,37166.1569394954,53588.9460122075,55726.8103439984,61884.6140167593,62122.8696882493,57922.0453663095,66146.8973753517,21341.0816378167
8753915802,10770,2,0,54436.5356051968,56787.3833021765,37125.5289998036,53531.9646879857,55670.1332121972,61894.2386649462,62100.6636415474,57860.7201743219,66149.0510576894,21327.9161898542
8753930874,10771,2,0,54445.3693530903,56788.1376993795,37136.3582499760,53549.3644944425,55672.5424161681,61918.9390894968,62126.4226557216,57880.6751971115,66170.1620116772,21325.8233460007
8753930874,10771,2,0,54460.2991170920,56861.2533895886,37187.0367072436,53621.3850919375,55737.1407186011,61922.2487030326,62173.0005991598,57967.6498940019,66182.2810377128,21345.0239715873
8753930874,10771,2,0,54453.1810144506,56895.8461516562,37198.6081869222,53641.2914439398,55764.8830673574,61892.1458210927,62165.0429254376,57991.3403997162,66159.6612893190,21354.3809304441
8753930874,10771,2,0,54438.9448091678,56848.3921340467,37157.2866885115,53582.6188098596,55721.2862096408,61885.1128923290,62119.5600747134,57921.9236893413,66137.1023794093,21341.6900226578
8753930874,10771,2,0,54434.9659723067,56786.2152032815,37120.8322688299,53527.4869755548,55666.4950708471,61905.4086106297,62100.0917597967,57859.3938953682,66147.5179278897,21331.4326542361
8753930874,10771,2,0,54449.1778421959,56796.2535531604,37141.6755334876,53553.4528405750,55677.3973272005,61928.5394022901,62131.1315543921,57885.9681452295,66174.8952457413,21333.1726348818
8753930874,10771,2,0,54460.4572971507,56861.8374390361,37188.3264831068,53616.4085039369,55734.1352974858,61923.2951249594,62168.6688990908,57959.6192140987,66184.4955585346,21332.6007531311
8753930874,10771,2,0,54457.3058636736,56905.5924768114,37206.8943884586,53642.6177228935,55769.8474876612,61913.9503337994,62169.2407808415,57993.6035913252,66173.4594575162,21341.4710041150
8753969370,10772,2,0,54443.4590246891,56875.1367316636,37179.9064369053,53601.7951000525,55744.6846906313,61895.4554346285,62133.8692861772,57949.4591872516,66155.5486077928,21351.3876770257
8753969370,10772,2,0,54435.0024753971,56803.5663389510,37134.0463875797,53537.3549776782,55685.0994792894,61900.3955195386,62101.3572002663,57874.7495287587,66153.5287701202,21344.5859345017
8753969370,10772,2,0,54445.7465516918,56786.3612156434,37133.2798226798,53538.1702133654,55670.8754417034,61923.1004418102,62115.8124240920,57869.7364376677,66171.8411538388,21340.3272406136
8753969370,10772,2,0,54462.0634331314,56851.8599276413,37184.4571555171,53609.5094198383,55725.4232265606,61928.5515699869,62159.9081573783,57951.1504971100,66184.9822664075,21345.1213131619
8753969370,10772,2,0,54460.2382786079,56901.6866461312,37211.1044115593,53649.0422668160,55766.8664019395,61906.4063617691,62165.2619439804,57994.1511376823,66171.9384954133,21352.4219312557
8753969370,10772,2,0,54443.0331553003,56869.6734357901,37177.9839408073,53600.6026657639,55739.3917425133,61890.0773126328,62123.3928992127,57942.8156247863,66152.3120004379,21343.8437049955
8753969370,10772,2,0,54427.6653542129,56798.0178691998,37129.3739919996,53530.6627444256,55677.0079609021,61890.8073744421,62087.8510567929,57867.0473766698,66148.9780515085,21325.2514642500
8753969370,10772,2,0,54436.4625990159,56782.6135650219,37131.2356496136,53535.3716430961,55667.7970144072,61924.9620994241,62105.7375711226,57872.8757034480,66173.8731592082,21328.5489100890
8754002568,10773,2,0,54455.5293799374,56839.2420260359,37176.6089910663,53598.2056294898,55717.2952050829,61930.6444138404,62146.3168400271,57941.0634764438,66188.2918799434,21345.6323564285
8754002568,10773,2,0,54456.7096465293,56892.3783580617,37206.2860036175,53643.7614863949,55763.3986083450,61906.5158710406,62159.0077478134,57989.4422390118,66176.5257171156,21353.3466762142
8754002568,10773,2,0,54439.6262001899,56875.4287563873,37184.5544970917,53613.7802814231,55749.2232415463,61884.6748552434,62127.1162144405,57958.6336306561,66150.4016720367,21349.1123177198
8754002568,10773,2,0,54422.7982754837,56800.4270731707,37130.7246063470,53539.2166352921,55685.8782118860,61879.2845655508,62080.9763080879,57874.0316346462,66137.1510501966,21328.9991148715
8754002568,10773,2,0,54427.6166834256,56770.6648867418,37118.1918786194,53522.1696920432,55658.5860679122,61909.1684289480,62085.1011573109,57851.2172031032,66157.7752963114,21316.0891885423
8754002568,10773,2,0,54445.7952224791,56830.8341475312,37166.9356720921,53589.4692231709,55710.5664687398,61923.8548390132,62133.9301246613,57925.5739983882,66180.9060879718,21326.5655755069
8754002568,10773,2,0,54443.6172047478,56891.3319361349,37199.3382487316,53635.0615831665,55762.0723293913,61895.2607514793,62146.0613183938,57983.8572661700,66169.1764282345,21339.6093465011
8754002568,10773,2,0,54420.5350838747,56871.7297765531,37171.2308690706,53594.3119665064,55744.5873490567,61871.0592024985,62105.9079188781,57945.1153194858,66140.3268190673,21336.3240683589
8754034224,10774,2,0,54406.5178971346,56803.3108173177,37125.7236829528,53531.9038495016,55687.0463107810,61883.8961226467,62071.2178152359,57875.4065843872,66132.1987975896,21322.0270245919
8754034224,10774,2,0,54419.1844695273,56776.6148904882,37120.6740887712,53525.2481193394,55667.7361759230,61914.1571846454,62085.1376604013,57863.6525892562,66157.0452345021,21319.0337711735
8754034224,10774,2,0,54435.4526801796,56818.1554074417,37157.2623531178,53575.4033656436,55704.7138065680,61924.2928760989,62128.2113071546,57920.3905595416,66177.4382943773,21333.5741688769
8754034224,10774,2,0,54437.2413316126,56880.5878598402,37195.4202503546,53631.7398019338,55759.8821439632,61909.0102488893,62154.7612216222,57985.0618681555,66175.1507673746,21354.8919737107
8754034224,10774,2,0,54421.5084996205,56879.6509471849,37187.1583842118,53619.1340680252,55760.6000380757,61881.3530740107,62129.2090582940,57973.5755623547,66151.5941063254,21361.6815485379
8754034224,10774,2,0,54405.6053198729,56808.4577530738,37136.6746100934,53547.3081536794,55700.0292432911,61877.8122742352,62081.7793760782,57889.3629326431,66136.8711931696,21340.9234577580
8754034224,10774,2,0,54408.8662626215,56760.8455554057,37115.6975007707,53515.6356388493,55658.0141861615,61904.8975673631,62077.3259990410,57849.9030918463,66153.9424718122,21325.6895013357
8754034224,10774,2,0,54425.6090134498,56800.4514085644,37151.6043740952,53569.5142003813,55693.3005069480,61917.7831582986,62118.6353297549,57909.0867691931,66175.4306244015,21332.3695668914
8754059190,10775,2,0,54429.6486887950,56863.5530842881,37189.5067496986,53625.9723136397,55748.4566766464,61889.4932631853,62139.5150975031,57970.0712656696,66165.3801068258,21342.2132336212
8754059190,10775,2,0,54416.7752655564,56863.1028795057,37176.5724879758,53610.6410156428,55747.3007454483,61869.7329235448,62112.4784751625,57954.8981477314,66138.5259999375,21335.9225343637
8754059190,10775,2,0,54407.8441760883,56808.9931317341,37137.3925042060,53555.3266658857,55703.1076705873,61875.1110455405,62078.0803962440,57890.9325655332,66130.4588169439,21328.8409348128
8754059190,10775,2,0,54408.9392688024,56761.8311388483,37116.9872766339,53521.6708164735,55666.7992632677,61903.3887729571,62073.9798824147,57853.8819287074,66149.5621009560,21323.6696636630
8754059190,10775,2,0,54426.9839631908,56790.4252263822,37149.2803440020,53560.9359741211,55694.4564381462,61934.8179338507,62113.7682510257,57899.1335931919,66180.2490323434,21332.8319393707
8754059190,10775,2,0,54439.6383678867,56867.3859087874,37203.3170855927,53634.0394966333,55761.8289754548,61926.5317323143,62154.8950662873,57984.1979616811,66191.4433134205,21356.9726498674
8754059190,10775,2,0,54422.3724060949,56885.8443048678,37205.5316064144,53635.7551418854,55775.3959574124,61887.5951024809,62138.5660171509,57992.9830387872,66166.1223363320,21366.1835963624
8754059190,10775,2,0,54393.4862938373,56814.3712537298,37147.1875001484,53553.7326976019,55710.6638103144,61863.7585844047,62078.3115824837,57904.4387090067,66134.2916414432,21342.3714136799
8754121989,10776,2,0,54387.6944701495,56745.7454436484,37108.7010750975,53495.4494298200,55650.7987419455,61886.2201527399,62057.4561501292,57842.3104490288,66138.4894968471,21325.1297872818
8754121989,10776,2,0,54404.5710656430,56767.1362546631,37134.1072260638,53532.4757312522,55670.0845414099,61905.9561569867,62090.4792793066,57880.8090417765,66161.4621084488,21323.5844897853
8754121989,10776,2,0,54421.8005243442,56838.7309827693,37180.3323062941,53603.6932607569,55732.9306955004,61904.8610642726,62127.2865621960,57958.3781090228,66166.7063857795,21338.5142537870
8754121989,10776,2,0,54422.4454122759,56869.8316158488,37191.4292457967,53622.8330478594,55761.3666029756,61889.2134061583,62126.8120220199,57979.5012307074,66153.7477886630,21347.1533185313
8754121989,10776,2,0,54406.4813940442,56823.2293370169,37153.5025347995,53572.9211554917,55722.2231222962,61871.9596120634,62090.0655776146,57922.7024219379,66136.0924605730,21333.1117963976
8754121989,10776,2,0,54394.7760697005,56754.3358376054,37112.5825703840,53514.6622231034,55663.2827988858,61886.8285375810,62067.2998168589,57856.5709897053,66136.7251808077,21316.0040146646
8754121989,10776,2,0,54412.8207640889,56764.8122245700,37134.3384123034,53537.2089653164,55673.0534594347,61932.8711023591,62102.5618022518,57880.9307187448,66167.6676338285,21324.2902162010
8754121989,10776,2,0,54437.6793686982,56844.2429494301,37192.9137048090,53619.6937820791,55741.7401080002,61937.2149701248,62157.8031458280,57967.9419187256,66186.4910608136,21348.1875727613
8754127985,10777,2,0,54437.8132133632,56888.1805026578,37212.4915289972,53648.5433912463,55777.1846088454,61898.6920419834,62157.6693011629,57998.4463346608,66166.8402304445,21360.3187664937
8754127985,10777,2,0,54408.9636041960,56834.2289349448,37161.9347486978,53577.0703401083,55725.7152512844,61863.5882366492,62096.9524940164,57920.0741994242,66131.2862203279,21343.7828665114
8754127985,10777,2,0,54385.6624647801,56753.3380864659,37108.8470874593,53500.4503532143,55652.5995610753,61872.7018415696,62053.4651455712,57834.6934708176,66123.4258881803,21304.3960318955
8754127985,10777,2,0,54397.4894660920,56751.9388013313,37121.8543553631,53521.1232701164,55652.8429150118,61908.8520688306,62079.2119920486,57852.4461404823,66145.8022826377,21302.4126973134
8754127985,10777,2,0,54426.9474601003,56824.9206468753,37179.2493812769,53600.9798643654,55719.3637135428,61931.7273388577,62133.0905535806,57937.4131673969,66166.6577149922,21337.3218194984
8754127985,10777,2,0,54436.6572821651,56876.9253830965,37210.4960267182,53639.2716062672,55764.6275457241,61910.1905154811,62145.9639768192,57980.5476526342,66162.6180396470,21369.1403466904
8754127985,10777,2,0,54412.2245469446,56841.2861991021,37176.1831216775,53586.3056219969,55731.5435780625,61870.2683022050,62101.7709019583,57931.3171512886,66135.3502310668,21366.3661118147
8754127985,10777,2,0,54388.4975381399,56760.5413629851,37119.7980146000,53506.6072078067,55662.0173584163,61873.9916174328,62057.6021624910,57847.5547263594,66126.9180171685,21341.6656872642
8754147759,10778,2,0,54393.2429399008,56738.2379747087,37114.8700973867,53499.1240742606,55644.8609058959,61909.0589196766,62069.4413314998,57841.2275240115,66147.4449217088,21325.1662903723
8754147759,10778,2,0,54418.7829355322,56809.4190011229,37169.8924224200,53578.7616499667,55707.4150352626,61928.2352098695,62126.1671340883,57930.2220585745,66171.8776569292,21337.1149686524
8754147759,10778,2,0,54424.2462314057,56869.8802866361,37203.7672903751,53629.9146474104,55759.7239639045,61905.7614738375,62142.1554877137,57983.4070613876,66160.5130280966,21349.2826654753
8754147759,10778,2,0,54411.3484727733,56847.8689230834,37175.7937553792,53591.6837439927,55737.6639295645,61884.9425445735,62104.2044413229,57937.3036581255,66140.4363283388,21344.0018850542
8754147759,10778,2,0,54400.2880363613,56780.4963857747,37131.2599850072,53527.7424971881,55680.9746300664,61900.8822274115,62075.3183290652,57868.3249848362,66142.9793769747,21332.4790761629
8754147759,10778,2,0,54408.4768963231,56761.7216295769,37128.1328869237,53526.9029261073,55668.4419023388,61925.3758011161,62094.6041285296,57872.4741694528,66165.0637467084,21326.7480909592
8754147759,10778,2,0,54425.8158642958,56816.7439546103,37171.5593968848,53586.8896714444,55720.5439801346,61938.4560752008,62139.8922961046,57944.3122514955,66182.7190747985,21337.2853164079
8754147759,10778,2,0,54435.6473633288,56882.1209896399,37208.7317106789,53639.7218110496,55774.5198832412,61924.0860252529,62162.3903675302,58003.8366243533,66181.0886034242,21357.9582333101
8754201715,10779,2,0,54426.8866216162,56879.0668977374,37201.0295585900,53619.8276267441,55770.9425803752,61912.7944026012,62139.5759359872,57980.9370189325,66161.5351146297,21369.6635576538
8754201715,10779,2,0,54417.2011349452,56811.9377143652,37157.7733963844,53552.6497725847,55717.1978635083,61914.4248739755,62102.5009637677,57902.8204053293,66157.4224331036,21355.6463709137
8754201715,10779,2,0,54426.4485845306,56773.1592645905,37142.8923031699,53532.7069174919,55685.5253486782,61944.6250974900,62110.0692711916,57876.7206956440,66175.4427920983,21326.3952277514
8754201715,10779,2,0,54448.3869419024,56824.8719760880,37186.7933533071,53598.9843620864,55730.2903052898,61955.4543476624,62159.0077478134,57946.9769770997,66197.8800250398,21323.0491111251
8754201715,10779,2,0,54448.2774326310,56886.7082113422,37218.2468495944,53649.2612853588,55781.7474951540,61928.0161913267,62172.6842390424,58004.8830462801,66184.1305276299,21342.3592459831
8754201715,10779,2,0,54429.3809994649,56874.9177131208,37195.9191259243,53616.2746592718,55766.5622095190,61893.6059447114,62133.8084476931,57970.1686072442,66154.9158875580,21352.4340989525
8754201715,10779,2,0,54408.5133994136,56799.0277880361,37138.3902553454,53539.9101940111,55697.5348654424,61882.1561420010,62083.2394996970,57881.0523957130,66135.3502310668,21338.8671169949
8754201715,10779,2,0,54406.0068538681,56752.7418693216,37115.4541468342,53510.8050632106,55659.3769682057,61905.4329460233,62077.6058560679,57846.2041120121,66145.2425685838,21329.0477856588
8754235793,10780,2,0,54419.8171897621,56789.3788044555,37149.4141886670,53553.5988529369,55690.5384397692,61920.8737532916,62112.4663074657,57893.4512787756,66164.4675295641,21335.9347020606
8754235793,10780,2,0,54430.6829430250,56862.1659668503,37197.2454048780,53615.0213864991,55750.7685390428,61917.0530964892,62144.9905610734,57964.6323051898,66167.8501492808,21350.0005595879
8754235793,10780,2,0,54422.8104431805,56877.3999232726,37196.0529705894,53613.7194429390,55763.3012667704,61904.9584058472,62130.9368712429,57965.5083793610,66151.0952307556,21360.6229589143
8754235793,10780,2,0,54412.9911118444,56822.5114429043,37154.4394474549,53549.7903638313,55716.9058387845,61903.2184252015,62092.3409369205,57892.6238753916,66142.9915446716,21354.3687627473
8754235793,10780,2,0,54414.1592107394,56769.4967878468,37127.5488374762,53513.2142671815,55670.5712492828,61922.9422617515,62086.2570885091,57845.8999195915,66159.2597553238,21334.1460506276
8754235793,10780,2,0,54429.3809994649,56800.6339240167,37157.7733963844,53564.3429292315,55697.3036792028,61934.3068905842,62129.4159091400,57899.0484193141,66181.6969882653,21332.4912438597
8754235793,10780,2,0,54437.3021700967,56867.0087101858,37197.6104357827,53627.9678159187,55753.1777430137,61917.6736490272,62158.5940461214,57969.7062347650,66176.7569033552,21350.0492303752
8754235793,10780,2,0,54425.0249640023,56873.8956265876,37189.6405943637,53616.5666839956,55756.8402197574,61886.4391712827,62133.9909631455,57954.9954893060,66148.7712006625,21355.4030169773
8754257003,10781,2,0,54405.3619659364,56814.4807630012,37146.8833077279,53552.1874001054,55704.7138065680,61880.5865091109,62090.3941054289,57879.4949305197,66129.2542149585,21348.4309266977
8754257003,10781,2,0,54399.3024529186,56758.2660036792,37117.4739845068,53510.5617092741,55658.1845339170,61903.1089159301,62075.3183290652,57831.2500126167,66140.0226266468,21333.7445166324
8754257003,10781,2,0,54412.9911118444,56775.2034376567,37140.1059005975,53541.8205224123,55674.7326015962,61928.3447191409,62107.0151792890,57866.5850041905,66163.8956478134,21324.7769240739
8754257003,10781,2,0,54432.9948054214,56850.1442823893,37191.5630904617,53615.1673988609,55738.0776312565,61922.6015662405,62149.7116274407,57950.6394538434,66171.8654892324,21335.4479941876
8754257003,10781,2,0,54428.9064592888,56878.8357114977,37201.5892726438,53628.7222131217,55761.3787706724,61888.6293567108,62141.6079413566,57969.4142100412,66147.2502385596,21343.3448294257
8754257003,10781,2,0,54412.6017455461,56826.0765780735,37161.0100037393,53563.8197182681,55715.9324230387,61885.8186187447,62096.3076060848,57896.9555754606,66129.7165874377,21342.1158920466
8754257003,10781,2,0,54407.9415176629,56762.5246975672,37127.1594711779,53511.0484171470,55662.2120415654,61910.8840742000,62079.3823398041,57835.2653525683,66143.0402154589,21326.7602586561
8754257003,10781,2,0,54430.0502227902,56784.4752226358,37155.5710432594,53554.5722686827,55685.4888455877,61944.1505573139,62121.7502601416,57881.5391035859,66177.9006668566,21330.6295862458
8754291917,10782,2,0,54442.1935842195,56851.4340582525,37198.2674914111,53622.7965447689,55743.4922563427,61929.0869486471,62158.6670523024,57958.2199289641,66180.2977031307,21343.2231524575
8754291917,10782,2,0,54435.4648478764,56876.3413336490,37201.2729125264,53632.1291682321,55764.9682412352,61901.3811029813,62146.0613183938,57971.7625755280,66159.0042336906,21351.5215216908
8754291917,10782,2,0,54415.2056326662,56829.0454960983,37159.2700230936,53573.6268819074,55721.7120790296,61883.3120731992,62097.4148664957,57910.7050728705,66139.7427696198,21347.8103741598
8754291917,10782,2,0,54403.9261777113,56763.7049641591,37120.7470949522,53513.1899317879,55666.6289155121,61900.6753765655,62069.8428654949,57845.4132117186,66140.8256946371,21332.2113868327
8754291917,10782,2,0,54415.6923405391,56766.7225529712,37135.7011943476,53528.1196957896,55669.9750321385,61933.6376672589,62096.2832706912,57862.9103597500,66167.1200874715,21329.8630213459
8754291917,10782,2,0,54436.9128037983,56847.0901904867,37197.7442804478,53609.4242459605,55740.0244627481,61955.6733662052,62154.1163336906,57955.4578617853,66189.5694881098,21354.7824644393
8754291917,10782,2,0,54442.8263044543,56903.3414528991,37227.2752806370,53654.4447242054,55787.4419772671,61922.2487030326,62169.2772839320,58003.7636181724,66178.2778654581,21379.7384106232
8754291917,10782,2,0,54416.9577810087,56852.0181077000,37177.2173759075,53589.7490801978,55738.6981837944,61875.5004118389,62116.5911566886,57929.0174565890,66141.0203777862,21366.4147826020
8754314757,10783,2,0,54391.4907915583,56760.4318537137,37112.0836948142,53506.6072078067,55656.5418948459,61872.2394690903,62071.2543183264,57836.3482775855,66124.5818193785,21335.4844972781
8754314757,10783,2,0,54396.6377273144,56747.1447287830,37112.1201979047,53513.3359441497,55647.3431160478,61907.8786530847,62091.6230428080,57845.4132117186,66146.1673135423,21322.1365338634
8754314757,10783,2,0,54418.6004200798,56814.1522351870,37163.6990647372,53583.6652317864,55705.0545020790,61924.0373544656,62136.8747072925,57923.7245084711,66167.9596585522,21334.6935969846
8754314757,10783,2,0,54428.2250682668,56869.2962371886,37195.8582874402,53624.5000223241,55750.9632221920,61913.5974705915,62149.8576398026,57971.0446814155,66163.8591447229,21355.5733647328
8754314757,10783,2,0,54420.0970467890,56849.6454068195,37176.4629787044,53592.0001041101,55734.2448067572,61885.1980662068,62119.4018946548,57935.8678699004,66143.7946126619,21361.7058839316
8754314757,10783,2,0,54400.6530672660,56773.0862584096,37123.8255222484,53519.0060908692,55666.3490584852,61879.0533793112,62077.5085144934,57854.4051396708,66131.1402079660,21340.5097560660
8754314757,10783,2,0,54401.7116568896,56742.8616995014,37110.9642667065,53504.6725440118,55641.3201061204,61899.5559484578,62085.0524865236,57834.4501168811,66143.9406250238,21327.4538173750
8754314757,10783,2,0,54414.1592107394,56800.4392408675,37153.9040687947,53569.1126663861,55690.8547998866,61914.6803956087,62132.1049701379,57909.9506756675,66163.2872629722,21340.8504515770
8754354217,10784,2,0,54413.8306829252,56861.6792589774,37186.7446825198,53616.6640255702,55746.2543235215,61896.9155582473,62145.1852442226,57968.8179928969,66155.0740676167,21363.0199951884
8754354217,10784,2,0,54394.5935542481,56834.8859905733,37156.9338253036,53574.7219746215,55724.2551276656,61869.9519420876,62103.1823547898,57925.3428121485,66129.9964444647,21358.6882951195
8754354217,10784,2,0,54378.3253435959,56754.8590485688,37101.1327676736,53498.2236646957,55655.2034481954,61865.5229004441,62058.6850875083,57837.6258857519,66116.1252700865,21335.5818388527
8754354217,10784,2,0,54382.0608265205,56724.7805020225,37093.6374664307,53487.8081162152,55630.1014896497,61893.2530815035,62067.6648477636,57821.6740352171,66131.1888787533,21323.9981914773
8754354217,10784,2,0,54404.0113515891,56780.3747088065,37140.6291115609,53553.7205299051,55679.5388418413,61918.6227293794,62117.8444294614,57891.9303166727,66153.1150684282,21337.0297947746
8754354217,10784,2,0,54416.2277191993,56848.7206618610,37183.1552119570,53611.7239406601,55738.8320284595,61909.4604536717,62148.9328948440,57957.1005008564,66153.7356209662,21360.3552695842
8754354217,10784,2,0,54410.4115601180,56849.7792514846,37175.6477430173,53599.8361008640,55741.8861203620,61889.5784370630,62130.1094678589,57945.1761579699,66138.8423600549,21366.7676458099
8754354217,10784,2,0,54400.5313902977,56784.1588625184,37126.5997571240,53534.2400472916,55688.1657388888,61883.6649364071,62090.2845961574,57870.8558657754,66132.0406175309,21350.3047520085
8754370645,10785,2,0,54404.4128855843,56738.6516764006,37098.2855266170,53502.4580231900,55646.1263463655,61895.4432669317,62084.9916480395,57829.5952058488,66141.0933839672,21328.8044317223
8754370645,10785,2,0,54423.9177035914,56785.3756322007,37131.9170406356,53559.9747260721,55682.6659399248,61913.8773276184,62130.3041510081,57890.7257146872,66158.8947244192,21332.4304053756
8754370645,10785,2,0,54432.8001222722,56861.1073772267,37177.8500961422,53624.6582023828,55743.9546288219,61905.2504305710,62159.8473188942,57962.4177843680,66157.3859300131,21349.3921747467
8754370645,10785,2,0,54412.7964286953,56854.2082931281,37162.7013135977,53594.2389603255,55737.2380601757,61867.7982597500,62121.7867632320,57936.8899564335,66130.6413323963,21350.8279629718
8754370645,10785,2,0,54386.6358805259,56774.9479160235,37108.6889074006,53512.7397270054,55669.2571380259,61853.8297437972,62068.6504312063,57851.2537061936,66110.8809927558,21337.4069933761
8754370645,10785,2,0,54381.3672678016,56719.2198645744,37081.4332665173,53477.0762076174,55623.9689704509,61877.6662618734,62060.8509375428,57812.1102255142,66119.4105482287,21325.3488058246
8754370645,10785,2,0,54402.2957063371,56751.4642611552,37112.2905456602,53522.1940274368,55652.0276793246,61902.3910218176,62099.6415550143,57857.4835669670,66139.0492109009,21335.9468697574
8754370645,10785,2,0,54420.0362083049,56821.9152257600,37154.9018199342,53587.1451930777,55711.5885552729,61891.3305854055,62133.8327830868,57924.2842225249,66140.7526884561,21352.5801113144
8754400605,10786,2,0,54411.9446899177,56838.7553181630,37150.4484428970,53591.1361976356,55725.6544128002,61858.4169654995,62119.9129379213,57926.5839172245,66118.0112630941,21355.1231599503
8754400605,10786,2,0,54391.1500960473,56773.4391216174,37097.8596572282,53523.7271572365,55671.6055035127,61845.0324989942,62072.7022742483,57850.8886752889,66097.1923338300,21334.7544354687
8754400605,10786,2,0,54384.4091920073,56709.7655641430,37060.0302878057,53472.9513583944,55615.5732596431,61858.2222823503,62054.8279276154,57795.3796423827,66104.8701505253,21314.6655680141
8754400605,10786,2,0,54400.3610425422,56739.0410426990,37090.8632315550,53519.4684633485,55638.3268527020,61885.4292524464,62095.3220226421,57845.3645409313,66129.7287551346,21316.3325424788
8754400605,10786,2,0,54418.1137122069,56819.3113386399,37144.2064144268,53595.3948915237,55704.7624773552,61884.6626875466,62136.4975086910,57931.0007911712,66137.2848948616,21330.6174185489
8754400605,10786,2,0,54410.8982679909,56837.9279147790,37145.5935318646,53596.2101272108,55721.2862096408,61857.3705435727,62124.2811410807,57933.5438398072,66117.4272136466,21336.2388944811
8754400605,10786,2,0,54397.7571554221,56785.6433215308,37106.0971879774,53537.2211330132,55677.7380227115,61853.2091912592,62088.8609756292,57871.2817351642,66106.0139140266,21336.1415529066
8754400605,10786,2,0,54396.8202427667,56728.3699725852,37075.1790703503,53493.1253997268,55631.4399363002,61865.6567451091,62075.5495153049,57821.0048118918,66115.8454130596,21329.2424688079
8754432205,10787,2,0,54407.8076729979,56736.2789755202,37089.3909402395,53513.3237764529,55638.7162190003,61884.4193336101,62100.0187536158,57843.6002248920,66134.3403122304,21328.5367423922
8754432205,10787,2,0,54423.5770080804,56807.6790204772,37140.4222607149,53581.3412016932,55701.6110438781,61890.0286418455,62140.4763455521,57922.3860618205,66147.0433877136,21349.3678393531
8754432205,10787,2,0,54414.7675955806,56835.5187108081,37146.9806493024,53595.9059347902,55723.6467428245,61848.3907833174,62127.5420838293,57936.5249255288,66121.4912243854,21355.0136506789
8754432205,10787,2,0,54388.7287243795,56772.1980165415,37091.9218211786,53526.6960752613,55669.5856658401,61823.9458804001,62070.7311073630,57856.7170020671,66090.1107342791,21334.9004478306
8754432205,10787,2,0,54379.2744239481,56694.0570675445,37042.8251644981,53465.1031939436,55604.6588355929,61840.6521281380,62042.6845661861,57786.1686958877,66086.5090960195,21306.7809004728
8754432205,10787,2,0,54396.1996902288,56705.3851932867,37058.9230273948,53494.3056663187,55615.9747936382,61874.0767913106,62076.2430740238,57818.1940739257,66112.4019548587,21303.8119824480
8754432205,10787,2,0,54419.4643265542,56784.9619305087,37112.5338995967,53574.6124653501,55687.1314846588,61882.3508251502,62125.0720413742,57906.4585466793,66128.6579978141,21326.5047370228
8754432205,10787,2,0,54420.6080900556,56827.4758632081,37130.8219479216,53596.8185120520,55724.6323262671,61856.2024446777,62125.3640660980,57932.9476226629,66114.9936742820,21342.0672212593
8754476670,10788,2,0,54394.3502003117,56781.5793107920,37089.6099587823,53541.6501746567,55684.5154298419,61822.1815643607,62079.7717061024,57868.1181339902,66086.9227977114,21328.8044317223
8754476670,10788,2,0,54372.1928243971,56703.4018587046,37037.5078809864,53475.1415438225,55617.9216251299,61821.8530365465,62043.7431558097,57791.4373086120,66078.1133852116,21301.0012444819
8754476670,10788,2,0,54372.7403707541,56686.3427477588,37034.4416213870,53474.5209912846,55601.5682405999,61848.2204355618,62057.1154546181,57789.4661417267,66093.8462172037,21289.0647338986
8754476670,10788,2,0,54391.7341454948,56751.1479010378,37084.6820415690,53542.7087642803,55656.2620378190,61856.9081710934,62101.8074050488,57867.4610783618,66110.1022601592,21305.9169939984
8754476670,10788,2,0,54393.3646168690,56802.6902647798,37113.3856383743,53580.3191151600,55701.9882424796,61835.0063168121,62109.0593523552,57914.8055866998,66097.5330293411,21329.7535120745
8754476670,10788,2,0,54374.4560160062,56765.2259262619,37079.9366398080,53525.7591626060,55670.2670568622,61811.3888172788,62061.8851917727,57857.8242624780,66070.1678791863,21329.5831643190
8754476670,10788,2,0,54363.5415919560,56694.2152476032,37034.3199444188,53456.3424522311,55606.1189592117,61828.2289096817,62027.6574606098,57776.8117370309,66068.6834201739,21313.6799845714
8754476670,10788,2,0,54383.5209501393,56691.5991927863,37046.8770075401,53475.1050407321,55604.6831709866,61862.6634916907,62060.9847822078,57789.3079616680,66098.3117619377,21315.9675115741
8754500622,10789,2,0,54401.9063400387,56754.4453468768,37090.0723312615,53544.5095834101,55655.0087650462,61851.0676766184,62103.7907396309,57861.4867392217,66108.5934657531,21325.2757996437
8754500622,10789,2,0,54400.8477504151,56798.8817756742,37102.5320528082,53577.9707496732,55688.5186020966,61819.9305404485,62106.5893099002,57897.5396249081,66086.4725929290,21324.8134271644
8754500622,10789,2,0,54383.2410931123,56772.6360536271,37071.2610719733,53543.3779876056,55664.1102022698,61798.7952510671,62071.9965478326,57858.5056535001,66061.3341312928,21315.3591267330
8754500622,10789,2,0,54375.5146056298,56699.9340651100,37021.4343534833,53482.5395034909,55606.4961578132,61806.2905523100,62039.0585925329,57785.1466093546,66054.4837179815,21300.4658658217
8754500622,10789,2,0,54385.7111355674,56668.9551089988,37012.3694193502,53468.7778383841,55583.0733414290,61836.1500803135,62047.8193342454,57769.2434296070,66078.8677824147,21294.1629988674
8754500622,10789,2,0,54401.6994891927,56725.6565761937,37060.8576911897,53530.8209244843,55634.9198975916,61853.2213589561,62097.1593448624,57847.3965463007,66107.6443854009,21307.4501237981
8754500622,10789,2,0,54402.1861970657,56791.7271699423,37101.5343016688,53582.5944744659,55692.5826128355,61834.0815718536,62118.1851249725,57913.1386122351,66104.1157533223,21321.4916459317
8754500622,10789,2,0,54380.4668582367,56773.2931092555,37076.9677217832,53545.4586637623,55675.1463032882,61804.5749070579,62082.8988041859,57874.0803054335,66078.0038759402,21318.6079017847
8754523612,10790,2,0,54354.2698069769,56693.7650428208,37017.5163551063,53466.0036035085,55603.8435999058,61801.2166227348,62034.6417185861,57784.9154231149,66062.1493669799,21299.4194438949
8754523612,10790,2,0,54359.5627550949,56662.4210558049,37004.2048947820,53457.1820233119,55579.6663863186,61823.8728742191,62047.3934648566,57770.7765594067,66079.8168627668,21292.8975583978
8754523612,10790,2,0,54379.6151194591,56712.2112712044,37042.8008291044,53519.1399355343,55624.2488274778,61838.7661351304,62093.0344956394,57836.1779298300,66098.8228052043,21306.7930681696
8754523612,10790,2,0,54392.5007103946,56782.1876956331,37083.3435949185,53578.4696252430,55684.1382312404,61835.1523291740,62120.6186643370,57902.0538404294,66097.9832341235,21324.4483962597
8754523612,10790,2,0,54388.9355752255,56792.6032441136,37084.7428800531,53573.2740186996,55692.0594018721,61825.5641840775,62106.7596576557,57899.0727547078,66085.5235125768,21332.8441070675
8754523612,10790,2,0,54376.4028474978,56728.2969664043,37041.1338546397,53505.7919721195,55637.4386108339,61810.1720475965,62064.1483833818,57822.7204571438,66073.2706418761,21318.4132186355
8754523612,10790,2,0,54371.6452780401,56672.8731073758,37011.8097052964,53464.1054428041,55587.4902153757,61823.9093773096,62050.8734261479,57772.0906706636,66079.3179871971,21295.1729177037
8754523612,10790,2,0,54384.7133844279,56708.2202666465,37042.2046119601,53513.1290933038,55613.5412542737,61834.5804474233,62089.1286649593,57822.2580846646,66096.4257689302,21293.7371294786
8754552708,10791,2,0,54388.5827120176,56775.8726609820,37083.2097502534,53573.4200310614,55667.1521264755,61816.6330946095,62110.9818484533,57888.5963677432,66087.5190148558,21311.1126005418
8754552708,10791,2,0,54374.9670592727,56779.3891253638,37073.8406236997,53554.7912872255,55668.2228837960,61799.5374805732,62081.5360221418,57871.6954368562,66065.3738066380,21317.8900076721
8754552708,10791,2,0,54359.0273764347,56717.1391884177,37030.1342567117,53484.5715088603,55617.0820540491,61805.2319626864,62035.6516374224,57798.0200325933,66057.9028407887,21303.9944979003
8754552708,10791,2,0,54374.2004943729,56687.0241387809,37025.6565442809,53466.6363237433,55595.3505475234,61847.6607215080,62043.6823173256,57778.5517176765,66090.3905913060,21306.9025774410
8754552708,10791,2,0,54393.9973371038,56719.2563676649,37057.9861147394,53509.8559828584,55621.7179465387,61852.8806634450,62079.7108676183,57826.7114617018,66112.1099301349,21310.6867311530
8754552708,10791,2,0,54398.2925340823,56776.1160149185,37091.7636411199,53563.2478365175,55668.6122500943,61826.9147984249,62104.0949320515,57888.1461629608,66104.1400887159,21315.5173067917
8754552708,10791,2,0,54384.4943658851,56786.8357558195,37085.8988112513,53563.1991657302,55676.6916007847,61800.3405485636,62085.4053497314,57889.6306219732,66073.0272879397,21322.3068816189
8754552708,10791,2,0,54373.1419047493,56728.7471711868,37042.2411150506,53503.2610911803,55630.5881975226,61796.0453515851,62040.7255669976,57818.4617632558,66054.6784011306,21322.5015647680
8754599121,10792,2,0,54371.9981412479,56665.4629800106,37003.5356714568,53450.5019577561,55574.3004320197,61806.9476079384,62021.0990720222,57755.1410689892,66057.0389343143,21307.7421485218
8754599121,10792,2,0,54387.5484577877,56690.3337523167,37029.1243378754,53489.8644569783,55594.0729393569,61832.0373987873,62058.6485844178,57798.2755542265,66080.2305644588,21307.0972605902
8754599121,10792,2,0,54398.7427388648,56766.0533296459,37078.9875594558,53561.8972221701,55658.7564156677,61834.5439443329,62097.2810218306,57879.7747875466,66085.7546988164,21323.9008499027
8754599121,10792,2,0,54391.7706485852,56788.1863701668,37085.1687494419,53567.4821950118,55679.7700280809,61808.6389177968,62079.9907246452,57887.9393121148,66069.3404758023,21334.6084231069
8754599121,10792,2,0,54369.1995709787,56729.0513636073,37040.3064512557,53498.7225402654,55630.7098744908,61788.3553671930,62031.3929435344,57813.1323120473,66050.5048811204,21311.0760974513
8754599121,10792,2,0,54358.2608115348,56660.5472304942,37000.9317843367,53446.3162700490,55574.0814134769,61800.8272564365,62010.4523373021,57752.8657096833,66052.6585634580,21288.2616659083
8754599121,10792,2,0,54370.4285083578,56666.9717744167,37015.0463126513,53470.7246698758,55580.3477773407,61826.9026307280,62040.0563436723,57775.8991597691,66075.9475351772,21294.6983775276
8754599121,10792,2,0,54385.7111355674,56738.1771362245,37063.8266092145,53542.4654103439,55641.3322738173,61823.8120357350,62082.0957361956,57856.2911326783,66089.3441693792,21318.2428708800
8754625688,10793,2,0,54375.1860778156,56777.1137660579,37079.5351058129,53565.8517236376,55672.1287144761,61791.5068006701,62077.1799866791,57884.6175308821,66070.3747300322,21329.9603629205
8754625688,10793,2,0,54350.9845288347,56728.6133265217,37037.0820115976,53502.9082279725,55628.8603845737,61774.4476897243,62026.1121631133,57818.8754649478,66042.5715427918,21320.3722178240
8754625688,10793,2,0,54347.3463874847,56659.8171686848,36996.5270780868,53440.9381480532,55568.5572791192,61788.7690688849,61999.6109194329,57744.2023095454,66044.8103990072,21303.6051316020
8754625688,10793,2,0,54356.5086631923,56655.1569408016,37006.2003970610,53461.4163818063,55564.8339638914,61801.5573182459,62027.4871128542,57758.2438316791,66060.6162371802,21295.6231224862
8754625688,10793,2,0,54366.1698144698,56717.4312131414,37048.9576836968,53530.1760365527,55616.3154891493,61792.2368624795,62068.2975679984,57833.0021609592,66063.4999813273,21306.7930681696
8754625688,10793,2,0,54360.9742079264,56755.5039365004,37061.7946038450,53551.9075430785,55646.9172466590,61773.4864416753,62064.3552342278,57860.8418512901,66045.6012993007,21318.3645478482
8754625688,10793,2,0,54346.6041579785,56722.3104595674,37031.8377342669,53505.9379844814,55619.0288855408,61761.5012603047,62025.7349645117,57813.8623738567,66028.1771574503,21320.1045284939
8754625688,10793,2,0,54338.4518011071,56658.0041818582,36992.3535580765,53449.0783372278,55568.6546206938,61776.8690613921,62000.4626582105,57752.9265481674,66033.6282856270,21310.6015572752
8754655580,10794,2,0,54351.2035473775,56645.9216589130,36996.1985502725,53451.5727150765,55561.3905056905,61801.6059890332,62018.7263711417,57754.8247088718,66058.8640888377,21303.5929639052
8754655580,10794,2,0,54364.3203245527,56706.8574846023,37042.3141212315,53514.7230615876,55613.6629312419,61812.4352392056,62063.1262968486,57827.1373310906,66079.7560242827,21313.2054443953
8754655580,10794,2,0,54362.3004868801,56760.8698907993,37075.8482936755,53557.1761558028,55663.1367865240,61800.7785856492,62073.9920501115,57880.4926816592,66073.2584741793,21333.8661936007
8754655580,10794,2,0,54350.0232807857,56735.4515721362,37054.4209795703,53519.9795066151,55645.3476137688,61788.0755101660,62039.7156481613,57839.9985866324,66057.0876051016,21335.4358264908
8754655580,10794,2,0,54338.8533351022,56659.6346532324,37010.8971280347,53449.7353928562,55583.0976768227,61793.0155950762,62004.7943582795,57761.5656129117,66054.5810595561,21314.0571831729
8754655580,10794,2,0,54345.3387175089,56642.1010021106,37008.9746319366,53448.6159647485,55568.6667883906,61814.7105985115,62020.3325071224,57761.6994575768,66074.2440576219,21305.3451122477
8754655580,10794,2,0,54359.5992581854,56702.9151508316,37053.0703652230,53515.1245955827,55622.9225485241,61818.9936277931,62065.3043145799,57835.3261910524,66086.4604252322,21311.4654637496
8754655580,10794,2,0,54358.9178671633,56757.4020972048,37077.9168021354,53553.3433313036,55670.4739077082,61801.6181567300,62076.7419495935,57882.9262210237,66073.5991696903,21322.4528939807
8754706067,10795,2,0,54342.9660166284,56740.6228432859,37057.7549284998,53523.2161139700,55658.9024280296,61786.0191694030,62045.4588010617,57854.5998228199,66056.2845371113,21331.5664989011
8754706067,10795,2,0,54326.8316506412,56670.4517357080,37011.0796434870,53456.6101415612,55599.1833720226,61784.4373688160,62006.2301465046,57780.2795306254,66050.3588687585,21322.6354094331
8754706067,10795,2,0,54329.8614071501,56632.4155154395,36999.3378160529,53434.1729086197,55569.7862164984,61814.4429091814,62006.4856681378,57755.6034414685,66070.7884317242,21308.9102474168
8754706067,10795,2,0,54351.7024229473,56688.5207654901,37050.2231241664,53502.5553647646,55622.5696853163,61849.5832176060,62060.0113664620,57832.3572730276,66101.8038909259,21319.6786591051
8754706067,10795,2,0,54366.5470130713,56765.3841063206,37101.0354260990,53571.2176779365,55692.2175819308,61824.5177621507,62091.8785644413,57909.5856447628,66103.5317038748,21335.3506526131
8754706067,10795,2,0,54351.2278827712,56753.4840988278,37078.2818330401,53545.1058005544,55682.6294368343,61791.6041422447,62060.3642296698,57881.6729482510,66074.5360823457,21326.5169047196
8754706067,10795,2,0,54338.5369749849,56681.4756690296,37025.3766872540,53474.8130160083,55618.6395192425,61790.8619127385,62017.9111354546,57798.9204421582,66061.4071374737,21312.9864258525
8754706067,10795,2,0,54340.7514958066,56642.5147038026,37008.9259611493,53455.9287505391,55588.3906249406,61818.8476154313,62023.3135928440,57779.0505932463,66076.6167585024,21304.7610628002
8754745624,10796,2,0,54363.6754366211,56693.9232228795,37051.2817137900,53516.1223467222,55632.1456627159,61844.2902694880,62072.3615787373,57847.0071800024,66102.5217850385,21324.1077007487
8754745624,10796,2,0,54372.5578553018,56761.3444309754,37089.1232509094,53568.5164492418,55686.0728950352,61816.6939330936,62096.4292830530,57909.7316571247,66097.6425386125,21341.1911470881
8754745624,10796,2,0,54354.7200117594,56757.3047556302,37071.7842829367,53548.0990539729,55681.1206424283,61779.8744825074,62069.2223129569,57892.4535276361,66067.6735013376,21334.6327585005
8754745624,10796,2,0,54328.9488298884,56682.5829294405,37015.0949834386,53472.7201721548,55618.7611962107,61766.5751898799,62019.9674762177,57808.3260718023,66045.2119330024,21311.6844822924
8754745624,10796,2,0,54327.5252093601,56625.8571268520,36984.0795242369,53430.8632950838,55571.8668926551,61797.2134504801,62007.8484501820,57758.9738934884,66056.8929219524,21295.1242469164
8754745624,10796,2,0,54351.6537521600,56667.9451901625,37023.5271973369,53485.6544338776,55609.8057713490,61829.7742071783,62056.8964360753,57818.8389618573,66089.2468278046,21308.5938872994
8754745624,10796,2,0,54365.6344358095,56750.7828701331,37078.4156777052,53559.1229872945,55679.1008047557,61824.2379051238,62095.0421656152,57902.8934115102,66096.8638060158,21338.9766262663
8754745624,10796,2,0,54352.0187830647,56760.0789905058,37072.2466554159,53546.5659241732,55683.7732003357,61790.3873725624,62069.8550331917,57888.4746907750,66072.0295368002,21348.1267342772
8754754386,10797,2,0,54333.9010824953,56697.1598302344,37025.5226996158,53475.5309101209,55628.0329811898,61791.6893161225,62022.8025495774,57808.7884442816,66056.3575432922,21333.0509579135
8754754386,10797,2,0,54343.3553829267,56654.8527483810,37008.7799487875,53448.5186231739,55592.9656789461,61826.1969043123,62022.0116492839,57776.6535569722,66077.8335281847,21324.4362285629
8754754386,10797,2,0,54366.7660316141,56686.1724000033,37039.0166753925,53493.0523935459,55620.0874751644,61841.0779975268,62062.2502226774,57820.6397809871,66101.4266923244,21322.1487015602
8754754386,10797,2,0,54378.1063250531,56751.0505594632,37075.0695610789,53553.6353560273,55670.6442554637,61821.0012977689,62090.2724284606,57884.0091460410,66095.2455023383,21330.2767230379
8754754386,10797,2,0,54365.6344358095,56768.3895274359,37072.3805000810,53555.6308583063,55681.7776980567,61779.2904330599,62070.4755857297,57886.1749960755,66061.9790192244,21331.8585236249
8754754386,10797,2,0,54340.7271604130,56704.1562559076,37019.2685034488,53484.4376641953,55624.5651875952,61758.6418515513,62016.1711548089,57806.0263771027,66031.0609015973,21317.6953245230
8754754386,10797,2,0,54333.0250083241,56629.7751252289,36973.9316650866,53425.1079744866,55560.2467421892,61780.4828673485,61992.3954752169,57735.3077231678,66032.3506774605,21299.9669902519
8754754386,10797,2,0,54354.7565148498,56649.7666511090,37000.7005980970,53463.7647472931,55578.9241568124,61815.0026232352,62033.5709612657,57776.9212463023,66066.7852594695,21300.4536981249
8754781761,10798,2,0,54377.8508034198,56731.7769276957,37060.1397970771,53546.3347379336,55651.9790085373,61820.7701115293,62082.0957361956,57869.7121022740,66083.3454948455,21319.1432804449
8754781761,10798,2,0,54380.3451812685,56767.1849254504,37075.7752874946,53566.1924191486,55683.0188031326,61798.9047603385,62079.9785569484,57888.5842000464,66072.6257539445,21329.4858227444
8754781761,10798,2,0,54365.2572372080,56718.6479828237,37039.0410107861,53510.8415663010,55641.0159136999,61788.4162056771,62040.3240330024,57825.2391703862,66057.8054992141,21321.8080060491
8754781761,10798,2,0,54356.4478247082,56655.3881270412,37004.0588824202,53459.4573826178,55586.3342841776,61807.1787941781,62018.5925264767,57764.9725680221,66063.5486521146,21308.3870364534
8754781761,10798,2,0,54366.4253361030,56660.5837335846,37019.9133913805,53474.3141404386,55590.2401148577,61830.3339212321,62043.3172864209,57785.6698203180,66086.3509159608,21311.4897991433
8754781761,10798,2,0,54380.6737090827,56726.8368427856,37066.1263039140,53537.2941391941,55643.0479190693,61826.0143888600,62083.0934873351,57858.1892933827,66093.2013292721,21323.4749805139
8754781761,10798,2,0,54375.1982455124,56769.9591603261,37084.3291783611,53565.7422143662,55676.4725822419,61795.5708114090,62086.1597469345,57891.7843043108,66074.4509084679,21330.4835738839
8754781761,10798,2,0,54353.6492544389,56723.4785584624,37041.4137116666,53514.0295028687,55636.7937229023,61766.5630221831,62042.6602307925,57831.6393789150,66042.6810520632,21322.1608692570
8754826795,10799,2,0,54348.0399462036,56650.1925204978,36993.8866878762,53451.5240442892,55576.3567727827,61781.9186555736,62016.7430365596,57756.5525218207,66043.8248155646,21308.3018625757
8754826795,10799,2,0,54360.4144938725,56646.0311681844,37001.0291259113,53466.2347897481,55574.6411275307,61803.5284851312,62043.8039942938,57771.6282981843,66068.8537679294,21300.6727166677
8754826795,10799,2,0,54373.5312710476,56714.4257920262,37048.8725098191,53532.7799236728,55633.3867677919,61808.7240916746,62084.5171078634,57850.6818244429,66080.4982537889,21312.1103516812
8754826795,10799,2,0,54370.7570361720,56762.2448405403,37074.4855116314,53559.5488566833,55674.7812723835,61799.0751080940,62084.5779463475,57886.2114991659,66071.9565306192,21322.2825462252
8754826795,10799,2,0,54357.1535511239,56735.7070937695,37053.0460298293,53517.4242902823,55652.9037534959,61793.4536321618,62048.4520544802,57841.5438841289,66059.6306537376,21326.1153707245
8754826795,10799,2,0,54356.5695016765,56677.2899813225,37021.5316950579,53466.3199636259,55607.9197783414,61807.7628436256,62025.2117535484,57781.5693064886,66067.2963027360,21329.8873567396
8754826795,10799,2,0,54371.3775887100,56663.8446763332,37021.4343534833,53468.0721119684,55594.1094424474,61830.5894428654,62041.1514363864,57774.7067254805,66087.8597103668,21328.7192578446
8754826795,10799,2,0,54390.6877235680,56724.4763096019,37063.6075906716,53532.7190851887,55643.0600867661,61835.4443538978,62083.6775367826,57843.6367279825,66102.8868159431,21336.2510621780
8754835014,10800,2,0,54389.1180906778,56779.9366717209,37091.1795916724,53577.0338370179,55686.7542860573,61803.7475036740,62094.2025945344,57897.6369664827,66085.4383386991,21347.9563865216
8754835014,10800,2,0,54363.1643933545,56749.1889018493,37055.1510413797,53529.6284901957,55660.0826946214,61764.8717123247,62048.4033836929,57848.2969558656,66050.4318749394,21339.5728434106
8754835014,10800,2,0,54341.6275699779,56664.7207505044,36993.0592844922,53446.5352885918,55584.0345894780,61765.3705878944,62002.2878127339,57757.0392296936,66034.1271611967,21314.9332573442
8754835014,10800,2,0,54347.6384122084,56641.1032509711,36987.5351501346,53441.6682098626,55562.7654554315,61801.0341072825,62020.3203394255,57750.8945427980,66056.4913879573,21301.9989956214
8754835014,10800,2,0,54368.6276892280,56703.2680140395,37038.8098245465,53513.6279688735,55617.3375756824,61819.6750188152,62072.0087155294,57829.3883550028,66081.0092970555,21310.5772218816
8754835014,10800,2,0,54375.3320901774,56764.7635537827,37077.8437959545,53560.2667507958,55668.8069332435,61805.7795090434,62087.2670073454,57881.9893083684,66076.6167585024,21325.2027934627
8754835014,10800,2,0,54362.6898531784,56753.9829743975,37062.1231316592,53533.6316624504,55658.7929187582,61779.4972839059,62055.2416293074,57853.5655685900,66056.3940463827,21329.3398103825
8754835014,10800,2,0,54350.2544670253,56686.5009278175,37015.4600143433,53474.0099480180,55602.5294886489,61784.3765303319,62016.7552042564,57779.9144997207,66048.2051864208,21320.9319318779
8754878171,10801,2,0,54354.4158193388,56647.1384285953,36996.2472210598,53452.3149445827,55570.3459305522,61799.7321637224,62019.0792343496,57750.3104933505,66062.2467085545,21310.1270170991
8754878171,10801,2,0,54371.7182842210,56691.1611557007,37032.9571623747,53510.0506660076,55609.3555665666,61819.9183727517,62065.8153578465,57814.9209634803,66083.5401779947,21310.1513524928
8754878171,10801,2,0,54376.3541767106,56760.1763320804,37073.5972697633,53571.0838332714,55668.0525360404,61793.8429984601,62091.5987074143,57887.7689643593,66075.8136905121,21321.3578012667
8754878171,10801,2,0,54355.3405642973,56748.8725417319,37051.3060491837,53542.8182735517,55657.0286027188,61756.7680262406,62057.6143301878,57859.5764108205,66043.1799276330,21316.5393933248
8754878171,10801,2,0,54339.3278752783,56677.8131922859,37001.5645045715,53468.9603538365,55595.7399138217,61775.4332731670,62014.9057143393,57780.9974247380,66035.4412724536,21308.9589182041
8754878171,10801,2,0,54349.6704175778,56647.6981426491,36994.6045819887,53450.9521625385,55570.0417381316,61806.6555832147,62023.9584807756,57760.0689862025,66063.0984473321,21311.2707806005
8754878171,10801,2,0,54364.6488523669,56689.8957152311,37034.6241368394,53501.5454459283,55607.1532134416,61825.8440411045,62062.2380549806,57818.4739309526,66085.9250465720,21323.2559619711
8754878171,10801,2,0,54371.1585701672,56758.2781713760,37078.4765161893,53555.0833119493,55664.1467053603,61814.7227662083,62083.2151643033,57881.3444204368,66086.5334314131,21340.5949299438
8754909734,10802,2,0,54357.4699112414,56767.1362546631,37074.1204807267,53547.0404643493,55668.7095916689,61779.3512715440,62059.5976647700,57872.5715110274,66061.9060130435,21338.2708998506
8754909734,10802,2,0,54334.2052749159,56698.6442892468,37019.2320003584,53477.0762076174,55611.7891059311,61757.3155725976,62011.8272870431,57793.2867985291,66038.0816626642,21313.0472643366
8754909734,10802,2,0,54328.0849234139,56634.7882163200,36977.8009926763,53425.4608376945,55555.0876387362,61770.2985051077,61993.5027356278,57733.6285810062,66039.8338110067,21290.9628946030
8754909734,10802,2,0,54343.5865691664,56657.3592939266,37001.7226846302,53462.2316174934,55574.4586120784,61795.8263330422,62029.9936583998,57776.7143954563,66060.1173616105,21296.3045135082
8754909734,10802,2,0,54366.7416962204,56739.7954399020,37057.6454192284,53542.5019134343,55645.4814584339,61796.7267426071,62073.8825408401,57865.2830606305,66066.0673653569,21324.8620979517
8754909734,10802,2,0,54364.1621444940,56758.9960654886,37058.3146425537,53545.5073345496,55661.0074395799,61766.0276435229,62058.2470504226,57866.2929794668,66040.3813573637,21326.4925693260
8754909734,10802,2,0,54341.9926008826,56694.3490922683,37008.9016257557,53477.5629154903,55604.9143572262,61758.8365347005,62011.4865915321,57790.9627684359,66021.9837997674,21312.4267117986
8754909734,10802,2,0,54333.2805299573,56640.5800400077,36983.1182761879,53433.9782254705,55562.4369276173,61784.5468780874,62001.8741110420,57746.0031286752,66036.6337067422,21305.6614723651
8754948153,10803,2,0,54346.2756301642,56663.2849622793,37013.2576612183,53468.8508445651,55583.7182293606,61816.2072252207,62036.7588978333,57787.6531549001,66066.3837254743,21311.6723145956
8754948153,10803,2,0,54364.2351506749,56738.0919623468,37068.4381663104,53541.6136715663,55649.2899475395,61829.6403625132,62079.8568799802,57866.6215072810,66085.5235125768,21331.1162941187
8754948153,10803,2,0,54365.1720633303,56772.3683642970,37084.0979921215,53562.6029485858,55678.5532583986,61802.1170322997,62080.5869417896,57890.7013792936,66075.4608273042,21344.6467729858
8754948153,10803,2,0,54347.9547723258,56720.7894974646,37038.4691290354,53504.4170223785,55633.5449478506,61783.4517853733,62037.2577734031,57825.1174934179,66054.0091778054,21338.8914523885
8754948153,10803,2,0,54343.6352399537,56651.7134826007,36993.6920047270,53443.7732214130,55574.3612705038,61795.5099729249,62013.1413983000,57754.0094731847,66055.1894443972,21324.2050423233
8754948153,10803,2,0,54357.5915882096,56657.2862877456,37006.9547942640,53465.9305973276,55578.3644427585,61813.9196982180,62043.9621743525,57777.6999788989,66075.4973303947,21317.2451197405
8754948153,10803,2,0,54372.0468120352,56726.6786627269,37054.0316132720,53538.3162257272,55639.3246038415,61809.9895321442,62084.1155738682,57859.6129139110,66078.7096023560,21324.8620979517
8754948153,10803,2,0,54369.5402664897,56760.4318537137,37066.9172042075,53557.9427207027,55667.6510020453,61790.8132419512,62079.9542215548,57880.3831723877,66058.6937410822,21331.2623064806
8754966826,10804,2,0,54356.3383154368,56720.9598452201,37033.5047087317,53505.6459597576,55632.6323705888,61781.1520906738,62040.1536852469,57820.9926441950,66043.2651015107,21325.3488058246
8754966826,10804,2,0,54353.7952668008,56663.2727945825,36999.2404744783,53456.5249676834,55584.4726265636,61799.1116111844,62025.9174799641,57764.2181708191,66050.9915889933,21316.2230332074
8754966826,10804,2,0,54368.5790184407,56667.9695255562,37011.1039788807,53475.7864317541,55589.0355128722,61823.8607065223,62053.1974562411,57783.2606163470,66075.6555104534,21320.8710933938
8754966826,10804,2,0,54386.8548990688,56735.3177274711,37058.4606549155,53541.0174544219,55646.7712342971,61827.3041647232,62096.0034136642,57860.2091310553,66088.9426353841,21336.9446208969
8754966826,10804,2,0,54390.9554128981,56782.2728695109,37083.6842904295,53575.7075580641,55688.4820990061,61811.4131526724,62101.5883865060,57903.4287901704,66077.9673728498,21347.5670202233
8754966826,10804,2,0,54374.1639912824,56748.3493307685,37053.5327377022,53529.7379994671,55659.1701173597,61784.0236671240,62060.8266021491,57854.5389843358,66054.7027365243,21344.5615991080
8754966826,10804,2,0,54350.5221563555,56664.4043903870,36999.9218655004,53452.9598325143,55586.9548367155,61780.9330721310,62018.0084770292,57767.7711382914,66046.5868827434,21323.2437942742
8754966826,10804,2,0,54339.8267508481,56636.9175632640,36986.9024298998,53447.7520582741,55562.0718967126,61789.2192736674,62028.3145162382,57760.8355511023,66055.1164382163,21300.0521641297
8755001613,10805,2,0,54348.0521139004,56695.4563526792,37027.8102266186,53516.0250051476,55615.5245888558,61797.7488291403,62073.1038082435,57840.1689343879,66065.3981420317,21305.2477706731
8755001613,10805,2,0,54356.1436322876,56748.1789830130,37056.0392832478,53558.9526395390,55664.2562146317,61789.8884969927,62086.3544300836,57888.1339952640,66058.4868902362,21321.3091304794
8755001613,10805,2,0,54350.5464917491,56726.1067809762,37035.5002110107,53523.3864617255,55644.5445457785,61774.8005529322,62053.6841641140,57846.8003291564,66041.0262452953,21320.8102549097
8755001613,10805,2,0,54341.7249115525,56661.8978448415,36995.9308609424,53462.5479776108,55588.1229356105,61784.9970828698,62019.1765759242,57773.4412850109,66036.9257314660,21314.2396986253
8755001613,10805,2,0,54347.9182692353,56641.0180770933,36993.8258493921,53453.2275218444,55569.9808996475,61812.1432144818,62029.7381367665,57759.2902536058,66056.7834126810,21313.4731337254
8755001613,10805,2,0,54368.4208383820,56700.3234314084,37045.1491945912,53514.0781736559,55623.2754117320,61838.3524334384,62074.9046273733,57830.8849817120,66083.8808735057,21326.6872524751
8755001613,10805,2,0,54378.8485545593,56773.1227615000,37093.4671186751,53571.2055102397,55687.8493787714,61826.6957798821,62098.2179344860,57899.2187670697,66088.3220828461,21343.6125187558
8755001613,10805,2,0,54364.0891383130,56759.4827733615,37076.8217094214,53539.0097844462,55675.4139926183,61804.5505716643,62062.3718996456,57865.8427746843,66069.2309665309,21351.6310309622
8755048091,10806,2,0,54348.3198032305,56683.3616620372,37024.4276069018,53459.8224135225,55605.7904313974,61804.1003668819,62015.2585775472,57776.3615322484,66061.7113298943,21345.5471825507
8755048091,10806,2,0,54353.6979252262,56653.7698233638,37017.1999949889,53451.0860072036,55580.7249759422,61830.8449644987,62027.5236159447,57760.9693957674,66082.5789299457,21343.4300033035
8755048091,10806,2,0,54370.2094898150,56705.9814104310,37060.1397970771,53516.5603838078,55623.8594611795,61839.8855632381,62074.0528885956,57830.3252676582,66099.3581838645,21356.5832835691
8755048091,10806,2,0,54373.6894511063,56765.6152925603,37094.7933976288,53564.1239106887,55674.0877136646,61827.4015062978,62091.0024902700,57884.9947294836,66089.4171755602,21369.2255205681
8755048091,10806,2,0,54365.9386282301,56764.2038397288,37085.1200786546,53546.4077441145,55673.1264656156,61817.4118272062,62070.2809025805,57867.1447182444,66073.3071449666,21371.7077307200
8755048091,10806,2,0,54357.0318741557,56705.3243548026,37046.4511381513,53485.5084215157,55622.0221389592,61814.0413751862,62036.8319040143,57798.6284174344,66068.3548923596,21358.1894195497
8755048091,10806,2,0,54355.7907690798,56663.2971299761,37025.5348673127,53451.9255782844,55584.5091296541,61834.7994659661,62030.1761738521,57764.4615247556,66081.0944709333,21345.1213131619
8755048091,10806,2,0,54370.4285083578,56707.0156646610,37063.2425597670,53503.3949358454,55620.7566984897,61862.2984607860,62073.0673051530,57822.7691279311,66104.5902934984,21353.3953470015
8755068916,10807,2,0,54386.4533650736,56791.3378036440,37121.6840076075,53578.5426314239,55695.3568477111,61862.8703425367,62113.3910524242,57910.5225574182,66110.9418312399,21384.8366755920
8755068916,10807,2,0,54380.8440568382,56805.9268721347,37122.8764418962,53573.2375156091,55708.8994942751,61835.8823909834,62095.4071965199,57906.9209191586,66096.0850734191,21395.6294226739
8755068916,10807,2,0,54366.3766653157,56738.8585272466,37071.6261028780,53496.4350132627,55652.0276793246,61829.8107102687,62047.5881480057,57822.3432585423,66083.1021409090,21372.3526186516
8755068916,10807,2,0,54368.5546830470,56688.8127902139,37045.7940825229,53462.9130085155,55612.4826646501,61850.3132794154,62044.1568575017,57785.5481433497,66099.0904945344,21356.7901344151
8755068916,10807,2,0,54384.2875150391,56720.5339758313,37078.4278454020,53511.3769449613,55640.3466903746,61864.9023479061,62082.8014626113,57838.9034939183,66118.7656602971,21364.4801188072
8755068916,10807,2,0,54392.2695241550,56786.6167372767,37121.5014921552,53571.2906841174,55694.6997920827,61865.6689128059,62111.0183515437,57908.0038441758,66119.0576850208,21384.3743031127
8755068916,10807,2,0,54379.4812747941,56800.1958869311,37123.2293051041,53567.4213565277,55702.0734163574,61839.0703275510,62093.1440049108,57909.1476076772,66097.9223956394,21396.2134721214
8755068916,10807,2,0,54353.7465960135,56737.4592421120,37077.0163925705,53496.0334792675,55645.5422969180,61826.0508919504,62042.5263861274,57832.9291547783,66075.5338334852,21384.7515017142
8755085908,10808,2,0,54347.7357537830,56679.5288375380,37048.1546157065,53445.1238357603,55598.4533102132,61860.4368031721,62027.0855788591,57780.5350522587,66090.2445789441,21371.4887121772
8755085908,10808,2,0,54368.7493661962,56711.6515571505,37085.8501404640,53487.4917560978,55629.6391171704,61892.9123859925,62071.5585107469,57827.7213805381,66128.1469545476,21376.3071201191
8755085908,10808,2,0,54384.9567383644,56790.0601954776,37139.5705219373,53565.1703326155,55698.8368090025,61881.7181049154,62113.5614001797,57915.3044622696,66135.9464482111,21393.0133678570
8755085908,10808,2,0,54376.6583691311,56808.3969145897,37140.2640806562,53568.8328093592,55713.9855915470,61853.5012159830,62095.6748858500,57917.7745047246,66111.9517500762,21395.6537580676
8755085908,10808,2,0,54358.4311592904,56746.4876731546,37091.4837840930,53500.9978995713,55658.6104033058,61840.4331095952,62048.2817067247,57837.9544135661,66091.6195286851,21382.0989438068
8755085908,10808,2,0,54355.1580488450,56684.5540963258,37060.4196541040,53457.5713896102,55607.2992258035,61856.8229972157,62034.2036815005,57782.9807593201,66099.0418237471,21369.8339054093
8755085908,10808,2,0,54369.9418004849,56699.6663757799,37082.9663963169,53488.8180350515,55619.8806243184,61875.5369149293,62066.3750719004,57813.8745415535,66121.3938828108,21377.2927035617
