steady_timestamp,sequence,battery,flags,EEG-ch1,EEG-ch2,EEG-ch3,EEG-ch4,EEG-ch5,EEG-ch6,EEG-ch7,EEG-ch8,EEG-ch9,EEG-ch10
2089315201,17167,-2,0,26622.5677853892,55398.9760884979,27414.8308609246,51911.8601914046,60220.9126624616,41828.1613064183,45831.2362195917,50167.0976408725,53406.2115413206,1915.3171568993
2089315201,17167,-2,0,26552.8468825938,55398.6962314710,27422.2166528962,51906.1535415946,60217.2623534147,41835.7539492358,45820.0784416050,50170.8817945844,53415.8848602948,1912.5794251141
2089315201,17167,-2,0,26577.4986363571,55402.7115714225,27434.0558219049,51917.8953690288,60219.5133773269,41840.5601894809,45840.3254891184,50189.3036875743,53424.6821050978,1909.5496686052
2089315201,17167,-2,0,26666.5905124946,55413.4678154140,27436.9395660519,51940.7098005718,60232.3502974751,41845.1595788800,45867.7514777573,50201.1793596735,53423.8912048043,1912.8471144442
2089315201,17167,-2,0,26705.8678378391,55414.6359143090,27435.1995854062,51943.4840354474,60231.9365957832,41840.6088602682,45873.4946306577,50203.7224083095,53426.5924334990,1911.4113262191
2089315201,17167,-2,0,26646.1487818321,55399.9373365469,27428.5195198504,51919.5988465840,60221.4845442123,41834.7561980964,45845.0222200921,50185.8115585862,53428.0282217241,1911.2288107668
2089315201,17167,-2,0,26559.3322650004,55395.2406055732,27423.1657332483,51902.1382016431,60219.4525388428,41843.1154058137,45819.9324292432,50170.1152296846,53424.5482604327,1918.9796336430
2089315201,17167,-2,0,26560.6220408636,55402.3587082147,27429.3225878408,51918.2969030239,60225.4147102861,41848.5908693841,45837.4782480618,50183.0859944978,53427.0669736751,1915.0981383565
2089357212,17168,-2,0,26655.1528774811,55405.9968495647,27437.2315907757,51940.9409868114,60220.9126624616,41835.3159121502,45874.6627295528,50204.8661718109,53430.5225995728,1905.0597884776
2089357212,17168,-2,0,26700.8547467480,55399.0612623757,27428.2761659140,51935.6115356030,60215.2546834389,41827.8814493914,45872.8862458166,50193.3068598291,53419.8393617623,1907.3108123898
2089357212,17168,-2,0,26643.6422362866,55395.0459224241,27421.5961003582,51916.9584563734,60215.5710435563,41834.7196950059,45843.5255933828,50172.8772968634,53415.8848602948,1917.8237024448
2089357212,17168,-2,0,26561.2182580080,55389.7773096997,27429.9918111660,51908.1125407831,60213.6607151551,41835.2429059693,45827.6224136353,50173.7898741251,53424.4509188582,1919.1013106112
2089357212,17168,-2,0,26555.3655958361,55387.7939751176,27433.9949834208,51913.9408675613,60212.7846409839,41830.7286904480,45834.6553423989,50181.9665663901,53422.9056213616,1915.5361754421
2089357212,17168,-2,0,26638.3736235622,55402.4073790020,27434.8102191079,51938.6412921119,60225.4877164670,41835.4375891185,45865.6342985101,50197.9670877123,53420.3747404225,1916.3270757356
2089357212,17168,-2,0,26704.4563850076,55411.8495117366,27434.2505050540,51949.0690082891,60230.1357766534,41835.8269554168,45882.9854341796,50210.8526786478,53423.6721862615,1911.0584630113
2089357212,17168,-2,0,26672.8568763584,55406.6904082836,27432.2671704719,51930.9513077198,60226.0961013081,41834.4520056758,45860.6212074191,50197.7359014726,53425.3269930294,1911.7398540334
2089375915,17169,-2,0,26580.4918897755,55406.7512467678,27428.4830167600,51911.5681666808,60230.7928322818,41847.6904598192,45830.4818223886,50179.4843562382,53421.3116530778,1918.7241120097
2089375915,17169,-2,0,26562.1551706633,55417.2276337323,27440.4195273433,51927.1549863110,60235.7329171919,41855.6724689350,45840.6053461453,50190.2406002297,53428.6974450494,1916.2540695547
2089375915,17169,-2,0,26645.3822169322,55421.5106630140,27450.7742373396,51951.5025476537,60233.3115455242,41844.0279830755,45875.5144683304,50213.4565657679,53432.4329279740,1908.7952714022
2089375915,17169,-2,0,26708.5082280497,55419.4299868573,27441.9769925366,51952.4394603091,60230.7198261009,41834.5250118567,45881.9876830402,50207.3605496596,53422.4554165792,1912.4820835396
2089375915,17169,-2,0,26671.3602496492,55413.0419460252,27427.9841411902,51934.4434367080,60231.3403786388,41838.2118239941,45860.7185489937,50188.9629920633,53418.8051075323,1918.4807580733
2089375915,17169,-2,0,26582.3413796926,55401.1541062292,27425.7817880653,51916.0215437180,60224.4047914498,41835.5470983899,45838.2691483553,50183.3780192216,53425.1079744866,1916.5460942784
2089375915,17169,-2,0,26548.3570024661,55393.9629974068,27422.9710500992,51910.4730739668,60216.8608194195,41832.4200003064,45831.9054429169,50177.5496924434,53421.3603238651,1912.0197110603
2089375915,17169,-2,0,26611.1788211630,55403.1131054177,27421.9124604756,51930.8174630547,60222.5309661390,41835.1698997884,45856.7275444357,50187.5393715350,53415.1182953950,1911.2653138573
2089408416,17170,-2,0,26686.2291751669,55403.6606517747,27425.6357757034,51942.4132781270,60219.8540728380,41826.0319594743,45874.4072079195,50199.4515467247,53416.2863942900,1905.8020179838
2089408416,17170,-2,0,26671.8347898253,55392.8922400864,27420.0508028617,51922.5677646088,60210.3632693161,41820.6051666913,45852.8582168460,50183.0616591042,53412.8064329986,1909.7686871480
2089408416,17170,-2,0,26578.6910706457,55389.5826265506,27412.3364830759,51899.1084451341,60214.8044786565,41835.1942351820,45817.4137160008,50162.2914006274,53412.0398680988,1920.9629682251
2089408416,17170,-2,0,26540.3141548661,55394.4010344925,27420.2576537077,51904.9002688219,60220.6571408283,41839.8301276715,45819.7985845781,50172.4757628682,53421.6645162857,1916.3757465229
2089408416,17170,-2,0,26606.1657300719,55394.9120777590,27427.8381288284,51924.2955775576,60216.4349500307,41828.5871758071,45848.8063738040,50193.6353876433,53422.7839443934,1904.0255342476
2089408416,17170,-2,0,26682.4328537581,55394.7782330940,27420.5861815219,51931.2555001404,60217.0676702655,41822.3694827306,45861.8623124950,50190.9706620391,53409.4724840691,1904.6582544824
2089408416,17170,-2,0,26672.2849946078,55392.7340600277,27410.8398563667,51922.4582553374,60216.8851548132,41823.4402400510,45849.0132246500,50179.9953995048,53406.8077584649,1907.4203216612
2089408416,17170,-2,0,26589.1309545198,55380.5541955080,27409.4649066257,51901.5784875892,60208.4407732181,41821.2378869261,45823.5218998059,50170.4315898020,53412.3440605193,1907.5176632358
2089433948,17171,-2,0,26537.9292862888,55376.9282218547,27410.0246206796,51894.2413664050,60207.2118358389,41824.7178482174,45813.9459224063,50163.7150211557,53410.2268812721,1909.4279916370
2089433948,17171,-2,0,26584.3247142747,55386.2730130147,27414.4901654136,51916.5690900751,60214.0500814534,41827.9301201787,45840.0212966978,50177.3793446879,53406.9781062204,1908.4667435880
2089433948,17171,-2,0,26674.8888817279,55389.2419310395,27419.2720702650,51934.3460951334,60208.1974192816,41815.2270446956,45866.6198819528,50191.2140159755,53408.6694160788,1900.0466973865
2089433948,17171,-2,0,26685.8154734749,55382.8417225107,27411.8011044157,51921.9837151613,60198.9743050898,41807.3788802448,45854.0749865283,50176.6249474848,53405.1407840001,1901.6163302767
2089433948,17171,-2,0,26597.7456838704,55378.4978547449,27400.8501772751,51896.5167257109,60201.8093784496,41820.8485206277,45818.4844733212,50151.1701257312,53400.8090839312,1912.0318787571
2089433948,17171,-2,0,26540.2533163820,55382.5740331806,27408.9295279655,51898.6704080485,60204.6809548998,41827.7719401200,45813.9337547094,50160.4905814976,53410.2998874531,1908.5519174657
2089433948,17171,-2,0,26585.6266578348,55384.1558337676,27419.4667534142,51916.3987423196,60204.8269672616,41819.9359433660,45840.3011537248,50181.6380385759,53411.2246324116,1900.1318712643
2089433948,17171,-2,0,26670.8613740795,55390.2275144822,27415.9746244260,51930.2820843945,60210.5944555557,41813.8642626514,45862.1178341283,50188.0504148016,53401.8190027675,1902.5532429320
2089479696,17172,-2,0,26684.1363313133,55389.4852849760,27408.5158262735,51929.1991593773,60213.5877089742,41811.5889033455,45860.6333751159,50183.5848700676,53400.8699224153,1904.7920991475
2089479696,17172,-2,0,26607.0783073336,55377.6096128768,27405.8754360629,51906.2995539565,60204.2307501173,41808.2306190224,45833.3047280516,50172.1472350540,53405.5423179953,1905.7776825901
2089479696,17172,-2,0,26534.7656851149,55372.8155403286,27404.5004863220,51894.6915711874,60203.4885206111,41819.3518939185,45814.0189285872,50161.3423202752,53406.3453859856,1910.5595874415
2089479696,17172,-2,0,26555.4872728044,55382.3306792441,27409.1120434178,51912.9674518155,60211.6895482698,41829.9742932450,45835.1298825750,50174.5077682376,53410.3242228467,1909.3549854561
2089479696,17172,-2,0,26649.1420352505,55385.6767958704,27414.8916994087,51931.8152141942,60207.4551897754,41821.1283776547,45868.2868564175,50195.0225050811,53416.5297482264,1899.9736912056
2089479696,17172,-2,0,26680.3886806918,55376.9160541579,27407.3112242881,51920.7182746917,60199.1324851485,41810.1044443331,45860.1831703334,50181.7840509378,53407.7933419075,1900.1197035674
2089479696,17172,-2,0,26605.4600036562,55370.3211624799,27398.7938365120,51892.5135534561,60197.9035477694,41816.5654913461,45820.9058449890,50153.0074479515,53401.7216611929,1908.0408741992
2089479696,17172,-2,0,26527.2582161751,55365.5514253253,27402.6753317985,51881.4409493472,60191.3816622723,41819.5465770677,45803.2261815053,50152.4720692913,53406.1385351396,1903.1616277732
2089529770,17173,-2,0,26544.2199855463,55363.7992769828,27408.1629630657,51888.7902382283,60186.7457697828,41813.3045485975,45815.5642260837,50163.0457978304,53407.1606216728,1896.7979223348
2089529770,17173,-2,0,26630.1604282067,55370.2603239957,27402.4563132557,51905.0097780933,60190.3230726487,41807.8290850272,45837.9284528443,50167.3653302026,53398.1808614174,1897.6009903251
2089529770,17173,-2,0,26671.9321313999,55372.3288324556,27397.8325884630,51908.9156087734,60191.3573268786,41800.0174236669,45843.1362270845,50166.8056161487,53395.9176698084,1897.6131580219
2089529770,17173,-2,0,26618.1630791393,55363.3247368067,27397.1511974409,51888.7537351378,60183.8255225453,41795.8074005661,45817.0608527929,50154.6014162353,53397.2317810652,1897.3941394791
2089529770,17173,-2,0,26534.6683435403,55362.4364949386,27395.9709308491,51874.7000453073,60185.4438262227,41805.2251979071,45793.2365024136,50139.9636769573,53392.4985470011,1902.7965968685
2089529770,17173,-2,0,26534.5344988752,55373.6794468030,27405.8389329725,51893.7424908352,60195.5308468889,41815.5799079034,45809.4317068850,50155.3923165288,53396.0880175639,1902.8087645653
2089529770,17173,-2,0,26627.0941686074,55379.7024567304,27415.6460966118,51919.2703187698,60196.3704179697,41807.7439111494,45848.3440013247,50182.7087958963,53401.0524378676,1892.5392284468
2089529770,17173,-2,0,26681.1430778949,55378.7655440750,27406.9096902929,51918.8809524714,60196.1270640332,41802.9376709044,45853.0407322984,50177.8295494703,53395.3457880577,1898.1607043790
2089538640,17174,-2,0,26632.0342535175,55377.1472403975,27395.7762476999,51899.6194884007,60202.8558003763,41810.3964690568,45824.9211849406,50159.0791286661,53392.5472177884,1908.5154143753
2089538640,17174,-2,0,26547.8094561091,55376.0643153803,27402.1156177447,51885.2129353623,60203.2573343715,41813.4505609594,45806.4749565570,50159.6266750232,53404.1673682543,1908.4424081943
2089538640,17174,-2,0,26538.6106773109,55377.5974451800,27413.6505943328,51888.8024059251,60201.1766582148,41812.8178407246,45812.3154510320,50168.2535720707,53407.0024416141,1903.3319755287
2089538640,17174,-2,0,26615.0968195399,55388.2320122032,27416.4491646021,51908.9764472576,60208.1974192816,41812.0877789152,45838.1353036903,50177.9755618322,53402.7437477260,1905.0354530839
2089538640,17174,-2,0,26675.9596390483,55390.7263900519,27416.4248292084,51916.6664316497,60207.3578482008,41806.1499428656,45850.0839819704,50184.3757703610,53404.2282067384,1900.3143867166
2089538640,17174,-2,0,26648.1686195047,55379.9458106668,27411.3874027237,51897.5144768503,60195.1779836811,41798.7033124100,45827.7319229067,50169.3243293911,53406.4548952570,1900.2778836261
2089538640,17174,-2,0,26557.3124273278,55373.8862976490,27405.3400574027,51875.4422748135,60194.5574311431,41808.0116004795,45795.4510232354,50147.7266675303,53402.7315800292,1907.1891354216
2089538640,17174,-2,0,26530.3609788650,55379.8484690922,27411.1197133936,51886.8799098271,60199.1568205422,41816.6019944365,45804.9904975446,50159.7848550819,53405.9195165968,1904.2567204872
2089564882,17175,-2,0,26608.0395553826,55382.5253623933,27418.6515177270,51912.8944456345,60199.4731806596,41807.3788802448,45843.0997239940,50184.9598198085,53410.6162475705,1892.8920916546
2089564882,17175,-2,0,26675.1322356643,55379.0819041924,27408.5523293640,51917.8466982415,60198.5119326105,41799.7253989431,45853.5152724745,50180.1414118667,53401.5148103469,1894.5103953321
2089564882,17175,-2,0,26647.2682099398,55378.6073640163,27399.7064137737,51905.3018028170,60203.5615267921,41807.6222341812,45835.9086151717,50162.7416054099,53399.6166496425,1904.7799314506
2089564882,17175,-2,0,26563.0312448346,55372.8885465095,27404.7560079552,51890.2625295439,60198.2320755836,41812.4771452136,45813.7390715603,50159.3103149058,53409.8375149738,1905.1449623553
2089564882,17175,-2,0,26532.8675244105,55371.9881369446,27408.9173602687,51889.3499522822,60195.2631575588,41817.3685593364,45811.0256751688,50161.5248357276,53412.0398680988,1904.1958820031
2089564882,17175,-2,0,26594.7889335425,55383.0120702662,27411.8619428998,51910.6677571159,60204.7904641712,41821.2865577134,45837.1618879444,50175.4081778025,53409.1439562549,1905.3031424140
2089564882,17175,-2,0,26674.8767140311,55391.2009302280,27415.8407797609,51925.7070303891,60206.6399540883,41814.8741814877,45859.4044377368,50191.3721960342,53412.5995821526,1900.3752252007
2089564882,17175,-2,0,26664.9113703331,55382.7322132393,27410.7060117017,51906.2387154724,60199.6070253246,41806.0039305038,45839.4737503408,50178.7299590352,53412.3805636098,1899.9250204183
2089591950,17176,-2,0,26568.9934162778,55379.2279165543,27406.3378085422,51881.7573094646,60205.0094827140,41818.4393166568,45802.9341567815,50157.4243218982,53409.9835273357,1909.4644947275
2089591950,17176,-2,0,26521.9896034508,55384.2653430390,27414.7943578342,51887.0137544921,60211.7260513603,41832.1401432794,45801.4010269818,50167.4626717772,53418.4644120213,1908.4910789816
2089591950,17176,-2,0,26585.6874963189,55389.7651420029,27427.9719734934,51911.7628498300,60215.2060126516,41827.3825738217,45835.1907210591,50194.4992941177,53427.0061351910,1901.9691934845
2089591950,17176,-2,0,26667.9897976293,55394.7173946099,27429.1522400852,51922.2635721882,60219.9027436253,41828.5385050198,45853.9898126506,50199.6462298738,53422.0903856745,1908.3694020134
2089591950,17176,-2,0,26661.2975643767,55398.5623868059,27424.1148136005,51914.3667369501,60227.0208462667,41836.6908618912,45843.6351026542,50192.6498042006,53424.0737202566,1916.5704296721
2089591950,17176,-2,0,26579.9443434185,55394.3523637052,27428.4221782759,51896.9182597060,60225.4147102861,41836.7151972849,45821.0031865636,50188.9994951538,53435.5113552702,1918.4077518923
2089591950,17176,-2,0,26526.2969681261,55388.9499063158,27426.0008066081,51887.3179469127,60220.2191037427,41830.3636595433,45807.0103352172,50180.4942750745,53431.8853816170,1915.6700201072
2089591950,17176,-2,0,26567.9226589574,55394.2671898274,27420.1481444363,51905.7641752963,60223.1515186770,41826.5308350441,45825.8946006864,50186.6146265765,53422.1998949459,1910.6082582288
2089629754,17177,-2,0,26660.1294654817,55397.0049216126,27417.9822944018,51926.7169492254,60218.9414955763,41815.2635477860,45854.3548435553,50198.1861062551,53420.7032682367,1899.3409709708
2089629754,17177,-2,0,26677.0060609751,55387.2707641542,27408.5888324545,51917.8710336351,60209.3411827830,41805.9795951101,45843.4769225956,50183.4388577057,53410.3485582404,1897.6253257187
2089629754,17177,-2,0,26592.1972141192,55378.7898794686,27398.5383148787,51893.4139630210,60209.6575429004,41817.3320562459,45807.3510307282,50153.1777957070,53402.3908845182,1906.1670488884
2089629754,17177,-2,0,26530.3366434713,55381.1260772586,27404.8655172266,51897.5266445472,60211.9694052967,41828.8061943499,45804.5646281558,50160.1377182897,53411.5653279227,1906.0332042234
2089629754,17177,-2,0,26570.8185708013,55380.1769969064,27415.0863825579,51916.8246117083,60209.4385243575,41825.6425931760,45833.0005356310,50182.4046034757,53416.5297482264,1896.2260405841
2089629754,17177,-2,0,26659.2168882199,55382.9512317821,27412.1417999268,51930.8783015388,60212.7359701966,41821.4325700753,45854.7442098536,50188.4154457063,53410.4215644213,1894.0723582464
2089629754,17177,-2,0,26681.7879658265,55386.3825222861,27407.3112242881,51928.7002838075,60215.1816772580,41820.3618127548,45853.2110800539,50181.2243368839,53408.8032607439,1898.1850397726
2089629754,17177,-2,0,26615.1211549336,55378.0598176593,27407.7370936769,51906.9931126754,60206.3844324550,41822.2234703687,45828.5593262906,50170.2004035623,53417.3084808231,1898.4283937091
2089660918,17178,-2,0,26545.8504569206,55377.7312898450,27409.1972172956,51895.9083408697,60207.4673574722,41832.5173418809,45814.8219965775,50163.2404809796,53419.6568463099,1904.2445527904
2089660918,17178,-2,0,26563.7248035535,55390.2518498758,27413.5167496678,51913.4298242947,60216.7999809354,41838.1509855100,45833.5724173817,50178.4135989178,53420.4234112098,1904.6825898760
2089660918,17178,-2,0,26654.1186232511,55396.4938783460,27419.2842379618,51935.6358709966,60220.2799422268,41823.2577245987,45865.7438077815,50203.6615698254,53424.0980556503,1894.2913767893
2089660918,17178,-2,0,26685.6937965067,55388.7917262571,27410.7911855794,51925.4393410590,60213.9527398789,41811.5767356487,45860.6212074191,50199.0013419422,53418.0020395420,1892.7825823832
2089660918,17178,-2,0,26607.6988598716,55381.0409033809,27398.9033457834,51896.2490363808,60217.9924152241,41821.3595638943,45821.3317143778,50172.6947814110,53409.5454902500,1900.6915853181
2089660918,17178,-2,0,26525.8345956468,55379.9458106668,27405.7050883074,51888.0601764189,60219.0266694540,41829.4754176752,45803.7980632559,50174.4469297535,53418.2575611753,1899.8398465405
2089660918,17178,-2,0,26535.8851132226,55379.0088980114,27413.4072403963,51898.6095695644,60213.9892429693,41823.6470908970,45819.7499137908,50188.5979611586,53422.1633918554,1894.5834015130
2089660918,17178,-2,0,26619.6232027581,55384.5938708532,27409.9516144986,51917.7006858796,60217.5300427448,41820.4104835421,45843.0510532067,50193.5867168560,53416.1282142313,1897.6253257187
2089716042,17179,-2,0,26660.4944963863,55387.7574720271,27402.8821826445,51920.7426100853,60218.4669554002,41819.3275585249,45849.9744726990,50192.0657547531,53414.6315875220,1898.1120335917
2089716042,17179,-2,0,26611.3248335248,55376.8065448865,27399.9619354070,51895.7744962047,60208.3434316435,41815.3973924511,45822.9621857521,50179.6790393874,53417.2963131263,1897.2116240268
2089716042,17179,-2,0,26525.2870492898,55372.5235156048,27401.0570281211,51876.6590444958,60207.9662330420,41829.0130451959,45794.8669737879,50164.8587846570,53415.8605249012,1904.5609129078
2089716042,17179,-2,0,26518.2176174357,55382.1116607013,27409.6960928653,51891.0777652310,60216.3741115466,41840.7792080237,45804.9174913636,50176.1017365214,53418.0263749356,1905.8993595583
2089716042,17179,-2,0,26609.4510082141,55388.1711737191,27423.0927270674,51916.8367794052,60214.1717584217,41827.2487291566,45840.8487000818,50199.6827329643,53421.6888516793,1894.9484324177
2089716042,17179,-2,0,26666.1646431058,55380.4568539334,27414.4901654136,51912.4199054584,60206.3235939709,41812.6839960596,45841.3110725611,50187.6123777160,53411.4923217417,1892.2107006325
2089716042,17179,-2,0,26617.5546942982,55378.6438671068,27400.5216494609,51891.8930009181,60208.9274810910,41819.4370677963,45810.1374333007,50160.1863890770,53404.7149146113,1901.4094794307
2089716042,17179,-2,0,26533.0743752565,55376.2589985295,27405.5104051583,51880.4310305109,60206.4939417264,41824.9125313666,45793.0783223549,50158.1178806171,53412.7577622113,1900.8254299832
2089731961,17180,-2,0,26524.4353105122,55378.2179977180,27416.7411893258,51888.3765365363,60205.9585630662,41825.8494440220,45806.1707641364,50170.5167636797,53419.4378277671,1898.6595799487
2089731961,17180,-2,0,26600.9701235285,55384.9345663642,27413.4802465773,51912.2373900061,60210.9716541572,41822.8926936940,45835.8721120812,50184.7408012657,53411.2124647148,1899.3409709708
2089731961,17180,-2,0,26663.9622899809,55390.1788436949,27406.5324916914,51927.6781972744,60215.2060126516,41818.1594596299,45855.3890977852,50193.7814000052,53410.7257568419,1896.0313574349
2089731961,17180,-2,0,26636.3294504960,55380.0309845446,27401.6410775686,51912.1765515220,60208.7693010323,41814.2901320402,45837.3687387904,50185.9940740385,53413.1471285096,1894.4008860607
2089731961,17180,-2,0,26543.1613959227,55373.9106330426,27397.3337128932,51887.5126300619,60208.8788103037,41825.3870715427,45806.1342610459,50164.8952877475,53410.8230984165,1900.9106038609
2089731961,17180,-2,0,26516.8183323010,55382.3793500314,27406.0944546058,51897.2467875202,60219.8054020507,41840.6210279650,45813.6052268952,50175.1161530788,53417.9046979674,1904.0377019444
2089731961,17180,-2,0,26598.9381181591,55390.2153467854,27422.3991683485,51925.3298317876,60222.1659352343,41835.5105952994,45852.2619997017,50205.6327367107,53429.9872209126,1896.7127484570
2089731961,17180,-2,0,26672.6986962998,55389.4852849760,27419.2842379618,51927.5686880030,60220.3772838014,41827.9787909660,45863.3711069011,50205.5840659234,53425.1931483644,1895.7393327112
2089751028,17181,-2,0,26648.2659610793,55391.2374333185,27408.6861740290,51915.3279849991,60224.1857729069,41834.9387135487,45844.4381706446,50187.1013344494,53421.8226963444,1902.7114229907
2089751028,17181,-2,0,26562.9339032600,55388.5362046238,27410.6695086112,51901.4568106210,60221.6670596646,41836.7638680722,45821.4533913460,50179.6060332065,53429.3058298905,1900.7524238022
2089751028,17181,-2,0,26530.3244757745,55386.6137085258,27416.4369969053,51901.3594690464,60218.7833155176,41834.5858503409,45820.2487893606,50181.4068523363,53429.2328237096,1896.6275745793
2089751028,17181,-2,0,26591.3941461289,55396.6642261015,27418.7488593016,51923.7967019879,60227.3493740809,41837.2749113387,45847.4435917598,50192.0779224500,53422.7352736061,1898.5987414646
2089751028,17181,-2,0,26671.2629080746,55402.3952113051,27420.3793306759,51939.8702294910,60228.8703361838,41830.7895289321,45869.8199862172,50204.2699546666,53422.7352736061,1895.1309478700
2089751028,17181,-2,0,26668.6590209545,55393.0504201451,27420.0142997712,51924.9039623988,60220.3772838014,41825.1072145158,45855.5716132376,50195.7160638000,53421.1413053223,1897.1507855426
2089751028,17181,-2,0,26575.7586557114,55387.7453043303,27414.7578547437,51896.1638625030,60220.7179793124,41834.9265458519,45817.3042067294,50170.8817945844,53417.1016299771,1907.7245140818
2089751028,17181,-2,0,26527.4163962338,55394.6808915194,27421.6812742359,51897.9646816328,60225.1591886528,41844.0766538627,45812.1937740638,50175.7002025263,53422.7109382125,1908.0895449865
2089786050,17182,-2,0,26589.4959854245,55401.1662739260,27431.5614440562,51922.3000752787,60226.3516229414,41839.2460782240,45844.2678228890,50202.0676015416,53431.0214751425,1897.2237917236
2089786050,17182,-2,0,26675.1200679675,55403.1982792955,27426.1833220604,51931.5110217736,60227.0451816603,41833.2352359935,45860.2805119080,50205.0851903537,53423.5626769901,1896.2382082809
2089786050,17182,-2,0,26672.8812117521,55401.9571742195,27415.6582643086,51922.4339199437,60229.3570440567,41835.6931107517,45847.4922625471,50189.9120724155,53416.5297482264,1903.4049817096
2089786050,17182,-2,0,26588.1818741676,55388.6457138952,27412.4581600442,51897.6483215154,60219.0631725445,41831.6777708002,45819.0806904656,50176.9534752991,53421.0804668382,1899.6573310882
2089786050,17182,-2,0,26531.9306117551,55381.7344620998,27415.1472210420,51889.7514862773,60211.7138836634,41833.0405528443,45808.8476574375,50171.7822041493,53419.5960078258,1898.4283937091
2089786050,17182,-2,0,26566.6450507910,55389.2297633427,27414.9647055897,51909.7065090669,60218.6008000652,41833.2474036903,45830.4939900855,50180.8228028887,53413.6338363826,1897.3089656013
2089786050,17182,-2,0,26652.9991951434,55393.6588049863,27414.2103083867,51931.6083633482,60218.2722722510,41821.6880917085,45860.0736610620,50195.7038961032,53411.9546942210,1888.7550747348
2089786050,17182,-2,0,26669.7784490622,55384.5452000659,27407.8466029483,51922.1175598263,60208.8788103037,41813.1585362356,45853.7099556236,50187.5515392318,53409.9835273357,1886.9420879082
2089833507,17183,-2,0,26588.8024267056,55380.4081831461,27401.2760466639,51898.7677496231,60213.9162367884,41824.7786867016,45818.6791564704,50163.4838349161,53406.9902739172,1900.2292128389
2089833507,17183,-2,0,26524.1067826980,55385.0562433324,27409.0633726306,51898.7069111390,60220.6693085251,41834.1356455584,45811.4880476480,50168.0832243151,53415.7875187202,1901.4581502180
2089833507,17183,-2,0,26560.8897301937,55387.5992919684,27419.8439520157,51916.8367794052,60216.1185899133,41827.2000583693,45839.1695579202,50189.9607432028,53422.9299567553,1890.8357508915
2089833507,17183,-2,0,26650.1397863900,55390.7993962329,27416.4978353894,51932.2654189767,60217.5787135321,41820.6903405690,45863.4806161725,50194.7669834478,53413.7068425635,1888.3657084365
2089833507,17183,-2,0,26671.4332558302,55392.8922400864,27409.4040681416,51929.9170534898,60220.6571408283,41822.1504641878,45860.3656857858,50190.4474510757,53408.3652236582,1891.9673466961
2089833507,17183,-2,0,26605.4478359594,55383.9976537089,27411.0588749095,51908.5019070815,60211.1420019128,41820.8728560214,45832.2704738216,50179.2775053922,53413.1227931160,1890.9574278598
2089833507,17183,-2,0,26531.9914502392,55377.7556252387,27412.0687937458,51892.0146778864,60207.8323883769,41825.5087485109,45809.7358993055,50167.5965164422,53413.5243271112,1894.8024200558
2089833507,17183,-2,0,26542.8328681085,55387.3194349415,27413.7357682106,51905.1922935456,60216.2159314879,41833.5515961109,45822.2929624268,50176.2599165801,53411.1759616243,1897.4306425696
2089842187,17184,-2,0,26633.5187125299,55395.3866179351,27419.5397595951,51929.1748239836,60217.7977320749,41822.4546566084,45855.5594455407,50197.4682121425,53413.7555133508,1891.3102910676
2089842187,17184,-2,0,26672.7595347839,55389.1324217681,27414.5996746850,51921.4361688042,60210.2537600447,41806.6123153449,45852.5661921223,50188.5614580681,53405.7248334476,1889.6554842997
2089842187,17184,-2,0,26603.3306567122,55384.3870200072,27403.6852506348,51895.5676453587,60209.5845367194,41811.9661019470,45817.4258836976,50159.1156317566,53393.6666458961,1898.1728720758
2089842187,17184,-2,0,26519.8480888100,55382.3550146378,27405.8145975788,51886.7825682525,60208.1609161911,41818.2811365981,45799.0283261013,50154.0660375751,53398.3147060825,1896.6032391856
2089842187,17184,-2,0,26527.8300979258,55378.3396746862,27414.7821901373,51894.9105897302,60200.4344287086,41809.4717240983,45812.8629973890,50168.7281122467,53399.7261589139,1888.7550747348
2089842187,17184,-2,0,26608.4532570746,55377.2080788816,27409.5744158971,51905.7763429931,60198.3294171582,41800.2242745129,45833.1222125992,50172.3662535968,53386.8649033721,1886.6013923972
2089842187,17184,-2,0,26651.0888667422,55374.9692226662,27401.5194006003,51908.4532362942,60198.7674542438,41800.4797961461,45839.6075950059,50171.2589931859,53385.0762519391,1886.7109016686
2089842187,17184,-2,0,26602.9534581106,55364.8822020000,27399.6334075928,51890.3477034216,60191.8683701452,41802.1589383077,45817.6692376341,50164.0800520604,53392.0605099155,1886.4553800353
2089880973,17185,-2,0,26519.3613809370,55360.5383342342,27402.0061084732,51872.8018846029,60191.9900471134,41811.7957541915,45791.5573602521,50151.9001875406,53397.7793274223,1894.0236874592
2089880973,17185,-2,0,26510.1139313516,55372.6208571794,27407.9926153101,51887.5369654555,60204.1334085427,41825.4600777236,45801.3766915882,50161.0989663388,53401.9771828262,1898.4405614059
2089880973,17185,-2,0,26600.0332108731,55381.8318036744,27417.5807604066,51917.0071271607,60208.3677670371,41817.1008700063,45839.7414396709,50187.0648313589,53409.7888441865,1890.1421921726
2089880973,17185,-2,0,26662.3196509098,55379.0575687987,27412.1417999268,51917.9197044224,60204.5227748411,41806.0404335942,45846.5918529822,50184.1567518182,53403.8023373496,1890.5315584710
2089880973,17185,-2,0,26618.1630791393,55377.3784266372,27400.1687862530,51896.9669304933,60205.2893397409,41809.9584319712,45818.9225104069,50158.6167561869,53395.0050925466,1901.5311563989
2089880973,17185,-2,0,26530.8476867379,55376.0886507739,27404.2814677791,51884.7992336704,60202.6976203176,41814.9958584559,45797.2031715779,50152.9466094674,53400.7117423566,1902.7114229907
2089880973,17185,-2,0,26520.4929767416,55372.9615526904,27415.1715564357,51888.4130396268,60196.1270640332,41810.8710092329,45804.8079820922,50161.9872082068,53406.1750382301,1899.2071263057
2089880973,17185,-2,0,26591.9660278795,55376.9038864611,27412.2026384109,51906.6280817707,60196.8692935394,41809.7637488220,45828.6201647747,50168.4360875230,53395.7229866592,1898.8907661883
2089908529,17186,-2,0,26654.4958218526,55379.4347674002,27405.7902621852,51916.3622392291,60197.8183738916,41808.1211097510,45842.7833638766,50173.1936569808,53392.6202239693,1896.7614192443
2089908529,17186,-2,0,26630.3916144464,55368.0944739613,27402.2494624097,51899.3761344643,60188.4614150348,41801.5748888602,45824.9455203342,50164.7857784761,53394.2628630404,1894.4617245448
2089908529,17186,-2,0,26539.0852174870,55360.5870050215,27400.3513017053,51876.0628273515,60187.6948501349,41809.3622148269,45793.8205518611,50145.1836188943,53391.0749264728,1902.2733859051
2089908529,17186,-2,0,26506.8286532094,55369.2139020690,27407.2260504103,51883.5459608976,60197.6236907425,41820.1427942120,45797.4830286048,50151.8271813597,53393.8978321357,1901.9570257877
2089908529,17186,-2,0,26584.2638757906,55376.8673833706,27421.2189017567,51913.4176565979,60202.2230801415,41814.0346104069,45837.0402109762,50183.1468329819,53401.9406797357,1892.1011913611
2089908529,17186,-2,0,26661.7599368559,55374.3243347346,27415.9137859419,51919.3554926475,60196.9301320236,41800.5893054175,45849.9258019117,50184.5461181166,53393.6544781993,1890.6897385297
2089908529,17186,-2,0,26641.8049140663,55374.0079746172,27400.8380095782,51906.5915786803,60200.3370871340,41806.1256074720,45829.7882636697,50164.6519338111,53387.0595865213,1897.3454686918
2089908529,17186,-2,0,26557.4219365992,55373.8619622553,27401.9939407764,51894.7889127620,60200.8237950069,41819.7534279137,45810.6606442641,50162.1575559624,53399.5314757648,1898.7204184328
2089956248,17187,-2,0,26523.9486026393,55374.7137010329,27410.4504900684,51897.0764397647,60201.0063104592,41822.9291967845,45810.9891720783,50169.2391555133,53407.5256525774,1898.1363689853
2089956248,17187,-2,0,26577.8880026554,55382.7565486329,27409.5500805035,51913.3568181138,60207.2726743231,41821.2500546229,45833.2438895675,50177.7808786830,53402.7559154229,1895.9340158604
2089956248,17187,-2,0,26655.8099331095,55388.2441799001,27407.9561122197,51927.2279924920,60209.6697105972,41812.1729527930,45854.2940050711,50188.9021535792,53403.2791263862,1889.7163227838
2089956248,17187,-2,0,26657.1118766696,55380.9800648968,27405.2792189186,51914.5127493120,60201.3956767576,41807.5005572130,45841.8951220086,50181.5650323949,53404.4958960685,1886.4188769448
2089956248,17187,-2,0,26565.0510825072,55374.7258687298,27402.3954747716,51887.2936115191,60200.3735902245,41818.8651860456,45805.4407023270,50157.4973280792,53399.6774881266,1895.0336062955
2089956248,17187,-2,0,26510.7466515864,55380.1526615128,27408.4671554862,51889.5689708250,60206.8224695406,41828.0517971469,45799.9530710599,50158.5802530964,53403.3399648703,1895.5933203493
2089956248,17187,-2,0,26565.9149889816,55384.8250570928,27421.4257526027,51914.0747122264,60206.1775816090,41818.9260245297,45831.9784490979,50183.3050130406,53409.3994778882,1885.5549704704
2089956248,17187,-2,0,26652.2934687277,55384.2775107358,27419.7101073506,51922.9206278166,60204.9121411394,41806.3202906212,45850.6436960243,50185.2761799259,53399.5071403711,1884.1800207294
2089967435,17188,-2,0,26657.0145350950,55383.8029705597,27408.2724723371,51913.8556936836,60208.5746178831,41813.4383932626,45840.7878615977,50169.8962111417,53393.0339256613,1893.6951596449
2089967435,17188,-2,0,26578.7519091298,55377.1350727007,27406.8853548992,51894.4725526446,60203.5128560048,41817.9282733902,45814.6394811252,50160.4662461040,53399.6774881266,1896.7005807602
2089967435,17188,-2,0,26526.5889928499,55374.2878316441,27411.0953780000,51888.0358410253,60202.9044711636,41824.7908543984,45806.5844658284,50161.5126680307,53408.8397638343,1899.1827909121
2089967435,17188,-2,0,26562.2403445411,55387.2464287606,27415.6339289149,51906.9201064945,60214.9869941088,41837.4695944879,45828.4011462319,50176.1382396119,53413.4878240207,1902.4680690543
2089967435,17188,-2,0,26648.5214827126,55394.9972516368,27422.5451807104,51928.8584638662,60218.8928247890,41831.1180567463,45859.8668102161,50197.1275166315,53419.1701384370,1897.4306425696
2089967435,17188,-2,0,26665.4589166901,55384.3870200072,27417.1062202305,51917.8832013319,60207.7472144992,41816.9183545539,45853.6491171395,50190.6786373153,53417.2476423390,1893.5734826767
2089967435,17188,-2,0,26582.2683735116,55373.7159498935,27404.9020203171,51888.9119151965,60205.5691967679,41825.6912639633,45817.0000143088,50161.4031587593,53410.1538750912,1902.2855536019
2089967435,17188,-2,0,26513.1558555573,55377.4636005149,27406.9705287770,51887.0137544921,60211.2150080937,41838.8932150162,45807.9229124789,50162.2427298401,53413.8650226222,1902.8696030494
2090009816,17189,-2,0,26548.0163069551,55382.4523562123,27418.0918036732,51908.9764472576,60210.5944555557,41834.7196950059,45835.5557519638,50186.8944836034,53419.2674800116,1891.7361604564
2090009816,17189,-2,0,26640.3691258412,55388.4631984429,27416.3153199370,51926.6804461349,60214.5854601136,41824.0972956795,45861.8988155855,50195.2171882303,53412.6482529399,1893.3544641339
2090009816,17189,-2,0,26667.3935804849,55393.8656558323,27409.7447636526,51925.1594840321,60219.3186941778,41824.8395251857,45860.8402259619,50189.1455075156,53405.3232994525,1897.8808473520
2090009816,17189,-2,0,26602.8804519297,55389.0715832840,27411.2535580587,51907.1999635214,60217.6760551067,41825.4479100268,45836.5900061938,50180.6402874364,53408.0001927535,1897.0291085744
2090009816,17189,-2,0,26532.3443134471,55385.7741374450,27418.2499837319,51893.0245967227,60216.1185899133,41826.7133504964,45816.7079895851,50172.0133903889,53408.0853666313,1898.0146920171
2090009816,17189,-2,0,26545.3029105635,55395.7638165366,27422.7033607691,51907.5406590324,60224.3682883593,41832.4321680032,45829.4110650682,50177.9755618322,53403.1331140244,1899.9858589024
2090009816,17189,-2,0,26636.4267920706,55400.1685227865,27422.8128700405,51929.4911841010,60222.9690032247,41821.4569054689,45859.2340899813,50194.1464309099,53402.6220707578,1889.8745028425
2090009816,17189,-2,0,26681.6054503741,55392.6975569373,27413.5045819709,51926.0355582033,60214.0135783630,41811.2482078344,45859.6477916732,50190.9584943423,53399.5193080679,1887.0881002701
2090033979,17190,-2,0,26614.9751425717,55384.5452000659,27400.6676618227,51898.4513895057,60211.0689957318,41819.3640616153,45823.4853967155,50161.6221773021,53393.0582610550,1896.8222577284
2090033979,17190,-2,0,26527.3190546592,55386.6623793131,27406.0214484248,51888.9970890743,60213.4781997028,41831.5074230446,45804.5037896717,50156.9741171158,53401.5391457406,1899.6694987850
2090033979,17190,-2,0,26533.8774432468,55390.5438745996,27418.0431328859,51901.0309412322,60211.9937406904,41827.4434123058,45824.8116756692,50177.2455000228,53412.1858804606,1894.3278798797
2090033979,17190,-2,0,26619.0148179169,55397.2239401554,27417.7267727685,51921.1076409900,60216.1185899133,41822.8440229067,45854.0384834379,50188.0504148016,53405.9560196873,1895.8245065889
2090033979,17190,-2,0,26665.3007366314,55401.0080938673,27410.9250302445,51927.3861725507,60219.8054020507,41820.2523034834,45862.4098588521,50185.7142170116,53402.2570398531,1898.8664307947
2090033979,17190,-2,0,26621.1685002546,55391.8579858565,27408.3576462148,51912.0062037665,60214.5246216295,41821.3230608038,45843.0753886004,50177.2820031133,53407.8055096044,1899.5721572104
2090033979,17190,-2,0,26536.2258087336,55384.6668770341,27407.6032490118,51892.8785843608,60210.0712445923,41824.3893204032,45814.2501148268,50163.0944686177,53408.3773913550,1904.3540620618
2090033979,17190,-2,0,26522.6709944729,55391.9674951279,27411.1927195746,51899.4126375547,60217.5178750480,41836.0946447469,45819.4822244607,50166.8177838455,53405.1529516970,1906.9092783946
2090073877,17191,-2,0,26607.8692076271,55398.3190328695,27420.8173677615,51926.9846385555,60218.3452784319,41828.8305297436,45853.7829618046,50192.5402949292,53408.0610312377,1898.2580459535
2090073877,17191,-2,0,26669.0970580402,55391.1157563503,27415.5365873404,51924.6362730687,60208.7084625482,41814.3996413116,45858.6135374433,50187.6853838969,53398.8135816522,1891.6144834882
2090073877,17191,-2,0,26625.0621632379,55384.9345663642,27406.7150071437,51901.2621274718,60206.1045754281,41817.0400315222,45827.8414321781,50158.2882283727,53388.4223685654,1898.3553875281
2090073877,17191,-2,0,26533.9626171246,55381.4789404665,27408.3089754275,51886.7582328589,60203.1843281906,41820.7876821436,45803.9075725273,50150.0628653204,53394.0681798913,1898.5865737678
2090073877,17191,-2,0,26517.0251831470,55379.0575687987,27416.6316800544,51891.5523054071,60195.8107039158,41813.8277595609,45811.4272091639,50161.0502955515,53399.0934386791,1890.3368753218
2090073877,17191,-2,0,26592.1728787255,55384.1071629803,27416.2423137561,51910.8137694778,60200.5682733736,41812.9638530865,45839.9239551233,50172.5366013523,53393.1069318423,1890.7140739233
2090073877,17191,-2,0,26660.2633101467,55390.7142223551,27410.2071361319,51922.2392367946,60206.4331032423,41812.3676359422,45856.9465629785,50180.3239273190,53388.1668469321,1891.6023157914
2090073877,17191,-2,0,26640.6976536554,55384.8980632738,27404.9628588012,51908.5505778688,60201.2618320925,41805.2008625134,45842.1141405514,50175.2743331375,53389.7121444287,1888.6212300698
2090099901,17192,-2,0,26549.3790889992,55375.6871167788,27397.6135699202,51882.4021973962,60197.0639766886,41808.3157929001,45806.0855902586,50153.0317833451,53385.9888292008,1893.3909672244
2090099901,17192,-2,0,26508.1792675568,55381.3694311951,27400.0957800720,51882.9254083596,60202.9774773446,41820.1549619088,45803.1775107180,50152.9709448610,53387.1812634895,1894.3035444861
2090099901,17192,-2,0,26577.1092700587,55387.0030748241,27409.5987512908,51907.6623360007,60205.0703211981,41816.2247958350,45837.1740556413,50178.7299590352,53395.1389372117,1881.4787920347
2090099901,17192,-2,0,26659.0343727676,55388.7187200762,27411.9836198681,51915.6443451165,60203.2573343715,41810.2747920886,45853.4179308999,50184.5096150261,53393.5693043215,1881.5152951252
2090099901,17192,-2,0,26643.4840562279,55387.0760810051,27404.3058031728,51903.2819651444,60208.5989532768,41817.0887023095,45835.1055471814,50165.5523433760,53390.7220632650,1894.0236874592
2090099901,17192,-2,0,26555.8766391027,55384.9589017579,27406.7758456278,51888.6928966537,60206.6521217851,41826.3239841981,45810.6849796577,50157.3026449300,53398.7892462586,1895.9583512540
2090099901,17192,-2,0,26516.0882704917,55380.2378353906,27412.6285077997,51886.0890095336,60198.5849387915,41819.6682540359,45811.1595198338,50161.6586803926,53402.7559154229,1890.8965893757
2090099901,17192,-2,0,26569.7113103904,55385.5307835085,27410.4018192811,51903.3793067190,60202.3447571098,41811.9782696438,45835.7991059003,50171.0521423399,53396.4043776813,1889.8623351457
2090127741,17193,-2,0,26646.0757756512,55386.7718885845,27404.2449646887,51917.1531395226,60202.9774773446,41801.1125163809,45855.4012654820,50178.4987727956,53388.2398531131,1883.3161142550
2090127741,17193,-2,0,26647.6819116318,55375.5046013264,27398.4288056073,51903.6591637459,60193.6448538814,41791.3540235289,45842.1993144291,50169.5798510243,53384.2001777679,1875.1880927772
2090127741,17193,-2,0,26557.4706073865,55366.2814871346,27388.9501697822,51876.2453428038,60188.8264459395,41794.3594446442,45802.1310887912,50142.6040671679,53375.9261439283,1876.8307318483
2090127741,17193,-2,0,26501.1341710963,55372.2679939715,27390.0817655868,51874.1403312535,60196.2122379110,41804.4221299168,45794.3315951277,50142.7987503171,53375.4637714490,1879.1790973352
2090127741,17193,-2,0,26553.3457581635,55380.3108415715,27400.4973140672,51896.2003655935,60197.0031382045,41799.2995295543,45825.4078928135,50169.6163541148,53380.8053903543,1871.9879885128
2090127741,17193,-2,0,26646.1974526194,55382.9147286916,27402.2859655002,51909.3293104654,60197.0031382045,41798.8128216814,45846.7135299505,50179.6182009033,53377.8973108136,1876.4657009436
2090127741,17193,-2,0,26658.3651494423,55389.5582911569,27401.7749222336,51907.6380006070,60206.5182771200,41816.9791930381,45839.0113778615,50172.3662535968,53379.1870866768,1894.4860599384
2090127741,17193,-2,0,26586.2837134632,55390.7142223551,27413.0057064012,51898.6339049580,60211.2636788810,41825.2167237872,45819.2267028274,50167.8763734691,53396.4652161654,1905.1571300521
2090183738,17194,-2,0,26533.5124123421,55391.2496010153,27424.8570431067,51893.9493416812,60211.3001819715,41831.5074230446,45811.2811968020,50172.2080735381,53409.9348565484,1909.0507930355
2090183738,17194,-2,0,26565.7689766197,55401.1176031387,27426.8038745984,51908.6357517465,60218.9536632731,41837.9076315735,45829.0216987699,50179.8007163556,53410.7014214482,1911.4234939160
2090183738,17194,-2,0,26652.0014440039,55411.5696547096,27428.0206442807,51928.6516130203,60224.5873069021,41834.3181610107,45858.3701835068,50196.3609517316,53415.3738170282,1905.7533471965
2090183738,17194,-2,0,26676.8843840068,55405.9360110806,27427.5096010141,51920.6696039044,60219.1361787254,41825.4479100268,45856.2651719565,50193.6962261274,53419.4378277671,1898.5744060709
2090183738,17194,-2,0,26598.2445594402,55397.2604432459,27418.0918036732,51889.6663123995,60216.8851548132,41829.4510822816,45816.6593187978,50164.9926293221,53413.4148178397,1903.9281926730
2090183738,17194,-2,0,26523.6444102187,55400.7769076277,27417.1427233210,51886.4662081351,60221.7035627551,41839.4650967668,45802.9828275688,50160.7096000404,53413.2079669938,1907.5906694167
2090183738,17194,-2,0,26550.9122187989,55404.0743534667,27425.9521358208,51907.0052803722,60220.0365882903,41827.7597724232,45828.5958293811,50184.6556273880,53417.1259653707,1899.3166355771
2090183738,17194,-2,0,26641.0383491665,55403.4781363224,27420.3063244950,51922.7381123643,60213.6485474583,41813.4870640499,45852.3471735795,50189.1941783029,53404.9704362446,1895.6541588334
2090206189,17195,-2,0,26667.2354004262,55400.4118767230,27407.4450689531,51922.4460876406,60211.0203249445,41813.3775547785,45849.6946156721,50175.3473393184,53392.5472177884,1900.8741007705
2090206189,17195,-2,0,26603.1846443503,55392.4785383944,27408.6010001513,51904.5960764013,60204.4619363570,41814.8620137909,45825.8337622023,50162.2062267496,53394.3967077055,1902.7235906876
2090206189,17195,-2,0,26533.0987106501,55390.1545083013,27417.2035618051,51891.6374792849,60202.1257385670,41821.7002594054,45807.3753661219,50156.2805583969,53397.6819858477,1904.8286022379
2090206189,17195,-2,0,26540.2411486852,55402.3587082147,27424.6623599576,51903.2332943571,60214.7801432628,41828.9522067118,45819.3970505829,50161.4639972434,53394.8955832752,1904.9016084189
2090206189,17195,-2,0,26630.0630866322,55414.7454235804,27432.3766797433,51928.6029422330,60222.6648108041,41824.1337987699,45853.1380738730,50185.8115585862,53399.1177740728,1896.7857546380
2090206189,17195,-2,0,26676.3246699530,55406.9094268265,27427.6799487697,51922.4947584278,60215.0234971993,41807.4397187289,45856.9708983722,50185.0206582927,53397.0005948256,1890.3003722313
2090206189,17195,-2,0,26616.2162476477,55397.6619772410,27412.7988555552,51894.8010804588,60212.5169516537,41810.7493322647,45821.8062545539,50157.6798435315,53389.0307534066,1899.4991510295
2090206189,17195,-2,0,26529.9594448698,55398.1000143266,27411.3022288460,51886.2593572891,60215.6562174341,41824.5961712492,45801.0116606835,50153.1047895261,53394.8834155784,1904.6947575729
2090223800,17196,-2,0,26534.8143559022,55398.1121820235,27420.5618461282,51900.8727611735,60212.8698148616,41824.2311403445,45818.4601379276,50172.6217752301,53406.7712553744,1897.1507855426
2090223800,17196,-2,0,26620.4992769293,55400.9229199896,27419.8196166220,51916.8246117083,60211.8720637221,41816.5289882556,45843.1848978718,50181.3703492458,53401.7703319802,1895.0944447796
2090223800,17196,-2,0,26665.6657675361,55403.1252731145,27410.4261546747,51918.9539586524,60211.4583620301,41813.8885980450,45847.5287656376,50175.3595070152,53392.5593854852,1895.3256310192
2090223800,17196,-2,0,26620.1950845088,55394.6443884289,27408.6375032418,51902.1260339462,60203.7805453349,41812.9151822992,45826.0771161387,50163.5081703097,53397.3777934271,1894.0845259433
2090223800,17196,-2,0,26535.6052561957,55388.1711737191,27412.2756445918,51882.4873712740,60200.6899503418,41818.4393166568,45802.4717843022,50151.8880198438,53400.8942578089,1898.0876981980
2090223800,17196,-2,0,26520.1036104432,55396.9684185221,27419.6979396538,51891.1507714119,60210.9838218541,41829.6214300371,45809.1761852517,50155.1489625923,53402.8045862101,1901.1174547069
2090223800,17196,-2,0,26604.8151157246,55406.6660728900,27431.6952887212,51922.6772738802,60219.4647065396,41827.7354370295,45847.6504426058,50184.3636026642,53409.7401733992,1893.8411720068
2090223800,17196,-2,0,26673.4165904123,55402.1518573687,27429.4077617185,51927.5565203062,60215.4615342849,41816.5898267397,45860.7793874778,50188.9751597601,53407.7325034234,1891.9673466961
2090250061,17197,-2,0,26633.1536816252,55395.3744502383,27412.4703277410,51905.6668337217,60212.4561131696,41819.4857385836,45831.3578965599,50162.4495806861,53397.9375074810,1900.3387221103
2090250061,17197,-2,0,26540.2046455947,55393.1599294165,27410.8641917603,51890.3477034216,60213.3930258250,41829.5240884625,45805.5015408112,50150.8294302202,53400.5170592074,1904.3540620618
2090250061,17197,-2,0,26524.1067826980,55394.3036929179,27422.3139944707,51896.3585456522,60210.7283002208,41830.1203056068,45813.1793575064,50166.2215667012,53408.9857761962,1899.4383125454
2090250061,17197,-2,0,26601.1283035872,55403.5633102001,27427.2419116840,51918.8322816841,60217.4448688670,41829.2198960419,45842.1263082482,50179.2653376954,53409.3508071009,1898.4648967995
2090250061,17197,-2,0,26670.4111692970,55411.9833564016,27424.3825029306,51932.6791206686,60224.8793316259,41827.0783814011,45858.8812267734,50185.4221922878,53406.9659385236,1899.5356541199
2090250061,17197,-2,0,26654.4228156717,55405.6196509632,27419.6371011697,51920.8521193567,60220.6084700410,41815.1662062114,45845.6184372364,50179.5330270255,53408.2678820836,1898.2337105599
2090250061,17197,-2,0,26563.2015925901,55392.3081906389,27407.9682799165,51894.2778694954,60211.9085668126,41807.6709049685,45810.3199487530,50155.7208443430,53401.8068350707,1900.9349392546
2090250061,17197,-2,0,26518.8625053673,55395.0215870304,27406.5203239946,51893.6329815638,60215.7170559182,41819.1085399821,45804.6863051240,50151.7420074819,53396.7085701019,1903.4658201938
2090307296,17198,3,0,26581.4531378245,55399.9860073342,27416.1328044847,51916.7759409211,60215.5832112531,41815.9206034145,45836.3709876510,50176.1504073087,53399.7018235203,1891.1399433121
2090307296,17198,3,0,26660.9447011688,55396.1288474413,27415.5609227340,51921.1563117773,60207.4186866849,41802.0980998236,45852.3350058827,50178.9246421844,53393.1556026296,1887.4409634779
2090307296,17198,3,0,26645.5403969909,55390.3248560568,27403.5757413634,51902.8439280588,60208.2947608562,41807.3058740638,45830.6886732346,50155.4531550129,53382.6913833618,1896.7492515475
2090307296,17198,3,0,26557.3002596310,55386.6502116163,27405.6077467328,51886.5757174065,60207.4308543818,41820.7268436595,45802.5691258768,50143.7965014565,53387.4367851228,1901.6528333671
2090307296,17198,3,0,26519.2397039688,55387.1247517923,27417.8971205240,51886.8069036462,60204.3645947824,41822.5885012734,45800.9508221994,50152.2165476580,53394.7009001261,1898.2458782567
2090307296,17198,3,0,26572.8870792612,55393.8899912259,27420.4158337664,51904.0850331347,60207.3943512913,41822.2113026719,45822.2807947300,50160.8921154928,53389.6634736414,1895.6663265302
2090307296,17198,3,0,26652.8410150847,55401.0932677451,27417.7024373748,51921.6551873471,60213.2713488568,41819.4492354931,45846.2754928648,50169.7867018703,53390.0041691524,1892.2350360262
2090307296,17198,3,0,26661.9667877019,55395.6299718716,27417.4834188320,51916.5325869846,60210.3632693161,41817.7214225443,45842.0289666736,50170.4924282861,53397.2196133684,1890.2395337472
2090317920,17199,3,0,26576.4765498239,55385.6646281736,27412.6285077997,51892.0146778864,60208.0392392229,41823.6349232002,45810.9648366847,50149.5031512665,53399.0569355887,1898.5500706773
2090317920,17199,3,0,26516.7818292106,55391.8336504628,27416.9967109591,51891.3211191675,60216.3254407593,41839.6719476128,45803.5668770163,50150.1115361076,53403.1817848117,1905.8506887711
2090317920,17199,3,0,26563.5544557980,55396.2626921064,27427.5339364078,51913.0161226028,60214.6828016882,41831.9941309176,45835.7260997193,50177.1481584482,53411.2611355021,1898.0876981980
2090317920,17199,3,0,26653.9969462829,55393.3181094752,27424.0904782069,51921.7160258312,60207.5038605627,41816.1274542604,45855.6446194185,50184.4731119356,53405.8343427191,1894.1088613369
2090317920,17199,3,0,26660.1781362689,55386.4798638607,27405.4008958869,51907.9543607244,60203.9508930904,41815.0080261527,45842.4183329720,50163.9097043049,53395.2362787863,1900.0588650833
2090317920,17199,3,0,26581.7086594578,55379.3739289161,27396.8835081108,51887.7073132111,60199.2419944199,41814.7160014290,45811.9990909146,50149.8803498680,53396.7572408891,1900.4603990785
2090317920,17199,3,0,26520.8823430399,55374.5190178838,27401.9817730796,51880.6622167506,60192.8174504974,41815.8719326272,45801.7660578865,50150.5374054964,53401.1132763518,1895.8975127699
2090317920,17199,3,0,26547.4565929012,55381.2964250142,27408.2359692466,51893.8033293193,60200.2397455594,41823.1482153273,45817.3650452135,50157.8258558934,53398.5337246253,1895.0944447796
2090345993,17200,3,0,26631.9247442461,55389.9841605457,27412.5798370124,51916.5569223782,60207.9418976483,41822.1991349751,45846.8108715250,50174.7146190836,53398.6919046840,1889.3391241823
2090345993,17200,3,0,26660.7135149292,55384.3505169167,27412.2756445918,51910.7407632969,60202.5151048653,41810.9196800202,45847.3340824884,50176.3450904579,53400.3102083614,1886.0416783433
2090345993,17200,3,0,26587.1841230281,55374.6893656393,27401.6654129622,51883.6189670785,60199.7895407769,41815.0932000305,45811.0500105624,50149.6248282347,53396.1610237448,1894.0723582464
2090345993,17200,3,0,26511.7322350291,55379.3739289161,27401.8479284146,51880.7595583252,60208.2460900689,41833.4542545363,45799.3081831283,50146.4612270608,53402.3422137309,1902.6384168098
2090345993,17200,3,0,26537.1992244795,55383.8759767406,27415.7191027927,51901.8583446161,60207.6498729246,41827.9666232692,45825.3835574198,50171.4050055478,53412.9037745732,1897.9173504425
2090345993,17200,3,0,26626.7899761868,55381.6127851316,27414.0156252375,51913.5149981725,60200.8602980974,41811.9174311597,45850.9357207480,50178.3162573432,53404.2160390416,1893.8290043100
2090345993,17200,3,0,26655.9194423809,55379.2157488574,27402.2616301065,51907.8813545435,60199.8747146547,41811.7835864947,45845.8861265665,50163.0701332241,53393.5449689279,1898.0511951075
2090345993,17200,3,0,26595.5433307455,55375.6749490820,27402.1886239256,51888.6077227759,60197.4776783806,41813.4992317467,45822.1591177618,50154.7960993845,53396.7329054955,1899.5599895136
2090375214,17201,3,0,26522.5249821110,55373.5699375316,27412.1661353204,51875.6126225690,60196.3704179697,41822.1869672783,45804.5402927621,50153.3116403721,53401.4783072564,1899.0002754597
2090375214,17201,3,0,26529.0955383954,55386.4433607703,27422.0341374438,51889.3864553726,60210.9229833699,41834.9387135487,45817.2312005485,50165.1629770776,53404.7392500050,1904.7555960570
2090375214,17201,3,0,26618.5402777408,55400.9229199896,27428.8602153615,51919.5623434935,60223.2610279484,41828.4046603548,45853.9898126506,50190.0824201710,53407.7568388171,1899.4383125454
2090375214,17201,3,0,26672.2849946078,55395.8003196271,27423.1900686420,51922.6042676993,60216.9946640846,41808.5834822302,45860.7915551746,50192.1752640246,53404.2525421321,1894.1453644274
2090375214,17201,3,0,26618.6741224059,55385.9201498069,27408.2603046402,51895.5798130555,60212.4196100792,41811.8809280692,45828.5836616843,50162.0480466910,53394.4088754023,1902.8087645653
2090375214,17201,3,0,26529.7525940238,55385.1535849070,27407.1043734421,51887.0137544921,60213.1496718885,41828.6480142913,45808.5312973201,50153.5914973990,53397.9740105714,1906.0210365266
2090375214,17201,3,0,26527.9517748940,55386.3460191957,27417.2765679860,51899.3761344643,60208.0757423134,41830.9233735971,45823.3028812631,50169.9083788386,53409.3629747977,1896.7492515475
2090375214,17201,3,0,26612.4199262389,55387.4532796066,27421.9124604756,51917.4694996400,60205.5083582837,41824.9003636698,45851.1790746845,50182.4167711726,53407.6108264552,1894.0601905496
2090434935,17202,3,0,26662.6968495113,55391.1157563503,27416.5465061767,51919.7691943395,60210.3754370129,41820.5321605104,45857.1047430372,50176.2720842770,53402.5977353642,1899.3409709708
2090434935,17202,3,0,26621.8133881862,55385.7254666577,27412.9327002203,51904.2432131934,60205.8855568852,41819.5465770677,45837.6120927269,50168.6064352785,53407.9880250567,1897.7835057774
2090434935,17202,3,0,26535.8242747385,55380.1283261192,27414.0886314184,51885.3467800274,60203.9022223031,41828.9765421055,45811.9990909146,50158.3612345536,53415.1426307886,1902.9182738367
2090434935,17202,3,0,26517.6214002914,55389.4731172792,27417.5807604066,51893.9858447717,60217.6273843194,41844.4781878579,45820.5043109938,50164.3477413905,53417.2476423390,1909.1846377005
2090434935,17202,3,0,26599.5586706970,55402.9062545717,27425.2829124955,51925.8165396605,60225.5363872543,41840.4750156032,45859.0880776194,50192.0292516627,53422.6987705156,1902.9304415335
2090434935,17202,3,0,26672.2119884268,55402.0545157941,27425.4897633415,51931.8273818910,60221.3141964567,41825.7155993569,45873.7866553815,50197.9184169250,53422.6379320315,1897.5644872346
2090434935,17202,3,0,26638.1667727162,55395.5326302970,27415.3905749785,51910.5095770572,60218.7833155176,41824.5718358556,45844.2434874954,50171.8552103302,53413.9501965000,1906.0575396170
2090434935,17202,3,0,26544.3173271209,55393.2207679006,27415.2810657071,51894.3143725859,60218.8319863049,41836.2284894119,45816.1361078344,50158.4220730377,53415.5806678742,1912.0318787571
2090441065,17203,3,0,26523.5105655537,55394.7052269130,27429.5902771709,51898.8650911977,60215.5953789500,41834.8048688837,45822.8648441775,50173.8507126092,53424.2684034058,1907.3473154803
2090441065,17203,3,0,26595.0687905694,55397.8444926934,27430.5880283103,51914.0868799232,60214.7071370819,41826.7741889805,45846.1173128061,50184.3514349674,53416.0430403535,1905.3639808981
2090441065,17203,3,0,26661.8694461273,55401.6043110116,27419.4667534142,51921.7890320121,60216.9581609941,41819.3275585249,45856.9708983722,50181.8692248155,53405.4084733303,1905.8628564679
2090441065,17203,3,0,26646.2582911035,55391.4199487708,27410.6208378239,51910.0472045780,60210.0955799860,41811.3090463186,45842.6616869084,50174.2522466044,53406.2723798047,1901.4459825211
2090441065,17203,3,0,26558.6022031910,55378.8872210432,27407.4085658626,51886.1133449272,60204.3889301760,41815.2635477860,45811.3298675893,50157.8380235902,53406.3088828952,1905.0111176903
2090441065,17203,3,0,26514.0806005159,55385.6646281736,27412.3851538632,51887.4761269714,60213.2348457663,41828.8670328341,45806.9738321267,50155.5991673748,53405.8708458095,1910.3892396860
2090441065,17203,3,0,26576.2818666748,55397.2604432459,27425.8061234589,51914.4032400406,60216.7026393608,41824.3771527064,45841.4814203166,50181.5285293045,53413.5729978984,1902.3342243892
2090441065,17203,3,0,26660.6161733546,55397.2604432459,27426.4023406032,51922.9449632103,60212.3466038982,41810.6641583869,45860.8767290524,50188.2207625571,53411.7356756782,1895.9218481635
2090471321,17204,3,0,26649.8842647567,55393.6953080767,27409.2702234765,51909.0372857417,60214.2934353899,41815.7259202653,45840.8243646881,50166.6474360900,53402.2570398531,1903.2589693478
2090471321,17204,3,0,26561.1087487366,55393.1477617197,27404.8411818330,51893.8033293193,60215.4250311944,41829.4389145847,45813.8972516190,50154.3823976925,53406.4548952570,1907.8705264437
2090471321,17204,3,0,26520.6633244971,55392.8435692991,27417.4469157416,51896.5532288013,60213.8310629106,41835.0725582138,45815.1505243917,50166.2824051853,53419.3404861925,1903.1494600764
2090471321,17204,3,0,26571.4999618233,55399.0490946788,27424.2851613561,51913.1864703583,60217.1771795369,41835.0238874265,45838.3543222331,50176.5276059102,53416.6149221042,1902.1517089369
2090471321,17204,3,0,26652.3299718181,55405.8265018092,27424.6866953512,51928.9193023504,60221.2411902758,41836.7760357690,45861.4607784999,50186.2982664591,53415.0574569108,1901.2391316752
2090471321,17204,3,0,26663.0010419319,55400.7282368404,27423.8957950577,51921.2049825646,60215.9360744610,41829.0495482864,45855.9609795359,50186.2617633686,53420.3625727257,1897.9416858361
2090471321,17204,3,0,26583.8623417955,55394.1698482528,27420.2576537077,51895.6893223269,60214.3907769645,41830.7773612353,45822.1226146713,50167.7546965009,53418.7321013514,1904.6582544824
2090471321,17204,3,0,26525.3600554707,55404.4637197650,27421.5230941772,51895.5919807523,60228.0916035871,41843.4074305375,45813.6417299857,50166.1242251266,53422.5649258506,1911.9588725762
2090501992,17205,3,0,26567.1682617544,55413.8571817124,27429.8214634105,51920.2193991220,60235.4408924682,41841.7647914664,45843.3552456273,50192.3091086896,53429.4518422524,1902.3585597829
2090501992,17205,3,0,26658.5354971978,55411.0829468367,27427.9598057966,51930.5862768151,60229.7099072646,41826.0197917775,45864.5878765834,50202.8341664414,53424.2805711026,1894.7659169654
2090501992,17205,3,0,26668.4886731990,55405.6318186600,27414.8795317119,51919.1364741047,60229.1136901202,41828.3438218707,45851.8239626161,50184.6191242975,53414.5585813411,1899.7060018755
2090501992,17205,3,0,26589.1431222166,55400.8985845959,27414.8551963183,51902.3815555795,60231.0848570056,41838.5038487178,45828.0482830241,50175.3838424089,53420.0948833955,1905.5708317441
2090501992,17205,3,0,26528.9130229430,55397.7349834219,27424.2486582656,51897.7943338773,60226.0352628240,41840.0126431239,45820.7963357176,50181.0783245220,53429.0746436509,1906.3495643408
2090501992,17205,3,0,26554.5016893617,55402.5047205765,27426.4753467842,51913.9652029550,60231.1456954897,41841.4362636522,45841.1407248055,50190.3379418043,53423.8547017138,1907.1039615438
2090501992,17205,3,0,26641.5737278267,55409.4768108561,27424.4311737179,51937.6192055788,60234.6013213874,41836.6786941944,45872.8132396357,50203.8440852777,53421.0317960509,1902.9547769272
2090501992,17205,3,0,26676.6897008577,55403.5633102001,27423.5550995467,51937.1811684931,60226.8139954207,41825.7642701442,45875.5874745113,50201.7999122115,53420.8857836890,1898.1972074694
2090528329,17206,3,0,26612.9309695055,55395.7029780525,27417.9214559177,51911.3369804412,60224.4047914498,41828.0274617533,45841.4205818325,50177.5375247465,53417.2598100358,1906.0818750107
2090528329,17206,3,0,26535.5079146211,55399.3167840089,27417.9214559177,51901.6271583765,60231.0848570056,41842.1541577647,45822.6336579378,50169.5190125402,53415.1061276981,1912.5307543268
2090528329,17206,3,0,26554.9640618410,55405.6439863569,27430.6975375817,51919.3311572539,60231.1335277929,41840.1343200921,45844.6450214905,50192.6863072911,53422.6500997284,1906.0575396170
2090528329,17206,3,0,26649.3610537933,55405.5953155696,27430.9043884277,51936.9013114662,60228.1524420712,41827.7354370295,45872.8497427261,50201.2645335513,53415.8605249012,1901.1904608879
2090528329,17206,3,0,26684.2823436752,55402.6872360289,27416.7898601131,51931.9125557688,60227.4710510491,41821.0553714737,45868.7857319873,50187.1378375399,53404.2282067384,1904.3540620618
2090528329,17206,3,0,26624.4051076095,55395.8246550207,27410.6086701271,51914.5370847056,60222.7378169850,41821.3960669848,45842.4305006688,50171.4536763351,53403.0601078434,1901.8961873036
2090528329,17206,3,0,26546.0816431602,55386.0539944719,27413.8574451788,51897.9525139360,60213.5268704901,41822.3938181243,45822.1834531554,50163.6906857620,53407.5864910616,1899.3288032740
2090528329,17206,3,0,26542.8450358053,55388.6943846825,27413.3464019122,51902.5640710319,60215.4493665881,41829.5849269466,45827.5372397575,50167.8763734691,53404.6175730368,1903.8795218857
2090564905,17207,3,0,26623.6263750128,55396.2626921064,27415.6947673991,51924.2834098608,60218.5642969747,41827.5042507899,45857.6887924847,50186.0184094321,53408.2435466900,1901.2391316752
2090564905,17207,3,0,26673.4287581091,55390.1545083013,27413.3342342154,51922.0080505549,60209.3168473893,41814.5943244608,45861.1687537761,50186.5902911828,53409.3994778882,1896.2990467650
2090564905,17207,3,0,26623.0909963526,55382.1481637918,27404.3788093537,51895.6771546301,60203.9752284840,41817.3685593364,45828.5958293811,50162.1575559624,53404.3742191003,1906.3008935535
2090564905,17207,3,0,26534.1329648801,55382.4766916060,27405.4982374614,51882.5360420613,60209.7183813845,41828.4533311421,45805.2946899652,50150.3670577409,53405.1407840001,1912.8957852315
2090564905,17207,3,0,26529.7647617207,55384.4965292786,27415.1593887388,51896.8939243124,60207.8932268610,41824.3041465255,45820.0541062114,50168.9227953959,53413.5729978984,1903.6970064334
2090564905,17207,3,0,26617.4938558141,55387.1369194892,27415.3662395848,51917.2869841876,60207.5403636532,41814.9106845781,45849.2809139801,50183.8282240040,53409.9713596389,1898.7690892201
2090564905,17207,3,0,26673.0758949013,55390.5073715091,27404.3544739601,51923.3708325991,60212.4196100792,41817.6970871506,45855.4134331789,50177.3185062037,53400.8212516280,1902.6870875971
2090564905,17207,3,0,26637.5948909656,55385.4212742371,27400.8866803655,51910.3027262113,60208.5624501863,41816.8210129794,45838.1839744776,50167.6938580168,53404.7270823082,1900.8862684673
2090598499,17208,3,0,26554.5381924522,55378.1814946275,27403.2715489428,51890.7370697200,60204.9729796235,41821.5177439530,45813.9824254967,50158.6167561869,53410.2633843626,1899.3896417581
2090598499,17208,3,0,26532.6241704740,55382.9268963884,27407.4450689531,51895.7623285078,60209.0004872719,41834.6345211281,45815.6250645678,50158.1057129203,53409.9105211547,1902.9791123208
2090598499,17208,3,0,26609.9255483902,55392.9774139642,27417.5564250130,51926.0842289906,60215.7170559182,41834.4885087663,45853.5639432618,50183.9620686691,53413.8163518349,1899.0002754597
2090598499,17208,3,0,26683.0534062961,55390.8115639297,27417.8727851304,51933.1293254511,60209.8765614432,41818.2446335076,45870.7447311758,50192.2361025087,53413.7920164413,1893.8290043100
2090598499,17208,3,0,26653.8387662242,55382.4280208187,27405.0845357695,51910.9597818397,60207.4795251691,41815.6772494780,45845.5332633586,50167.7546965009,53402.8289216038,1900.6429145308
2090598499,17208,3,0,26558.6752093720,55381.7466297966,27401.7019160527,51893.3287891432,60212.1640884459,41826.8350274646,45817.8760884801,50153.4454850371,53405.4936472080,1906.5077443995
2090598499,17208,3,0,26531.8576055742,55385.0197402420,27414.6970162596,51899.5221468261,60213.0279949203,41830.1203056068,45823.6557444710,50168.6064352785,53418.3062319626,1901.2878024624
2090598499,17208,3,0,26600.4104094747,55389.6921358220,27419.4910888078,51916.4960838941,60215.0234971993,41825.3870715427,45848.9645538627,50182.3681003853,53417.7586856055,1899.5599895136
2090626193,17209,3,0,26670.0461383924,55396.1045120477,27412.8840294330,51926.1328997779,60219.8662405348,41823.3185630828,45861.0105737174,50181.1026599157,53411.2611355021,1903.7213418270
2090626193,17209,3,0,26658.3286463519,55390.2153467854,27410.4018192811,51916.5082515910,60213.7580567297,41819.4249000995,45848.5873552612,50175.7245379199,53411.8208495559,1904.2080497000
2090626193,17209,3,0,26577.0971023619,55381.6614559188,27411.1318810905,51893.7059877448,60206.5791156042,41821.4082346816,45819.6647399131,50160.6974323436,53414.2057181332,1909.6713455735
2090626193,17209,3,0,26530.5069912269,55385.3482680562,27409.9516144986,51891.7469885563,60211.6530451793,41827.4069092153,45812.0964324892,50158.5437500059,53411.0056138688,1915.6700201072
2090626193,17209,3,0,26588.9849421579,55397.6011387569,27415.0742148611,51917.0679656448,60219.0875079381,41823.6957616843,45846.1903189871,50185.6655462243,53416.6149221042,1909.2819792751
2090626193,17209,3,0,26673.4895965932,55395.8246550207,27411.7767690221,51927.8728804236,60213.8553983043,41809.5082271888,45866.9362420702,50195.3632005922,53411.9546942210,1900.3265544134
2090626193,17209,3,0,26666.2498169836,55389.1080863745,27399.2683766881,51911.7020113459,60212.0910822649,41810.5059783282,45847.4435917598,50171.2103223986,53400.7117423566,1903.5266586779
2090626193,17209,3,0,26579.0074307631,55389.1445894650,27400.4608109767,51896.8452535251,60216.3984469403,41822.9656998749,45818.5574795022,50157.1931356586,53403.7293311687,1909.5131655148
2090669186,17210,3,0,26532.7093443518,55390.6655515678,27414.0399606311,51898.1593647820,60215.0478325929,41827.8327786041,45818.7399949545,50167.7790318946,53416.3350650773,1908.1747188642
2090669186,17210,3,0,26579.6888217852,55396.9440831285,27421.9246281724,51913.6488428376,60217.8464028622,41827.6867662422,45840.4228306930,50180.3117596222,53416.6514251947,1909.4036562434
2090669186,17210,3,0,26659.8009376674,55404.9017568507,27417.6294311939,51928.7854576853,60225.0253439877,41824.6326743397,45861.4486108030,50187.8678993492,53412.2832220352,1909.6470101798
2090669186,17210,3,0,26672.3336653951,55400.3267028452,27412.5920047092,51923.5168449610,60218.9293278794,41817.2468823682,45859.3192638590,50189.3036875743,53416.7122636788,1907.0066199692
2090669186,17210,3,0,26589.9948609942,55385.3239326625,27405.9971130312,51895.2999560286,60208.2217546753,41815.8232618399,45825.1158680897,50166.9759639042,53413.3418116588,1908.6249236467
2090669186,17210,3,0,26518.9476792451,55384.5330323691,27404.9750264980,51886.4540404383,60211.6043743920,41827.0297106138,45809.5655515500,50155.4774904066,53408.2678820836,1912.8471144442
2090669186,17210,3,0,26551.7517898797,55389.2540987364,27416.2788168466,51904.2067101030,60210.8621448858,41829.1225544674,45834.8743609417,50175.2621654407,53412.3440605193,1904.0255342476
2090669186,17210,3,0,26641.1721938315,55385.1049141197,27418.8218654826,51915.6930159038,60204.3402593887,41819.7777633073,45858.1998357513,50186.1765894908,53409.8861857611,1897.4306425696
2090698520,17211,3,0,26658.3894848360,55380.6880401730,27408.2238015498,51904.1823747093,60205.4961905869,41819.7047571264,45845.4237540872,50171.1616516113,53403.9970204988,1905.1571300521
2090698520,17211,3,0,26584.0205218541,55378.6682025004,27405.1818773440,51886.4540404383,60208.8301395164,41827.1513875820,45815.7467415361,50157.0714586904,53408.6329129883,1911.9832079698
2090698520,17211,3,0,26523.1698700426,55377.0012280357,27415.2810657071,51881.5261232250,60205.0703211981,41826.4334934695,45805.0878391192,50161.1598048229,53416.9191145248,1910.3892396860
2090698520,17211,3,0,26550.1456538991,55384.5938708532,27421.2310694535,51895.1052728794,60212.0667468713,41828.6966850785,45820.0906093019,50170.3707513178,53415.5928355711,1911.3626554318
2090698520,17211,3,0,26640.8071629268,55398.5258837154,27421.6691065391,51921.4726718947,60223.0176740119,41830.5826780861,45853.9654772569,50185.5925400433,53413.0132838446,1912.1170526349
2090698520,17211,3,0,26680.6807054156,55399.1099331629,27421.0485540012,51923.8818758657,60220.5719669505,41824.6570097333,45861.1565860793,50191.8345685135,53418.5739212927,1909.4523270306
2090698520,17211,3,0,26618.1630791393,55390.5803776901,27416.3883261180,51898.1106939947,60217.9194090431,41826.1049656553,45830.7616794156,50172.4514274746,53417.6126732437,1915.1468091438
2090698520,17211,3,0,26535.8364424353,55393.7196434704,27412.9205325234,51887.0867606731,60221.8860782074,41835.4984276026,45807.4727076965,50161.7195188767,53416.8582760406,1920.0138878730
2090729731,17212,3,0,26545.9234631015,55399.2316101312,27420.8417031552,51902.0530277653,60223.7112327309,41836.0703093533,45825.0185265151,50180.4699396809,53424.3900803740,1910.1702211432
2090729731,17212,3,0,26637.1933569704,55397.4429586982,27424.2486582656,51918.2969030239,60218.9049924858,41825.4600777236,45852.1038196430,50195.1441820493,53423.8912048043,1902.3220566924
2090729731,17212,3,0,26673.0028887203,55394.4010344925,27416.7776924163,51912.7971040600,60220.1460975617,41826.8715305551,45848.1006473883,50182.1247464488,53413.7920164413,1909.3671531529
2090729731,17212,3,0,26615.4983535351,55390.3370237536,27417.5929281034,51895.2391175444,60218.2479368574,41829.8647839735,45824.0329430725,50169.8840434449,53415.2764754537,1915.3293245961
2090729731,17212,3,0,26536.9923736335,55384.2045045548,27425.2464094051,51881.2827692885,60211.4340266365,41830.7530258416,45805.8909071095,50165.4793371950,53421.6401808921,1914.6479335740
2090729731,17212,3,0,26534.2303064547,55389.1445894650,27429.6997864423,51888.3522011427,60214.8166463533,41836.2893278961,45813.9215870126,50167.3044917185,53419.6690140067,1916.9476282736
2090729731,17212,3,0,26616.4474338873,55402.0545157941,27432.7052075575,51913.4541596884,60223.1880217675,41835.7661169327,45846.0686420188,50183.1346652851,53418.4035735372,1915.4753369580
2090729731,17212,3,0,26672.5283485442,55399.1951070407,27431.8047979926,51915.6930159038,60216.9703286909,41821.9679487355,45853.7586264109,50186.2009248845,53416.5419159232,1909.8538610258
2090746075,17213,3,0,26624.5997907587,55388.6457138952,27422.9588824024,51889.2282753139,60209.9130645336,41821.1405453515,45821.4412236492,50159.8578612628,53411.2611355021,1916.1932310706
2090746075,17213,3,0,26531.6020839409,55388.0129936604,27418.5055053652,51874.5418652486,60215.6197143436,41836.9585512213,45793.9422288293,50145.7311652514,53412.3075574289,1924.5159356974
2090746075,17213,3,0,26522.5128144142,55391.2739364090,27429.1279046916,51887.9263317539,60215.3033542262,41838.5281841115,45805.4407023270,50164.2503998159,53421.9322056158,1917.7263608702
2090746075,17213,3,0,26607.6136859938,55394.8512392749,27434.5912005651,51908.7209256243,60214.7923109596,41828.6723496849,45833.2317218706,50182.6601251090,53420.7397713272,1911.5451708842
2090746075,17213,3,0,26667.8681206610,55397.5037971823,27424.3459998402,51911.0206203238,60216.3376084562,41824.0121218017,45839.3155702821,50176.4424320325,53410.8717692038,1914.5992627867
2090746075,17213,3,0,26632.3141105444,55392.4542030008,27419.1017225095,51896.4072164395,60210.6552940398,41822.6493397575,45820.6746587494,50164.1895613318,53411.7965141623,1913.5893439504
2090746075,17213,3,0,26546.0208046761,55383.4379396550,27419.6857719570,51876.7077152831,60203.4641852175,41829.2807345260,45795.3415139640,50154.2242176338,53417.6856794246,1911.6668478524
2090746075,17213,3,0,26515.5285564378,55387.2099256701,27423.1779009452,51877.0119077037,60207.9905684356,41840.4628479063,45795.0616569371,50152.8979386801,53416.6027544074,1914.2950703662
2090779084,17214,3,0,26582.3657150862,55400.3388705421,27428.8723830583,51903.2941328412,60216.2646022752,41842.0446484933,45830.6886732346,50175.6636994358,53421.1656407160,1908.6857621308
2090779084,17214,3,0,26654.6296665177,55398.3312005663,27428.7507060901,51910.2418877271,60211.6652128761,41826.8836982519,45847.9789704200,50186.6876327574,53422.0173794936,1900.8375976800
2090779084,17214,3,0,26631.5475456446,55388.9377386190,27416.2301460593,51889.0335921647,60208.2825931594,41822.1869672783,45824.0086076788,50164.1043874540,53414.3030597078,1907.3351477835
2090779084,17214,3,0,26537.4304107191,55388.0129936604,27413.9547867534,51873.0087354489,60212.6751317124,41832.1888140667,45796.0229049861,50147.9091829827,53413.0862900255,1916.2297341610
2090779084,17214,3,0,26508.2157706472,55389.1202540713,27426.2198251509,51881.7694771615,60211.2515111842,41829.8282808831,45802.3987781213,50160.1863890770,53419.5351693417,1907.0309553629
2090779084,17214,3,0,26579.2629523964,55394.1090097687,27434.2261696604,51903.0872819952,60211.2028403969,41822.5033273957,45832.4529892740,50176.6006120912,53416.0673757472,1902.0178642718
2090779084,17214,3,0,26656.8563550363,55403.7336579557,27431.1599100610,51918.8687847746,60219.7932343539,41827.2000583693,45850.7410375988,50180.1292441698,53410.0687012134,1906.2643904630
2090779084,17214,3,0,26655.0190328160,55403.2591177796,27432.0238165354,51915.3158173023,60221.6792273614,41828.0883002374,45846.0078035347,50179.5451947223,53414.5585813411,1910.7421028939
2090816699,17215,3,0,26573.4954641023,55393.4762895339,27430.5636929167,51892.4040441847,60212.6872994093,41824.9977052444,45819.5308952480,50163.8123627303,53419.6690140067,1912.3482388745
2090816699,17215,3,0,26521.6489079398,55395.4352887224,27429.4077617185,51885.8213202035,60217.0189994782,41835.0238874265,45810.2591102689,50156.9132786317,53416.5419159232,1917.7385285671
2090816699,17215,3,0,26571.4026202488,55404.3055397063,27436.5380320568,51907.2608020055,60222.9811709215,41839.6597799160,45838.1231359935,50175.8583825850,53421.6888516793,1912.4334127523
2090816699,17215,3,0,26658.6085033788,55401.7746587672,27439.7989748053,51919.1973125888,60215.4128634976,41824.8760282761,45859.5382824018,50188.0990855889,53419.5595047353,1904.2688881841
2090816699,17215,3,0,26657.4282367870,55395.1919347860,27429.1279046916,51903.5374867777,60212.5656224410,41824.2676434350,45843.2822394464,50166.2945728822,53409.5333225532,1911.2774815541
2090816699,17215,3,0,26571.5242972170,55394.2185190401,27425.4532602511,51888.4130396268,60216.9338256005,41836.5083464389,45815.1748597854,50153.4941558244,53412.8794391795,1921.5591853695
2090816699,17215,3,0,26524.1797888789,55398.0148404489,27437.4871124089,51892.3310380038,60218.6008000652,41839.6597799160,45817.7179084214,50167.7911995914,53427.1643152497,1916.3514111293
2090816699,17215,3,0,26570.5995522584,55405.8873402933,27445.1040906201,51909.1589627099,60223.0176740119,41838.9662211971,45843.4647548987,50183.0738268010,53426.3855826530,1910.5352520479
2090846103,17216,3,0,26653.0600336275,55415.6214977517,27443.0842529475,51925.6948626923,60233.2628747369,41839.1487366495,45865.5977954197,50190.1310909583,53419.7785232781,1911.3383200382
2090846103,17216,3,0,26671.5305974047,55416.7895966467,27443.8264824537,51923.4073356896,60229.7950811423,41835.5349306930,45864.3931934342,50188.6344642491,53423.0881368140,1908.9047806736
2090846103,17216,3,0,26596.5045787945,55407.7489979072,27444.9824136519,51898.0376878137,60225.9987597336,41836.0459739596,45829.5570774301,50172.6704460174,53425.4608376945,1913.0296298966
2090846103,17216,3,0,26528.9616937303,55412.6769151205,27445.8706555200,51892.6839012116,60235.8667618570,41851.3894396533,45814.5178041569,50167.0611377820,53428.2715756606,1920.3545833840
2090846103,17216,3,0,26561.7414689713,55424.2118917087,27452.7940750122,51918.3334061144,60243.7879324887,41851.2555949883,45844.2069844049,50194.1707663035,53436.0589016272,1916.2419018578
2090846103,17216,3,0,26652.2204625467,55420.8171042951,27450.6038895841,51931.7665434069,60236.0614450061,41833.2109005999,45871.3044452296,50207.9932698944,53434.5014364339,1906.1913842821
2090846103,17216,3,0,26668.1114745975,55409.5741524307,27433.2649216114,51916.9341209798,60228.1889451617,41832.2861556413,45856.1799980787,50187.9774086206,53422.6257643347,1910.1580534464
2090846103,17216,3,0,26591.0412829210,55404.7070737015,27426.6578622365,51898.0498555106,60229.6612364773,41847.3740997018,45828.4619847160,50173.6925325505,53426.3855826530,1919.2716583668
2090898653,17217,3,0,26523.8025902774,55402.4803851829,27438.6795466976,51893.5843107765,60230.4764721644,41853.5674573846,45820.7841680208,50183.1224975883,53441.5708682880,1919.6731923619
2090898653,17217,3,0,26544.8648734779,55408.6372397753,27445.3231091629,51905.1314550615,60233.5792348543,41857.1812633411,45836.8576955239,50194.3532817559,53441.8020545277,1920.1112294475
2090898653,17217,3,0,26632.6061352682,55421.5228307108,27446.8319035690,51930.0508981549,60244.9438636869,41856.5972138936,45866.4008634100,50208.3583007991,53440.3540986057,1920.6587758046
2090898653,17217,3,0,26672.6621932093,55421.5349984076,27447.8296547084,51932.6182821845,60242.1817965081,41847.6174536382,45872.3873702469,50211.7652559095,53442.0454084641,1914.1490580043
2090898653,17217,3,0,26616.8246324888,55413.1879583871,27445.2987737693,51909.9011922161,60236.1709542775,41848.2501738730,45840.7026877199,50190.7516434963,53441.6073713785,1919.1986521858
2090898653,17217,3,0,26534.8995297799,55413.5164862013,27442.8652344047,51898.5122279898,60239.6509155689,41859.1889333168,45817.5475606659,50174.3009173917,53438.9061426838,1927.7525430523
2090898653,17217,3,0,26544.3538302114,55420.2208871507,27450.2996971635,51914.0990476200,60242.1817965081,41857.4611203680,45835.3489011178,50192.0170839659,53441.0233219310,1921.2671606457
2090898653,17217,3,0,26639.0428468875,55421.6323399822,27452.9035842836,51931.9368911624,60235.9884388252,41843.8211322295,45865.6221308133,50208.5773193419,53435.4383490893,1912.1170526349
2090905010,17218,3,0,26681.6176180710,55417.6291677275,27438.2171742183,51928.1040666632,60234.8690107175,41837.3479175197,45864.0524979231,50193.6597230370,53420.3747404225,1916.1688956769
2090905010,17218,3,0,26627.5808764803,55414.2100449202,27432.1698288973,51910.8746079619,60233.7739180034,41841.8499653441,45839.1817256171,50178.9489775780,53418.2575611753,1921.9242162742
2090905010,17218,3,0,26548.7220333708,55405.4249678141,27438.2171742183,51896.9425950997,60226.5341383938,41840.3776740286,45822.0496084903,50176.6857859689,53425.4973407849,1920.3667510808
2090905010,17218,3,0,26543.1613959227,55408.9657675895,27441.3929430891,51901.1039474131,60227.5683926237,41842.5678594567,45828.4498170192,50180.4334365904,53425.3026576358,1922.5569365090
2090905010,17218,3,0,26618.2969238044,55419.7220115810,27438.1563357342,51924.2834098608,60234.7473337493,41839.4894321605,45858.9420652575,50194.5844679955,53425.3148253326,1919.6853600587
2090905010,17218,3,0,26672.0416406713,55415.2199637565,27431.9021395672,51928.7367868980,60228.8946715774,41826.1414687457,45869.0899244078,50198.4172924947,53424.6699374010,1909.6348424830
2090905010,17218,3,0,26626.3154360107,55399.5723056422,27417.9457913113,51901.3594690464,60217.4813719575,41819.4735708868,45839.3885764630,50172.5244336555,53415.8848602948,1908.3815697102
2090905010,17218,3,0,26527.7935948353,55392.9165754801,27410.8155209731,51883.4729547167,60216.3011053657,41833.0892236316,45808.3487818677,50151.8758521470,53410.0930366071,1910.9246183462
2090946207,17219,3,0,26508.7633170043,55392.9044077832,27418.6515177270,51892.7447396958,60214.0622491503,41834.3789994949,45819.4822244607,50167.4018332930,53417.0772945835,1900.3508898071
2090946207,17219,3,0,26589.2161283975,55392.7340600277,27422.5086776199,51910.1810492430,60209.1951704211,41825.0585437285,45849.2200754960,50184.2662610896,53414.9966184267,1890.7140739233
2090946207,17219,3,0,26648.9595197982,55392.6732215436,27412.2148061077,51912.0792099474,60210.4849462843,41825.8251086283,45855.3404269979,50178.5961143701,53405.3476348461,1898.8907661883
2090946207,17219,3,0,26622.8963132034,55392.0891720961,27411.6064212666,51903.2576297508,60214.8166463533,41833.6854407760,45840.7391908104,50174.0575634552,53411.2246324116,1913.0904683807
2090946207,17219,3,0,26543.8549546416,55386.3946899830,27418.7366916048,51888.8875798029,60211.9450699031,41838.2361593877,45817.7179084214,50170.8209561003,53420.4599143002,1921.6930300345
2090946207,17219,3,0,26519.3492132402,55392.1378428834,27424.8448754099,51893.0976029036,60218.6008000652,41847.5322797605,45817.3528775167,50173.1571538903,53421.5671747111,1934.5542855764
2090946207,17219,3,0,26592.5622450239,55403.7458256525,27429.2130785693,51920.5965977235,60227.5927280174,41843.8211322295,45847.2732440043,50190.9949974327,53421.2629822905,1934.5177824859
2090946207,17219,3,0,26670.8978771700,55401.2757831974,27427.8989673125,51926.9603031619,60217.8342351654,41823.4280723542,45860.7672197810,50195.8742438587,53420.0218772146,1924.0778986118
2090967401,17220,3,0,26652.5976611483,55388.3658568683,27414.6361777755,51902.5275679414,60209.0369903624,41815.2635477860,45835.3610688147,50171.5996886970,53408.2557143868,1922.9219674136
2090967401,17220,3,0,26555.6454528630,55384.7642186087,27404.3909770505,51877.8636464813,60208.6597917609,41825.7642701442,45800.4762820233,50147.4833135939,53403.1939525085,1924.8079604212
2090967401,17220,3,0,26520.6998275876,55389.1202540713,27414.6361777755,51884.6532213085,60209.1586673306,41832.8458696952,45807.6917262393,50162.8754500749,53415.8848602948,1918.9309628557
2090967401,17220,3,0,26585.4684777761,55393.7561465609,27422.6181868913,51906.1170385042,60208.1974192816,41830.1689763941,45839.7779427614,50181.4920262140,53418.1845549943,1913.8083624933
2090967401,17220,3,0,26661.3827382544,55401.2149447133,27419.1868963872,51918.9539586524,60217.4327011702,41833.3690806586,45857.0560722500,50183.3293484343,53413.7920164413,1918.5659319510
2090967401,17220,3,0,26657.3430629092,55401.6164787085,27416.9602078686,51915.8025251752,60218.5399615811,41834.6588565218,45850.8627145671,50179.5938655096,53419.0362937719,1920.7682850760
2090967401,17220,3,0,26577.8271641713,55394.1698482528,27418.4324991842,51894.7280742779,60214.1109199375,41834.7683657932,45823.2907135663,50169.4460063593,53425.8745393864,1921.4618437949
2090967401,17220,3,0,26527.5380732021,55395.1919347860,27419.1138902063,51887.9019963602,60220.8031531902,41844.2348339214,45812.7413204208,50165.8443680997,53423.4896708091,1925.7935438639
2091021343,17221,3,0,26575.3206186257,55403.1496085082,27429.0427308138,51911.4586574094,60226.7166538461,41842.7868779995,45843.5377610797,50186.1644217940,53426.1422287165,1922.0458932424
2091021343,17221,3,0,26661.0177073497,55399.8278272755,27434.5912005651,51924.2469067703,60220.3164453173,41826.0076240807,45869.7591477331,50199.1838573946,53423.5505092933,1915.0007967819
2091021343,17221,3,0,26662.6481787240,55392.3446937294,27425.3072478892,51908.4045655069,60214.2082615121,41825.1558853031,45855.7906317804,50181.5285293045,53415.3859847251,1921.7903716091
2091021343,17221,3,0,26572.6558930215,55389.7529743061,27417.4469157416,51887.8776609666,60216.3862792434,41835.9242969914,45823.7409183487,50164.3112383000,53414.3638981919,1931.0743242850
2091021343,17221,3,0,26517.7187418659,55385.5916219927,27422.9953854928,51887.4882946682,60213.4903673996,41834.5371795536,45817.8639207833,50174.2035758171,53424.3900803740,1924.7592896339
2091021343,17221,3,0,26558.2736753768,55384.1193306771,27424.2243228719,51901.9191831002,60211.9572375999,41826.8106920710,45834.9351994258,50187.1013344494,53419.9853741241,1916.8137836085
2091021343,17221,3,0,26640.4786351126,55389.0837509808,27417.6294311939,51916.0215437180,60216.6661362704,41825.2410591808,45850.7532052957,50189.8877370218,53411.6626694972,1915.4388338675
2091021343,17221,3,0,26663.5850913794,55390.0328313330,27418.7853623921,51914.9751217913,60217.6882228035,41826.0562948680,45848.3318336279,50190.6299665280,53415.7266802361,1914.2950703662
2091041898,17222,3,0,26593.2801391364,55381.7831328871,27420.5375107346,51889.4837969472,60212.4196100792,41826.2144749267,45814.0432639808,50172.3175828095,53418.6104243831,1918.2860749241
2091041898,17222,3,0,26521.6854110302,55385.6159573863,27419.5154242015,51877.8514787845,60213.2591811599,41837.0193897054,45793.9543965262,50157.7285143188,53414.0110349841,1927.7768784460
2091041898,17222,3,0,26544.9500473557,55395.1797670891,27425.6357757034,51898.0863586010,60217.1771795369,41836.8125388594,45817.2433682453,50175.0918176851,53414.8019352776,1923.7737061912
2091041898,17222,3,0,26641.6467340076,55397.8079896029,27431.6344502371,51919.5258404030,60211.5557036047,41825.8129409315,45849.4999325229,50192.6741395943,53416.7000959819,1916.5217588848
2091041898,17222,3,0,26669.7054428813,55394.5227114607,27421.6569388423,51913.3446504170,60209.9252322305,41823.4524077479,45842.9537116322,50179.1679961208,53407.6108264552,1921.0846451934
2091041898,17222,3,0,26599.5099999098,55393.3059417784,27416.5100030862,51895.6528192364,60215.5710435563,41835.7296138422,45814.2136117364,50163.5933441875,53409.0587823771,1930.4781071407
2091041898,17222,3,0,26534.9968713545,55394.3523637052,27427.8016257379,51893.6938200479,60218.4547877033,41844.6242002198,45810.1617686943,50172.9989738316,53423.6600185647,1930.1374116296
2091041898,17222,3,0,26555.9496452836,55399.1951070407,27434.0314865112,51909.0616211353,60221.3141964567,41844.3200077992,45828.5836616843,50185.1545029577,53426.9209613132,1929.7602130281
2091058233,17223,3,0,26641.3182061934,55408.9779352863,27429.5537740804,51930.5862768151,60228.7486592156,41842.3610086107,45856.2895073501,50193.6475553401,53421.1169699287,1929.2978405489
2091058233,17223,3,0,26682.8343877533,55405.8873402933,27422.2653236834,51932.9954807860,60222.0929290534,41832.3956649127,45865.3301060896,50197.5533860203,53422.1877272491,1924.7592896339
2091058233,17223,3,0,26625.8165604410,55394.1698482528,27413.7722713010,51905.9101876582,60213.9527398789,41829.6214300371,45836.5291677096,50180.3604304095,53422.2607334300,1926.8886365779
2091058233,17223,3,0,26538.8905343379,55392.6002153627,27411.6429243570,51891.7226531626,60219.4403711460,41846.7900502543,45812.5466372716,50167.4383363835,53421.1048022319,1936.1117507697
2091058233,17223,3,0,26543.0518866513,55402.0910188846,27427.3635886523,51909.1346273162,60226.1691074891,41855.0640840939,45831.8811075233,50189.1455075156,53428.6487742621,1933.8728945543
2091058233,17223,3,0,26637.8260772052,55405.6804894473,27438.7647205754,51930.2820843945,60224.6846484767,41843.5656105962,45863.7239701089,50211.4853988826,53430.8146242966,1925.6840345924
2091058233,17223,3,0,26681.3377610440,55400.7769076277,27430.1743266184,51921.9593797676,60224.9523378068,41838.4916810210,45859.6842947637,50200.7656579816,53421.5428393175,1927.1198228176
2091058233,17223,3,0,26626.7899761868,55398.1243497203,27427.2784147745,51901.4081398337,60226.3637906383,41841.4971021363,45831.0902072298,50185.3370184101,53420.7032682367,1929.3951821234
2091123672,17224,3,0,26544.0009670035,55390.9697439884,27432.4253505306,51883.8258179245,60219.4282034492,41838.7837057448,45806.6209689189,50181.3338461553,53427.4076691861,1925.8057115607
2091123672,17224,3,0,26534.9847036577,55390.8602347170,27434.6763744428,51886.8312390398,60217.4083657766,41841.0955681411,45809.6142223373,50182.3194295980,53424.8646205501,1927.9350585047
2091123672,17224,3,0,26611.6168582486,55399.3776224930,27430.6366990976,51911.3856512285,60223.3340341293,41835.3402475439,45838.8897008933,50192.7228103816,53417.5518347595,1928.3730955903
2091123672,17224,3,0,26670.8978771700,55396.2383567127,27425.4897633415,51918.6254308381,60216.6418008767,41820.1549619088,45855.0484022742,50197.5655537171,53416.3107296836,1919.6123538778
2091123672,17224,3,0,26633.8594080409,55383.4866104423,27417.5077542257,51897.5631476376,60204.9243088362,41816.7966775857,45831.0780395330,50177.1481584482,53409.2047947390,1922.0945640297
2091123672,17224,3,0,26542.0419678150,55385.4212742371,27415.8286120641,51881.5504586186,60211.1298342159,41836.8977127372,45804.9539944541,50160.8069416150,53409.3021363136,1932.7047956593
2091123672,17224,3,0,26528.1586257400,55395.8003196271,27429.3712586280,51899.5343145229,60222.6404754104,41845.7679637211,45820.4191371161,50181.9787340869,53421.5428393175,1929.9062253900
2091123672,17224,3,0,26610.8746287424,55399.4871317645,27434.6763744428,51921.4483365011,60224.1857729069,41837.1897374610,45854.1601604061,50206.1802830678,53426.6897750736,1920.2450741126
2091134006,17225,3,0,26675.2295772389,55402.2126958528,27426.8647130825,51922.9571309071,60226.8504985112,41836.6056880135,45858.6378728369,50198.5389694629,53420.0462126082,1926.7426242160
2091134006,17225,3,0,26646.3069618908,55400.9594230800,27422.1314790184,51906.5064048025,60223.6382265499,41838.0414762386,45835.4705780861,50180.7497967078,53419.2066415275,1934.7368010287
2091134006,17225,3,0,26559.4174388782,55391.9431597342,27426.8647130825,51885.4319539052,60214.1960938153,41837.9197992703,45807.0468383077,50170.4802605892,53425.6920239341,1935.5398690190
2091134006,17225,3,0,26525.1410369279,55391.6633027073,27430.0648173470,51883.9109918023,60212.9063179521,41844.2104985278,45802.7151382387,50168.0588889215,53425.3878315135,1938.7643086771
2091134006,17225,3,0,26589.4838177277,55401.1419385324,27432.7417106480,51911.8115206173,60222.2146060216,41846.5101932273,45833.9009451959,50186.8701482097,53423.9277078948,1934.5542855764
2091134006,17225,3,0,26667.9046237515,55399.7669887914,27433.6664556065,51924.5510991909,60217.8950736495,41835.8634585073,45856.4111843183,50200.2424470182,53425.4973407849,1924.9904758735
2091134006,17225,3,0,26657.1848828505,55391.2130979249,27429.5051032931,51908.1368761768,60214.8166463533,41840.0369785175,45840.7513585072,50184.8381428403,53423.4166646282,1928.5434433458
2091134006,17225,3,0,26565.2335979595,55393.5979665022,27431.0504007896,51889.7393185805,60225.5607226479,41858.1911821774,45812.4249603034,50169.0931431514,53427.0426382814,1940.2122645990
2091163084,17226,3,0,26525.8345956468,55399.9251688501,27446.4425372706,51895.8475023856,60231.4498879102,41862.8149069701,45815.7954123234,50185.9210678576,53441.2180050802,1939.5065381833
2091163084,17226,3,0,26589.8245132387,55405.1086076967,27456.6755702987,51915.5591712388,60233.0073531036,41855.5629596636,45844.8640400334,50207.7134128675,53447.6912197900,1936.3672724030
2091163084,17226,3,0,26667.3084066072,55409.6471586116,27449.1559336622,51926.2180736557,60238.3246366152,41848.5178632031,45858.6257051401,50205.9977676154,53439.1129935298,1941.7088913083
2091163084,17226,3,0,26664.8383641521,55407.4204700930,27439.9206517735,51919.1973125888,60236.7793391187,41849.6737944013,45850.0718142736,50199.7435714484,53436.9349757985,1943.5948843158
2091163084,17226,3,0,26585.8943471649,55397.7958219061,27439.2027576610,51898.3662156279,60225.9622566431,41848.9802356824,45822.8648441775,50187.1256698430,53440.1837508502,1944.2276045506
2091163084,17226,3,0,26530.8598544347,55396.4817106492,27437.7304663454,51891.4427961357,60226.3272875478,41854.0541652576,45814.0554316777,50177.5131893529,53435.0854858814,1946.3204484042
2091163084,17226,3,0,26571.5242972170,55404.5853967333,27438.0954972501,51912.1643838252,60229.8194165360,41853.7134697465,45839.4615826440,50192.7471457752,53431.9827231916,1939.1171718850
2091163084,17226,3,0,26658.8396896184,55403.3807947478,27439.1175837832,51927.5565203062,60223.4922141880,41832.9432112698,45865.1110875467,50206.9833510581,53429.3545006778,1926.7304565192
2091186108,17227,3,0,26666.6270155851,55395.7881519303,27429.9431403787,51913.1864703583,60219.0145017572,41830.0229640322,45852.0673165525,50190.5812957407,53420.5207527843,1929.0666543092
2091186108,17227,3,0,26580.8934237707,55393.3789479593,27424.6136891703,51891.9660070991,60226.1691074891,41842.7625426059,45819.4213859766,50171.8795457239,53418.1358842070,1938.6304640121
2091186108,17227,3,0,26524.1067826980,55395.4352887224,27433.0824061590,51894.8254158525,60228.7608269124,41844.9527280340,45816.6349834041,50181.2243368839,53429.7316992793,1936.1117507697
2091186108,17227,3,0,26564.9172378421,55395.8733258080,27441.3807753923,51912.5415824267,60228.3714606140,41838.8932150162,45842.9415439353,50198.7579880058,53431.8975493138,1930.1130762360
2091186108,17227,3,0,26646.2461234067,55402.0666834909,27434.2505050540,51927.8363773331,60232.5328129275,41838.5890225956,45865.6342985101,50201.8972537861,53423.6235154742,1931.4880259770
2091186108,17227,3,0,26664.7775256680,55400.7525722340,27428.7872091805,51926.8264584968,60229.5395595090,41836.2041540183,45866.2426833513,50200.0842669595,53423.8303663202,1930.7701318644
2091186108,17227,3,0,26592.3675618747,55387.3316026383,27424.0661428132,51901.9921892812,60220.6084700410,41835.4254214216,45837.9406205411,50186.5051173051,53427.5415138512,1931.5488644611
2091186108,17227,3,0,26519.6290702671,55386.8083916750,27426.8282099921,51892.7812427862,60224.9888408973,41851.3042657756,45820.9301803826,50178.4501020083,53429.8290408539,1940.6989724720
2091243676,17228,3,0,26542.6381849593,55398.9882561947,27436.7327152059,51914.4762462215,60236.2561281553,41859.8824920357,45844.4138352509,50198.7579880058,53437.3000067032,1940.5529601101
2091243676,17228,3,0,26640.6854859586,55403.3686270510,27446.0896740628,51936.8526406789,60233.4818932797,41845.6219513593,45876.8285795872,50221.4507425805,53442.1062469482,1935.8805645301
2091243676,17228,3,0,26673.6477766519,55400.0590135151,27436.7570505996,51928.5177683552,60230.6224845263,41837.3600852165,45868.6640550190,50203.3208743144,53433.6862007468,1939.9810783594
2091243676,17228,3,0,26602.0287131521,55398.5988898964,27429.0914016011,51905.7276722058,60229.1380255139,41846.1816654131,45834.2538084038,50177.3793446879,53425.8988747801,1944.9333309663
2091243676,17228,3,0,26529.0346999113,55397.4916294855,27439.7503040180,51896.9304274028,60226.0230951272,41853.1294202990,45821.2100374096,50180.1535795635,53434.4284302530,1941.0640033766
2091243676,17228,3,0,26540.5575088026,55401.3244539847,27451.1149328506,51905.8006783868,60225.6702319194,41852.1438368564,45833.8887774991,50191.3356929438,53435.1828274560,1938.5087870438
2091243676,17228,3,0,26623.9549028270,55413.4069769299,27453.7066522739,51926.7777877095,60237.0348607520,41852.3750230960,45861.8623124950,50202.5908125050,53431.4716799250,1942.0130837288
2091243676,17228,3,0,26671.8591252190,55418.0185340258,27452.9157519804,51934.5894490698,60239.1277046055,41851.7788059517,45874.1030154989,50209.0761949116,53435.9007215685,1940.5286247164
2091254980,17229,3,0,26625.2081755998,55409.6593263084,27448.8882443320,51913.3811535075,60233.8834272748,41850.6715455408,45847.8694611486,50194.1342632130,53441.8385576181,1943.9477475237
2091254980,17229,3,0,26542.1758124801,55408.1383642056,27444.5565442631,51898.2445386597,60238.9573568500,41864.1655213174,45822.2321239427,50178.5596112797,53439.4901921313,1952.0027628205
2091254980,17229,3,0,26541.5065891548,55416.6557519816,27453.8039938485,51914.8169417326,60247.8641109244,41871.5026425017,45838.1474713871,50198.5754725534,53448.9079894723,1950.1897759939
2091254980,17229,3,0,26632.0342535175,55418.8581051066,27462.9054310721,51938.0694103612,60244.0191187283,41856.3660276539,45871.9615008581,50223.1298847421,53450.3681130910,1940.6503016847
2091254980,17229,3,0,26683.9294804673,55414.8427651550,27455.9455084893,51935.8427218426,60242.4616535350,41847.4227704891,45873.1539351467,50211.9234359682,53441.0476573246,1944.0937598856
2091254980,17229,3,0,26634.9301653613,55412.1780395508,27447.2456052609,51919.8422005204,60244.2503049680,41857.4246172775,45848.0154735105,50193.5502137655,53438.8209688061,1949.4110433972
2091254980,17229,3,0,26557.7504644134,55412.1050333698,27450.8472435205,51912.2738930966,60244.2381372712,41861.6224726814,45834.0956283451,50195.1441820493,53450.0395852768,1947.5493857833
2091254980,17229,3,0,26551.7882929702,55415.3659761184,27452.5872241662,51920.1707283347,60247.8884463180,41862.7297330923,45842.3209913974,50204.5863147840,53452.9841679080,1946.9531686389
2091282566,17230,3,0,26626.4492806757,55427.1564743398,27449.7764862001,51943.8855694426,60257.2940759622,41867.1587747359,45871.5477991661,50217.6665888686,53450.2464361228,1945.7972374408
2091282566,17230,3,0,26688.5653729569,55429.3709951616,27452.9035842836,51953.6075592041,60257.2089020844,41862.7053976987,45887.9741898771,50228.0334665618,53454.9431670964,1940.2365999927
2091282566,17230,3,0,26659.8009376674,55422.8369419677,27455.3979621323,51934.6016167667,60253.9601270327,41865.3214525156,45864.8433982166,50216.6931731228,53454.7728193409,1945.3226972647
2091282566,17230,3,0,26568.4215345271,55424.4065748578,27459.7905006854,51915.5835066324,60260.8105403440,41880.4215642729,45834.2294730101,50198.6119756439,53455.5515519376,1957.5025617844
2091282566,17230,3,0,26544.8162026906,55434.3597508590,27473.3574826430,51925.0378070638,60265.7506252541,41884.4247365276,45842.0898051577,50212.2154606919,53461.8179158014,1953.3412094710
2091282566,17230,3,0,26621.3510157069,55437.0488118569,27483.1768139791,51946.1609287485,60261.3580867010,41870.6995745113,45874.6383941591,50237.6946178392,53461.5745618650,1945.7972374408
2091282566,17230,3,0,26687.9204850252,55435.3575019985,27471.4836573322,51947.9374124846,60256.5883495464,41857.9964990282,45881.1724473530,50229.2015654568,53448.0197476042,1949.3502049131
2091282566,17230,3,0,26663.0375450223,55430.3200755138,27460.1920346806,51935.2465046983,60255.4324183483,41858.0330021187,45863.6631316248,50212.1789576015,53443.8948983812,1956.2371213149
2091313110,17231,3,0,26579.8470018439,55418.5174095955,27457.2596197462,51916.1067175958,60244.6761743568,41856.6945554681,45839.8874520328,50200.1572731404,53447.2531827043,1953.9130912217
2091313110,17231,3,0,26546.9212142410,55416.1933795024,27457.8801722842,51914.0747122264,60242.0236164494,41860.4300383928,45835.6895966289,50193.6232199465,53443.8462275939,1954.5458114565
2091313110,17231,3,0,26606.9687980622,55425.1488043640,27457.4664705922,51936.0739080822,60248.6428435211,41859.3227779819,45863.6144608375,50207.2753757818,53439.9403969138,1952.3434583315
2091313110,17231,3,0,26688.5045344728,55424.4674133420,27455.0816020149,51951.7093984997,60245.4914100439,41846.8387210416,45885.0782780332,50222.5214999010,53441.4126882293,1942.6944747509
2091313110,17231,3,0,26680.4251837823,55415.6336654485,27447.3307791387,51935.2586723951,60239.1155369087,41843.1640766010,45867.8488193319,50209.6115735718,53436.5577771970,1946.0040882868
2091313110,17231,3,0,26586.4297258251,55416.7044227689,27445.5421277057,51912.1400484315,60244.8343544155,41861.2574417767,45833.5115788976,50188.8899858824,53437.1053235540,1957.5390648749
2091313110,17231,3,0,26544.1713147590,55426.7184372542,27462.4187231992,51918.8566170778,60251.6969354236,41877.4039754608,45835.6652612352,50202.2136139035,53450.1369268514,1957.0888600925
2091313110,17231,3,0,26605.4600036562,55434.7247817637,27477.5310026532,51939.4808631927,60252.2688171743,41874.9704360962,45865.6221308133,50225.0037100528,53458.1554390577,1951.0536824683
2091367295,17232,3,0,26684.7933869418,55440.8938040529,27474.2213891174,51950.3587841524,60256.4545048814,41869.4219663449,45880.2598700913,50223.3732386786,53451.1225102940,1953.0126816568
2091367295,17232,3,0,26682.8100523596,55440.1880776372,27468.6242485789,51943.6300478093,60257.0385543289,41867.8523334548,45871.2071036550,50215.4520680468,53449.0296664405,1952.4894706934
2091367295,17232,3,0,26604.5717617881,55431.4030005310,27473.1384641002,51922.2635721882,60251.1007182793,41868.0591843008,45845.7279465078,50209.6237412687,53457.3888741579,1952.7206569330
2091367295,17232,3,0,26549.6467783293,55430.6364356312,27479.2344802085,51915.2306434245,60255.0187166563,41876.6252428641,45835.5557519638,50204.8418364172,53459.0680163194,1956.9550154274
2091367295,17232,3,0,26589.8853517228,55445.5175288456,27490.1002334713,51938.8116398674,60266.4806870635,41885.0939598529,45863.2737653265,50224.1884743657,53460.7836615715,1957.5390648749
2091367295,17232,3,0,26685.3044302083,55453.2318486314,27499.1529999076,51960.5309786964,60268.9020587313,41870.8455868732,45896.3699006849,50243.4864415269,53463.3388779043,1953.2925386837
2091367295,17232,3,0,26704.5050557949,55448.0605774816,27488.3845882193,51950.4317903333,60263.4265951609,41859.5417965247,45885.0539426395,50229.8464533884,53454.2861114680,1956.8455061560
2091367295,17232,3,0,26625.3906910522,55445.2498395155,27474.1240475428,51928.8341284726,60265.9939791906,41870.2737051225,45853.1624092666,50205.4380535616,53449.3460265579,1966.8716883381
2091379567,17233,3,0,26565.7568089229,55445.1524979410,27477.6526796215,51927.8485450299,60265.8236314351,41879.2047945906,45848.7820384104,50212.6048269903,53460.4429660604,1966.5553282207
2091379567,17233,3,0,26600.8727819539,55442.4391015494,27483.3471617346,51942.3281042492,60258.2796594048,41872.6707413967,45871.8398238898,50229.9194595693,53461.4285495031,1957.9040957796
2091379567,17233,3,0,26682.4328537581,55444.4711069189,27477.0564624772,51957.6959053366,60258.9975535174,41868.2051966626,45891.4419834716,50231.0632230707,53451.0981749004,1959.4250578825
2091379567,17233,3,0,26703.1301060539,55441.9888967670,27470.6927570388,51957.5620606716,60257.6834422605,41862.4620437622,45888.8015932610,50225.2957347766,53446.7299717410,1957.5634002686
2091379567,17233,3,0,26636.8769968530,55435.0654772747,27472.1772160512,51934.6624552508,60251.4779168808,41866.5625575915,45861.5094492872,50213.4687334647,53449.7110574626,1959.7900887872
2091379567,17233,3,0,26566.3895291577,55440.9181394466,27479.0276293625,51924.4294222227,60259.3017459380,41884.0840410166,45844.1826490113,50205.9004260408,53453.3126957222,1969.2930600059
2091379567,17233,3,0,26585.9065148617,55461.2990316250,27494.6874551736,51946.7571458928,60277.1152540867,41898.0890600598,45867.6784715764,50226.6585168208,53464.2636228628,1974.5008342461
2091379567,17233,3,0,26680.0236497872,55468.3319603887,27505.5532084365,51969.4620681644,60278.6240484928,41884.4855750117,45901.1031347490,50251.0669166476,53473.7544263847,1965.9712787732
2091407419,17234,3,0,26710.5524011159,55460.3986220601,27495.2106661370,51956.7468249844,60271.6276228196,41873.3764678124,45893.3766472664,50239.6536170277,53465.2857093959,1965.2777200543
2091407419,17234,3,0,26639.6025609413,55452.3922775506,27479.7820265655,51930.9148046293,60268.6222017043,41877.2092923116,45856.5450289834,50211.4732311857,53458.0459297863,1972.7121828131
2091407419,17234,3,0,26562.7635555045,55446.9533170708,27480.1470574702,51921.5335103788,60262.5383532929,41878.7302544145,45841.8221158276,50209.6359089655,53463.2415363297,1966.6283344016
2091407419,17234,3,0,26572.0961789677,55443.7775482000,27483.2741555537,51930.9756431134,60256.2719894290,41874.9704360962,45854.8415514282,50219.2118863651,53463.0833562710,1961.9559388216
2091407419,17234,3,0,26656.4061502538,55453.8280657757,27481.4976718175,51951.9040816489,60264.1566569703,41879.6063285857,45883.4356389621,50229.8829564788,53459.1045194099,1964.6206644259
2091407419,17234,3,0,26697.5207978186,55454.2417674677,27478.2488967658,51955.4692168180,60264.2661662417,41876.3575535340,45891.5028219557,50234.4945135747,53460.2239475176,1960.1672873887
2091407419,17234,3,0,26646.5503158272,55440.8816363561,27474.5985877189,51932.6669529718,60257.9267961970,41868.3512090245,45863.7361378057,50220.9762024045,53462.5601453076,1959.4493932761
2091407419,17234,3,0,26556.0348191614,55433.1186457831,27469.2082980264,51915.2914819087,60258.6203549159,41876.9902737688,45838.8045270155,50202.9680111065,53460.0170966716,1966.6770051889
2091450608,17235,3,0,26549.4642628770,55436.7932902236,27472.0677067797,51930.1117366390,60264.6190294496,41881.4436508060,45852.5661921223,50215.7684281642,53462.8156669409,1964.2069627339
2091450608,17235,3,0,26636.3172827992,55433.1673165704,27472.2745576257,51951.7093984997,60256.4180017909,41864.1776890142,45886.7452524979,50236.4291773696,53461.0513509016,1950.4696330208
2091450608,17235,3,0,26692.2400173974,55427.6675176064,27461.4331397565,51948.9960021082,60253.1570590424,41860.7950692975,45890.9674432955,50229.4814224837,53449.4677035261,1952.1487751823
2091450608,17235,3,0,26646.3921357686,55426.1708908972,27452.1491870806,51932.1072389180,60256.6491880306,41869.2272831958,45865.1597583340,50210.1347845352,53444.6006247969,1961.1407031345
2091450608,17235,3,0,26565.0997532945,55425.0271273958,27459.9608484409,51921.5091749852,60256.7830326956,41874.4715605265,45847.2124055202,50207.9811021976,53451.1103425972,1961.6760817947
2091450608,17235,3,0,26554.7572109950,55428.2515670539,27467.2614665347,51925.8530427510,60256.9290450575,41874.4472251328,45851.8361303129,50215.2087141104,53453.5195465682,1960.9216845917
2091450608,17235,3,0,26626.7534730963,55439.7743759452,27464.8400948669,51944.8103144011,60266.0426499779,41876.8320937101,45877.4612998220,50224.2006420625,53448.0562506947,1959.2547101269
2091450608,17235,3,0,26692.7267252703,55446.4909445915,27467.2979696252,51954.9581735515,60270.2405053818,41873.8388402917,45893.1576287236,50234.2633273351,53453.5682173555,1956.2979597990
2091485246,17236,3,0,26669.4499212480,55441.1249902926,27465.8986844905,51935.0518215491,60265.8479668287,41872.0136857682,45870.3553648774,50224.3831575149,53457.8755820308,1958.0136050510
2091485246,17236,3,0,26575.1502708702,55440.1759099404,27462.4187231992,51913.2838119329,60267.9773137727,41885.6658416036,45837.3565710936,50204.4524701189,53458.4474637815,1968.3804827442
2091485246,17236,3,0,26546.7630341823,55451.1268370810,27472.6760916209,51925.0378070638,60275.4847827125,41893.2828198147,45847.1272316424,50220.0757928396,53468.8995153524,1965.9347756827
2091485246,17236,3,0,26620.5357800198,55455.2151832135,27481.4855041207,51949.0446728955,60273.0147402574,41880.0930364587,45885.8205075394,50244.9952359329,53473.8517679593,1955.3245440531
2091485246,17236,3,0,26690.8772353532,55453.0858362695,27473.5034950049,51953.9604224120,60271.8466413624,41872.7802506681,45897.7813535163,50242.5373611747,53464.7868338262,1956.0667735593
2091485246,17236,3,0,26669.1335611306,55451.3823587143,27463.5989897910,51944.0194141076,60273.3554357685,41872.9871015141,45881.3427951085,50226.7923614858,53458.6664823243,1960.6174921711
2091485246,17236,3,0,26586.4418935219,55441.5386919845,27463.4408097323,51927.6295264871,60266.4928547603,41869.7991649464,45857.4089354578,50219.0050355191,53462.0247666474,1960.6539952616
2091485246,17236,3,0,26546.9577173315,55433.3254966291,27461.7373321771,51922.5312615183,60259.2165720602,41867.0857685549,45850.0353111831,50213.0306963791,53455.7584027836,1959.7049149094
2091506162,17237,3,0,26599.6560122716,55439.1294880136,27459.8270037759,51941.2938500193,60263.8767999434,41863.2164409652,45873.3607859927,50221.0127054949,53444.9534880048,1960.5444859902
2091506162,17237,3,0,26674.1223168280,55434.9072972160,27455.2276143768,51950.2979456683,60255.7487784657,41847.8121367874,45890.7605924495,50229.0312177012,53438.8696395933,1952.1852782728
2091506162,17237,3,0,26669.2065673116,55420.6467565396,27443.8264824537,51929.3816748296,60244.4206527235,41839.8179599747,45871.6086376502,50212.5074854157,53431.1066490203,1951.8324150649
2091506162,17237,3,0,26576.1601897065,55413.8328463187,27434.0801572985,51903.0751142984,60245.4792423471,41853.5309542942,45832.1731322470,50185.3735215005,53424.7551112787,1961.7977587629
2091506162,17237,3,0,26530.9571960093,55420.2938933317,27443.8143147569,51909.2684719813,60253.5220899471,41869.9086742178,45833.0857095088,50198.6606464312,53438.4316025077,1961.8220941566
2091506162,17237,3,0,26592.0877048478,55429.5656783108,27457.4177998049,51935.5628648157,60255.8582877371,41871.1984500811,45869.6253030681,50228.6661867966,53452.6434723969,1956.4439721608
2091506162,17237,3,0,26678.2836691415,55436.0997315047,27454.5583910515,51950.1884363969,60263.8889676402,41873.9118464726,45890.9187725082,50237.3782577218,53451.7430628320,1958.1596174129
2091506162,17237,3,0,26681.9704812788,55437.4381781552,27449.5087968700,51947.4750400053,60271.2260888244,41879.5576577984,45887.0981157058,50235.7234509539,53453.7629005046,1959.6927472126
2091532791,17238,3,0,26606.3239101306,55432.7049440911,27455.8481669148,51932.5696113972,60271.2260888244,41883.7311778087,45867.5446269113,50233.6427747971,53465.1883678214,1958.2204558970
2091532791,17238,3,0,26548.5030148280,55427.8622007556,27457.6124829541,51923.5046772641,60269.7416298120,41886.8582758922,45855.0849053646,50229.0677207917,53466.3321313227,1960.2889643569
2091532791,17238,3,0,26581.8546718197,55439.2755003755,27461.2871273946,51944.2992711346,60279.9381597497,41890.0948832471,45879.4446344042,50244.2773418204,53466.7336653179,1960.5688213838
2091532791,17238,3,0,26672.0051375808,55443.1326602683,27464.3655546908,51963.6215736894,60278.3441914659,41874.2282065900,45909.4623424664,50260.6793971377,53468.8143414746,1954.3146252168
2091532791,17238,3,0,26689.8794842137,55433.5931859592,27454.0838508754,51949.4218714970,60266.2860039143,41860.3935353023,45897.0026209197,50244.8005527838,53460.6984876937,1955.2637055690
2091532791,17238,3,0,26608.0517230795,55428.7382749268,27444.4348672948,51922.0932244327,60264.4973524814,41866.9884269803,45858.7717175020,50215.1843787167,53450.1369268514,1963.5012363182
2091532791,17238,3,0,26542.2974894483,55430.8189510835,27450.7620696428,51919.0026294397,60266.2616685207,41871.3079593525,45849.0497277405,50216.6688377291,53455.4785457567,1962.0776157899
2091532791,17238,3,0,26572.4977129628,55430.9649634454,27460.2528731647,51933.1171577543,60261.5040990629,41863.5206333858,45868.8587381682,50232.8762098973,53455.5150488471,1953.0491847472
2091562849,17239,3,0,26654.7148403954,55435.3818373921,27455.4344652228,51945.5160408168,60263.7307875815,41860.6368892388,45887.8646806056,50235.7112832570,53445.5253697555,1953.2438678964
2091562849,17239,3,0,26677.4806011512,55434.8342910351,27446.9779159308,51944.7616436138,60264.6798679337,41855.7211397223,45885.8205075394,50228.4593359506,53440.4757755740,1953.9495943121
2091562849,17239,3,0,26614.5979439702,55424.9662889117,27442.0986695048,51923.6993604133,60254.0087978200,41847.9581491493,45859.3557669495,50216.2916391276,53442.7146317894,1955.9450965911
2091562849,17239,3,0,26541.3849121866,55418.7850989256,27437.0855784138,51909.9620307002,60251.9646247537,41854.6625500987,45838.1839744776,50202.9436757129,53440.7069618136,1960.9946907726
2091562849,17239,3,0,26553.1389073175,55424.4552456451,27441.2956015145,51927.4835141252,60259.2165720602,41863.4476272049,45857.7252955752,50217.5570795972,53443.4203582051,1960.1307842982
2091562849,17239,3,0,26642.7783298121,55423.4818298993,27447.3794499260,51948.5579650226,60254.9457104753,41852.0708306754,45891.7340081953,50240.0308156292,53447.0098287679,1948.2429445022
2091562849,17239,3,0,26680.1088236649,55411.7156670715,27437.5479508931,51939.9067325815,60243.3620630999,41840.4141771190,45888.4730654468,50228.3741620728,53438.3585963268,1946.4421253724
2091562849,17239,3,0,26615.2063288113,55405.1207753935,27427.2297439872,51913.2594765392,60243.3498954031,41851.8031413453,45852.7365398778,50200.5588071356,53433.2724990548,1955.7017426546
2091589310,17240,3,0,26538.0631309539,55405.5101416918,27434.5790328683,51910.0228691843,60246.4891611834,41861.5981372878,45838.7071854410,50204.2821223634,53444.8683141271,1955.5678979896
2091589310,17240,3,0,26547.2375743584,55405.9360110806,27442.3785265318,51920.0612190633,60244.8465221123,41858.2520206615,45851.4710994082,50218.9928678223,53447.6547166995,1947.7562366293
2091589310,17240,3,0,26631.8274026715,55417.0207828863,27440.9305706098,51941.8170609827,60252.7676927440,41855.7211397223,45878.9944296217,50228.5931806156,53441.4613590166,1947.5128826928
2091589310,17240,3,0,26679.0502340413,55420.3790672094,27434.5790328683,51947.6210523672,60251.3684076094,41849.1627511347,45886.2828800187,50228.9582115203,53436.8254665271,1944.4831261839
2091589310,17240,3,0,26633.8837434346,55407.8220040882,27428.9210538456,51924.7092792496,60238.8843506691,41841.5457729236,45861.1444183825,50209.5142319972,53434.3554240720,1939.7255567261
2091589310,17240,3,0,26547.6269406567,55401.4704663466,27424.8448754099,51904.6934179759,60233.7252472161,41848.6273724745,45831.7107597678,50186.8701482097,53427.3955014893,1945.5782188980
2091589310,17240,3,0,26536.4326595796,55410.1825372718,27431.4762701784,51917.9805429065,60238.8356798818,41854.6625500987,45843.1362270845,50193.8544061861,53429.1598175286,1946.6611439152
2091589310,17240,3,0,26623.7115488906,55414.1492064361,27439.9571548640,51942.9608244840,60236.0736127030,41837.3479175197,45877.5099706093,50217.8491043210,53432.1774063407,1935.8075583491
2091627304,17241,3,0,26682.2868413962,55410.1947049686,27433.7272940907,51940.9774899019,60230.9510123405,41829.9012870640,45883.1679496320,50210.0374429606,53422.5162550633,1936.7688063981
2091627304,17241,3,0,26639.1280207653,55407.1284453693,27426.2198251509,51924.3564160418,60234.8811784143,41841.1929097157,45857.6036186070,50190.0094139901,53417.7830209992,1943.7773997682
2091627304,17241,3,0,26556.8378871517,55407.7124948168,27433.6542879097,51916.1918914736,60236.1709542775,41851.3529365629,45841.6517680721,50193.3068598291,53431.3621706536,1942.6701393573
2091627304,17241,3,0,26544.0861408813,55410.0608603036,27442.6948866492,51923.2004848436,60237.3633885662,41849.5521174331,45848.5386844739,50204.9756810823,53436.8741373144,1939.2996873373
2091627304,17241,3,0,26617.1531603030,55419.6733407937,27442.0013279303,51946.0514194771,60247.5477508070,41850.1848376679,45878.6293987170,50217.1677132989,53432.2747479153,1941.2221834353
2091627304,17241,3,0,26681.0579040171,55420.6345888427,27435.5281132205,51955.8220800259,60248.3264834037,41840.5601894809,45892.4275669142,50224.3709898181,53430.6807796315,1936.8174771854
2091627304,17241,3,0,26657.2092182441,55409.8296740640,27431.1964131515,51937.1446654027,60238.6409967326,41834.7196950059,45873.1052643594,50211.5340696699,53428.5149295970,1937.9004022027
2091627304,17241,3,0,26560.6585439541,55405.1694461808,27425.4167571606,51910.5825832382,60238.6409967326,41844.0279830755,45837.0888817635,50189.2063459998,53424.2197326185,1947.5493857833
2091656071,17242,3,0,26525.8832664341,55414.4655665535,27433.6177848193,51916.8367794052,60243.9826156379,41853.1902587831,45840.9947124437,50197.0788458442,53428.5514326875,1950.1776082970
2091656071,17242,3,0,26597.4171560562,55420.1357132730,27446.2965249088,51940.3326019703,60240.7946790703,41841.6917852854,45872.5212149119,50220.0392897491,53431.4108414409,1939.1658426723
2091656071,17242,3,0,26669.5594305194,55418.4565711114,27440.8697321257,51943.5448739315,60236.4873143949,41827.5772569708,45881.6348198323,50211.9112682714,53419.5960078258,1938.7886440708
2091656071,17242,3,0,26648.3389672602,55416.5340750134,27427.2540793809,51929.1626562868,60237.3147177789,41833.4785899300,45859.3801023431,50191.9927485722,53410.5310736927,1945.4565419297
2091656071,17242,3,0,26562.0334936951,55409.7323324894,27428.3856751854,51909.9985337907,60232.3989682624,41840.2803324540,45834.6553423989,50181.7475478473,53418.7807721387,1944.9576663600
2091656071,17242,3,0,26524.7638383264,55408.1383642056,27434.5425297778,51907.5771621229,60232.0947758419,41845.6462867529,45832.3678153962,50183.6457085517,53420.0948833955,1943.9842506142
2091656071,17242,3,0,26579.7861633598,55418.3470618400,27437.0612430201,51930.4402644532,60241.5125731828,41849.5764528267,45858.3093450227,50198.3929571011,53418.6225920800,1944.5439646680
2091656071,17242,3,0,26662.3074832130,55420.6345888427,27439.4947823847,51946.4407857754,60240.3566419846,41839.5137675541,45883.6789928986,50212.9820255918,53420.7884421144,1938.3506069851
2091683522,17243,3,0,26663.7311037412,55409.0509414673,27434.1774988731,51930.3672582723,60230.1722797438,41826.5430027409,45867.9339932097,50199.4637144215,53419.6446786131,1934.2744285494
2091683522,17243,3,0,26571.7311480630,55401.5921433148,27425.3924217669,51901.8948477066,60228.7851623060,41832.7728635142,45828.3889785351,50171.0156392495,53416.1890527154,1943.2298534111
2091683522,17243,3,0,26516.0517674012,55405.7778310219,27428.4830167600,51902.7587541810,60232.2529559006,41839.5624383414,45822.2199562459,50175.5055193771,53421.7375224666,1941.8549036701
2091683522,17243,3,0,26566.7910631529,55409.6958293989,27440.5168689179,51922.6164353961,60229.4787210249,41831.6291000129,45852.0429811589,50198.8796649740,53426.5680981053,1929.0788220060
2091683522,17243,3,0,26647.4263899985,55410.0243572131,27435.7471317633,51930.6592829960,60229.4057148440,41819.1572107694,45867.1065898257,50200.0477638690,53412.1737127638,1922.7637873549
2091683522,17243,3,0,26648.1321164142,55407.9193456628,27421.4744233900,51921.3753303201,60228.6513176410,41816.4559820747,45856.8978921913,50186.8579805129,53400.8820901121,1919.7705339365
2091683522,17243,3,0,26570.3318629283,55399.3897901899,27418.0066297954,51902.2963817018,60221.9590843883,41813.6452441086,45830.8103502029,50176.9534752991,53403.7293311687,1913.9422071583
2091683522,17243,3,0,26510.8683285546,55392.5272091817,27416.5830092671,51889.7271508837,60217.3231918988,41816.8331806762,45815.2722013600,50169.9327142322,53400.8820901121,1911.0584630113
2091725461,17244,3,0,26542.1149739959,55400.1441873929,27419.4910888078,51907.4554851547,60225.5363872543,41831.9089570398,45833.0735418119,50179.7763809620,53400.6022330852,1912.3117357840
2091725461,17244,3,0,26632.5331290872,55405.7534956283,27429.6511156550,51929.2599978614,60225.1226855623,41829.4875853720,45862.9087344218,50198.2591124360,53407.3309694283,1911.3626554318
2091725461,17244,3,0,26662.2709801225,55404.2933720095,27433.2405862177,51925.0378070638,60224.6846484767,41829.7552747021,45861.0957475952,50194.9008281129,53412.1858804606,1925.3433390814
2091725461,17244,3,0,26587.4639800550,55404.0986888604,27431.3667609070,51902.7709218779,60230.0384350788,41843.7967968358,45830.1289591808,50171.8187072398,53414.4490720697,1948.4376276513
2091725461,17244,3,0,26519.4587225116,55406.4348866504,27436.0148210934,51902.7830895747,60233.9442657589,41851.2555949883,45821.9035961285,50176.6979536658,53427.3224953084,1954.6431530310
2091725461,17244,3,0,26548.6611948867,55406.1671973203,27446.8197358721,51918.7227724127,60231.1091923992,41846.8752241320,45846.8230392219,50198.7458203089,53435.5965291480,1948.9486709179
2091725461,17244,3,0,26633.3118616839,55409.7445001862,27442.3176880477,51932.4357667322,60234.8690107175,41846.1938331099,45868.3963656889,50205.1703642315,53431.9705554947,1950.3114529621
2091725461,17244,3,0,26661.5044152226,55413.2852999617,27438.5335343357,51932.1437420084,60239.3467231483,41850.6715455408,45867.6663038796,50200.6074779229,53431.1918228981,1951.5647257348
2091757631,17245,3,0,26600.6172603206,55407.1162776724,27440.4681981306,51910.2297200303,60232.5084775338,41848.3475154476,45841.7491096467,50189.7782277504,53436.1440755050,1946.8679947612
2091757631,17245,3,0,26526.0171110992,55404.4637197650,27444.2523518425,51894.5333911287,60231.2187016706,41855.7698105096,45820.2244539669,50178.2189157686,53433.4428468103,1949.6909004241
