steady_timestamp,sequence,battery,flags,EEG-ch1,EEG-ch2,EEG-ch3,EEG-ch4,EEG-ch5,EEG-ch6,EEG-ch7,EEG-ch8,EEG-ch9,EEG-ch10
8659030053,10415,-2,0,54641.5612966634,57374.4138353993,37789.3863707665,54894.4790428251,55831.4647043725,62020.8678857826,63355.9075811958,58137.9854818263,66658.8653868738,19491.2631929153
8659030053,10415,-2,0,54622.7135342847,57316.7511201554,37746.4709040720,54830.3674482650,55777.2697827232,62003.5045824162,63310.9966122223,58064.2005682919,66630.6363302446,19472.1112381160
8659030053,10415,-2,0,54623.2610806417,57230.8106774950,37696.7536948534,54761.7538058804,55696.8048036330,62017.5704399435,63285.9433244638,57979.4890630106,66633.9581114773,19430.2908641355
8659030053,10415,-2,0,54639.1399249956,57220.4803028923,37704.5531885169,54773.3617886495,55687.0828138715,62051.1046123876,63315.1092937484,57991.9731199509,66661.9559818669,19422.5522089561
8659030053,10415,-2,0,54650.2611998918,57304.6564295134,37767.3141687297,54860.0687962098,55767.5477929616,62055.1199523391,63367.7102471140,58100.1804477974,66683.9308423291,19471.3811763066
8659030053,10415,-2,0,54634.1390016014,57358.2916371090,37790.8221589916,54896.9612529770,55824.0302416137,62012.6060196398,63368.7445013440,58152.7448980725,66663.4647762729,19511.4737373382
8659030053,10415,-2,0,54605.3623986151,57303.1719705010,37735.2887906917,54825.4030279612,55775.8218268012,61992.5414875788,63314.9876167802,58075.2366693103,66630.7580072128,19489.1095105776
8659030053,10415,-2,0,54603.6832564536,57216.4162921534,37678.6116588904,54752.7253748378,55694.8336367477,62009.6371016150,63285.3957781068,57981.1560374754,66635.0045334040,19434.0020116665
8659066211,10416,-2,0,54622.1659879276,57208.9696616978,37687.7252638108,54771.4514602483,55689.5893594170,62037.7688166696,63316.8492743941,57996.9983787388,66663.8784779649,19417.4417762905
8659066211,10416,-2,0,54635.8789822471,57279.3111170312,37737.8440070245,54848.1566210201,55753.9199725199,62025.7836352990,63355.6155564720,58081.5760393551,66669.2565999606,19438.2972086450
8659066211,10416,-2,0,54624.2466640843,57324.6966261808,37755.3046519654,54874.5361877323,55796.3974021288,61990.6798299648,63347.5483734784,58117.5072480732,66642.5363377374,19464.2874090588
8659066211,10416,-2,0,54601.3835617540,57288.5098958294,37721.0525854088,54822.0082405476,55765.5279552890,61973.5233774445,63300.5323929545,58061.0491348148,66614.1977718368,19468.8502953674
8659066211,10416,-2,0,54591.1505287259,57203.9444029099,37664.4849628790,54742.6261864748,55685.5740194655,61988.8668431382,63262.8003651066,57961.8702380110,66611.6060524135,19439.7208291733
8659066211,10416,-2,0,54611.0933838187,57183.3931629760,37667.4538809038,54744.9623842648,55662.8569294970,62037.3551149777,63289.8856582345,57950.5299445720,66645.3349080067,19428.7090635485
8659066211,10416,-2,0,54638.9087387560,57270.0149966585,37735.3861322663,54843.8857594353,55742.8352007142,62055.3389708820,63359.3510393966,58056.1090499047,66677.7131492526,19463.7276950049
8659066211,10416,-2,0,54644.2868607517,57352.5484842085,37782.1830942473,54915.8941892334,55823.2515090171,62026.6962125608,63388.4561701971,58140.7597167019,66667.0542468357,19494.8404957812
8659092331,10417,-2,0,54626.0718186078,57328.4807798927,37752.1045477010,54872.6988655120,55802.4325797530,61995.7415918432,63350.5902976841,58094.1331024764,66634.3839808661,19483.5002023422
8659092331,10417,-2,0,54612.9550414327,57235.1058744735,37691.1443866181,54782.6700767191,55717.5993975035,61998.3941497506,63305.4603101678,57990.5860025131,66623.5790660873,19439.3801336622
8659092331,10417,-2,0,54617.3110768953,57193.7357052755,37678.4534788317,54763.0800848341,55680.0742205015,62024.2140024089,63313.1381268631,57970.6309797235,66643.2298964564,19419.7779740805
8659092331,10417,-2,0,54630.9510650338,57254.1118169109,37728.0611787789,54832.3021120598,55740.0974689291,62045.1667763380,63361.3708770693,58057.8368628535,66669.5972954717,19452.5090785342
8659092331,10417,-2,0,54631.2065866671,57330.5371206558,37772.4732721826,54892.0211680668,55816.3402572216,62025.0535734897,63382.4453279666,58141.5506169954,66666.8473959897,19493.3925398593
8659092331,10417,-2,0,54611.1785576965,57323.4068503176,37751.3379828012,54868.5131778049,55814.4785996077,61995.6442502686,63346.7818085786,58121.2305633011,66641.5994250821,19494.2199432432
8659092331,10417,-2,0,54599.9721089226,57243.6841007337,37688.3701517424,54785.4078085042,55739.0023762150,61989.5847372508,63301.2867901576,58024.7042244047,66628.9206849926,19451.9371967835
8659092331,10417,-2,0,54617.9316294332,57198.1647469190,37667.3687070260,54763.4086126483,55689.9665580185,62025.1022442769,63309.6459978749,57985.2200482142,66654.0591466288,19422.5278735625
8659140087,10418,-2,0,54640.4783716462,57257.2875857817,37722.6587213895,54837.3517062414,55741.7279403033,62046.1036889933,63365.2888754462,58069.7612057400,66684.0160162068,19445.2814666214
8659140087,10418,-2,0,54637.0714165357,57336.7183106419,37777.0726615817,54903.6413185327,55818.0559024737,62024.4330209517,63383.5647560743,58153.6088045469,66676.0340070910,19481.1761722490
8659140087,10418,-2,0,54613.6242647579,57327.1788363327,37758.9062902250,54869.7421151840,55811.1324829814,61998.9051930172,63342.7664686270,58121.9119543231,66642.8770332485,19485.6782200735
8659140087,10418,-2,0,54605.1920508596,57252.1041469351,37707.2544172116,54792.0392032727,55739.8541149926,62006.7655251648,63301.4449702163,58028.4275396325,66638.3019792431,19470.6146114067
8659140087,10418,-2,0,54610.0469618920,57194.1980777548,37679.2930499125,54755.2562557770,55682.3495798074,62016.7917073469,63298.7924123089,57978.0776101791,66652.3678367704,19448.0435338002
8659140087,10418,-2,0,54623.6382792432,57226.2234557927,37706.8042124292,54804.4015832448,55709.6782268717,62024.4086855580,63337.2058311789,58031.6276438969,66667.1150853198,19449.3333096634
8659140087,10418,-2,0,54626.1813278792,57305.0701312054,37749.8413560919,54874.0494798593,55785.7263320151,62003.7236009590,63368.2334580774,58127.3265794094,66659.8388026197,19473.4496847665
8659140087,10418,-2,0,54607.1997208354,57318.4911008011,37738.2212056260,54867.6249359368,55802.4204120562,61961.7572146167,63344.2874307298,58135.8683025791,66628.3731386355,19478.5844528258
8659159154,10419,-2,0,54581.7692344755,57235.3857315004,37670.8365006206,54779.1779477309,55727.8811013188,61945.9148733532,63285.1645918672,58038.6727403574,66600.2414235809,19438.3458794323
8659159154,10419,-2,0,54573.4952006359,57154.9450878039,37625.7551838916,54718.9600161541,55652.2101947770,61975.8717429313,63265.2825752585,57966.1654349895,66610.3649473376,19391.3542343021
8659159154,10419,-2,0,54588.3154553662,57188.8807942431,37669.0235137939,54776.0021788601,55684.3450820864,62017.0350612833,63315.6568401055,58029.4131230751,66646.0041313320,19403.1690679172
8659159154,10419,-2,0,54599.1203701450,57279.9438372660,37736.9679328533,54864.9845457263,55772.3662009035,62008.3838288422,63358.8156607364,58134.2013281143,66654.4728483208,19454.1152145148
8659159154,10419,-2,0,54585.4925497033,57297.7573454148,37740.2045402082,54861.6749321904,55789.9850259031,61970.3354408769,63335.5753598046,58136.4036812393,66627.6674122198,19478.9616514273
8659159154,10419,-2,0,54563.0309813681,57222.1351096602,37682.9190235657,54779.5064755451,55719.5097259047,61942.6174275142,63282.7432201994,58042.5907387344,66597.8443873068,19458.0332128918
8659159154,10419,-2,0,54553.4063331812,57136.4745240267,37629.5758406940,54713.5088879775,55636.8667290832,61943.7003525315,63255.9499517953,57958.7309722307,66587.5505157946,19414.6797091117
8659159154,10419,-2,0,54571.6335430219,57149.1045933289,37645.8927221335,54747.4080913262,55648.5233826396,61976.0299229900,63289.9464967186,57986.8991903758,66607.9070725794,19403.7531173647
8659194974,10420,-2,0,54595.9324335774,57243.7814423082,37708.2643360479,54842.1822818801,55741.1317231590,61988.9641847128,63342.6934624460,58099.0731873865,66625.2947113393,19436.8735881167
8659194974,10420,-2,0,54593.8517574206,57296.2485510088,37727.2824461822,54872.9787225389,55793.0877885930,61962.4629410324,63340.3207615656,58139.3482638704,66611.9224125309,19462.2797390830
8659194974,10420,-2,0,54578.4717886364,57241.6520953642,37682.2132971500,54802.0288823644,55744.3804982107,61953.5561869580,63291.1024279168,58062.2294014066,66595.8245496342,19444.0525292423
8659194974,10420,-2,0,54578.3136085777,57161.0046008218,37639.0909796095,54731.4075700040,55664.8280963823,61981.8095789809,63266.4628418503,57972.9793452103,66610.2189349757,19407.1965755656
8659194974,10420,-2,0,54591.4425534497,57167.3683062602,37663.7914041601,54759.0890802762,55669.7560135956,62010.9512128719,63298.8775861866,58002.5711838837,66642.7431885834,19405.7121165532
8659194974,10420,-2,0,54601.8094311429,57255.9248037375,37727.0025891553,54842.6324866625,55752.1313210870,62014.6136896156,63341.9999037271,58104.8041725901,66658.4030143946,19440.5725679509
8659194974,10420,-2,0,54591.6494042957,57300.4829095032,37741.9080177634,54862.1981431538,55793.9638627642,61977.1371834009,63331.3896720975,58134.2013281143,66636.1847999959,19466.5019298806
8659194974,10420,-2,0,54565.0629867376,57246.9085403917,37690.9740388625,54791.5768307934,55738.7346868849,61946.6205997690,63276.6593717879,58059.8932036166,66603.8917326278,19448.6397509445
8659219363,10421,-2,0,54553.6861902081,57162.9514323134,37639.2734950619,54717.5972341100,55655.6171498874,61966.3079332285,63246.8971853590,57970.6674828140,66600.5212806078,19407.5616064703
8659219363,10421,-2,0,54569.9422331636,57156.6607330560,37650.6624592881,54731.5535823659,55644.6175519594,62004.0886318637,63278.1316631035,57978.5521503552,66626.5114810216,19387.0103665363
8659219363,10421,-2,0,54598.3416375483,57247.0910558441,37721.0525854088,54828.4449521670,55730.7648454659,62018.6898680513,63342.3162638445,58089.5093776837,66648.3038260315,19415.9329818844
8659219363,10421,-2,0,54606.2141373928,57316.6294431872,37755.0734657258,54884.9517362127,55800.0720465694,61980.6658154796,63358.5114683159,58153.2194382486,66630.4903178827,19457.9602067109
8659219363,10421,-2,0,54590.2501191610,57275.1497647178,37708.5928638622,54829.7103926366,55764.1651732449,61951.6580262537,63312.8095990489,58087.3070245587,66598.0512381528,19453.4338234927
8659219363,10421,-2,0,54582.1951038643,57185.6685222819,37644.2014122751,54746.9213834533,55677.6528488337,61959.7495446409,63277.2920920227,57984.1614585906,66590.6532784844,19411.8446357519
8659219363,10421,-2,0,54588.7291570582,57167.2344615951,37642.4735993263,54750.3891770478,55655.5319760096,61982.9776778759,63298.4517167978,57984.1249555001,66612.9688344577,19388.0689561599
8659219363,10421,-2,0,54596.2609613916,57236.4564888208,37696.0114653472,54821.1686694668,55719.5583966919,61991.1908732314,63337.8628868073,58071.2700001461,66626.6574933835,19411.7594618742
8659270561,10422,-2,0,54589.8850882564,57298.9132766130,37734.3275426427,54862.3076524252,55782.6479047189,61981.4932188635,63342.5352823873,58129.6749448962,66621.8877562289,19448.3355585239
8659270561,10422,-2,0,54570.3437671587,57272.8622377151,37708.6658700431,54817.9198944151,55761.3909383692,61958.1677440539,63299.2912878786,58088.0614217617,66603.0156584565,19451.0124518250
8659270561,10422,-2,0,54558.3464180913,57186.7757826928,37653.2298433178,54733.8776124591,55681.2058163060,61971.0533349894,63255.3415669541,57991.0118719019,66600.9958207839,19419.8388125646
8659270561,10422,-2,0,54577.4010313160,57160.4570544647,37649.5673665741,54722.0262757535,55651.6626484199,62010.8173682068,63271.1960759144,57970.8378305695,66629.4560636528,19401.0640563668
8659270561,10422,-2,0,54600.9820277589,57237.5880846254,37709.8704720286,54806.0807254064,55722.0162714502,62026.2703431719,63327.1796489968,58068.3619206054,66656.2128289664,19423.1484261004
8659270561,10422,-2,0,54602.9775300378,57319.9998952072,37752.3600693343,54872.6258593311,55803.1018030783,61997.1895477651,63350.3469437477,58151.7471469330,66643.6192627547,19459.6636842661
8659270561,10422,-2,0,54587.9382567647,57302.0890454838,37721.1742623771,54835.4657132338,55787.0647786656,61964.5436171892,63309.3296377575,58110.3161392509,66610.6813074550,19457.3883249602
8659270561,10422,-2,0,54575.0039950419,57210.1742636833,37653.6800481002,54746.0088061915,55698.8854797898,61966.2835978348,63262.9828805589,58004.2746614389,66596.6154499277,19413.1344116152
8659288383,10423,-2,0,54586.0279283635,57173.7198440017,37642.7534563532,54732.7460166545,55665.5216551013,62008.7975305342,63277.3772659005,57982.6161610941,66625.1365312806,19392.0842961115
8659288383,10423,-2,0,54607.2483916227,57237.8192708650,37694.9285403300,54805.7643652890,55724.7175001449,62025.6497906340,63325.0746374464,58065.1131455537,66652.4043398608,19414.0834919673
8659288383,10423,-2,0,54606.3844851483,57314.1228976417,37740.5695711128,54864.6073471248,55795.8741911654,61998.1386281173,63343.1558349253,58142.3293495920,66643.2542318500,19444.8312618389
8659288383,10423,-2,0,54583.0955134292,57306.4085778559,37721.2837716485,54835.6847317766,55788.8290947050,61952.9964729042,63305.0952792632,58117.5924219510,66609.7687301933,19445.9506899466
8659288383,10423,-2,0,54562.3009195588,57213.2648586763,37654.3979422128,54744.9745519616,55702.4262795652,61952.5341004249,63250.0972896235,58008.0709828477,66586.8204539852,19409.2650840255
8659288383,10423,-2,0,54584.7503201971,57167.0032753555,37641.8895498788,54722.0506111472,55659.0727757851,62017.8259615768,63263.8467870334,57969.3047007698,66620.9508435735,19393.9702891190
8659288383,10423,-2,0,54625.1105705588,57240.5813380438,37711.2089186791,54811.4101766148,55727.1875425999,62053.6354933268,63337.7047067486,58065.2834933092,66669.1470906892,19429.4026222674
8659288383,10423,-2,0,54635.5261190392,57338.0932603829,37772.9113092682,54898.0076749037,55821.8157207920,62029.2027581063,63378.1988017754,58172.6390823780,66671.5684623570,19479.4726946938
8659312568,10424,-2,0,54617.7734493745,57343.6904009214,37756.3024031049,54877.3347580015,55829.0189973111,61995.8024303273,63345.6623804708,58156.8332442050,66642.2564807105,19487.7467285334
8659312568,10424,-2,0,54603.8657719059,57265.2330918071,37691.5945914005,54792.2825572092,55751.8879671505,61984.9610124581,63291.7838189389,58054.6124231955,66622.2162840431,19452.7767678643
8659312568,10424,-2,0,54607.6134225274,57204.9786571399,37653.6313773129,54751.1070711603,55691.2076630945,62000.9615337802,63281.8914814218,57995.4774166360,66633.2158819711,19412.8180514978
8659312568,10424,-2,0,54618.7346974236,57236.3591472463,37683.3083898641,54795.1906367499,55716.5164724862,62019.4686006479,63319.1733044873,58042.8219249740,66651.6012718705,19415.4706094052
8659312568,10424,-2,0,54621.8617955071,57322.5916146304,37742.1757070935,54870.0949783919,55794.4627383340,62016.0008070534,63353.8634081295,58133.6294463636,66654.3511713525,19459.1648086963
8659312568,10424,-2,0,54609.1830554175,57351.5142299786,37751.2649766202,54875.6191127495,55822.1685839998,61994.9263561561,63338.4104331644,58146.3933603309,66633.6904221472,19478.5357820385
8659312568,10424,-2,0,54595.0685271029,57284.7379098143,37702.2778292110,54797.8066915668,55756.3535118845,61982.8194978172,63288.7905655204,58054.3082307749,66613.0905114259,19451.7911844216
8659312568,10424,-2,0,54605.7639326103,57212.3644491114,37665.7504033486,54744.9623842648,55684.5397652355,62013.6281061729,63275.4791051961,57978.2966287220,66628.3123001514,19421.2624330929
8659395297,10425,-2,0,54633.0439088873,57243.1243866798,37703.8231267076,54796.7481019432,55712.1239339331,62046.0063474188,63325.7803638622,58031.9196686207,66664.6937136520,19427.6504739249
8659395297,10425,-2,0,54644.0678422089,57335.7935656833,37762.0820590958,54885.6209595380,55797.9426996253,62034.4348677401,63370.1316187818,58138.0219849167,66670.6193820048,19462.5717638068
8659395297,10425,-2,0,54626.8748865981,57364.5093301855,37763.7612012574,54888.4560328977,55827.3033520591,62002.5798374577,63350.5172915032,58153.2802767327,66647.5615965253,19484.2667672421
8659395297,10425,-2,0,54605.3623986151,57298.7672642511,37712.0849928503,54811.5683566735,55769.8231522675,61982.6613177585,63301.5179763972,58073.9468934471,66627.8499276722,19469.8115434164
8659395297,10425,-2,0,54602.4786544681,57219.8962534448,37667.2226946642,54752.3846793268,55696.8291390267,61998.8686899267,63281.9523199059,58002.2061529790,66634.0676207487,19443.7848399121
8659395297,10425,-2,0,54616.6053504795,57221.9525942079,37683.7220915561,54773.8363288256,55698.5326165819,62021.4154321396,63310.0718672637,58026.1400126298,66655.2394132206,19435.7541600090
8659395297,10425,-2,0,54640.2958561938,57316.5564370063,37752.3600693343,54865.7146075356,55787.8070081718,62046.5903968663,63365.0576892066,58135.0530668919,66675.9853363037,19476.5037766690
8659395297,10425,-2,0,54647.2557787765,57378.6238585001,37785.9915833529,54911.0636135947,55845.9320958950,62020.3203394255,63376.8481874280,58187.4593371083,66668.4170288798,19516.9248655149
8659401041,10426,-2,0,54627.1304082314,57321.3383418577,37736.7002435231,54838.4833020459,55789.5348211207,61983.6834042917,63324.3932464243,58105.0231911329,66637.9369483384,19499.6710714199
8659401041,10426,-2,0,54606.8468576275,57219.7380733861,37670.3619604445,54745.9723031011,55688.1900742824,61989.1588678620,63281.2465934902,57994.0051253204,66628.1297846991,19443.8091753058
8659401041,10426,-2,0,54613.1983953691,57212.0845920845,37678.6968327682,54760.3545207458,55674.2215583297,62007.9457917566,63310.2422150193,58005.8807974196,66648.8027016013,19427.3827845948
8659401041,10426,-2,0,54620.7301997025,57290.1403672037,37732.0521833368,54841.7077417040,55746.7410313944,62005.3540723333,63354.1189297628,58101.5675652352,66652.5868553132,19469.8358788101
8659401041,10426,-2,0,54612.7360228898,57339.5777193953,37754.0513791927,54872.4068407883,55795.3509802020,61986.0804405658,63354.1067620660,58139.2144192054,66634.5786640152,19511.6562527905
8659401041,10426,-2,0,54596.3461352693,57298.9132766130,37714.3846875499,54817.3601803613,55758.3855172540,61959.0438182252,63313.1624622568,58076.8549729878,66613.1391822132,19499.5980652390
8659401041,10426,-2,0,54585.8575806080,57208.4829538249,37653.4001910733,54740.3386594720,55673.4428257330,61961.7572146167,63275.9901484627,57985.5607437253,66606.5929613225,19454.3464007545
8659401041,10426,-2,0,54600.4344814019,57187.0434720229,37652.0374090291,54744.5851856633,55652.4292133198,61995.5834117845,63294.1686875162,57982.4336456418,66632.5953294331,19441.6068221808
8659406634,10427,-2,0,54618.8928774823,57263.9798190343,37706.9015540038,54826.9604931546,55724.0239414260,61994.9020207624,63345.5042004121,58079.0816615064,66649.6301049852,19469.4221771181
8659406634,10427,-2,0,54608.6598444542,57326.4609422201,37730.5798920212,54870.8128725045,55781.8448367286,61953.8847147723,63347.1711748769,58138.6547051515,66625.1973697647,19494.4876325733
8659406634,10427,-2,0,54588.0842691266,57287.9988525628,37687.9199469600,54814.7684609380,55751.2309115221,61934.2582197969,63295.5071341667,58077.8892272177,66591.0669801764,19479.6673778430
8659406634,10427,-2,0,54581.8422406564,57197.7023744398,37630.0990516574,54728.2926396173,55667.4684865929,61951.5971877696,63254.1491326655,57975.0356859734,66587.9398820929,19433.6248130650
8659406634,10427,-2,0,54600.2763013432,57178.7694381833,37637.6186882939,54734.6928481462,55652.1493562928,61995.1818777893,63281.2952642775,57975.6805739050,66622.5083087669,19417.3687701095
8659406634,10427,-2,0,54620.1096471646,57252.3718362652,37696.3034900710,54818.2240868357,55722.8436748341,61996.3864797748,63336.1715769489,58070.9293046350,66641.0640464219,19447.3134719908
8659406634,10427,-2,0,54609.2073908112,57313.3928358323,37724.8732422113,54861.9791246110,55780.3117069289,61957.5350238192,63343.8007228569,58126.2923251794,66618.3104533630,19477.1973353879
8659406634,10427,-2,0,54580.1265954044,57285.8451702252,37695.5977636553,54818.2484222293,55756.2196672195,61929.5006503391,63303.9028449745,58080.0307418586,66583.7663620826,19478.3045957988
8659436385,10428,-2,0,54564.2477510504,57198.4081008555,37640.9161341330,54736.3598226109,55674.1850552392,61936.4119021345,63261.5957631211,57979.5255661011,66573.3873166927,19445.4153112864
8659436385,10428,-2,0,54571.8647292616,57153.4606287915,37625.5970038329,54711.1240194002,55628.3128382167,61971.6982229211,63264.3213272095,57943.6795312607,66594.4739352868,19417.1010807794
8659436385,10428,-2,0,54597.8305942817,57217.6695649262,37681.8847693358,54791.2604706761,55686.4379259399,61987.3823841258,63318.3945718906,58028.3301980579,66622.8246688843,19438.5527302783
8659436385,10428,-2,0,54596.6138245995,57295.2142967788,37727.8421602360,54855.8709408059,55761.4274414597,61957.1699929145,63335.4901859269,58111.0583687571,66611.9589156214,19476.3699320040
8659436385,10428,-2,0,54570.1977547968,57276.6463914270,37699.2237373085,54811.5683566735,55745.3295785629,61922.2000322453,63288.2186837697,58071.6471987476,66575.1029619447,19480.6894643761
8659436385,10428,-2,0,54553.9782149319,57186.1673978516,37635.9273784355,54715.6382349215,55657.7099937409,61924.5970685194,63233.2937003110,57962.1379273411,66561.4873091998,19447.6906705923
8659436385,10428,-2,0,54566.0850732707,57143.9333221792,37620.8150989815,54691.1568289137,55615.1108871638,61962.6576241816,63237.8079158323,57930.5627540856,66585.7375289679,19426.1173441252
8659436385,10428,-2,0,54595.1537009807,57207.1445071744,37674.1461141564,54767.8254865951,55675.6816819484,61988.8181723509,63293.9983397606,58013.2665893911,66618.4929688153,19448.7005894286
8659503846,10429,-2,0,54608.5990059700,57294.4720672726,37723.8268202845,54843.3017099878,55760.6000380757,61973.6937252000,63327.0823074222,58101.1660312400,66618.9066705073,19483.6340470073
8659503846,10429,-2,0,54593.9490989952,57301.4198221585,37711.3184279505,54831.8154041869,55770.5288786832,61942.0942165508,63303.8176710967,58092.9041650973,66591.3833402938,19493.1978567101
8659503846,10429,-2,0,54580.6011355805,57222.6583206236,37651.7818873958,54753.4189335567,55696.4641081220,61931.4961526181,63258.3469880694,57999.4197504066,66570.8442680567,19463.5086764621
8659503846,10429,-2,0,54588.1816107012,57161.1627808805,37617.5541562329,54708.8973308816,55630.8193837622,61959.6522030663,63254.9400329590,57939.4816758568,66587.0638079217,19421.8099794499
8659503846,10429,-2,0,54609.3899062635,57208.7141400645,37659.2406855483,54770.4172060184,55668.5635793070,61986.1534467467,63308.2588804371,58006.0268097814,66615.8525786047,19427.2732753234
8659503846,10429,-2,0,54609.9252849238,57298.8402704321,37714.9322339069,54850.7970112307,55750.4035081381,61963.4485244751,63341.5983697320,58101.5188944479,66613.0540083355,19465.6501911030
8659503846,10429,-2,0,54587.0743502903,57305.2404789609,37705.1129025708,54832.0587581234,55758.2030018016,61924.8647578496,63306.2390427645,58087.0393352286,66579.7631898279,19479.2415084542
8659503846,10429,-2,0,54570.1977547968,57222.1107742666,37645.1869957178,54747.3837559325,55682.1183935678,61920.4965546901,63250.5353267091,57982.1659563117,66558.5062234782,19448.9317756683
8659512542,10430,-2,0,54579.8589060743,57157.7558257700,37616.1548710983,54708.3984553118,55621.0730586070,61952.3272495789,63244.4271429040,57927.4113206084,66575.1151296415,19414.8257214735
8659512542,10430,-2,0,54600.5439906733,57190.0488931381,37651.7453843054,54761.3522718853,55653.8284984544,61989.0615262874,63290.6400554375,57985.7797622681,66604.7069683149,19421.2989361834
8659512542,10430,-2,0,54622.1173171403,57288.8384236436,37717.8038103571,54853.5225753190,55751.5959424267,61995.7172564495,63343.9832383093,58096.6396480219,66622.1189424685,19468.4365936754
8659512542,10430,-2,0,54612.3344888947,57324.4776076380,37726.4185397078,54867.0408864893,55787.6731635068,61955.0284782736,63333.2026589242,58121.6686003867,66599.9250634635,19488.3429456778
8659512542,10430,-2,0,54589.0820202660,57252.5178486271,37670.6904882587,54785.7241686216,55722.7585009564,61932.5304068480,63278.2776754654,58034.9737605232,66570.2115478219,19459.3229887550
8659512542,10430,-2,0,54587.9382567647,57168.5607405488,37625.9985378280,54716.4656383054,55643.1452606439,61955.5273538434,63254.3559835115,57951.9657327971,66579.1791403804,19419.1330861489
8659512542,10430,-2,0,54602.7341761014,57183.3688275823,37650.0054036597,54752.5671947791,55650.8109096423,61975.5067120266,63290.5548815597,57988.8825249579,66604.3176020166,19418.3665212490
8659512542,10430,-2,0,54608.9153660874,57270.5382076219,37708.4711868939,54836.5608059479,55729.0248648202,61964.6166233701,63328.9196296425,58085.1898453115,66609.1603453521,19457.4126603538
8659540492,10431,-2,0,54595.9811043647,57304.8754480562,37716.0273266210,54846.7695035823,55762.2548448437,61940.0378757878,63310.8505998604,58100.9105096067,66584.5694300730,19478.7913036718
8659540492,10431,-2,0,54582.0855945929,57251.6661098495,37671.8464194569,54775.5884771681,55710.8828288572,61942.8607814507,63261.4984215466,58022.1368403750,66568.9947781396,19464.3604152397
8659540492,10431,-2,0,54588.4614677281,57185.3521621645,37634.9417949929,54722.7928406534,55646.3088618178,61973.8397375619,63246.3496390020,57955.3118494234,66588.2319068167,19439.5383137209
8659540492,10431,-2,0,54614.7801959561,57197.4590205033,37655.0184947507,54755.5117774102,55656.8217518729,62000.4869936041,63285.8946536766,57986.5219917743,66621.3888806592,19438.5770656719
8659540492,10431,-2,0,54635.6477960074,57285.1637792031,37716.2706805574,54844.8348397875,55738.6860160976,62005.8042771158,63341.4766927638,58089.7892347106,66636.3794831450,19468.9476369420
8659540492,10431,-2,0,54634.3945232347,57345.6250647163,37746.7264257053,54885.5357856602,55798.9769538553,61980.5684739050,63351.4420364617,58146.4541988150,66622.0824393781,19502.4331385987
8659540492,10431,-2,0,54612.4318304693,57295.9565262850,37704.2611637932,54818.4309376817,55755.5991146815,61958.9464766506,63301.9316780892,58075.1149923421,66593.0138116681,19494.6579803289
8659540492,10431,-2,0,54601.9797788984,57202.3504346261,37650.6502915913,54730.3246449868,55664.7915932919,61973.9979176206,63265.8666247060,57970.2051103347,66594.4739352868,19456.5609215762
8659557426,10432,-2,0,54619.1727345092,57197.5563620779,37667.0645146055,54750.1579908082,55656.2011993349,62011.5109269257,63299.5468095119,57986.0717869918,66627.4970644643,19445.0137772913
8659557426,10432,-2,0,54636.7063856310,57279.0677630948,37726.0656764999,54840.4788043249,55733.0523724686,62004.2833150129,63350.3956145350,58084.9464913750,66641.5629219916,19471.8800518763
8659557426,10432,-2,0,54631.0484066084,57329.5150341227,37740.8859312302,54871.6037727979,55780.4455515939,61967.4273613362,63349.4221987891,58123.0922209150,66616.0472617539,19491.5673853358
8659557426,10432,-2,0,54614.6828543815,57289.6049885434,37698.7370294356,54819.7207135449,55744.5630136631,61949.0176360431,63308.4292281926,58062.9107924287,66589.4486764990,19483.9990779120
8659557426,10432,-2,0,54600.9455246684,57200.8659756137,37640.1495692331,54741.9569631495,55661.7496690861,61954.4687642198,63272.2911686285,57969.2803653762,66584.0827222000,19448.4572354922
8659557426,10432,-2,0,54608.8666953002,57176.5549173615,37635.5258444404,54735.8001085571,55634.6035374742,61990.3391344538,63288.1821806793,57959.5218725242,66607.3838616160,19432.8704158620
8659557426,10432,-2,0,54624.1006517225,57254.7688725394,37697.2038996359,54813.8437159794,55707.7070599864,62013.1292306032,63336.8773033647,58055.9021990587,66632.9360249442,19464.0562228192
8659557426,10432,-2,0,54631.3039282417,57340.7458182903,37750.8999457155,54881.5812841928,55791.4208141282,62000.0489565185,63358.7548222523,58140.8935613669,66630.7336718192,19511.9361098174
8659625039,10433,-2,0,54618.2479895506,57319.7687089675,37723.0724230815,54840.2719534789,55774.6415602094,61967.2935166712,63315.2188030198,58094.7414873175,66603.4536955422,19507.5192358707
8659625039,10433,-2,0,54606.0802927277,57221.4537186381,37655.8215627411,54747.4567621135,55682.5807660470,61968.8144787740,63260.3668257420,57980.2312925168,66589.2174902593,19452.1927184168
8659625039,10433,-2,0,54618.4061696093,57187.9317138909,37646.5497777620,54737.4305799314,55646.6373896321,62001.1197138389,63276.1726639150,57964.1577650137,66614.5262996510,19427.3219461107
8659625039,10433,-2,0,54636.3778578168,57261.3759319142,37704.6140270011,54814.6346162729,55711.6372260602,62016.7308688628,63330.0998962343,58055.7805220905,66640.9910402409,19459.1769763932
8659625039,10433,-2,0,54632.4111886525,57333.5182063774,37744.0860354947,54860.5068332954,55778.2553661658,61995.6199148750,63339.5055258784,58124.1994813259,66632.5466586458,19496.9820104221
8659625039,10433,-2,0,54613.0523830072,57318.3815915297,37720.8092314724,54822.6531284792,55766.1971786143,61970.6031302070,63301.1894485830,58088.9253282361,66606.8119798653,19502.8346725939
8659625039,10433,-2,0,54599.4975687465,57232.9765275295,37663.7427333728,54742.7843665335,55687.7155341063,61966.4174424999,63257.8359448028,57992.7518525476,66594.0967366853,19471.5636917589
8659625039,10433,-2,0,54610.3876574030,57183.7460261838,37644.5786108767,54719.3007116652,55641.6486339346,61999.5622486456,63265.3677491362,57953.3650179318,66612.5429650689,19448.8709371841
8659637381,10434,-2,0,54631.1579158798,57240.9098658580,37693.8212799191,54793.0856251995,55696.2329218824,62013.2022367841,63321.7771916074,58034.6817357995,66638.2776438494,19470.3712574703
8659637381,10434,-2,0,54627.8604700408,57318.9656409772,37739.6204907607,54860.6285102636,55773.8506599159,61986.1656144435,63345.6258773804,58120.9750416678,66629.0301942640,19501.9585984226
8659637381,10434,-2,0,54609.6575955936,57307.9660430493,37718.8137291934,54830.0024173603,55768.4725379202,61953.3250007184,63307.2611292976,58091.4683768721,66593.2206625141,19497.7485753219
8659637381,10434,-2,0,54595.8715950933,57219.3730424814,37658.5349591326,54740.5211749244,55682.6781076216,61958.7274581078,63259.2352299375,57982.4214779449,66580.5784255150,19461.1481432785
8659637381,10434,-2,0,54601.0063631525,57168.4512312774,37634.3577455454,54709.7855727496,55624.7477030476,61983.8659197440,63261.4132476688,57937.6321859397,66597.8322196100,19440.0006862002
8659637381,10434,-2,0,54615.5467608559,57218.1806081928,37674.3164619119,54771.9260004244,55666.3977292725,61993.0768662390,63307.2367939040,58005.7834558450,66619.0648505660,19457.9602067109
8659637381,10434,-2,0,54615.6319347337,57294.5815765440,37719.8723188170,54835.6725640798,55740.4746675306,61974.1317622856,63331.6573614276,58086.9176582604,66610.6934751518,19486.5542942448
8659637381,10434,-2,0,54602.2839713189,57304.7416033912,37712.9610670216,54825.8897358341,55754.1389910627,61944.8319483360,63306.4458936105,58083.4498646658,66583.1579772415,19495.9112531016
8659679903,10435,-2,0,54586.4659654491,57226.6006543942,37650.6746269850,54746.6901972136,55685.0386408053,61928.7705885297,63256.2784796095,57989.0528727134,66560.6477381190,19469.1058170007
8659679903,10435,-2,0,54583.3510350624,57151.9640020823,37604.8997515370,54691.3758474565,55611.3632365423,61948.3605804147,63237.9052574069,57916.1440333504,66567.9361885160,19429.8528270499
8659679903,10435,-2,0,54600.2519659495,57184.8411188979,37639.3099981523,54744.8772103870,55642.0988387171,61978.4026238705,63285.1645918672,57975.0600213671,66598.2702566956,19439.0637735448
8659679903,10435,-2,0,54607.9784534321,57278.6662290996,37703.3607542283,54833.5432171358,55732.8820247131,61976.9911710390,63326.5104256715,58082.9996598834,66605.9480733909,19481.6263770315
8659679903,10435,-2,0,54594.6669931078,57302.0160393028,37708.4103484098,54831.2678578299,55756.8402197574,61952.4489265472,63304.7180806616,58089.5945515614,66583.9488775350,19494.2077755464
8659679903,10435,-2,0,54576.6709695066,57226.8561760275,37655.1766748094,54746.0696446756,55688.6037759744,61943.3109862331,63249.9512772616,57992.4111570366,66567.4129775526,19464.0683905160
8659679903,10435,-2,0,54578.8003164507,57160.5543960393,37622.2387195097,54696.2429261857,55623.0077224019,61971.2236827450,63240.1441136223,57931.4023251663,66587.1854848899,19433.9046700919
8659679903,10435,-2,0,54601.7972634460,57188.7591172749,37653.5218680415,54743.6969437952,55645.3354460720,61995.5712440877,63285.7608090115,57978.4426410838,66618.4321303312,19443.1399519805
8659693715,10436,-2,0,54615.2912392227,57275.4052863511,37707.3760941799,54824.0767490075,55724.2794630592,61985.7884158420,63325.6586868939,58074.8351353152,66624.3334632903,19479.9107317795
8659693715,10436,-2,0,54601.5904126000,57312.6141032356,37717.2197609096,54838.9578422220,55759.4441068775,61955.5881923275,63310.6315813176,58101.2025343305,66597.1629962847,19505.7062490441
8659693715,10436,-2,0,54575.4907029148,57249.9747999911,37665.9815895882,54762.0336629073,55701.3433545480,61941.5101671033,63254.5263312670,58017.8781464870,66572.6694225801,19481.2248430363
8659693715,10436,-2,0,54576.5857956289,57171.1037891848,37624.3924018474,54694.9896534129,55624.6503614730,61980.7144862669,63234.0602652108,57935.8678699004,66588.1710683325,19442.0326915696
8659693715,10436,-2,0,54602.2353005316,57190.8641288253,37656.9288231519,54734.6806804494,55640.2493488000,62013.0075536349,63279.7986375683,57978.2236225410,66629.2370451100,19442.2030393252
8659693715,10436,-2,0,54614.0501341467,57280.8077437405,37717.0615808509,54823.9794074329,55724.9000155972,61999.8907764598,63330.8421257405,58086.9541613508,66638.4723269986,19478.1099126497
8659693715,10436,-2,0,54605.7761003071,57320.8272985911,37724.8245714240,54845.7595847460,55768.2291839837,61969.4837020993,63323.3103214071,58116.9110309289,66611.3383630834,19502.0194369068
8659693715,10436,-2,0,54597.4168925898,57269.3579410301,37677.9911063525,54786.5272366119,55722.6368239881,61955.3326706942,63280.6138732554,58042.9436019423,66590.5924400003,19488.1360948318
8659738958,10437,-2,0,54591.2600379974,57185.1331436217,37627.6046738087,54717.2322032053,55642.5247081059,61962.3169286706,63252.5064935944,57957.2708486119,66590.9696386018,19454.6019223877
8659738958,10437,-2,0,54599.4123948687,57176.3237311219,37634.3699132422,54728.1222918618,55632.3038427746,61987.3702164290,63274.9315588391,57966.9563352830,66612.5916358562,19446.4495655164
8659738958,10437,-2,0,54612.6995197994,57253.7102829158,37689.8181076644,54804.8761234209,55704.5556265093,61990.6919976617,63322.3734087517,58061.9008735924,66627.3632197992,19473.9607280330
8659738958,10437,-2,0,54609.2317262048,57314.2445746099,37718.6920522252,54845.3458830540,55763.7514715529,61959.0681536188,63328.2017355299,58119.2715641126,66608.9899975966,19501.0703565546
8659738958,10437,-2,0,54588.3397907598,57272.1808466930,37678.1127833207,54785.4564792915,55726.0681144922,61935.2681386332,63278.8617249129,58053.4078212100,66574.8717757051,19483.8652332469
8659738958,10437,-2,0,54582.0977622897,57181.3854930002,37620.3040557149,54701.9860790861,55637.2195922911,61948.8959590749,63239.4018841161,57948.3884299312,66571.4404852010,19435.0362658965
8659738958,10437,-2,0,54598.8405131180,57168.1470388568,37625.1833021409,54713.9347573663,55620.6958600055,61981.3350388048,63269.4804306624,57952.7444653938,66600.3874359428,19421.6761347849
8659738958,10437,-2,0,54610.0469618920,57250.4858432577,37684.8901904511,54802.5885964182,55697.7538839852,61988.2827936907,63321.5216699741,58056.1942237824,66618.8336643264,19464.8471231127
8659750264,10438,-2,0,54601.6147479937,57310.5942655630,37717.1832578192,54843.1556976259,55758.4220203444,61962.2439224896,63327.3621644491,58113.2120510947,66605.9602410877,19503.3092127700
8659750264,10438,-2,0,54582.0612591992,57276.3908697937,37683.9776131893,54790.8346012872,55730.3389760771,61940.2690620274,63285.0672502926,58059.4551665310,66582.5130893099,19501.0581888577
8659750264,10438,-2,0,54572.6677972519,57189.4770113875,37626.7772704247,54710.6008084368,55650.3485371631,61942.8851168443,63245.4613971339,57965.9950872340,66576.2345577492,19461.3184910340
8659750264,10438,-2,0,54582.4141224071,57159.0456016333,37612.5167297482,54697.7152175013,55616.8021970222,61968.6928018058,63256.2663119127,57943.8012082289,66595.8732204215,19434.1480240284
8659750264,10438,-2,0,54601.0428662430,57228.7543367319,37665.1298508106,54775.6128125617,55682.4225859883,61990.2782959697,63307.7478371706,58030.1310171877,66618.6876519645,19457.2788156888
8659750264,10438,-2,0,54604.4741567471,57309.4505020617,37713.8006381024,54843.6789085893,55759.4927776648,61969.7635591262,63329.5158467868,58108.9776926004,66611.8615740468,19499.3425436057
8659750264,10438,-2,0,54589.3983803834,57291.1016152527,37692.2151439385,54809.0861465217,55743.5044240395,61941.6318440716,63288.5715469776,58069.2623301703,66583.1214741510,19502.5183124765
8659750264,10438,-2,0,54580.6863094582,57199.1381626649,37632.9949635012,54719.3615501493,55655.1304420145,61945.0874699693,63242.9791869820,57959.7773941574,66571.1727958709,19461.8295343006
8659782844,10439,-2,0,54597.1248678660,57165.8351764605,37628.0548785911,54710.5034668622,55622.1681513211,61989.7429173095,63262.4961726860,57942.2559107324,66602.3951059186,19437.5549791388
8659782844,10439,-2,0,54619.2457406901,57238.6710096426,37688.0659593219,54793.6696746470,55693.1423268893,62001.5212478341,63323.1399736516,58040.9602673601,66630.9283549684,19462.8151177432
8659782844,10439,-2,0,54614.8653698339,57309.7546944822,37722.9020753259,54847.6334100567,55759.1764175474,61961.7572146167,63337.5586943868,58109.3427235050,66613.9787532940,19496.0937685540
8659782844,10439,-2,0,54588.3641261535,57288.1205295310,37688.2484747742,54806.3362470397,55738.0654635596,61918.4888847143,63292.5260484451,58067.5101818278,66572.0367023453,19494.4389617861
8659782844,10439,-2,0,54568.3726002734,57200.2819261662,37620.2310495339,54719.6049040857,55653.8041630608,61915.6294759609,63240.1197782286,57966.6643105592,66551.4124562304,19456.2323937620
8659782844,10439,-2,0,54572.9476542788,57142.7408878905,37591.7829743619,54681.9458824187,55600.3393032208,61948.2875742337,63239.2802071479,57916.9592690375,66564.3953887405,19422.8685690735
8659782844,10439,-2,0,54595.1050301934,57197.4833558969,37641.2933327345,54749.9633076590,55651.0177604883,61979.7167351274,63292.3800360832,57991.4499089876,66596.5181083531,19442.0935300538
8659782844,10439,-2,0,54605.0460384977,57292.7807574142,37702.8618786586,54836.2809489209,55741.3994124891,61968.7414725931,63331.8033737895,58093.0136743687,66600.8133053316,19492.7841550181
8659816817,10440,-2,0,54591.8805905353,57299.4608229700,37692.7383549019,54821.3755203128,55751.8149609696,61939.1618016165,63301.4693056099,58078.1204134574,66574.3850678321,19507.0325279978
8659816817,10440,-2,0,54581.8909114437,57216.0269258551,37633.5303421614,54734.4738296034,55672.9682855569,61934.9152754253,63250.6205005868,57972.7603266675,66560.3800487889,19471.4420147907
8659816817,10440,-2,0,54589.4713865644,57155.6386465228,37605.2039439576,54699.5647074184,55613.7481051196,61962.1100778246,63251.2045500343,57922.6172480602,66577.3661535538,19437.2994575055
8659816817,10440,-2,0,54603.8657719059,57200.3427646503,37644.8219648131,54757.7628013225,55653.4999706402,61978.9258348339,63298.8410830962,57989.3448974372,66601.7137148965,19449.9538622014
8659816817,10440,-2,0,54603.2938901552,57284.9812637507,37695.1840619633,54825.6220465040,55730.1807960184,61964.4584433114,63328.5059279505,58076.8671406846,66599.9859019476,19488.4767903428
8659816817,10440,-2,0,54584.1297676591,57301.0426235570,37691.3512374640,54817.9077267183,55746.1448142501,61932.1897113370,63304.2070373951,58078.1690842447,66572.4747394310,19503.7472498556
8659816817,10440,-2,0,54565.2333344931,57227.7809209861,37637.8985453209,54739.5964299658,55679.0156308779,61922.3338769104,63252.9566983768,57985.1957128206,66550.7067298147,19472.4275982334
8659816817,10440,-2,0,54572.7773065233,57157.7314903764,37602.6973984121,54687.7255384096,55611.9229505962,61952.2664110948,63240.2171198032,57917.3608030327,66566.3300525354,19433.9898439697
8659853522,10441,-2,0,54596.9788555041,57190.8519611284,37641.9625560597,54738.7203557946,55643.2791053089,61985.5572296024,63289.4111180584,57974.4759719196,66600.7524668475,19437.3724636865
8659853522,10441,-2,0,54612.1033026551,57290.5784042893,37708.9578947668,54832.9591676883,55738.9902085182,61985.1556956072,63336.0498999807,58087.4895400110,66611.6790585945,19483.8165624596
8659853522,10441,-2,0,54601.8094311429,57324.4776076380,37718.5703752570,54838.8848360410,55773.3152812557,61955.2718322101,63320.3170679887,58104.7920048933,66588.6821115991,19508.2614653769
8659853522,10441,-2,0,54580.5889678836,57253.0775626810,37662.9761684729,54754.4775231803,55704.7381419616,61939.0157892546,63264.8080350824,58009.4581002855,66568.7149211127,19479.2658438478
8659853522,10441,-2,0,54577.6808883430,57177.0172898408,37623.1999675588,54697.6908821076,55631.3304270288,61969.3133543438,63249.5862463569,57940.8444579009,66582.5982631876,19442.5072317457
8659853522,10441,-2,0,54599.4488979592,57197.5441943811,37651.1004963738,54742.5653479906,55650.7135680677,61999.8056025821,63292.4043714768,57984.4656510112,66615.6335600619,19447.6906705923
8659853522,10441,-2,0,54614.4029973546,57285.0055991444,37706.3905107372,54825.4760341422,55730.2659698961,61988.8668431382,63336.1715769489,58080.2740957950,66622.6908242192,19486.2379341274
8659853522,10441,-2,0,54606.5304975101,57329.4176925481,37721.4784547977,54844.7618336065,55771.4171205513,61954.9433043959,63326.1575624637,58110.0484499208,66598.3189274829,19512.3133084190
8659884062,10442,-2,0,54586.1739407254,57276.3421990064,37674.3042942151,54772.9967577448,55719.7165767506,61929.5614888232,63271.8287961492,58031.2017745081,66567.5589899145,19492.9545027737
8659884062,10442,-2,0,54577.9242422794,57187.2381551720,37618.9899444580,54689.3560097839,55630.3691789798,61944.3087373726,63233.0016755872,57930.3437355427,66563.3976376010,19440.3170463176
8659884062,10442,-2,0,54593.0973602176,57190.3287501651,37634.2847393644,54713.2655340410,55628.3371736104,61980.3494553622,63265.6111030727,57951.5276957115,66592.1742405873,19433.3327883412
8659884062,10442,-2,0,54611.2272284838,57283.4237985574,37700.0268052988,54810.4124254754,55717.7819129558,61986.4454714705,63320.7307696806,58067.0599770453,66609.5740470441,19477.9760679846
8659884062,10442,-2,0,54603.0627039156,57332.7394737808,37720.3346912963,54842.1579464864,55768.2778547710,61953.6048577453,63319.2949814555,58107.1038672896,66590.7627877558,19509.1253718513
8659884062,10442,-2,0,54580.7714833360,57278.5202167377,37673.5498970121,54775.3694586253,55718.9135087603,61932.4574006671,63271.2447467017,58031.1896068113,66565.3444690927,19485.8242324354
8659884062,10442,-2,0,54579.6155521378,57195.6338659799,37622.4699057494,54710.3209514098,55643.4859561549,61948.1415618718,63247.4690671097,57947.8773866646,66572.4504040373,19449.5279928126
8659884062,10442,-2,0,54600.3979783114,57190.9858057935,37629.9530392955,54728.9253598521,55638.6918836067,61980.5441385113,63281.0154072506,57962.8558214536,66600.5334483046,19441.4121390317
8659914039,10443,-2,0,54621.2777460596,57271.9861635438,37687.5184129648,54813.0771510796,55712.6106418060,61987.8325889083,63334.4802670906,58060.1000544626,66619.9165893436,19474.7272929329
8659914039,10443,-2,0,54614.1109726308,57334.1265912186,37719.1787600981,54854.1796309475,55770.6383879547,61960.3214263916,63338.7389609786,58118.4319930318,66602.3464351313,19514.1627983360
8659914039,10443,-2,0,54592.2577891368,57298.6820903734,37685.2430536589,54799.8873677235,55738.5156683421,61934.5502445206,63290.7495647089,58059.4916696214,66573.2899751181,19509.4660673624
8659914039,10443,-2,0,54581.0148372724,57202.5329500785,37626.3514010359,54706.0865929155,55647.9271654953,61950.8427905665,63241.4460571823,57950.5299445720,66566.5004002909,19463.5208441590
8659914039,10443,-2,0,54600.3736429177,57184.2692371472,37635.5501798340,54711.6593980604,55630.5881975226,61993.7460895642,63267.3510837184,57950.9558139608,66598.3554305733,19449.5036574189
8659914039,10443,-2,0,54622.3363356831,57267.1920909956,37699.8199544528,54804.4867571226,55710.1162639573,61999.4405716774,63325.2693205956,58057.5935089171,66622.4109671923,19480.1784211096
8659914039,10443,-2,0,54614.7923636529,57331.0238285287,37726.9174152775,54849.6289123357,55772.0133376957,61962.6819595753,63332.0102246355,58115.6334227625,66602.8453107010,19509.1375395482
8659914039,10443,-2,0,54593.9004282079,57301.1886359189,37691.0348773466,54802.8319503547,55744.2831566362,61942.2037258222,63291.3457818532,58066.2325736614,66575.4679928494,19504.0149391857
8659941656,10444,-2,0,54583.2780288815,57216.3067828820,37634.9661303865,54724.2772996658,55664.5969101427,61948.2997419305,63251.2045500343,57973.3078730246,66571.8906899834,19468.6556122182
8659941656,10444,-2,0,54592.9878509462,57180.2904002861,37622.6159181112,54708.3862876150,55626.4025098155,61983.3427087806,63262.2771541432,57950.2135844546,66597.1386608911,19440.5360648604
8659941656,10444,-2,0,54615.3034069195,57247.8819561376,37677.0055229098,54785.6998332280,55686.9733046001,62003.7479363527,63317.1534668147,58035.4483006993,66627.0711950755,19466.0517250981
8659941656,10444,-2,0,54618.4305050030,57326.7773023375,37725.2991116001,54853.3522275635,55763.3256021641,61977.6968974548,63344.2630953362,58118.0669621271,66621.3402098719,19512.1916314507
8659941656,10444,-2,0,54599.5705749274,57308.4040801349,37700.4040039003,54815.8513859552,55749.2475769399,61940.6705960226,63304.3165466665,58080.2984311887,66583.6568528112,19512.3984822967
8659941656,10444,-2,0,54587.9869275520,57212.9119954684,37636.4262540053,54723.0483622866,55658.6834094868,61941.9968749763,63250.8516868265,57969.7427378554,66564.8334258261,19466.1247312791
8659941656,10444,-2,0,54597.5264018612,57166.2002073652,37619.5983292992,54699.9054029294,55613.4439126991,61972.5377940018,63256.7408520888,57935.9287083845,66582.4400831289,19436.9709296913
8659941656,10444,-2,0,54612.1763088360,57229.1802061207,37671.8342517600,54772.5100498719,55670.7659324319,61989.7550850063,63307.7478371706,58021.6988032894,66607.6515509461,19460.9899632198
8660005765,10445,-2,0,54609.4872478381,57312.2977431182,37716.7452207335,54835.5387194147,55749.1137322749,61973.1096757525,63329.1751512758,58102.5531486778,66602.9548199724,19503.0171880462
8660005765,10445,-2,0,54589.4470511707,57309.6816883013,37701.4382581303,54809.6336928787,55747.3129131451,61946.0973888056,63297.0037608759,58078.3272643034,66578.3760723901,19512.1186252698
8660005765,10445,-2,0,54571.4023567823,57226.0774434309,37646.0630698891,54728.5359935538,55671.0214540652,61942.9946261157,63251.3383946994,57983.8450984732,66565.0159412785,19480.1297503223
8660005765,10445,-2,0,54579.3478628077,57167.8063433458,37621.3261422480,54692.3979339896,55615.0865517702,61974.4602900999,63251.2410531248,57932.4730824868,66584.5694300730,19449.7105082649
8660005765,10445,-2,0,54606.2993112705,57217.1950247501,37664.9838384487,54756.8137209703,55658.4157201567,61998.3576466601,63303.8663418840,58001.0380540840,66614.5019642574,19457.5951758062
8660005765,10445,-2,0,54619.3795853552,57314.8407917542,37723.1089261719,54846.0394417729,55751.5716070331,61986.0439374753,63345.9179021041,58105.1570357980,66616.9111682283,19497.1036873903
8660005765,10445,-2,0,54606.3358143610,57331.4618656144,37717.6091272080,54837.7045694492,55771.9281638179,61952.6679450900,63320.0128755681,58101.0565219686,66584.4234177111,19515.2092202628
8660005765,10445,-2,0,54590.7246593371,57249.2812412722,37656.7949784869,54747.6636129595,55695.1134937747,61942.7999429666,63266.3776679726,57996.1831430517,66566.1232016894,19487.2478529637
8660016243,10446,2,0,54593.9734343889,57181.1421390637,37622.5915827176,54703.3975319176,55631.5616132684,61972.7689802415,63261.4740861529,57940.9904702628,66585.9687152076,19452.2535569009
8660016243,10446,2,0,54607.6134225274,57209.5293757517,37652.6579615671,54753.8569706423,55657.7099937409,61984.3282922233,63301.7248272432,57997.6432666704,66609.9512456456,19453.1661341626
8660016243,10446,2,0,54606.9563668990,57283.8618356430,37699.6252713036,54821.3390172224,55728.6111631282,61969.5688759770,63328.0678908649,58080.3471019760,66606.9458245303,19475.7493794660
8660016243,10446,2,0,54586.3807915714,57299.2174690336,37694.8433664522,54815.8513859552,55744.4778397853,61938.0788765993,63304.0975281237,58080.8581452425,66577.1836381014,19487.0410021177
8660016243,10446,2,0,54570.2099224937,57229.5817401159,37643.1306549547,54741.9691308463,55679.8186988682,61930.3402214199,63255.7552686461,57994.7351871298,66554.5273866171,19466.4532590933
8660016243,10446,2,0,54578.0702546413,57159.4958064157,37605.9583411606,54686.6912841797,55610.2073053442,61959.8347185187,63241.9449327521,57918.2247095071,66566.9506050733,19436.4963895152
8660016243,10446,2,0,54601.2497170890,57186.6297703309,37639.1639857904,54730.2638065026,55631.1722469701,61991.1178670505,63287.5494604445,57963.2816908425,66600.5212806078,19444.4783986311
8660016243,10446,2,0,54612.3101535010,57283.4603016479,37704.2976668837,54819.5138626989,55722.2352899930,61977.9524190880,63330.9151319214,58073.7278749043,66608.9656622029,19488.9269951253
8660036411,10447,2,0,54598.4268114261,57319.6226966056,37712.2553406059,54827.2525178783,55760.2471748679,61946.3650781357,63310.5829105303,58095.3985429460,66582.0507168306,19512.8243516855
8660036411,10447,2,0,54584.6773140161,57256.3628408232,37660.8711569226,54751.1192388572,55702.9738259223,61943.0311292062,63257.3614046268,58007.0610640114,66562.3512156743,19489.0608397903
8660036411,10447,2,0,54591.8440874449,57184.5734295678,37621.5938315781,54698.2870992520,55633.6422894252,61968.8509818645,63246.0211111878,57935.5271743893,66574.4215709226,19455.5510027399
8660036411,10447,2,0,54610.5580051585,57197.1061572954,37644.5421077862,54736.4936672760,55642.1596772012,61992.0547797058,63286.7707278478,57969.7792409459,66603.1251677279,19450.4284023775
8660036411,10447,2,0,54616.0943072130,57274.3345290307,37695.4882543838,54813.0041448987,55714.9103365056,61975.0200041537,63328.0922262585,58059.9175390103,66607.5420416747,19478.8156390654
8660036411,10447,2,0,54594.1559498412,57311.8353706390,37704.8938840280,54829.1993493700,55752.7883767154,61939.1374662229,63318.3945718906,58090.1907687057,66582.6469339749,19500.1334438992
8660036411,10447,2,0,54565.0143159503,57253.1384011651,37653.8625635526,54757.0449072099,55700.2847649244,61912.2346885473,63263.0437190431,58014.8118868876,66551.2786115654,19482.0400787235
8660036411,10447,2,0,54557.3730023455,57160.7490791885,37594.7762277804,54676.0323817628,55612.8841986452,61932.1532082465,63226.0417530045,57917.1174490962,66550.6337236338,19439.4896429337
8660086784,10448,2,0,54578.3622793650,57155.6873173101,37607.0777692683,54696.4132739412,55606.9706979893,61971.0289995958,63256.8746967538,57933.2883181739,66582.1115553147,19432.8704158620
8660086784,10448,2,0,54601.3227232699,57249.0987258199,37678.1371187143,54794.9351151166,55694.2860903907,61982.6369823649,63313.2841392250,58049.3803135616,66605.2058438847,19475.9318949184
8660086784,10448,2,0,54603.6589210599,57309.4261666680,37711.6347880679,54835.0276761482,55753.7617924612,61955.4056768751,63314.4157350295,58104.3174647172,66589.5825211640,19512.3741469031
8660086784,10448,2,0,54585.3465373414,57264.1258313962,37674.1096110659,54771.4027894610,55711.6128906666,61931.5326557085,63265.2825752585,58036.0080147532,66562.3755510679,19503.2118711954
8660086784,10448,2,0,54572.8381450074,57175.3259799824,37619.3063045754,54694.0284053639,55627.8748011311,61938.1640504770,63230.2396084084,57943.5091835052,66556.9974290722,19465.5041787411
8660086784,10448,2,0,54585.9062513953,57163.3529663086,37623.4433214952,54701.0248310371,55616.2303152715,61970.8829872339,63254.5019958734,57947.5610265472,66585.3603303664,19450.4040669838
8660086784,10448,2,0,54603.1235423997,57239.1455498187,37677.0298583034,54778.8007491294,55690.1369057741,61981.9312559492,63303.5499817666,58041.2157889934,66604.0377449897,19475.6398701946
8660086784,10448,2,0,54603.7684303313,57311.1053088296,37718.8380645871,54831.7302303092,55763.6541299783,61961.8788915849,63316.7884359100,58111.2652196031,66597.6010333703,19508.5291547070
8660096578,10449,2,0,54582.9373333705,57282.5112212957,37690.6455110483,54784.6047405139,55740.6571829829,61934.4650706429,63272.9117211665,58062.5822646145,66570.8564357535,19501.9342630290
8660096578,10449,2,0,54572.4487787091,57188.7469495781,37627.4464937500,54694.1744177258,55652.0885178087,61951.6458585568,63227.9642491025,57952.3794344891,66564.7239165547,19466.8304576948
8660096578,10449,2,0,54586.0400960603,57158.1938628557,37622.5915827176,54687.9080538620,55622.7156976781,61984.1822798614,63250.3893143472,57933.1301381152,66596.4207667785,19455.5388350431
8660096578,10449,2,0,54598.2442959737,57230.7011682236,37678.8915159174,54771.2932801896,55689.5528563266,61991.2030409282,63302.8564230477,58025.6776401505,66619.0770182628,19485.4348661371
8660096578,10449,2,0,54590.0554360119,57301.6753437918,37716.4896991002,54821.0834955891,55756.6455366083,61967.9627399964,63309.1714576988,58091.1033459675,66603.8795649310,19516.1096298277
8660096578,10449,2,0,54573.9089023278,57284.8839221761,37691.5337529164,54779.1171092468,55742.4093313254,61950.6481074174,63266.0369724615,58049.7088413758,66578.4125754805,19510.9748617684
8660096578,10449,2,0,54569.7353823176,57209.0913386660,37642.6682824755,54705.3200280156,55671.2404726080,61956.8658004939,63226.5527962711,57960.8238160842,66572.9127765166,19476.7227952119
8660096578,10449,2,0,54585.1761895859,57174.1578810874,37633.1409758631,54690.4024317107,55638.4120265797,61987.7960858178,63239.2802071479,57935.9773791718,66595.2283324898,19450.1120422601
8660129027,10450,2,0,54605.6544233389,57234.2419679991,37681.9456078199,54762.4838676898,55694.2739226939,61998.7105098680,63292.8302408656,58014.6050360416,66621.2793713878,19467.9498858025
8660129027,10450,2,0,54602.8193499792,57310.7646133185,37724.1310127051,54830.5012929300,55767.0489173919,61971.7590614052,63316.3260634307,58095.9947600903,66610.1215934011,19506.0956153424
8660129027,10450,2,0,54580.3942847345,57299.9475308429,37700.5743516558,54801.9680438802,55761.3544352788,61938.7967707118,63277.6084521401,58068.6539453291,66576.4779116857,19511.0113648589
8660129027,10450,2,0,54563.7488754807,57209.4076987834,37635.6718568023,54712.4624660507,55673.5401673076,61941.4249932256,63224.6424678699,57957.1126685532,66561.0857752047,19473.6078648252
8660129027,10450,2,0,54573.7507222691,57158.4980552762,37611.6041524865,54686.1194024290,55622.4115052576,61976.0785937773,63230.7993224623,57914.3918850079,66583.5716789335,19446.0115284307
8660129027,10450,2,0,54598.6336622721,57217.9129188627,37662.1974358763,54763.1165879246,55676.0102097626,62001.7524340737,63287.9023236523,57996.2926523231,66614.4776288637,19471.7462072113
8660129027,10450,2,0,54608.9031983906,57304.6564295134,37717.8768165381,54836.8163275811,55759.4806099680,61993.9772758039,63319.2098075778,58086.3579442065,66615.9620878761,19513.8099351282
8660129027,10450,2,0,54595.9811043647,57311.6285197930,37711.3184279505,54818.8081362832,55767.9006561695,61966.3566040158,63291.0050863422,58073.8860549630,66594.1697428663,19520.3196529285
8660160330,10451,2,0,54579.2626889299,57235.7142593146,37658.9851639150,54737.7104369583,55699.5912062055,61958.0704024794,63240.1806167128,57985.0131973682,66580.1160530358,19488.0630886508
8660160330,10451,2,0,54575.3811936434,57169.2421315709,37620.7664281942,54685.1338189864,55633.6787925156,61975.6405566917,63221.6127113609,57922.4347326078,66588.5604346309,19449.9781975950
8660160330,10451,2,0,54589.8850882564,57205.2585141668,37652.2685952688,54735.3742391683,55666.8114309645,62001.0588753548,63261.2550676101,57976.6539896509,66615.6213923651,19458.5442561584
8660160330,10451,2,0,54597.8670973722,57301.0182881634,37709.9191428159,54821.0348248018,55756.3170087941,61990.3634698474,63301.9681811797,58081.6490455360,66618.7119873581,19505.3533858362
8660160330,10451,2,0,54580.9661664851,57316.9701386982,37707.4734357544,54813.1744926542,55773.8628276127,61952.3150818821,63276.5376948197,58080.2254250077,66585.5063427283,19521.5729257012
8660160330,10451,2,0,54567.6547061609,57239.1212144251,37653.9964082176,54727.1853792064,55704.3487756633,61953.9090501659,63226.8204856012,57982.2998009767,66565.2836306086,19490.6304726805
8660160330,10451,2,0,54580.0779246171,57174.9609490777,37625.8768608598,54683.5641860962,55644.9217443800,61986.1534467467,63225.0926726523,57923.7123407742,66587.8668759120,19458.5685915520
8660160330,10451,2,0,54609.5359186254,57214.2869452094,37664.7891552996,54744.3539994236,55677.6528488337,62013.1048952095,63277.8518060766,57986.1691285664,66622.8003334906,19472.1477412064
8660211561,10452,2,0,54622.4945157418,57300.3734002317,37718.6190460443,54828.7004738002,55759.2372560316,61998.8200191394,63319.7208508443,58081.1866730568,66626.7913380486,19507.8112605945
8660211561,10452,2,0,54604.4133182630,57326.7286315502,37718.4365305919,54836.3539551019,55781.9908490905,61962.5481149102,63305.0466084759,58093.5855561193,66601.2026716299,19517.2898964195
8660211561,10452,2,0,54579.8224029838,57261.1204102809,37665.4705463216,54763.8831528244,55720.8603402520,61941.0477946241,63254.2221388464,58011.0885716598,66574.0808754116,19486.2257664306
8660211561,10452,2,0,54571.9620708362,57174.9001105936,37618.3937273137,54695.1478334716,55641.5269569664,61964.4341079178,63228.7186463055,57926.5474141340,66578.7776063852,19447.5324905336
8660211561,10452,2,0,54589.4105480803,57185.8997085215,37644.4812693021,54724.0339457293,55651.7113192072,62001.9106141324,63265.1000598061,57958.0252458149,66610.7421459391,19455.5753381336
8660211561,10452,2,0,54602.7220084046,57281.6229794276,37714.9322339069,54814.4399331238,55742.4823375064,62004.8551967636,63316.3260634307,58069.8463796178,66628.2271262737,19511.2668864922
8660211561,10452,2,0,54593.1947017922,57326.2297559805,37732.5875619970,54835.8794149258,55786.9674370910,61969.9947453658,63307.7356694737,58100.6671556703,66605.2788500656,19543.8276431904
8660211561,10452,2,0,54574.5537902595,57262.2641737823,37676.6891627924,54758.3955215573,55728.8423493678,61953.0694790851,63252.6646736531,58011.1980809312,66579.2643142582,19518.2633121654
8660222425,10453,2,0,54571.6943815061,57175.9587002172,37624.1733833046,54692.2884247182,55648.8397427570,61970.6761363879,63228.2806092199,57927.1923020656,66583.9367098382,19474.3622620282
8660222425,10453,2,0,54585.0058418304,57176.5184142710,37636.5235955799,54715.9667627357,55646.0168370941,61992.8335123025,63257.9941248615,57948.3884299312,66606.7633090780,19465.1269801396
8660222425,10453,2,0,54596.1027813329,57252.2379916002,37686.9343635173,54790.7372597127,55718.3781301001,61986.3237945022,63297.8798350471,58034.0611832615,66613.0175052450,19493.7210676735
8660222425,10453,2,0,54586.3321207841,57301.5171637331,37705.9403059548,54820.0614090560,55764.1651732449,61958.3259241126,63293.4629611004,58074.0929058090,66591.5658557461,19515.8176051040
8660222425,10453,2,0,54568.2022525179,57259.5386096940,37668.6949859797,54766.7425615778,55723.6589105213,61935.5479956601,63249.0508676967,58014.8970607654,66562.2660417965,19502.3844678114
8660222425,10453,2,0,54560.7556220622,57172.3448942608,37614.3662196653,54688.1027370112,55639.0690822082,61951.5485169823,63215.7965522796,57917.4703123041,66561.2074521729,19466.1612343695
8660222425,10453,2,0,54580.2239369789,57164.4723944163,37624.9156128108,54701.8400667243,55629.2132477816,61990.1809543951,63251.1680469439,57923.3229744759,66594.0237305044,19460.7101061929
8660222425,10453,2,0,54600.1546243749,57252.9558857127,37689.3313997914,54795.3853198990,55711.7467353316,61999.0268699854,63309.6946686622,58032.9660905474,66614.2707780178,19499.8170837818
8660253594,10454,2,0,54598.9256869958,57315.0111395097,37719.4342817314,54834.1150988865,55770.8574064975,61972.9758310875,63313.0042821981,58087.8180678253,66596.0314004802,19534.4341812431
8660253594,10454,2,0,54581.9639176246,57271.7914803947,37678.5264850127,54773.4591302241,55729.6697527518,61944.5520913091,63261.8512847544,58018.6812144773,66567.4738160367,19519.5409203318
8660253594,10454,2,0,54567.7642154323,57183.7460261838,37619.8538509324,54693.6755421561,55646.2601910305,61950.3804180873,63220.7488048865,57922.5077387888,66566.9871081638,19478.7548005813
8660253594,10454,2,0,54571.9864062298,57160.3962159806,37614.3540519685,54690.9621457645,55622.8373746464,61977.5143820024,63236.6763200277,57916.0466917758,66590.5072661225,19460.3085721977
8660253594,10454,2,0,54585.3222019478,57230.8836836759,37666.7968252753,54765.7813135288,55690.4289304978,61991.7627549821,63285.4809519846,58005.3089156689,66610.6448043645,19485.2401829879
8660253594,10454,2,0,54584.7138171066,57304.7051003007,37707.0719017593,54823.0181593839,55761.4274414597,61971.3088566227,63302.5643983240,58076.0154019070,66600.5699513951,19516.8275239403
8660253594,10454,2,0,54573.2031759121,57286.5630643377,37681.8360985485,54788.3158880449,55747.0817269054,61942.0333780667,63267.5092637771,58038.8309204161,66573.8375214751,19518.7621877351
8660253594,10454,2,0,54563.9678940235,57194.2345808452,37619.6226646928,54697.6057082299,55658.7564156677,61943.4204955045,63220.6027925246,57930.3802386332,66560.4165518794,19477.6597078672
8660285096,10455,2,0,54577.6200498588,57158.4737198826,37609.5478117234,54682.4934287758,55623.3119148225,61979.8992505797,63236.3477922135,57908.5757259265,66583.9367098382,19451.9858675708
8660285096,10455,2,0,54601.1888786049,57231.5285716075,37671.3110407967,54769.8818273581,55691.5483586055,62002.8353590910,63295.5679726508,58006.6351946226,66613.4190392402,19483.0378298630
8660285096,10455,2,0,54604.3646474757,57311.2756565851,37718.9232384648,54830.3796159618,55768.3630286488,61972.1119246130,63314.5130766041,58083.8879017514,66603.0034907597,19523.7144403421
8660285096,10455,2,0,54579.5303782600,57292.5739065682,37692.0326284861,54787.9995279275,55754.0051463977,61945.1848115439,63270.9405542812,58042.4447263725,66574.9934526733,19520.1006343856
8660285096,10455,2,0,54563.8097139648,57205.6600481620,37635.1364781421,54705.6120527394,55675.4991664961,61941.2789808637,63223.3770274003,57944.3122514955,66564.8212581293,19482.5632896869
8660285096,10455,2,0,54570.9399843030,57155.9550066403,37614.2932134844,54679.4028337827,55627.3637578645,61966.7094672236,63221.6127113609,57906.7262360094,66579.0452957153,19455.2224749257
8660285096,10455,2,0,54590.7124916403,57204.7961416875,37654.3614391223,54742.4923418097,55668.9894486958,61984.7784970057,63268.0568101341,57973.2348668436,66602.9061491851,19471.7218718176
8660285096,10455,2,0,54602.5881637395,57296.5405757325,37708.3616776225,54823.9550720393,55754.7960466912,61979.2421949513,63303.7324972190,58068.6296099355,66604.7069683149,19517.7887719893
8660327776,10456,2,0,54595.9932720615,57307.3819936018,37701.6572766731,54817.9198944151,55770.0421708103,61954.1280687087,63283.1812572850,58060.2947376118,66583.2918219065,19538.3156765296
8660327776,10456,2,0,54578.4474532428,57220.5654767701,37639.2126565777,54726.3701435193,55686.6447767859,61943.8098618029,63227.8790752248,57951.9292297066,66563.0691097868,19501.3137104910
8660327776,10456,2,0,54578.4474532428,57161.1627808805,37609.6938240853,54685.5840237688,55627.3880932582,61971.8320675861,63225.0318341682,57900.5207106297,66579.2399788645,19462.9246270146
8660327776,10456,2,0,54593.1825340954,57208.8479847296,37652.4511107211,54749.7199537225,55672.3842361094,61991.7262518916,63274.8342172645,57977.8464239395,66604.7069683149,19473.1941631332
8660327776,10456,2,0,54599.8747673480,57294.9222720551,37703.2634126537,54822.7991408411,55755.4896054101,61975.1660165156,63306.3728874296,58069.8707150114,66601.4095224759,19510.4029800178
8660327776,10456,2,0,54584.9450033462,57303.6830137676,37695.6099313521,54808.7941217979,55767.2070974506,61946.4745874071,63280.1758361698,58061.9617120765,66575.2854773970,19522.9843785327
8660327776,10456,2,0,54565.6592038819,57228.0242749225,37643.4348473753,54731.5535823659,55697.5470331392,61939.9283665164,63234.4496315092,57972.4074634597,66558.4575526909,19498.5394756154
8660327776,10456,2,0,54568.3726002734,57162.7202460738,37610.8375875866,54684.9148004435,55633.5206124569,61961.8545561913,63228.0859260708,57911.3012900148,66570.9416096313,19467.0859793281
8660350492,10457,2,0,54588.5588093027,57191.6428614219,37641.9868914534,54732.4174888403,55656.6392364205,61988.0637751479,63271.1474051271,57956.9909915850,66596.5789468372,19469.7385372355
8660350492,10457,2,0,54599.0716993577,57281.9515072418,37703.2147418664,54814.6589516666,55740.5111706211,61981.8095789809,63308.7334206132,58054.7949386478,66601.6893795028,19508.9306887022
8660350492,10457,2,0,54591.2722056942,57313.5631835878,37713.4842779850,54822.8234762348,55772.3175301162,61952.1325664298,63286.7585601510,58069.1163178084,66578.8262771725,19531.6964494579
8660350492,10457,2,0,54571.5118660537,57239.7661023567,37658.2551021056,54736.6883504252,55703.3023537365,61937.6408395136,63228.5726339437,57970.4727996648,66556.8149136198,19503.2605419827
8660350492,10457,2,0,54572.2540955599,57165.1537854384,37618.6370812501,54679.9625478366,55633.3015939141,61962.8888104212,63215.3463474971,57900.5693814170,66569.6274983744,19468.0593950739
8660350492,10457,2,0,54589.1671941438,57188.5035956416,37647.4745227205,54729.7892663266,55655.9821807921,61986.7739992847,63262.3136572337,57954.5696199172,66600.9958207839,19472.8656353190
8660350492,10457,2,0,54596.9788555041,57272.6310514754,37699.7956190592,54810.3515869913,55735.4615764395,61980.6049769954,63303.3066278302,58052.0207037722,66603.6483786913,19508.2006268928
8660350492,10457,2,0,54587.3907104077,57305.9218699830,37707.0110632752,54824.6364630614,55769.7136429961,61958.2407502349,63295.0569293842,58075.5773648214,66585.1413118236,19531.5261017024
8660374283,10458,2,0,54573.1423374280,57250.3885016831,37661.3822001891,54761.7173027899,55719.7165767506,61944.6859359741,63253.0175368610,58003.6906119914,66565.4661460609,19512.9095255633
8660374283,10458,2,0,54569.8083884985,57166.6017413603,37612.2977112054,54692.2884247182,55639.2029268732,61955.0284782736,63225.8349021585,57917.9083493897,66570.5887464234,19472.7317906539
8660374283,10458,2,0,54586.8188286570,57170.2398827104,37626.4365749136,54715.1028562613,55639.1785914796,61989.4265571921,63259.4542484803,57937.2306519445,66599.7668834048,19464.1048936065
8660374283,10458,2,0,54600.1181212845,57262.5805338997,37687.5062452680,54805.9103776509,55725.4718973479,61988.1367813289,63309.5608239972,58044.2090424118,66612.3847850102,19500.4133009261
8660374283,10458,2,0,54588.0112629456,57311.3973335533,37704.0056421599,54830.8176530474,55773.5342997985,61949.0298037399,63299.0479339422,58079.4345247143,66586.0538890853,19526.7441968510
8660374283,10458,2,0,54565.8052162438,57251.5566005781,37650.9179809214,54756.0714914641,55716.4799693957,61927.0062724904,63240.9471816126,57992.9100326063,66550.8892452670,19502.6034863543
8660374283,10458,2,0,54564.2599187473,57165.4093070717,37602.6122245343,54686.9468058130,55633.7761340902,61948.8351205907,63211.3918460297,57902.9177469038,66550.8892452670,19463.1071424670
8660374283,10458,2,0,54586.9040025347,57167.3683062602,37621.3869807321,54716.8306692101,55636.6842136309,61982.7829947268,63248.9291907285,57930.2585616650,66582.5982631876,19461.7078573323
8660439017,10459,2,0,54609.3777385667,57253.5399351602,37682.7973465975,54805.4358374748,55718.0861053764,61993.2228786008,63302.4913921430,58033.4771338140,66604.4027758943,19501.1798658260
8660439017,10459,2,0,54606.1776343023,57308.8177818269,37706.9015540038,54841.4887231612,55770.0908415976,61958.5327749586,63306.8839306961,58083.2430138198,66588.5482669341,19535.0912368715
8660439017,10459,2,0,54578.3501116682,57261.6436212443,37661.0050015876,54781.7453317605,55725.3745557733,61921.4212996487,63256.8990321475,58017.0872461935,66555.0627652773,19522.1691428455
8660439017,10459,2,0,54563.0553167618,57166.0906980938,37597.4044502941,54691.9598969040,55631.0992407892,61931.9220220069,63212.4017648660,57907.9430056917,66549.4047862546,19479.7768871144
8660439017,10459,2,0,54577.1211742891,57145.4664519789,37597.7086427147,54692.0937415691,55610.0004544982,61972.0875892194,63236.4086306976,57899.2065993728,66578.4004077837,19463.9588812446
8660439017,10459,2,0,54605.6057525516,57238.4884941903,37669.4615508796,54790.6642535317,55699.4208584500,61992.5901583660,63300.7514114974,58013.3274278752,66609.4036992886,19501.8369214544
8660439017,10459,2,0,54602.7098407077,57312.1882338468,37709.8583043317,54840.3571273566,55770.3706986246,61958.4476010809,63309.1592900020,58080.1889219173,66593.9020535361,19538.6320366470
8660439017,10459,2,0,54576.5249571448,57277.8509934125,37672.0532703029,54779.8350033593,55737.8707804105,61925.7773351113,63258.6146773995,58020.2508473675,66558.4697203877,19527.7176125968
8660447826,10460,2,0,54561.1206529669,57190.0732285318,37613.2346238608,54696.5106155158,55655.3007897700,61939.7093479735,63219.6780475661,57926.5960849213,66550.5607174528,19491.0076712820
8660447826,10460,2,0,54581.5137128422,57170.2033796199,37612.0908603594,54702.4849546559,55638.5093681543,61978.5851393228,63245.5344033149,57923.8096823488,66580.6879347864,19482.2225941758
8660447826,10460,2,0,54608.1731365812,57237.6732585031,37662.5624667810,54781.7453317605,55700.5889573450,61992.3954752169,63299.4981387246,58008.5576907206,66606.2887689019,19503.4552251319
8660447826,10460,2,0,54614.1839788118,57313.6240220719,37706.0741506198,54843.2652068973,55773.5342997985,61974.3507808285,63322.6654334755,58085.9077394241,66605.6195455766,19538.5346950724
8660447826,10460,2,0,54595.9202658805,57298.1345440163,37686.5084941285,54810.9113010451,55760.5391995916,61939.2226401006,63286.5760446986,58053.7850198115,66579.0574634122,19540.7005451069
8660447826,10460,2,0,54575.1500074038,57201.0119879756,37620.1580433530,54711.9635904809,55667.9308590722,61933.3578102320,63230.0935960465,57942.7426186053,66564.7725873420,19501.0703565546
8660447826,10460,2,0,54578.3379439714,57151.2826110602,37597.3679472036,54682.0310562965,55617.3619110761,61965.4561944509,63230.6046393131,57902.6378898769,66586.1999014472,19469.3248355435
8660447826,10460,2,0,54597.4777310739,57218.5821421879,37651.1491671610,54763.0070786532,55678.3585752495,61988.5018122335,63284.6535486006,57990.5129963322,66614.5384673479,19494.4389617861
8660472390,10461,2,0,54602.1866297444,57304.4860817579,37699.9537991179,54832.0587581234,55758.0204863493,61970.3476085737,63309.4026439385,58073.4480178774,66606.7754767748,19536.5148573998
8660472390,10461,2,0,54584.3001154146,57296.5892465198,37680.5219872916,54800.3010694155,55751.1335699475,61946.1338918961,63271.6706160905,58039.9138454333,66574.2147200766,19540.4815265641
8660472390,10461,2,0,54573.6655483914,57221.2347000953,37630.9264550413,54725.0073614751,55679.7821957777,61945.7323579009,63233.0381786777,57946.9161386156,66561.1709490824,19512.7026747173
8660472390,10461,2,0,54583.5822213021,57171.2984723340,37609.2922900901,54697.1311680538,55627.1569070185,61964.6166233701,63234.5591407806,57903.3801193831,66573.3629812990,19484.5101211785
8660472390,10461,2,0,54601.9067727174,57215.6253918600,37648.1802491362,54755.4509389261,55666.2882200011,61985.4963911183,63280.3461839253,57965.7395656007,66594.9119723725,19491.2266898248
8660472390,10461,2,0,54607.1753854418,57299.0471212780,37700.4648423844,54832.3751182408,55749.6977817224,61965.7725545683,63313.2719715282,58059.3334895628,66593.9020535361,19527.6932772032
8660472390,10461,2,0,54585.2248603732,57301.5414991267,37684.5859980305,54815.9487275298,55754.0903202755,61920.2166976632,63281.7211336663,58048.6745871459,66560.2948749112,19537.5612793266
8660472390,10461,2,0,54559.0643122039,57208.7141400645,37615.2666292302,54719.0938608192,55667.0791202946,61907.3919452118,63221.7830591165,57938.4352539300,66532.8688862723,19493.5872230084
8660516459,10462,2,0,54563.2013291237,57141.3050996654,37580.3575070452,54673.8421963347,55601.1788743015,61936.8864423106,63218.8871472726,57876.8667080059,66550.8040713893,19454.5167485100
8660516459,10462,2,0,54586.0279283635,57185.2791559835,37621.7033408495,54739.3652437262,55640.5048704333,61967.0744981283,63273.6052798854,57946.0522321412,66583.6933559017,19474.1067403949
8660516459,10462,2,0,54601.4444002382,57278.3863720727,37677.9302678683,54825.3786925676,55727.4065611427,61959.0559859220,63312.7000897775,58045.7300045147,66588.9254655356,19522.1569751487
8660516459,10462,2,0,54592.8540062812,57298.9376120066,37676.1902872227,54819.4286888212,55747.7387825339,61935.2559709363,63291.1632664009,58045.3528059132,66569.2624674697,19537.6464532043
8660516459,10462,2,0,54580.5646324900,57234.1567941213,37627.6655122928,54746.8605449691,55689.5893594170,61927.7241666029,63244.9503538674,57961.0915054143,66553.2619461475,19513.2502210743
8660516459,10462,2,0,54578.9341611157,57166.1880396683,37593.2917687680,54692.0450707818,55627.0839008376,61950.8306228697,63227.9034106184,57895.0817501499,66564.7239165547,19475.4451870454
8660516459,10462,2,0,54593.9977697825,57187.8587077100,37624.0395386395,54727.9276087126,55650.0078416520,61979.3273688290,63262.5691788670,57937.4983412746,66594.0967366853,19476.2117519453
8660516459,10462,2,0,54608.8788629970,57284.4702204842,37694.1254723397,54817.8225528405,55742.4945052032,61982.7586593331,63310.7410905890,58049.7575121631,66610.0850903107,19527.8514572619
8660553869,10463,2,0,54601.3592263604,57326.7773023375,37711.7929681266,54835.7820733512,55784.1445314281,61955.8072108703,63301.7369949400,58078.3150966065,66593.3545071791,19560.4000462632
8660553869,10463,2,0,54584.5678047447,57258.6138647354,37654.9454885698,54753.6379520995,55719.7774152348,61937.7990195723,63247.4690671097,57985.4268990602,66569.6153306776,19530.9907230422
8660553869,10463,2,0,54582.0004207151,57173.8415209700,37604.3035343927,54686.1072347322,55638.8378959686,61955.5273538434,63226.0782560950,57898.1115066588,66577.0619611332,19485.5200400148
8660553869,10463,2,0,54596.8450108391,57188.7591172749,37631.4861690952,54725.1047030497,55651.9425054469,61985.1435279104,63267.9716362564,57937.5835151524,66605.1693407942,19486.4204495797
8660553869,10463,2,0,54611.4097439362,57277.3399501459,37691.2173927990,54811.1789903752,55733.9406143367,61982.3449576411,63312.1525434205,58038.3685479368,66614.6844797097,19523.9091234912
8660553869,10463,2,0,54605.8004357008,57319.4280134565,37706.9015540038,54832.5089629058,55775.0430942046,61958.0217316921,63305.6063225297,58068.0820635784,66595.9583942992,19545.5189530488
8660553869,10463,2,0,54591.8319197480,57270.4530337441,37667.4538809038,54771.7556526689,55730.4971561358,61941.1086331082,63263.1653960113,58002.0114698299,66575.1759681256,19529.9929719027
8660553869,10463,2,0,54585.7480713366,57185.5590130105,37615.8141755872,54699.8323967485,55651.9425054469,61952.4245911535,63231.3833719098,57913.5158108366,66574.9082787955,19484.7778105086
8660571597,10464,2,0,54599.5462395338,57180.1200525306,37624.7452650553,54712.7179876840,55645.5301292212,61988.2706259939,63258.5173358249,57923.3473098696,66599.4870263779,19474.9584791725
8660571597,10464,2,0,54613.1862276723,57268.5183699493,37689.8667784516,54804.8031172400,55729.0005294266,61998.8321868362,63312.7730959584,58030.4352096083,66617.0206774997,19517.9591197448
8660571597,10464,2,0,54605.1798831628,57325.1955017505,37719.7384741520,54841.3548784961,55786.8214247292,61966.2470947444,63314.0507041248,58080.2619280982,66599.4261878938,19554.0363408248
8660571597,10464,2,0,54580.7349802455,57272.1808466930,37672.5886489631,54770.5145475929,55739.2457301515,61943.8220294997,63257.7872740156,58003.3864195709,66570.2115478219,19537.4030992679
8660571597,10464,2,0,54572.7651388265,57181.8965362668,37614.5852382081,54691.0351519455,55653.8528338481,61958.9951474379,63223.8028967891,57910.0115141516,66572.3652301595,19496.8359980602
8660571597,10464,2,0,54588.9360079042,57177.2119729899,37624.0030355491,54709.3840387545,55645.4327876466,61992.2737982487,63253.8571079417,57925.4644891167,66601.1905039331,19486.5299588511
8660571597,10464,2,0,54604.4254859598,57254.3673385442,37676.7256658829,54791.0049490428,55715.4578828626,61992.2372951582,63301.2746224608,58018.8150591424,66614.6236412256,19509.4173965751
8660571597,10464,2,0,54602.0284496857,57313.9403821893,37703.5067665902,54832.9348322946,55774.1913554270,61967.8532307250,63308.5874082513,58070.8319630604,66599.0368215954,19535.7239571063
8660596605,10465,2,0,54590.1892806769,57285.3584623522,37677.2488768463,54792.1000417568,55752.8127121090,61950.3195796031,63272.1938270539,58026.8457390455,66575.2124712161,19536.7217082458
8660596605,10465,2,0,54582.3654516198,57197.8240514080,37622.3360610843,54711.3430379430,55670.2670568622,61956.1844094718,63232.1012660223,57925.0507874248,66567.1939590098,19501.3015427942
8660596605,10465,2,0,54594.7521669855,57169.9965287739,37617.7001685948,54703.1663456780,55639.7383055334,61989.0128555001,63251.3748977899,57907.4684655156,66591.9795574381,19482.2469295695
8660596605,10465,2,0,54612.3223211979,57246.8842049981,37675.6062377752,54787.1599568467,55710.3596178938,62004.7213520985,63306.8595953025,58007.1584055860,66616.1567710253,19511.6927558810
8660596605,10465,2,0,54608.8666953002,57321.5451927037,37716.2828482543,54844.6036535478,55784.1323637313,61979.2665303449,63322.6654334755,58083.5958770277,66607.4568677969,19551.5662983698
8660596605,10465,2,0,54588.0234306425,57292.8172605047,37683.0528682308,54793.3654822264,55760.4053549266,61955.5151861465,63273.7269568536,58032.5767242491,66580.0065437643,19540.4450234736
8660596605,10465,2,0,54579.7250614092,57205.6113773747,37628.8214434909,54711.6472303635,55679.0886370588,61962.6941272721,63231.4685457875,57935.6001805703,66577.7433521553,19501.6057352148
8660596605,10465,2,0,54595.5187318854,57174.5837504762,37623.2243029524,54704.5412954189,55650.3728725567,61991.4220594710,63251.2897239121,57921.4248137715,66604.2810989261,19481.1883399459
8660649527,10466,2,0,54613.3444077310,57236.9188613001,37672.1506118774,54778.7277429484,55709.3375313607,62006.7533574680,63304.0488573364,58003.7636181724,66626.7913380486,19504.8301748728
8660649527,10466,2,0,54611.1420546060,57314.5731024241,37716.6722145526,54842.1214433960,55782.3558799951,61986.7131608006,63327.0214689381,58082.4764489200,66620.4032972165,19544.8375620267
8660649527,10466,2,0,54593.0851925208,57308.3432416508,37701.5112643112,54818.5647823467,55780.6645701368,61959.5305260981,63294.0591782447,58061.3776626290,66593.5613580251,19553.8903284630
8660649527,10466,2,0,54579.6885583187,57220.8453337970,37642.0233945438,54729.5094092996,55700.9418205528,61963.9108969544,63244.7313353245,57959.9234065193,66579.4589974073,19518.7135169478
8660649527,10466,2,0,54592.3551307114,57172.5395774099,37617.6271624138,54698.2749315551,55649.7158169283,61992.4319783074,63248.0896196477,57916.2048718345,66600.7524668475,19484.9603259610
8660649527,10466,2,0,54616.3619965431,57235.6777562242,37669.4737185764,54775.2964524444,55704.6894711743,62017.4974337626,63304.3165466665,58004.2259906516,66629.5290698337,19499.7562452977
8660649527,10466,2,0,54624.2953348716,57325.5605326552,37725.5789686270,54848.4973165312,55791.8466835170,61995.2183808798,63333.4095097701,58096.3962940854,66629.6142437115,19538.5833658597
8660649527,10466,2,0,54601.3713940572,57322.5916146304,37705.3927595977,54815.1699949331,55784.6312393010,61958.5814457459,63291.3092787628,58063.5556803603,66598.9029769304,19540.6762097132
8660677589,10467,2,0,54577.7782299175,57235.6655885273,37640.0035568712,54723.8879333674,55700.5281188609,61946.9247921895,63236.2382829421,57957.6602149102,66580.7609409674,19506.2659630980
8660677589,10467,2,0,54576.5614602352,57174.7054274444,37609.0489361537,54687.8228799842,55641.4661184823,61974.0952591952,63230.2639438021,57907.6996517553,66592.5392714920,19480.5191166206
8660677589,10467,2,0,54599.2785502037,57220.0179304130,37649.3483480312,54749.1480719719,55679.9403758364,61999.4405716774,63278.2290046781,57970.8499982663,66619.7705769817,19498.2231154980
8660677589,10467,2,0,54609.1343846303,57309.2071481252,37702.0101398809,54830.1971005095,55762.2913479341,61989.2805448302,63314.5374119978,58065.6971950012,66618.7849935391,19536.8555529108
8660677589,10467,2,0,54594.1924529317,57326.3149298583,37702.7158662967,54826.8753192768,55783.5118111933,61958.3502595063,63294.8622462351,58069.7368703464,66592.2350790714,19551.1769320714
8660677589,10467,2,0,54577.1211742891,57248.5146763724,37647.2676718745,54740.3873302593,55711.4668783047,61950.8062874761,63238.7569961845,57971.2028614742,66572.1462116167,19520.9037023760
8660677589,10467,2,0,54582.9860041578,57181.4828345748,37615.8750140713,54689.0031465760,55648.0123393730,61984.8028323994,63227.2341872932,57909.2084461613,66592.0038928318,19485.5200400148
8660677589,10467,2,0,54606.9807022926,57221.1738616112,37656.7463076996,54748.2598301038,55685.5740194655,62009.9169586419,63277.1095765704,57978.2722933283,66625.6840776377,19494.9500050526
8660706984,10468,2,0,54620.0488086804,57314.5852701209,37715.9664881369,54833.2268570184,55773.6438090699,61996.7880137700,63316.8249390005,58085.0681683433,66632.7291740982,19530.9055491644
8660706984,10468,2,0,54605.2042185564,57335.7327271992,37712.5108622391,54829.2723555509,55793.8421857960,61962.0005685532,63292.9154147434,58087.5625461920,66606.7998121685,19548.0985047752
8660706984,10468,2,0,54585.2491957668,57267.8734820177,37659.1433439737,54752.0074807252,55729.9009389914,61944.2235634949,63244.6704968404,58000.3809984556,66589.1201486847,19527.7541156873
8660706984,10468,2,0,54577.3766959224,57187.4085029276,37612.7114128974,54690.8769718868,55652.7090703467,61965.3101820890,63225.2021819237,57924.1625455567,66595.3378417613,19493.5872230084
8660706984,10468,2,0,54595.6890796409,57201.4013542739,37638.0445576827,54727.7085901698,55665.8258475218,61995.7537595400,63265.5867676791,57960.1302573653,66625.9761023614,19494.0252600941
8660706984,10468,2,0,54603.8779396027,57288.2543741961,37700.0998114797,54812.3592569670,55749.0772291844,61990.8501777204,63309.4756501194,58058.9319555676,66632.7778448855,19529.6887794821
8660706984,10468,2,0,54589.6904051072,57328.1887551690,37716.4653637066,54831.9492488520,55787.5149834481,61957.4011791541,63297.8798350471,58086.3701119033,66608.1990973031,19555.7641537737
8660706984,10468,2,0,54566.8394704737,57261.9113105744,37661.2483555241,54747.8947991991,55725.1190341400,61936.8864423106,63237.0535186293,57993.9807899267,66576.5022470793,19531.8546295166
8660727946,10469,2,0,54566.9733151388,57179.5116676895,37610.0588549900,54675.8255309168,55645.1894337101,61962.9009781181,63214.1417455117,57909.3179554327,66583.7420266890,19487.6250515652
8660727946,10469,2,0,54587.0865179871,57193.1881589184,37632.8854542298,54714.3727944519,55658.7685833645,61990.3878052411,63258.3104849789,57949.2158333151,66614.9278336462,19481.1396691586
8660727946,10469,2,0,54601.5052387223,57286.0398533743,37696.0114653472,54806.9811349713,55751.6811163045,61997.0070323128,63311.9700279681,58061.4019980227,66632.2181308316,19523.6657695548
8660727946,10469,2,0,54595.2023717680,57339.9670856936,37720.9674115311,54837.5463893905,55804.6836036652,61975.1173457283,63310.0840349606,58102.8451734016,66618.8701674168,19559.0250965222
8660727946,10469,2,0,54576.7196402939,57292.8294282015,37683.4057314387,54775.3207878380,55765.3332721399,61953.4831807771,63259.9652917469,58037.2856229196,66594.5469414678,19550.5442118366
8660727946,10469,2,0,54570.1247486159,57205.7938928270,37633.4451682837,54698.9076517899,55684.6979452942,61966.3444363190,63222.3549408671,57941.8178736468,66594.4130968027,19512.9946994410
8660727946,10469,2,0,54589.1306910533,57194.5144378722,37638.1540669541,54708.6296415515,55670.0480383194,62000.6451736628,63246.2766328211,57942.6209416371,66619.8070800722,19498.0040969552
8660727946,10469,2,0,54610.9960422442,57281.2214454324,37701.1949041938,54801.2501497677,55750.4156758349,62009.0652198643,63301.6274856686,58044.9512719180,66641.6359281725,19532.4143435705
8660751522,10470,2,0,54603.6954241504,57344.3839596403,37733.0255990826,54846.6843297046,55811.9842217590,61977.5143820024,63307.5531540214,58102.6383225556,66621.8877562289,19567.2139564841
8660751522,10470,2,0,54577.9242422794,57298.3657302560,37691.0835481339,54782.5605674477,55771.1007604339,61959.6887061568,63256.9720383284,58033.5501399949,66588.5482669341,19553.6348068297
8660751522,10470,2,0,54571.3658536918,57212.1697659622,37636.3410801275,54702.7283085923,55688.3847574316,61969.8122299135,63222.9754934051,57937.4618381842,66588.3900868754,19514.0654567615
8660751522,10470,2,0,54582.1829361674,57196.9114741463,37634.1752300930,54709.7490696592,55670.8146032192,61989.2805448302,63248.9900292126,57939.9075452456,66607.4933708874,19496.8359980602
8660751522,10470,2,0,54598.8770162085,57272.5458775977,37682.8460173848,54789.0094467638,55740.2191458973,61991.8722642535,63297.6486488075,58028.3058626643,66617.9819255488,19519.3219017890
8660751522,10470,2,0,54602.7463437982,57339.6263901826,37714.9565693006,54839.6514009409,55804.5984297875,61974.4481224030,63309.9380225987,58087.2826891651,66605.2180115815,19551.7609815189
8660751522,10470,2,0,54590.8341686086,57316.5321016126,37689.1367166423,54806.1537315873,55787.4663126608,61946.6814382531,63274.7003725994,58045.6569983338,66583.5351758430,19552.6492233870
8660751522,10470,2,0,54575.4907029148,57221.7822464524,37625.0372897790,54720.6148229221,55698.9341505771,61947.1559784292,63228.4874600659,57942.2194076419,66572.2800562818,19514.6981769963
8660816752,10471,2,0,54584.1175999623,57182.6874365602,37610.9227614644,54703.1541779811,55663.0029418589,61985.4963911183,63242.6628268646,57920.0741994242,66599.5722002556,19489.9125785679
8660816752,10471,2,0,54600.2763013432,57254.7688725394,37668.0622657449,54784.7142497853,55729.1830448789,62005.1715568810,63298.4517167978,58018.4135251472,66627.9229338531,19515.0023694168
8660816752,10471,2,0,54602.5516606490,57336.3046089499,37716.2341774670,54849.7749246976,55808.0175525947,61989.8037557936,63317.7496839590,58101.3120436019,66622.0946070749,19555.0462596611
8660816752,10471,2,0,54587.9382567647,57322.2387514226,37696.0358007409,54811.0816488006,55794.6817568768,61972.4404524273,63278.0708246194,58062.8012831573,66600.4361067301,19558.9642580381
8660816752,10471,2,0,54579.3356951109,57237.9044447428,37641.6340282455,54728.4143165856,55713.8517468820,61967.7680568472,63235.6420657978,57963.6102186567,66596.1652451452,19527.5472648413
8660816752,10471,2,0,54585.5898912779,57191.5211844537,37623.6501723412,54708.4106230086,55668.6000823975,61980.8848340224,63245.0720308356,57933.4830013231,66613.4068715433,19499.0383511851
8660816752,10471,2,0,54604.3403120820,57242.8688650465,37665.6287263803,54774.1161858525,55717.0396834496,61993.5514064151,63291.9176636039,58004.9195493706,66630.0644484939,19514.6373385121
8660816752,10471,2,0,54608.4651613050,57322.3239253003,37711.3427633441,54838.6658174982,55792.1508759376,61978.7311516847,63319.9642047808,58085.3601930670,66622.1189424685,19551.2499382524
8660829339,10472,2,0,54591.0653548482,57321.8980559115,37698.0556384135,54819.7937197259,55796.1053774051,61950.1127287572,63291.1997694914,58071.1361554810,66593.6100288124,19557.6136436908
8660829339,10472,2,0,54569.2608421415,57236.4199857304,37635.0391365675,54733.4030722830,55712.7444864711,61944.7467744582,63234.9120039884,57964.8148206421,66572.9979503943,19517.7157658083
8660829339,10472,2,0,54575.5880444894,57178.0150409802,37607.1872785398,54695.0018211098,55653.4634675497,61979.2056918608,63232.3324522620,57909.9750110611,66590.7262846654,19481.6263770315
8660829339,10472,2,0,54595.6039057631,57227.0265237831,37655.1036686285,54763.5667927070,55699.1896722103,62002.6406759418,63282.9257356518,57982.6283287909,66618.5173042090,19499.6954068136
8660829339,10472,2,0,54603.7927657250,57317.1161510601,37712.7420484788,54842.2309526674,55781.5163089144,61987.1877009767,63315.5473308341,58075.8085510610,66621.1576944195,19549.4369514258
8660829339,10472,2,0,54588.0721014297,57319.2820010946,37703.1782387759,54817.8225528405,55784.5825685137,61960.0294016679,63281.7211336663,58056.9607886823,66593.9993951107,19563.1012749579
8660829339,10472,2,0,54573.7385545723,57240.1311332614,37647.4501873269,54733.7194324004,55710.8463257667,61957.1456575208,63228.1467645549,57961.2131823825,66581.5396735640,19535.2859200207
8660829339,10472,2,0,54575.2230135847,57177.3579853518,37614.9624368096,54688.0784016175,55652.5387225912,61974.7888179141,63217.5730360157,57908.7947444693,66595.5081895168,19501.1555304323
8660843992,10473,2,0,54586.5268039332,57207.1201717807,37641.9503883629,54731.8699424833,55680.2932390443,61990.9961900822,63255.5240824065,57961.1036731111,66614.2221072305,19501.8125860608
8660843992,10473,2,0,54592.6106523447,57295.2994706566,37698.8222033133,54811.5196858863,55762.5712049610,61978.7919901688,63293.4507934036,58058.2992353328,66612.0075864087,19538.0358195027
8660843992,10473,2,0,54579.4817074727,57321.5938634910,37701.0245564383,54819.0879933101,55789.1089517319,61947.9590464195,63279.0199049716,58070.9171369382,66581.9047044687,19559.8403322094
8660843992,10473,2,0,54563.8218816616,57247.3100743869,37643.2888350134,54740.3143240784,55719.4245520269,61934.4042321587,63227.2706903836,57973.8067485943,66554.9654237027,19531.5261017024
8660843992,10473,2,0,54569.9300654667,57171.1646276689,37600.9817531601,54683.1383167074,55644.1673471770,61960.9663143232,63212.3287586850,57894.0839990104,66566.7072511369,19490.3506156535
8660843992,10473,2,0,54595.8107566091,57202.4234408071,37637.6430236876,54735.9339532221,55669.8776905639,61992.2129597645,63261.6444339084,57944.5434377351,66599.0368215954,19495.1811912923
8660843992,10473,2,0,54612.0181287773,57295.1534582947,37699.8077867560,54821.8987312762,55753.8591340358,61977.7577359389,63304.2313727887,58045.3649736100,66605.5587070925,19534.1299888225
8660843992,10473,2,0,54592.1117767750,57315.0233072066,37699.1385634307,54815.4863550505,55772.7433995050,61938.9792861642,63280.2853454412,58047.6890037032,66574.7622664337,19551.7123107316
8660908090,10474,2,0,54562.5564411920,57242.4186602641,37645.1748280210,54732.2106379943,55704.7138065680,61926.7994216444,63226.4432869997,57958.0982519959,66553.6999832331,19530.2119904455
8660908090,10474,2,0,54554.9759660713,57162.8905938293,37604.8875838402,54669.7903532926,55631.8779733858,61951.4755108013,63205.4296745864,57882.8897179333,66565.7338353910,19498.7463264614
8660908090,10474,2,0,54573.1180020344,57176.1655510632,37629.8556977209,54699.7472228707,55641.9893294457,61987.1390301894,63241.1662001554,57912.9804321764,66600.9228146030,19496.8968365443
8660908090,10474,2,0,54590.4813054007,57271.4994556709,37695.8897883790,54790.8954397714,55732.2128013878,61987.5162287909,63295.4219602889,58023.1832623018,66618.2982856661,19536.1254911015
8660908090,10474,2,0,54582.8278240991,57320.2554168404,37711.4887757060,54822.5801222983,55784.0593575504,61946.6327674658,63293.8036566115,58065.8432073630,66595.6055310914,19562.4563870263
8660908090,10474,2,0,54558.7601197833,57255.2555804123,37650.6137885008,54744.6825272378,55728.0149459839,61917.1869411543,63234.6443146583,57982.9203535147,66560.6842412095,19532.7185359910
8660908090,10474,2,0,54553.2968239098,57165.2876301034,37594.8979047486,54667.9895341628,55642.2448510790,61947.2411523069,63202.1808995347,57892.6117076948,66565.9163508434,19489.6570569346
8660908090,10474,2,0,54576.1112554528,57178.0758794644,37622.7010919890,54703.3123580398,55654.2908709337,61994.6951699164,63242.1274482044,57932.1080515821,66605.6073778798,19492.0054224215
8660937948,10475,2,0,54597.2465448342,57276.1231804636,37692.5801748432,54799.6926845744,55747.1669007832,62002.8231913941,63297.2106117219,58045.4623151846,66628.1054493054,19534.8600506319
8660937948,10475,2,0,54593.7909189365,57329.5637049100,37717.3779409683,54829.0290016145,55800.2058912344,61968.2182616297,63298.6950707343,58087.8667386126,66609.7443947996,19564.3545477307
8660937948,10475,2,0,54573.6290453009,57280.6860667722,37675.9104301957,54765.2215994750,55756.0371517671,61941.8021918271,63250.9003576138,58018.6325436900,66580.8461148451,19554.4622102136
8660937948,10475,2,0,54561.5586900526,57186.9582981451,37617.3351376901,54683.1504844042,55667.2616357469,61944.2113957980,63211.4283491201,57918.6870819864,66573.4603228736,19510.7436755288
8660937948,10475,2,0,54574.0427469929,57165.0929469543,37617.7975101694,54687.6525322287,55645.7734831576,61979.1935241640,63235.7880781597,57912.7127428463,66596.7492945927,19489.1946844554
8660937948,10475,2,0,54595.6404088536,57247.9427946217,37678.3196341667,54781.9521826065,55722.5029793231,61992.4319783074,63298.4030460105,58013.4612725403,66619.1743598374,19523.0817201073
8660937948,10475,2,0,54592.3551307114,57314.0985622480,37710.1259936618,54834.3706205197,55788.2572129543,61963.3390152037,63310.8140967699,58077.5972024940,66604.6217944372,19566.5447331588
8660937948,10475,2,0,54567.6060353736,57271.5967972455,37669.5223893637,54772.2788636323,55750.7077005587,61936.1563805012,63256.8503613602,58012.4270183103,66572.6694225801,19554.5473840914
8660947823,10476,2,0,54554.8907921936,57179.8523632005,37611.4703078214,54684.0143908786,55662.8812648907,61949.4800085224,63214.4459379322,57908.3323719900,66567.4738160367,19510.5733277733
8660947823,10476,2,0,54571.2806798141,57164.4602267195,37616.2887157633,54690.5849471630,55644.4107011135,61982.2354483697,63236.9561770547,57910.8632529292,66593.8047119616,19493.6237260989
8660947823,10476,2,0,54591.3208764815,57245.4849198635,37675.8009209243,54776.0873527378,55719.5462289951,61994.0867850753,63290.8834093740,58006.9637224368,66615.1711875826,19524.5418437260
8660947823,10476,2,0,54594.5818192300,57319.3306718819,37713.8371411928,54831.7789010964,55788.7074177367,61973.4990420508,63306.9691045739,58073.1559931536,66601.7258825933,19558.7695748889
8660947823,10476,2,0,54580.0657569203,57302.7217657186,37689.4774121533,54797.5268345399,55775.7001498330,61945.5376747517,63271.9748085111,58035.6308161517,66578.4247431774,19560.4122139600
8660947823,10476,2,0,54565.6105330946,57209.8822389595,37626.4365749136,54707.5832196247,55686.9733046001,61935.2316355427,63221.6127113609,57928.8227734399,66562.5824019139,19520.1736405666
8660947823,10476,2,0,54571.9134000489,57159.8730050172,37607.1507754493,54679.5731815383,55636.4530273913,61969.2890189501,63224.4477847207,57890.1173298461,66584.1922314714,19492.8449935023
8660947823,10476,2,0,54589.3375418993,57222.8530037728,37660.3844490497,54756.0106529800,55692.6434513196,61995.3643932417,63277.7787998956,57977.8220885459,66614.0152563845,19516.8640270307
8660970261,10477,2,0,54589.1306910533,57306.0557146481,37708.5928638622,54823.8090596774,55772.7190641114,61976.3097800169,63298.7437415216,58064.5169284093,66610.1824318852,19558.4653824684
8660970261,10477,2,0,54573.6168776041,57295.6158307740,37687.0682081824,54787.9143540497,55766.7203895777,61950.3804180873,63258.7363543677,58030.8854143907,66580.6027609087,19558.5627240430
8660970261,10477,2,0,54568.0075693687,57214.0679266666,37632.7881126552,54703.1785133748,55691.3415077595,61957.0239805526,63215.6627076145,57933.3369889612,66575.1151296415,19520.5021683808
8660970261,10477,2,0,54582.4749608912,57175.3989861633,37622.5064088398,54684.3672540865,55654.6437341416,61983.0628517537,63224.2044307842,57909.0015953153,66600.9714853903,19496.8481657570
8660970261,10477,2,0,54602.3204744094,57228.9855229715,37669.1208553685,54750.3283385637,55705.3586944996,61998.4306528411,63273.6174475822,57985.8162653585,66623.7007430555,19514.9780340232
8660970261,10477,2,0,54602.5638283459,57308.0633846238,37713.7641350119,54816.9829817598,55779.7276574814,61981.4445480762,63303.2701247397,58071.1604908747,66618.2374471820,19547.3197721786
8660970261,10477,2,0,54588.4249646376,57315.7533690159,37705.6969520183,54810.9843072260,55792.6619192042,61955.3935091783,63285.5296227719,58067.7535357642,66595.0823201280,19562.4807224199
8660970261,10477,2,0,54569.0296559018,57234.3879803609,37645.4911881384,54728.8645213680,55716.1879446720,61941.6805148589,63236.9075062674,57968.3312850240,66575.0542911574,19531.4530955214
8661006753,10478,2,0,54566.0485701802,57162.6594075897,37605.3864594100,54680.0477217144,55644.7148935340,61968.0235784805,63230.6898131909,57898.2088482334,66586.1633983568,19488.3672810714
8661006753,10478,2,0,54583.7890721481,57203.6645458830,37646.7322932143,54744.4635086950,55681.4613379393,62000.3774843327,63282.2930154170,57963.5737155662,66614.1977718368,19498.2596185885
8661006753,10478,2,0,54597.1735386533,57295.5549922899,37705.4779334755,54833.1538508374,55770.1516800817,61988.5261476272,63324.5392587862,58063.3609972111,66617.0085098029,19546.0543317090
8661006753,10478,2,0,54586.1982761190,57306.5302548242,37698.7613648292,54821.0956632859,55781.8205013349,61956.2939187432,63296.0060097364,58053.6025043592,66587.4775096136,19562.7119086596
8661006753,10478,2,0,54569.5772022589,57229.9711064142,37645.6737035907,54736.6275119410,55709.0211712433,61948.5187604734,63246.5321544543,57958.6336306561,66568.4472317826,19534.8722183287
8661006753,10478,2,0,54569.7110469239,57164.0586927243,37613.4779777972,54685.0729805022,55643.5346269422,61969.5323728866,63234.6199792647,57898.4887052603,66580.1768915199,19500.0726054151
8661006753,10478,2,0,54583.2171903974,57192.5067678964,37642.4127608422,54726.6378328494,55668.5270762165,61989.8159234904,63271.5611068191,57945.8332135984,66603.0034907597,19502.2141200559
8661006753,10478,2,0,54593.5719003937,57281.1606069483,37695.0745526919,54804.4259186385,55754.8690528721,61981.6513989222,63309.2809669702,58046.9102711065,66607.4203647064,19538.6077012533
8661035173,10479,2,0,54588.7413247550,57320.9489755593,37705.4779334755,54822.6044576920,55797.3829855715,61956.8171297066,63300.7514114974,58074.8594707088,66587.7573666406,19563.8678398578
8661035173,10479,2,0,54569.6258730462,57252.6395255953,37649.8350559042,54744.3418317268,55734.5976699651,61939.9405342132,63243.2468763121,57983.6382476272,66559.1876145003,19536.4418512189
8661035173,10479,2,0,54570.5871210952,57172.6612543781,37605.3621240163,54680.0112186239,55656.9555965379,61970.6883040848,63225.5185420411,57900.0096673631,66568.3742256016,19495.8260792239
8661035173,10479,2,0,54590.5421438848,57195.1836611974,37638.6042717366,54727.3313915683,55676.6064269070,62005.7677740253,63274.3596770884,57949.1306594374,66603.1981739089,19500.1334438992
8661035173,10479,2,0,54602.3448098031,57288.0718587438,37700.8420409859,54816.7639632169,55763.9948254893,61999.1120438631,63322.6897688691,58054.6854293764,66614.1004302622,19543.5599538603
8661035173,10479,2,0,54585.6020589747,57318.5032684979,37704.2368283995,54823.3831902886,55793.2824717422,61965.4075236636,63304.4017205443,58068.9946408402,66589.3269995307,19561.8480021852
8661035173,10479,2,0,54563.0674844586,57255.8274621630,37654.9941593571,54749.6347798448,55736.1186320680,61956.1844094718,63253.8692756386,57987.9699476962,66569.7856784331,19542.0998302415
8661035173,10479,2,0,54557.5190147073,57174.9731167745,37612.1151957530,54684.3429186929,55662.5892401669,61979.2421949513,63229.7772359291,57910.7415759610,66581.3084873244,19511.4494019445
8661068795,10480,2,0,54578.4717886364,57179.8888662910,37632.8246157457,54711.5133856985,55666.4098969693,62010.4036665148,63264.1753148476,57935.3933297243,66615.2563614604,19508.7481732498
8661068795,10480,2,0,54596.9180170200,57264.3205145454,37691.8379453370,54800.2402309314,55743.1028900443,62004.7335197953,63314.0628718217,58032.6253950364,66626.9495181073,19540.3233465054
8661068795,10480,2,0,54591.4912242370,57314.0377237639,37712.3526821804,54833.1295154438,55791.0922863140,61966.3079332285,63311.4468170047,58073.5575271488,66602.0300750139,19562.9795979897
8661068795,10480,2,0,54572.1445862885,57256.9225548770,37660.0437535386,54761.7416381836,55739.8662826894,61942.3375704873,63255.8647779175,57994.3823239219,66565.7460030879,19538.5955335565
8661068795,10480,2,0,54573.7020514819,57167.8306787394,37602.6973984121,54684.9026327467,55655.0331004399,61960.7229603868,63219.0696627250,57899.2431024633,66565.3809721832,19495.9964269794
8661068795,10480,2,0,54601.0306985462,57172.1258757179,37621.2774714607,54715.4922225596,55657.9655153742,62002.7866883037,63257.7264355314,57927.5695006671,66600.2900943682,19498.2109478012
8661068795,10480,2,0,54621.7157831452,57263.8581420661,37688.1389655028,54809.0253080375,55740.9248723130,62004.8916998540,63314.1480456994,58036.3243748706,66616.8503297442,19540.1773341435
8661068795,10480,2,0,54611.8842841122,57318.4667654075,37713.5694518627,54842.1701141832,55790.7272554093,61972.8054833319,63314.9511136897,58080.5296174283,66598.2215859083,19568.8930986456
8661103919,10481,2,0,54586.2347792095,57276.1596835541,37674.4503065770,54783.3393000443,55753.3237553756,61947.7156924830,63271.6219453032,58021.0782507514,66569.6518337680,19557.8569976272
8661103919,10481,2,0,54575.0283304356,57189.6960299303,37616.1548710983,54703.2880226462,55672.3842361094,61959.4331845235,63232.9895078904,57926.5717495276,66565.5999907260,19518.9568708843
8661103919,10481,2,0,54592.8296708875,57171.4566523927,37614.3297165748,54704.7481462649,55656.2377024254,62001.0345399612,63256.6435105142,57920.5487396003,66595.3986802454,19499.5128913612
8661103919,10481,2,0,54616.3133257558,57252.8342087445,37679.6580808172,54791.2726383729,55735.9361166156,62017.6677815181,63314.8172690247,58022.6600513384,66623.2262028794,19528.8127053109
8661103919,10481,2,0,54611.2393961806,57325.6335388362,37721.7339764309,54845.5162308096,55808.2000680471,61984.4256337979,63329.0534743075,58096.3111202077,66610.2554380662,19563.2229519261
8661103919,10481,2,0,54585.3465373414,57292.0506956049,37683.5517438005,54790.6155827444,55779.9831791147,61953.8482116818,63279.3362650890,58040.1328639761,66573.7766829910,19549.0840882179
8661103919,10481,2,0,54574.6754672277,57200.0872430171,37621.4599869131,54702.0590852671,55691.8282156325,61959.6400353695,63232.5514708048,57933.4951690199,66564.3953887405,19507.7017513231
8661103919,10481,2,0,54587.0743502903,57168.7432560012,37614.4270581494,54697.8368944695,55659.9853530468,61987.4067195195,63249.5619109632,57915.7790024457,66584.4599208015,19491.0198389788
8661149172,10482,2,0,54604.7783491676,57236.6876750605,37665.5192171089,54777.1581100583,55722.8436748341,62000.7181798438,63297.3322886901,58002.6928608520,66600.7402991506,19517.9834551384
8661149172,10482,2,0,54604.7905168645,57308.9272910983,37702.5455185412,54831.6572241282,55790.4108952919,61981.4932188635,63314.8294367215,58071.1361554810,66590.4829307289,19554.6568933628
8661149172,10482,2,0,54588.5709769995,57297.1124574832,37684.0871224607,54797.7458530827,55781.9543460000,61955.0284782736,63278.4601909177,58041.0332735410,66569.3354736506,19556.6645633386
8661149172,10482,2,0,54571.4753629633,57206.4509484555,37627.8358600483,54710.8684977669,55700.3091003181,61958.1069055698,63229.7163974450,57939.8832098519,66563.2637929360,19519.1272186398
8661149172,10482,2,0,54582.6574763435,57158.6562353349,37614.3783873621,54684.6592788103,55656.6879072078,62001.3509000786,63236.5911461500,57903.4409578672,66592.5636068856,19491.8594100596
8661149172,10482,2,0,54608.9518691779,57225.9557664626,37674.8518405721,54767.8498219887,55718.1347761637,62031.7701421359,63299.6806541769,57996.9375402547,66632.8995218537,19516.2799775832
8661149172,10482,2,0,54618.4305050030,57320.1337398722,37733.3784622905,54851.2715514068,55808.5285958613,62010.0751387006,63337.3883466312,58100.3507955529,66635.2478873405,19568.4063907727
8661149172,10482,2,0,54602.2961390158,57315.7290336223,37713.0219055057,54823.6265442251,55805.5596778365,61973.0366695716,63302.8320876541,58072.9491423076,66605.2180115815,19578.6272561040
8661159404,10483,2,0,54587.1473564712,57226.8805114212,37647.1581626031,54733.7559354908,55719.7409121443,61967.3786905489,63252.3969843230,57965.6422240261,66589.3756703180,19543.3287676206
8661159404,10483,2,0,54592.0752736845,57168.2078773410,37619.6348323896,54701.2316818831,55660.0826946214,61988.0637751479,63253.2730584942,57919.2102929498,66601.0444915712,19512.5323269618
8661159404,10483,2,0,54610.7040175204,57212.4982937765,37660.2506043846,54760.6100423791,55697.0238221759,62006.2301465046,63301.4936410036,57983.9911108351,66621.6200668988,19525.1258931735
8661159404,10483,2,0,54615.3155746163,57293.8028439474,37711.1480801950,54830.2457712968,55774.4347093634,61992.6023260629,63330.3310824739,58069.0068085370,66617.1423544680,19557.6501467812
8661159404,10483,2,0,54596.4069737535,57306.1408885258,37704.5896916074,54822.7383023570,55786.9187663038,61957.1456575208,63307.3828062659,58064.8941270108,66588.9984717165,19567.5181489046
8661159404,10483,2,0,54571.8525615648,57221.7579110587,37639.0058057318,54736.7491889093,55707.8774077419,61939.8066895481,63249.7322587188,57960.6169652382,66561.8523401045,19531.3922570373
8661159404,10483,2,0,54575.5150383085,57149.8346551383,37599.4851264508,54685.4866821942,55638.6797159098,61981.3472065016,63238.7204930940,57894.8505639102,66579.0696311090,19496.7264887888
8661159404,10483,2,0,54604.0482873583,57196.7532940876,37645.0288156591,54751.8371329697,55683.1161447072,62018.2518309656,63299.5468095119,57969.3898746476,66617.2883668298,19516.6450084879
8661196821,10484,2,0,54614.7558605625,57297.7938485053,37707.5951127227,54839.2620346426,55777.3184535105,62002.6041728513,63342.1215806954,58078.3150966065,66623.9440969920,19558.5140532557
8661196821,10484,2,0,54601.8702696270,57320.4866030801,37705.5996104437,54832.6306398741,55798.1738858650,61974.5819670681,63315.9245294356,58076.2100850562,66595.2891709740,19574.1252082795
8661196821,10484,2,0,54586.8796671411,57248.0888069836,37650.0175713565,54750.9732264953,55727.6742504728,61956.1357386845,63259.0648821820,57976.1672817779,66569.0312812301,19541.1020791020
8661196821,10484,2,0,54588.9116725105,57178.3800718849,37611.3486308532,54699.1266703327,55658.6955771836,61975.4823766330,63240.4604737397,57908.2106950218,66576.9889549523,19502.6643248384
8661196821,10484,2,0,54609.3899062635,57205.0029925335,37641.6461959423,54744.6581918442,55681.6925241790,62008.4203319327,63281.2587611870,57952.9148131493,66606.4469489606,19507.3123850247
8661196821,10484,2,0,54622.9082174338,57292.0506956049,37699.3454142767,54828.4449521670,55763.1065836213,62004.4779981621,63325.8168669526,58051.1689649946,66616.0837648444,19546.3706918264
8661196821,10484,2,0,54611.4462470266,57327.8723950516,37713.5816195596,54847.1101990934,55801.7511887309,61975.3363642711,63321.8988685756,58079.4345247143,66596.4694375658,19568.5645708314
8661196821,10484,2,0,54591.7224104766,57260.8040501635,37661.9784173335,54771.2324417055,55740.7666922543,61956.9144712812,63270.8797157970,57993.5184174475,66570.3453924869,19545.4824499583
8661217770,10485,2,0,54586.9040025347,57170.3007211945,37610.6307367406,54698.4939500979,55655.4833052223,61976.5287985598,63245.5100679212,57902.1511820040,66577.8406937299,19503.2848773763
8661217770,10485,2,0,54601.8946050206,57181.1543067606,37630.6100949239,54734.0844633051,55662.7595879225,62005.9502894776,63286.7220570605,57937.7660306047,66606.1427565400,19505.1221995966
8661217770,10485,2,0,54613.8189479071,57274.4927090893,37692.2029762416,54825.6707172913,55750.3548373508,62000.7303475406,63334.2125777605,58044.7809241625,66619.3933783802,19547.6604676896
8661217770,10485,2,0,54599.4854010497,57311.7258613676,37702.3630030888,54837.9114202952,55788.2085421670,61972.1484277035,63318.6744289176,58067.0721447421,66595.7393757564,19568.5524031346
8661217770,10485,2,0,54582.0855945929,57256.6792009406,37657.3911956312,54768.8232377345,55740.5841768020,61957.7905454524,63270.4781818019,57991.1213811733,66573.2169689372,19546.3098533423
8661217770,10485,2,0,54580.8809926074,57177.8446932247,37611.3121277627,54703.7503951255,55667.6388343485,61974.0709238015,63245.7899249481,57910.6077312959,66577.9745383949,19507.9572729563
8661217770,10485,2,0,54600.0816181940,57176.0195387013,37621.3991484290,54721.6977479393,55665.3634750426,62001.0832107485,63273.4105967362,57927.0827927942,66603.9039003246,19496.7143210919
8661217770,10485,2,0,54616.8365367192,57261.3029257333,37681.1182044360,54807.2366566046,55744.2466535457,62001.9592849197,63324.2107309720,58027.6001362485,66621.1698621164,19527.9853019269
8661304007,10486,2,0,54608.5990059700,57318.6249454662,37711.8416389139,54847.0615283061,55799.0621277331,61973.6207190191,63327.7758661411,58083.9609079324,66602.4559444027,19551.0552551032
8661304007,10486,2,0,54587.8895859774,57273.3246101943,37674.8640082690,54784.6047405139,55755.8181332243,61957.0118128558,63277.3650982037,58018.5108667218,66572.0123669517,19538.3278442264
8661304007,10486,2,0,54586.8188286570,57183.2471506141,37620.7542604973,54704.4196184507,55669.7073428084,61975.0321718505,63244.0134412120,57917.1904552771,66574.3607324385,19503.0780265303
8661304007,10486,2,0,54602.3934805903,57172.0528695370,37626.4000718232,54717.6824079877,55654.4733863860,61999.2458885282,63275.4182667120,57923.5298253219,66602.4316090090,19495.7895761334
8661304007,10486,2,0,54614.5976805038,57253.3330843143,37681.0330305582,54802.6616025992,55725.6544128002,61998.9416961076,63326.6199349429,58016.2476751127,66612.5429650689,19530.8812137708
8661304007,10486,2,0,54605.4232370993,57312.2490723309,37706.0254798325,54840.0894380265,55781.6379858826,61969.5810436739,63328.2504063172,58064.8697916172,66592.1377374968,19561.7628283074
8661304007,10486,2,0,54587.6827351314,57277.8996641998,37674.1461141564,54789.9220240255,55751.8149609696,61946.0487180183,63284.8117286593,58010.1516590044,66566.3908910195,19556.8227433973
8661304007,10486,2,0,54578.1067577318,57190.2435762873,37618.0773671963,54709.3475356640,55669.6343366274,61950.3317473000,63244.5001490849,57915.1219468172,66559.7594962510,19516.3651514610
8661322724,10487,2,0,54592.8053354939,57159.6661541712,37610.2657058360,54700.1365891690,55637.9739894941,61982.1867775824,63260.9265397959,57899.7906488203,66581.2719842339,19490.7521496487
8661322724,10487,2,0,54615.9361271543,57233.2563845564,37667.4660486006,54781.1004438289,55703.0833351937,62003.5654209003,63315.9488648292,57996.1709753549,66606.7146382907,19522.4003290852
8661322724,10487,2,0,54620.4868457661,57317.5420204489,37718.8502322839,54850.7240050498,55785.3004626263,61984.3039568296,63340.1260784164,58083.5228708468,66601.5920379282,19572.4825692084
8661322724,10487,2,0,54599.3272209910,57294.1070363679,37691.2660635863,54805.7400298954,55764.2503471226,61942.1063842477,63292.9762532275,58035.4604683961,66567.1574559193,19564.8169202100
8661322724,10487,2,0,54577.4983728906,57189.7933715048,37620.0972048689,54705.2713572283,55666.1665430329,61937.6651749073,63234.5591407806,57915.5113131156,66547.6769733058,19516.1948037055
8661322724,10487,2,0,54583.2901965783,57149.8224874415,37610.4482212883,54692.6899587134,55625.4412617665,61976.1637676551,63245.2788816816,57887.8176351466,66572.8762734261,19496.1911101286
8661322724,10487,2,0,54599.5219041401,57217.4383786866,37667.6363963561,54770.1373489914,55684.9169638370,61991.7140841948,63295.6288111349,57971.8964201931,66600.5577836983,19525.7342780147
8661322724,10487,2,0,54594.6426577141,57291.8073416684,37704.7722070598,54824.9528231788,55753.8469663390,61970.3476085737,63311.0574507064,58039.4514729541,66593.7317057806,19557.3946251480
8661327373,10488,2,0,54575.8313984259,57281.0267622833,37679.0861990665,54793.9860347644,55747.9699687735,61939.8675280322,63276.2213347023,58012.9137261832,66570.7834295726,19559.0859350063
8661327373,10488,2,0,54562.5077704047,57196.9236418431,37617.7123362916,54711.8662489064,55673.1994717965,61943.6030109569,63229.8380744133,57921.8506831603,66558.9564282607,19531.2097415850
8661327373,10488,2,0,54574.5537902595,57142.6922171032,37595.3724449247,54682.1527332647,55626.3173359377,61977.1371834009,63235.1796933185,57883.1695749602,66583.9853806255,19503.7350821588
8661327373,10488,2,0,54597.0031908978,57198.2377531000,37647.6083673856,54752.8227164124,55680.2324005602,62000.6816767533,63291.4917942151,57962.3326104903,66615.3780384286,19522.2421490265
8661327373,10488,2,0,54603.1357100965,57288.4003865580,37706.2444983753,54833.7013971945,55770.9669157689,61982.1867775824,63325.6221838035,58060.6354331228,66611.6060524135,19565.3644665670
8661327373,10488,2,0,54586.2226115127,57290.0065225386,37690.9983742562,54811.7265367322,55774.4590447571,61944.3452404631,63289.6423042980,58037.5289768560,66577.1106319205,19569.5623219709
8661327373,10488,2,0,54572.2784309536,57205.9034020984,37627.7385184737,54720.7364998903,55693.0449853148,61939.8066895481,63235.7394073724,57930.9399526871,66557.5571431260,19532.0736480594
8661327373,10488,2,0,54577.8512360985,57148.4718730941,37598.6942261573,54680.4857588000,55633.3380970046,61962.7184626657,63235.5447242232,57878.8378748912,66574.3363970449,19502.5304801733
8661357689,10489,2,0,54595.2145394648,57191.2534951236,37638.4460916779,54737.4670830218,55671.3986526667,61989.3657187080,63281.0032395537,57943.3875065369,66599.9859019476,19519.5044172413
8661357689,10489,2,0,54597.2830479247,57278.0335088648,37693.2493981684,54806.4944270984,55751.2309115221,61982.8438332109,63312.6514189902,58031.6033085033,66602.0057396202,19560.4852201410
8661357689,10489,2,0,54578.8611549348,57298.2683886814,37692.3976593908,54802.2722363008,55770.7357295292,61954.6147765816,63288.9122424886,58036.5190580197,66578.3030662091,19578.2135544120
8661357689,10489,2,0,54556.2900773282,57220.4437998018,37634.4550871200,54719.6657425699,55699.9562371102,61941.0356269272,63234.3766253282,57946.2834183808,66556.7297397421,19551.8583230935
8661357689,10489,2,0,54560.0255602529,57143.3249373380,37593.8393151250,54664.0350326954,55629.2375831752,61969.8487330040,63216.9159803873,57874.1289762208,66568.2403809366,19514.3818168789
8661357689,10489,2,0,54587.1351887744,57178.8667797578,37633.9075407629,54721.3205493378,55662.9421033748,61994.8533499751,63268.9207166085,57934.8092802768,66601.6285410187,19523.9091234912
8661357689,10489,2,0,54594.0221051762,57272.6188837786,37693.0790504129,54812.4444308448,55753.2142461042,61979.3760396163,63310.8262644668,58039.5853176191,66603.9890742024,19562.7970825373
8661357689,10489,2,0,54577.1090065923,57298.2318855909,37692.5315040559,54812.6147786003,55777.9146706548,61943.0432969030,63287.7319758968,58045.5474890624,66572.4017332500,19570.4748992326
8661394066,10490,2,0,54556.2900773282,57228.0486103162,37639.7723706316,54730.3733157740,55709.3496990575,61938.4074044135,63236.1652767612,57952.6836269097,66549.4047862546,19537.5247762361
8661394066,10490,2,0,54560.1959080084,57158.4007137017,37605.8609995861,54678.2225671909,55641.2836030300,61966.7581380109,63223.4743689749,57884.3376738552,66565.0767797626,19503.9906037921
8661394066,10490,2,0,54581.9274145342,57178.9032828483,37633.0923050758,54718.3881344035,55660.0340238341,61996.5811629240,63263.3357437668,57924.1868809503,66595.2039970962,19510.0866199004
8661394066,10490,2,0,54596.8571785359,57264.7098808437,37691.4242436450,54801.3718267359,55742.1538096922,61999.9394472471,63307.2732969945,58022.3315235242,66608.8926560220,19552.6492233870
8661394066,10490,2,0,54592.0022675036,57309.6816883013,37707.6681189036,54826.8388161863,55787.5393188417,61965.1398343335,63302.0046842701,58059.1631418072,66591.0669801764,19581.7178510970
8661394066,10490,2,0,54571.4996983569,57250.4128370768,37656.1257551616,54756.2418392196,55732.4318199306,61945.2578177248,63248.5276567333,57980.9126835389,66566.2327109608,19565.2062865083
8661394066,10490,2,0,54567.3261783466,57161.2114516678,37601.0547593410,54678.5510950051,55645.1650983165,61956.0749002004,63216.0764093065,57885.6761205057,66568.5689087508,19521.4634164298
8661394066,10490,2,0,54579.3600305045,57163.0974446753,37617.1282868441,54701.4872035164,55643.4372853676,61981.4932188635,63247.0553654177,57910.9362591102,66593.7682088711,19511.1817126144
8661410484,10491,2,0,54585.2126926764,57249.3907505436,37678.8063420396,54787.6588324165,55726.1289529763,61982.7951624236,63291.5891357897,58018.2310096949,66601.4095224759,19547.5144553277
8661410484,10491,2,0,54574.1522562643,57296.9299420309,37698.8100356165,54806.9811349713,55775.7366529235,61960.3700971789,63279.8473083556,58053.2496411513,66576.5995886539,19575.0256178444
8661410484,10491,2,0,54561.2788330256,57251.8242899082,37659.2771886388,54743.0155527731,55733.9892851240,61945.3308239057,63234.1454390886,57985.5972468157,66554.6247281917,19561.3491266154
8661410484,10491,2,0,54554.8421214063,57167.6481632871,37607.3819616889,54669.3644839038,55654.6315664447,61955.3813414815,63205.8798793689,57898.8780715586,66554.6490635853,19518.6891815542
8661410484,10491,2,0,54570.9278166062,57157.6706518923,37614.9137660223,54685.1338189864,55645.6031354021,61986.4333037736,63238.3311267957,57908.9650922248,66580.0917176421,19506.0226091615
8661410484,10491,2,0,54588.1816107012,57239.7539346598,37674.0487725818,54772.3762052068,55719.7044090538,61994.0624496816,63294.2416936971,58005.6861142704,66598.9394800208,19539.4229369405
8661410484,10491,2,0,54587.3907104077,57309.7060236949,37709.9434782095,54825.3543571739,55785.9940213452,61964.8721450034,63308.6117436450,58070.8319630604,66582.7929463368,19576.5465799473
8661410484,10491,2,0,54567.2775075593,57271.4264494900,37670.7756621365,54769.9183304486,55751.2674146125,61932.9319408432,63260.8900367054,58008.2534983000,66550.7797359956,19565.5956528066
8661446064,10492,2,0,54556.6794436266,57175.6423400998,37609.5113086329,54680.5100941936,55660.5085640102,61944.3209050694,63214.2269193894,57899.0727547078,66545.1460923666,19519.5409203318
8661446064,10492,2,0,54568.9323143273,57156.7094038433,37613.7943379146,54684.3064156024,55641.4052799982,61979.7775736115,63238.4284683703,57898.1601774461,66575.8816945414,19504.3556346968
8661446064,10492,2,0,54585.6750651556,57238.8413573981,37676.0442748608,54771.2811124928,55717.1613604178,61989.5725695540,63292.2340237213,58002.6685254583,66598.5257783289,19534.2881688812
8661446064,10492,2,0,54581.9274145342,57305.1188019927,37709.8704720286,54814.8901379062,55783.0616064109,61967.3178520648,63299.5589772087,58063.9328789618,66586.2120691441,19562.8457533246
8661446064,10492,2,0,54565.2820052804,57278.5445521314,37677.6504108414,54767.0224186048,55758.0204863493,61941.7170179493,63257.3249015363,58016.1259981445,66558.5670619623,19559.6699844538
8661446064,10492,2,0,54554.5622643794,57191.1318181554,37618.9291059739,54687.7863768938,55673.6253411853,61941.6075086779,63216.1250800938,57920.3905595416,66548.1150103914,19526.1844827971
8661446064,10492,2,0,54568.7132957844,57153.3632872170,37605.6419810432,54676.8476174499,55636.2583442421,61968.6562987153,63229.6312235673,57896.1403397735,66567.8996854255,19512.2037991476
