steady_timestamp,sequence,battery,flags,EEG-ch1,EEG-ch2,EEG-ch3,EEG-ch4,EEG-ch5,EEG-ch6,EEG-ch7,EEG-ch8,EEG-ch9,EEG-ch10
2053710796,16263,-2,0,27807.0565680122,55886.0003215330,27775.3840531820,52486.8447047727,60627.7517734335,42273.2434885047,46118.7832309114,50591.0932043647,53761.8124809710,2024.8872667899
2053710796,16263,-2,0,27788.5860042349,55903.8016619849,27793.5747599323,52511.9709987121,60645.1272444966,42281.4201807697,46134.8324230209,50613.5426050030,53774.6372334224,2021.3099639239
2053710796,16263,-2,0,27885.5138771265,55904.5803945816,27804.3431716207,52524.2238694128,60643.8983071175,42263.6188403178,46169.1331603648,50641.7351585418,53777.4601390853,2004.1048406163
2053710796,16263,-2,0,27994.5486083569,55900.8570793538,27794.3413248322,52515.9741709668,60643.5697793033,42260.7715992612,46176.1904245221,50638.6932343361,53765.8764917099,2004.0805052227
2053710796,16263,-2,0,27965.2001236199,55902.4632153344,27789.1943890761,52506.1913427212,60652.9754089474,42271.0411353798,46155.4688368326,50624.0676627549,53764.4407034848,2017.6718225739
2053710796,16263,-2,0,27842.4037272828,55895.3329449962,27791.5184191693,52490.5071815164,60647.0619082915,42267.0379631250,46126.0473459147,50612.4231768953,53770.9747566787,2016.2847051361
2053710796,16263,-2,0,27813.8704782330,55893.3252750204,27793.5625922355,52485.7861151491,60643.9713132984,42269.3863286119,46119.3551126621,50610.1356498926,53771.3032844929,2013.0359300843
2053710796,16263,-2,0,27932.4325160758,55909.2649578584,27798.9772173217,52523.9440123859,60655.1534266787,42280.7874605350,46163.3778397675,50631.1614300027,53770.1960240821,2009.5803041866
2053721983,16264,-2,0,28101.6000050051,55916.0301972920,27800.9605519039,52555.4705148541,60654.3868617789,42271.1871477417,46203.3243884372,50649.2182920879,53773.6394822829,2003.2287664451
2053721983,16264,-2,0,28176.0906449552,55904.8967546990,27796.7505288031,52535.5154920645,60643.4237669414,42263.8865296479,46183.9412473983,50632.9135783452,53772.9702589577,2009.7384842453
2053721983,16264,-2,0,28125.6555416241,55895.8683236564,27788.7441842936,52497.2359178595,60642.8762205844,42272.2092342748,46132.5448960182,50600.9003680040,53767.4582922969,2024.5344035820
2053721983,16264,-2,0,28106.7591084580,55891.9746606730,27791.5670899566,52482.7320232466,60639.2989177184,42268.8752853453,46117.3231072927,50601.7764421753,53767.8963293825,2018.1828658405
2053721983,16264,-2,0,28194.0745008595,55884.2846762809,27793.9032877466,52489.8379581912,60627.8491150081,42254.9067693926,46142.0478672369,50621.3055955761,53764.1851818515,1998.1426691731
2053721983,16264,-2,0,28320.3630261848,55888.1661715674,27787.9289486065,52510.4135335188,60634.8212052876,42261.4286548897,46168.2692538903,50628.2655181588,53756.9332345450,2001.6226304644
2053721983,16264,-2,0,28329.6956496480,55893.2644365363,27785.4710738483,52514.8060720718,60645.4801077045,42264.7504361223,46164.9474726577,50622.4006882901,53757.1887561783,2010.9552539276
2053721983,16264,-2,0,28243.3780083860,55889.1274196165,27787.5882530955,52496.3720113851,60642.4503511956,42263.8743619511,46134.9054292018,50612.2041583525,53768.0545094412,2013.0846008716
2053751054,16265,-2,0,28188.3921864432,55887.4726128485,27787.2110544939,52490.7992062402,60641.0388983641,42264.8721130905,46125.1347686530,50604.5628447477,53767.8719939889,2012.9142531161
2053751054,16265,-2,0,28238.5109296569,55895.0409202724,27785.6414216038,52507.8948202764,60644.4093503841,42260.2118852074,46149.5675038735,50618.0203174339,53762.8832382915,2007.5604665140
2053751054,16265,-2,0,28349.4559892884,55893.9579952552,27784.7531797357,52528.2513770612,60635.1619007986,42244.1018546138,46182.8948254715,50634.1303480275,53759.2207615478,1995.3684342974
2053751054,16265,-2,0,28365.5538521852,55878.0183124171,27771.7945826193,52508.9169068095,60617.2510510753,42233.4429521969,46165.8357145258,50612.1311521716,53745.1914071109,1991.5599451919
2053751054,16265,-2,0,28257.8575676053,55870.1579802695,27763.5813872638,52471.6594191377,60613.4303942729,42250.7575847759,46116.1306730040,50576.2729496344,53737.8542859267,2001.1724256820
2053751054,16265,-2,0,28178.8405444372,55875.2805806320,27774.1672834998,52468.8243457779,60618.7963485718,42262.3168967577,46105.8489691886,50582.7948351315,53749.1215731847,2001.9024874914
2053751054,16265,-2,0,28231.5510070741,55882.1309939433,27786.6635081369,52495.0335647346,60622.0572913203,42262.6575922688,46139.0546138185,50610.4398423132,53758.1500042273,1995.8429744735
2053751054,16265,-2,0,28360.5894318814,55894.8827402137,27788.7685196873,52531.3298043574,60637.1574030776,42268.3764097756,46180.6316338625,50629.9933311077,53759.1477553668,1999.4689481268
2053807170,16266,-2,0,28393.2475301542,55897.2919441847,27782.9158575154,52534.4812378345,60642.6085312543,42261.3921517992,46184.5983030267,50626.5133698163,53759.7926432984,2001.7443074327
2053807170,16266,-2,0,28302.8293750629,55885.0025703935,27777.1118661309,52495.8974712090,60632.9473799769,42252.8017578422,46142.6927551685,50604.8427017746,53760.9485744966,2003.6059650466
2053807170,16266,-2,0,28203.8086583178,55882.0823231560,27775.4570593630,52471.5377421695,60634.4440066861,42260.7715992612,46112.8940656491,50589.4992360809,53758.8192275526,2013.2062778399
2053807170,16266,-2,0,28221.9385265840,55894.6515539741,27782.0276156474,52490.0326413403,60644.2998411127,42265.8211934427,46130.4520521646,50602.6160132560,53758.3811904670,2010.8214092626
2053807170,16266,-2,0,28345.4649847305,55899.9688374857,27787.6369238828,52519.5271384391,60641.5986124180,42250.9035971378,46171.3720165802,50627.8518164668,53759.2085938509,1997.1570857304
2053807170,16266,-2,0,28398.2362858516,55890.9769095336,27779.0586976226,52512.2508557390,60630.5990144900,42240.0135084813,46169.4860235726,50616.1708275168,53748.6105299182,1995.4049373879
2053807170,16266,-2,0,28322.6140500970,55884.1873347064,27764.7373184620,52495.7392911503,60630.3556605536,42249.3217965508,46135.4164724684,50587.6619138606,53742.1373152083,2006.5018768904
2053807170,16266,-2,0,28249.5591983721,55884.5036948237,27770.7359929957,52505.8749826038,60634.2371558401,42262.4629091196,46130.7684122820,50592.3099740470,53756.3491850975,2010.0548443627
2053817752,16267,-2,0,28274.2596229227,55881.9606461877,27778.9126852607,52516.3757049620,60626.9000346559,42257.6323334809,46147.4746600199,50606.9963841123,53759.5979601493,2004.6402192765
2053817752,16267,-2,0,28373.6697059661,55881.9484784909,27775.2988793043,52525.1729497650,60626.4011590861,42254.1523721895,46174.4504438764,50613.8467974236,53751.3360940065,2002.3891953643
2053817752,16267,-2,0,28398.3822982135,55878.2251632631,27770.6508191179,52514.8790782528,60624.2839798389,42248.5187285605,46177.4436972948,50613.8589651204,53749.3892625148,2002.2796860929
2053817752,16267,-2,0,28313.0624080910,55867.5419254526,27771.2470362622,52483.4255819655,60618.9180255400,42249.7720013333,46140.8554329483,50597.8341084046,53755.5582848041,2002.2066799119
2053817752,16267,-2,0,28195.4251152068,55867.0308821860,27772.9748492111,52461.6940754397,60624.7220169246,42260.7229284739,46104.5956964159,50580.6776558843,53755.4852786231,2007.7673173600
2053817752,16267,-2,0,28187.1024105799,55878.3590079282,27777.9027664244,52480.6513470898,60635.4417578256,42259.5304941853,46117.0919210530,50591.2757198171,53755.0350738407,2005.7231442938
2053817752,16267,-2,0,28308.8645526871,55884.0656577381,27780.7743428746,52514.7208981941,60634.6143544416,42243.7246560123,46162.0272254202,50620.6485399476,53755.2297569898,1993.7257952263
2053817752,16267,-2,0,28391.8360773228,55879.8799700310,27771.1375269908,52514.7574012845,60630.4043313409,42235.6696407155,46171.1286626437,50616.4750199374,53746.0066427980,1994.0056522533
2053848332,16268,-2,0,28337.8358388225,55879.2837528867,27763.6665611416,52489.6797781325,60632.9595476737,42250.9644356219,46136.4993974856,50590.1441240125,53741.3829180053,2006.7208954332
2053848332,16268,-2,0,28229.5920078856,55879.6244483977,27774.0942773188,52477.0132057398,60633.9816342068,42263.8743619511,46115.2667665296,50588.4649818509,53755.6921294691,2011.4906325878
2053848332,16268,-2,0,28206.1813591983,55876.8502135221,27784.1812979850,52484.1313083812,60624.8558615896,42258.3867306839,46123.2731110391,50596.3131463017,53760.8512329220,2007.0129201570
2053848332,16268,-2,0,28290.6130074527,55876.8502135221,27783.0497021805,52505.8871503006,60621.8017696870,42251.0374418029,46157.2088174783,50606.3879992711,53749.8029642068,2005.4797903573
2053848332,16268,-2,0,28370.5547755794,55873.5649353799,27780.1051195493,52514.8547428591,60613.3087173046,42240.1716885400,46176.1417537348,50609.3204142055,53745.3739225633,2000.7587239900
2053848332,16268,-2,0,28341.2427939330,55859.7545994859,27776.5156489866,52494.5103537712,60603.4042120908,42241.4979674937,46152.8162789252,50594.5609979592,53748.7443745832,2005.4189518732
2053848332,16268,-2,0,28224.0435381344,55857.1020415785,27770.9185084480,52471.7810961059,60607.4925582233,42259.3966495202,46114.3785246615,50570.4324551594,53750.2531689892,2019.4361386132
2053848332,16268,-2,0,28177.6481101485,55861.5189155252,27773.2790416317,52472.0487854360,60612.0311091382,42263.2538094131,46112.2978485048,50578.9255075418,53756.7385513959,2018.0855242659
2053873436,16269,-2,0,28268.2731160858,55860.6428413540,27777.8540956371,52493.1962425143,60609.6097374705,42246.2920400419,46148.9104482450,50606.7165270854,53759.3911093033,2002.0850029437
2053873436,16269,-2,0,28365.7485353344,55860.0831273001,27766.9031684965,52495.6906203630,60612.1041153192,42237.9206646277,46163.0493119533,50608.0549737359,53747.9291388961,1998.9700725570
2053873436,16269,-2,0,28354.1770556558,55865.9357894719,27760.0892582756,52488.8280393549,60620.8891924253,42243.7854944964,46144.0068664254,50592.2126324724,53743.2810787097,2005.2242687240
2053873436,16269,-2,0,28244.9963120635,55865.6681001418,27766.5989760759,52473.8252691722,60620.0861244350,42246.8639217926,46115.0964187741,50584.6321573517,53752.4068513269,2005.1269271494
2053873436,16269,-2,0,28191.6896322822,55865.8627832910,27774.8000037345,52472.2313008884,60615.6935858819,42244.8684195136,46112.1153330525,50585.6664115817,53752.5893667793,2000.5153700535
2053873436,16269,-2,0,28257.0301642214,55871.6181038882,27774.6174882822,52494.9970616441,60619.0762055987,42244.6737363645,46141.6463332417,50597.4204067126,53745.8362950425,1993.2755904439
2053873436,16269,-2,0,28356.0143778760,55868.8438690126,27769.3732109515,52511.4234523551,60611.7390844145,42236.4362056153,46171.3720165802,50609.5759358388,53744.4248422111,1980.1831486624
2053873436,16269,-2,0,28362.9986358524,55855.4959055979,27762.4497914593,52496.5666945342,60600.3136170977,42235.3289452044,46155.9677124023,50594.8895257735,53744.3396683333,1979.5625961244
2053928411,16270,-2,0,28254.4627801917,55851.4318948590,27759.2253518012,52466.9991912545,60603.3798766971,42257.1212902143,46113.4416120062,50571.0530076973,53746.7853753947,1995.0155710896
2053928411,16270,-2,0,28187.1389136704,55862.4314927869,27773.2790416317,52470.7590095728,60615.8639336375,42273.8762087395,46111.2514265780,50583.7804185741,53762.3113565408,2002.4135307579
2053928411,16270,-2,0,28255.9229038105,55871.0097190471,27787.1867191003,52498.8663892338,60617.4700696181,42262.0005366403,46147.5963369882,50615.0635671059,53772.9580912609,2001.2819349534
2053928411,16270,-2,0,28358.7156065707,55878.3468402313,27784.6315027675,52513.7961532355,60623.7972719660,42251.0252741060,46174.1949222431,50622.7657191948,53763.5524616167,2009.7749873358
2053928411,16270,-2,0,28351.3663176897,55878.8700511947,27772.0744396462,52497.0777378008,60628.5061706365,42247.4236358464,46160.6644433760,50607.9454644645,53754.2563412440,2016.2968728329
2053928411,16270,-2,0,28229.2634800714,55870.7785328075,27770.6386514211,52469.6639168587,60622.2763098631,42247.8373375384,46124.3803714500,50594.2203024482,53759.2085938509,2017.9638472976
2053928411,16270,-2,0,28092.6932509307,55870.4135019028,27775.7490840867,52463.9207639583,60624.2718121421,42255.1866264195,46112.0788299620,50590.8133473378,53759.7439725111,2020.4338897527
2053928411,16270,-2,0,28056.0441481000,55879.7461253660,27779.0343622289,52487.4895927043,60631.5602625390,42256.0505328939,46139.1032846057,50603.2365657940,53756.5803713372,2020.8354237479
2053934379,16271,-2,0,28112.1493981506,55879.4175975518,27778.7545052020,52511.6911416852,60623.1280486407,42240.7435702907,46176.7744739696,50619.5777826272,53752.2851743587,2007.8038204505
2053934379,16271,-2,0,28110.9934669524,55863.0277099313,27766.5746406822,52498.3918490577,60607.4317197392,42227.9066501424,46167.6852044428,50602.2874854418,53742.4050045385,2002.5960462103
2053934379,16271,-2,0,28003.1024992234,55855.3985640233,27755.2100118496,52472.9978657882,60606.6894902330,42245.0387672692,46125.0009239880,50571.8804110813,53739.8619559025,2015.6033141140
2053934379,16271,-2,0,27914.9475357412,55860.9226983809,27766.8423300123,52473.8861076563,60613.3695557887,42263.6310080146,46114.9990771995,50582.0891087157,53753.5019440410,2019.6186540656
2053934379,16271,-2,0,27954.2491964793,55860.8375245031,27777.6472447911,52489.3634180151,60611.2767119352,42251.0982802870,46141.8410163909,50609.1378987531,53760.9972452839,2008.0228389933
2053934379,16271,-2,0,28069.2095960625,55863.4292439264,27774.4106374362,52506.3616904767,60613.3452203951,42243.4934697726,46170.5081101058,50615.9274735803,53750.6547029844,2003.8979897703
2053934379,16271,-2,0,28116.3959243418,55868.7343597412,27767.3655409757,52514.5262150449,60618.5651623321,42241.4614644032,46173.7568851575,50608.6390231834,53743.9137989445,2005.5892996287
2053934379,16271,-2,0,28031.1125373098,55859.9127795446,27765.6742311173,52484.9708794620,60611.7634198081,42238.4925463784,46139.3709739359,50589.9494408633,53746.9313877566,2005.2364364208
2053962882,16272,-2,0,27901.5022307518,55852.6121614508,27764.8103246429,52455.8049101774,60607.7602475534,42242.5443894205,46104.1576593303,50572.5374667097,53743.5366003430,2006.7452308269
2053962882,16272,-2,0,27875.0374901619,55863.9524548898,27768.0590996946,52470.3696432745,60616.7886785960,42250.6845785950,46118.5642123686,50585.2892129802,53743.9989728223,2007.5482988172
2053962882,16272,-2,0,27967.4876506227,55869.7321108807,27771.9040918907,52503.9768218994,60618.6016654226,42235.4384544759,46163.5968583103,50616.0856536390,53747.3085863581,1996.6703778575
2053962882,16272,-2,0,28007.2273484464,55858.9758668892,27760.3934506962,52500.5820344858,60609.5367312895,42222.7840497800,46162.0028900265,50606.3149930902,53736.1508083715,1991.6694544633
2053962882,16272,-2,0,27918.9142049055,55854.2304651283,27750.5862870569,52476.9036964684,60611.8729290795,42241.0477627112,46124.4047068436,50574.5816397760,53732.2936484786,2003.4356172910
2053962882,16272,-2,0,27802.6640294591,55853.9627757982,27758.5926315664,52467.6319114893,60610.7291655782,42248.0563560812,46102.4055109878,50569.9822503769,53742.8187062304,2004.9200763034
2053962882,16272,-2,0,27805.8884691172,55856.2016320136,27771.9405949812,52482.9145386989,60606.7746641107,42248.3483808050,46124.1491852103,50588.5258203351,53748.1238220452,1999.9678236965
2053962882,16272,-2,0,27912.9642011591,55863.3684054423,27772.4029674604,52505.2665977626,60611.1915380574,42243.8098298900,46161.0173065839,50600.8760326104,53739.5820988755,1998.4833646841
2053998066,16273,-2,0,27979.8500305948,55867.2985715161,27766.6354791664,52514.3436995926,60617.0563679261,42240.7070672002,46174.2314253336,50604.8913725619,53736.2603176429,1997.0840795495
2053998066,16273,-2,0,27933.8074658168,55863.2223930804,27765.9175850538,52493.3544225730,60616.0951198771,42244.8562518168,46147.4989954136,50593.5389114261,53743.8772958540,2000.3571899948
2053998066,16273,-2,0,27831.5988125040,55862.3341512123,27768.3146213279,52474.8108526148,60622.8725270075,42257.9000228110,46116.4592008183,50576.8569990819,53748.8295484610,2014.2648674635
2053998066,16273,-2,0,27812.5441992793,55874.1124817370,27776.9658537690,52487.9154620931,60634.6143544416,42261.3313133151,46126.2541967607,50588.3068017922,53754.5727013614,2019.7890018211
2053998066,16273,-2,0,27911.6014191149,55876.3026671651,27783.4147330852,52513.2607745753,60630.1731451012,42246.7544125212,46170.0700730201,50617.1320755658,53757.5537870830,2004.7010577606
2053998066,16273,-2,0,27985.1551464096,55868.4545027143,27773.4007185999,52512.0683402867,60621.7287635061,42234.1486786126,46179.6947212071,50612.6665308318,53748.4158467690,1996.8893964003
2053998066,16273,-2,0,27930.2423306476,55865.0840506943,27760.4299537867,52490.7992062402,60625.2817309784,42245.7201582912,46147.5720015945,50588.5866588192,53743.7921219763,2002.8515678435
2053998066,16273,-2,0,27812.0818268000,55863.4779147137,27764.9441693080,52474.0686231086,60627.5935933748,42258.2407183220,46115.7413067057,50582.2107856840,53755.6069555913,2001.7078043422
2054043188,16274,-2,0,27783.2930561170,55861.8474433394,27773.0235199984,52476.5021624732,60620.2564721905,42258.3258921998,46117.2866042022,50590.6429995823,53760.6200466824,1998.3981908063
2054043188,16274,-2,0,27871.0951563913,55871.1678991058,27774.1186127125,52502.7965553076,60626.0604635751,42257.7175073587,46152.2322294777,50606.6921916917,53755.6556263786,2002.4378661516
2054043188,16274,-2,0,27954.4195442348,55874.8060404559,27771.2348685654,52514.5140473481,60627.1190531987,42251.0374418029,46174.0975806685,50616.5115230278,53752.1756650873,2000.1381714520
2054043188,16274,-2,0,27926.4946800262,55864.8285290611,27768.3754598120,52493.7924596586,60620.2443044937,42243.9680099487,46152.4147449301,50603.6137643955,53753.0030684712,2000.8560655646
2054043188,16274,-2,0,27802.9317187892,55861.4580770411,27767.4142117630,52466.8896819831,60625.0140416483,42259.5426618821,46114.4636985393,50581.7119101142,53751.0805723732,2013.1332716589
2054043188,16274,-2,0,27754.7598070672,55876.8258781285,27779.3020515590,52483.0605510608,60640.1871595865,42276.4800958596,46123.0662601931,50594.2933086291,53761.3257730981,2018.4627228674
2054043188,16274,-2,0,27845.2631360362,55885.4892782664,27788.4886626604,52522.2648702243,60643.3994315478,42264.3732375208,46173.7203820670,50631.3926162423,53770.7435704391,2004.9200763034
2054043188,16274,-2,0,27945.8048148842,55880.9872304419,27776.7590029230,52528.4338925135,60637.8752971902,42248.1902007463,46191.0471823429,50631.0032499440,53761.3257730981,1997.0354087622
2054060725,16275,-2,0,27920.3378254338,55875.4022576002,27761.2695248674,52504.0619957772,60637.4129247109,42250.2100384189,46160.8712942220,50605.0738880143,53750.2410012924,2001.2210964693
2054060725,16275,-2,0,27792.7960273357,55869.3427445824,27763.1920209655,52474.1781323800,60634.3101620210,42256.3912284050,46120.8274039777,50592.4316510152,53758.7705567653,2001.4157796184
2054060725,16275,-2,0,27729.5118361596,55867.6392670272,27774.9338483996,52472.6815056708,60631.2439024217,42260.6499222930,46116.8120640261,50596.0211215780,53763.8809894309,1999.3594388554
2054060725,16275,-2,0,27797.9429630918,55879.6487837914,27780.3119703953,52504.2445112295,60640.1263211024,42268.7414406802,46155.6635199818,50617.0225662944,53763.7349770691,2001.7199720390
2054060725,16275,-2,0,27907.7199238284,55887.6429606041,27782.5386589139,52527.8133399756,60643.3750961541,42266.9527892473,46195.7925841038,50638.6810666392,53769.0035897934,2002.3161891833
2054060725,16275,-2,0,27918.2571492770,55880.4275163881,27782.8793544250,52515.4874630939,60636.4760120555,42264.0933804939,46187.1170162691,50634.0451741497,53773.2622836814,2005.1390948463
2054060725,16275,-2,0,27803.5036005399,55877.3612567887,27779.6549147669,52485.2142333984,60640.5765258848,42277.6116916642,46141.5733270608,50606.6921916917,53771.8873339404,2016.2725374392
2054060725,16275,-2,0,27728.3924080518,55885.7691352933,27788.2939795112,52487.2219033742,60651.5517884191,42286.3602656799,46136.6332421507,50611.0725625480,53780.7210818339,2017.6961579675
2054108907,16276,-2,0,27789.3647368316,55887.6307929072,27796.2273178397,52512.7618990056,60648.3638518515,42270.8951230179,46172.5157800816,50639.7153208692,53785.0527819029,2000.7830593836
2054108907,16276,-2,0,27904.1061178720,55888.8232271959,27791.2385621423,52528.2027062739,60649.8118077735,42263.2781448067,46201.6574139725,50646.5292310900,53775.1604443858,1994.4923601262
2054108907,16276,-2,0,27917.1012180789,55889.2490965847,27780.7500074810,52520.6830696373,60655.1899297692,42265.5413364158,46189.5018848464,50630.7963990980,53767.7503170206,1999.8583144251
2054108907,16276,-2,0,27810.8042186336,55878.4685171996,27778.7910082925,52493.9141366268,60646.0641571520,42261.3678164055,46150.4557457416,50610.9265501861,53773.2136128941,2002.3040214865
2054108907,16276,-2,0,27719.6681694298,55869.5739308220,27782.5873297012,52479.2277265616,60638.1794896107,42263.6553434083,46127.9820097096,50598.6858471822,53772.7755758085,2004.8470701225
2054108907,16276,-2,0,27751.9003983138,55879.4054298549,27788.7441842936,52504.0498280804,60643.5454439096,42273.5841840158,46155.5661784072,50614.0658159664,53772.3253710261,2007.7064788759
2054108907,16276,-2,0,27869.7445420440,55888.8962333768,27793.2949029054,52532.8629341571,60644.9325613475,42264.3123990367,46197.8245894733,50639.9951778961,53773.9315070067,1999.6636312759
2054108907,16276,-2,0,27907.1480420777,55880.8777211705,27790.1556371251,52522.8367519750,60636.0623103635,42254.5660738815,46193.2982062551,50636.1501857001,53773.1284390164,1998.5807062587
2054126070,16277,-2,0,27802.7857064273,55874.5505188226,27782.0032802537,52485.2994072762,60634.5048451702,42267.5368386948,46142.7049228653,50601.7521067816,53768.5412173141,2012.9020854193
2054126070,16277,-2,0,27702.5117169094,55879.4054298549,27789.8757800982,52480.5783409089,60642.4868542860,42283.9023909216,46127.3492894748,50602.7985287084,53780.3317155356,2016.3577113170
2054126070,16277,-2,0,27736.5325972264,55886.4018555281,27804.1119853810,52505.8628149070,60647.0984113819,42275.4093385392,46160.3359155618,50631.1127592154,53791.7206797618,2005.1269271494
2054126070,16277,-2,0,27852.7462695823,55888.9935749514,27800.1818193072,52524.2847078969,60648.9844043895,42262.3777352418,46194.0282680645,50644.1808656032,53783.8116768269,1998.7632217110
2054126070,16277,-2,0,27891.7802409903,55889.3829412497,27790.4963326361,52523.8831739017,60653.2917690648,42265.3588209635,46192.0327657855,50638.4742157932,53776.0851893444,2002.2310153056
2054126070,16277,-2,0,27808.7478778706,55880.2693363294,27787.2110544939,52497.1994147690,60645.4314369172,42264.4097406113,46155.4201660453,50621.9139804172,53780.1613677800,2005.6501381128
2054126070,16277,-2,0,27703.0349278728,55874.6235250035,27785.9456140244,52480.6391793930,60642.9370590685,42268.8752853453,46125.8161596751,50606.9963841123,53781.5363175210,2008.1688513552
2054126070,16277,-2,0,27704.7627408217,55884.0291546477,27787.3692345526,52498.7933830528,60649.0939136609,42274.8009536981,46144.5300773888,50616.4628522405,53779.6624922103,2006.3558645286
2054158768,16278,-2,0,27821.9619966203,55890.6970525066,27792.1633071009,52531.9016861081,60648.8627274213,42261.2704748310,46190.6578160446,50643.5481453684,53778.7134118581,1996.2445084687
2054158768,16278,-2,0,27885.2340200996,55881.9971492782,27784.5828319802,52524.7957511635,60637.8874648870,42246.9977664576,46192.7263245045,50635.8094901890,53769.8431608742,1993.5797828645
2054158768,16278,-2,0,27807.0078972249,55874.3436679766,27771.1131915972,52487.5017604012,60633.8477895418,42251.9135159741,46145.7103439806,50597.8706114951,53759.5371216652,2003.3869465038
2054158768,16278,-2,0,27693.6292982287,55875.5969407494,27779.2047099844,52474.2268031673,60635.8797949112,42266.9892923377,46122.5552169266,50592.7480111326,53769.7944900869,2004.9444116971
2054158768,16278,-2,0,27688.3120147171,55875.3657545097,27791.7496054089,52485.2385687921,60630.5990144900,42264.4584113986,46140.5147374372,50612.3866738049,53780.5994048657,1997.6559613001
2054158768,16278,-2,0,27793.3192382991,55877.4829337569,27790.0947986410,52510.8272352107,60632.6675229499,42260.2727236915,46178.3197714661,50627.1217546574,53774.7467426938,1997.8019736620
2054158768,16278,-2,0,27861.2028188743,55878.7605419233,27781.7720940141,52519.7339892851,60636.5490182365,42253.4344780770,46189.2463632131,50628.7278906381,53770.6827319550,1999.5662897014
2054158768,16278,-2,0,27810.4878585162,55873.6622769545,27781.5044046840,52500.3995190335,60634.6386898353,42253.5561550452,46163.0371442565,50617.2294171404,53773.3961283465,2003.7154743180
2054185684,16279,-2,0,27693.3251058081,55868.9168751936,27781.1393737793,52476.5751686541,60635.8797949112,42259.2384694615,46126.4123768194,50599.4402443852,53774.3208733050,2013.0602654780
2054185684,16279,-2,0,27665.0717137853,55879.6974545787,27784.7410120389,52486.6621893204,60644.9447290443,42262.7184307529,46134.3335474512,50605.4389189190,53772.9094204736,2015.1774447252
2054185684,16279,-2,0,27766.9031684965,55882.3013416988,27787.5882530955,52514.4167057735,60639.6396132295,42248.5430639542,46177.4558649917,50632.7188951960,53771.7899923659,1996.1228315005
2054185684,16279,-2,0,27851.9432015920,55876.5825241920,27782.0154479506,52514.7574012845,60632.0104673215,42242.9580911124,46189.7817418733,50632.4147027754,53762.9684121692,1986.2304939834
2054185684,16279,-2,0,27809.8673059783,55879.4175975518,27775.5057301503,52495.0700678250,60638.1794896107,42261.2461394373,46157.6468545639,50608.1158122200,53759.2937677287,1999.6027927918
2054185684,16279,-2,0,27693.3859442922,55881.9849815814,27783.2687207233,52481.3205704151,60641.5499416307,42269.7391918197,46127.7508234699,50598.5763379108,53770.4272103217,2005.9908336239
2054185684,16279,-2,0,27658.4646544104,55879.8799700310,27788.4886626604,52485.4089165476,60635.0888946177,42257.9121905078,46132.9464300133,50609.6489420197,53775.2334505668,1999.0795818284
2054185684,16279,-2,0,27745.5610282690,55883.2017512637,27782.3439757648,52512.4698742818,60635.3444162510,42251.9256836709,46168.9384772156,50620.9283969746,53763.3334430739,1993.2512550502
2054216253,16280,-2,0,27841.1382868132,55887.9349853278,27777.0023568595,52530.3928917020,60637.0113907157,42250.3438830840,46193.5050571011,50631.7576471470,53755.7651356500,1991.3774297395
2054216253,16280,-2,0,27819.3702771970,55878.4563495027,27777.5620709134,52511.1557630250,60628.9928785094,42249.6868274555,46171.9438983309,50621.2204216983,53758.3081842860,1995.2832604197
2054216253,16280,-2,0,27698.1313460532,55874.2949971893,27779.9226040970,52481.4544150802,60632.1564796834,42261.2461394373,46126.8990846923,50597.0432081111,53759.3424385160,2011.3324525291
2054216253,16280,-2,0,27642.7196547215,55886.4261909218,27788.9023643523,52485.1533949143,60644.8960582570,42272.4769236049,46125.5971411323,50601.0950511532,53765.6939762576,2016.5037236789
2054216253,16280,-2,0,27727.9422032694,55894.7610632455,27797.4684229157,52513.2242714849,60647.0862436851,42263.6066726210,46169.4738558758,50634.7752359591,53772.5078864784,1999.8826498187
2054216253,16280,-2,0,27831.8908372278,55891.7191390397,27791.6765992280,52523.2504536670,60641.4039292688,42251.0861125902,46193.1643615901,50639.3989607518,53765.2194360815,1991.3165912554
2054216253,16280,-2,0,27815.8659805120,55889.7966429417,27779.5089024050,52507.9799941542,60642.5598604670,42258.0947059602,46171.7978859690,50617.5092741673,53758.1743396210,1999.8218113346
2054216253,16280,-2,0,27698.5937185325,55884.0048192540,27779.8861010065,52483.4255819655,60642.0001464131,42266.0645473792,46132.5327283214,50603.8692860288,53765.4871254116,2002.5838785134
2054278355,16281,-2,0,27634.8228194834,55878.1764924758,27784.4246519215,52474.3606478324,60634.4926774734,42266.7216030076,46122.2631922028,50602.5916778624,53771.5709738230,2000.6613824154
2054278355,16281,-2,0,27699.8226559116,55884.5401979142,27786.2133033545,52498.4405198450,60639.2380792343,42268.8022791644,46154.4467502995,50617.0225662944,53768.6628942824,2000.5762085377
2054278355,16281,-2,0,27814.4788630742,55894.4812062186,27787.8072716383,52524.6375711048,60645.4314369172,42261.5990026452,46190.5848098636,50636.5882227857,53768.4073726491,1997.0597441558
2054278355,16281,-2,0,27827.8998326699,55885.7204645060,27783.4025653884,52514.0881779593,60635.4660932192,42249.2609580667,46179.9502428404,50628.8252322127,53766.2171872210,1991.7789637347
2054278355,16281,-2,0,27713.7546687738,55875.9254685636,27774.2281219839,52482.4399985228,60632.8987091896,42256.8536008842,46131.6323187565,50596.9093634461,53763.3821138612,2001.0994195010
2054278355,16281,-2,0,27632.2189323633,55879.2959205835,27778.0974495736,52482.5495077942,60635.8189564271,42264.4827467922,46119.5619635081,50594.5001594751,53765.2681068688,2005.1269271494
2054278355,16281,-2,0,27690.6603802039,55885.1972535427,27790.8126927535,52511.4842908392,60632.8013676150,42254.5052353974,46159.7396984175,50625.2844324372,53770.1595209916,1994.4801924294
2054278355,16281,-2,0,27806.9105556503,55885.5866198410,27788.7076812032,52527.5699860391,60629.1632262649,42243.0067618997,46190.9498407683,50633.9843356656,53759.1720907605,1992.0101499743
2054284866,16282,-2,0,27814.2476768345,55883.7979684080,27774.8851776123,52514.0760102625,60629.3822448077,42240.8044087748,46174.4626115732,50615.8666350962,53744.8628792967,1998.3738554127
2054284866,16282,-2,0,27700.9542517161,55875.1589036637,27769.1420247119,52482.0993030118,60625.2573955848,42244.5398916994,46132.4232190500,50595.5587490987,53747.9291388961,1999.3594388554
2054284866,16282,-2,0,27609.1976499743,55871.1192283185,27770.4561359688,52468.9946935335,60620.3903168556,42250.6115724141,46108.5745332770,50591.0080304869,53752.8448884125,1999.8461467283
2054284866,16282,-2,0,27641.2595311028,55881.9119754005,27775.3962208789,52491.8577958638,60632.0104673215,42260.0050343614,46134.3700505416,50605.0982234079,53753.6601240997,2001.6104627676
2054284866,16282,-2,0,27764.2141074986,55893.8241505901,27783.2078822392,52524.8444219508,60640.5765258848,42259.8711896963,46181.2765217941,50633.7044786386,53760.7295559538,1994.9425649086
2054284866,16282,-2,0,27809.9038090687,55889.5289536116,27784.2543041660,52519.9043370407,60632.0469704120,42250.0396906634,46184.7686507823,50629.1537600269,53763.8323186437,1990.6960387174
2054284866,16282,-2,0,27713.0611100549,55880.6952057182,27775.8464256613,52487.5382634916,60630.4164990377,42257.0604517302,46139.8941848992,50594.0134516022,53759.6101278461,2004.0318344354
2054284866,16282,-2,0,27611.5825185516,55880.5126902658,27779.8130948256,52480.6148439994,60633.3975847593,42267.1474723964,46118.9657463638,50587.9174354939,53766.4483734606,2012.0503466417
2054332150,16283,-2,0,27636.9886695179,55880.6465349309,27791.6279284407,52496.8952223485,60629.3335740204,42264.3975729145,46144.7855990221,50613.2384125825,53773.9193393099,2003.8493189830
2054332150,16283,-2,0,27758.4466192045,55881.2549197720,27788.7441842936,52515.5848046685,60629.1388908713,42255.6611665956,46178.2224298915,50628.8252322127,53767.0810936954,1996.2810115592
2054332150,16283,-2,0,27805.2679165792,55884.6010363983,27778.6814990211,52511.8858248343,60635.1619007986,42256.5980792509,46178.4779515248,50621.3177632729,53760.7903944379,1995.2102542387
2054332150,16283,-2,0,27726.0805456555,55880.4153486912,27778.0731141799,52486.9907171346,60635.1375654050,42259.0316186155,46143.7391770953,50608.9553833008,53766.1563487368,1996.1836699846
2054332150,16283,-2,0,27619.3090060342,55878.6510326519,27785.2277199118,52469.4814014064,60637.1574030776,42269.8243656975,46116.6295485738,50602.7376902243,53772.5930603562,2003.9709959513
2054332150,16283,-2,0,27621.2071667385,55895.5641312358,27795.5459268177,52490.0813121276,60653.8271477250,42280.6171127794,46135.7693356763,50617.4119325927,53775.3186244445,2013.1211039621
2054332150,16283,-2,0,27737.3356652167,55907.1356109144,27804.2214946524,52524.1751986255,60657.6113014370,42268.5954283184,46184.0020858824,50648.2083732516,53776.8760896379,2002.5473754230
2054332150,16283,-2,0,27801.5689367450,55898.8737447716,27800.3034962754,52523.1896151828,60644.7378781983,42252.9112671136,46191.7164056682,50642.1245248401,53771.0477628597,1996.1228315005
2054337003,16284,-2,0,27721.7001747992,55885.3797689950,27784.8261859166,52489.2174056532,60635.4904286129,42259.0437863124,46145.5278285283,50601.8981191435,53758.8313952494,2004.5428777019
2054337003,16284,-2,0,27596.3363944325,55879.4541006422,27784.0596210168,52472.2921393725,60633.1298954292,42268.7901114675,46115.9603252485,50589.6209130491,53762.7250582328,2006.2220198635
2054337003,16284,-2,0,27584.7284116634,55877.3490890919,27793.3922444800,52486.5283446553,60628.3966613651,42264.1907220685,46132.1311943262,50609.2960788118,53772.1428555737,1998.5563708650
2054337003,16284,-2,0,27691.3661066196,55883.3720990192,27792.8446981230,52510.8515706044,60630.6355175805,42260.1145436328,46172.0534076023,50627.0365807797,53768.4803788300,1996.4270239210
2054337003,16284,-2,0,27762.7053130925,55886.8885634010,27784.5706642834,52516.2783633874,60636.6706952047,42264.8112746064,46184.9633339314,50626.2821835767,53762.2261826630,1997.3517688796
2054337003,16284,-2,0,27716.6992514050,55881.7051245545,27785.5319123324,52495.7757942408,60636.0258072731,42267.9505403868,46157.0263020259,50614.6011946266,53768.3587018618,2000.6978855059
2054337003,16284,-2,0,27602.5784229026,55881.6199506767,27790.7518542694,52474.6161694657,60639.7612901977,42275.1903199964,46121.7156458458,50601.1072188500,53773.7976623416,2010.2981982992
2054337003,16284,-2,0,27570.8329018916,55893.2035980521,27794.7915296146,52484.5206746795,60652.3670241063,42279.8383801828,46125.7674888878,50608.1401476136,53773.1527744100,2012.7439053606
2054387816,16285,-2,0,27669.7197739716,55901.3681226203,27799.2205712582,52514.6478920131,60651.2475959986,42261.8666919753,46169.2305019394,50638.1091848886,53771.4736322485,1996.9867379749
2054387816,16285,-2,0,27757.7165573951,55894.1161753139,27791.8104438930,52515.2441091575,60641.2700846038,42246.0730214991,46183.8560735205,50639.1677745121,53763.5281262231,1988.8465488003
2054387816,16285,-2,0,27713.2071224168,55887.8376437532,27779.4967347082,52487.3679157361,60641.3187553910,42256.2330483463,46149.3119822402,50609.2230726309,53754.9012291756,2001.5982950708
2054387816,16285,-2,0,27594.1340413075,55888.7988918022,27784.8870244008,52469.3597244381,60644.6527043205,42269.8243656975,46115.3641081042,50599.4767474757,53765.1464299005,2009.8966643040
2054387816,16285,-2,0,27556.2681687945,55886.4748617091,27796.6166841381,52474.6040017688,60640.4061781293,42266.9284538536,46119.6836404763,50609.7219482006,53774.5277241510,2006.1733490762
2054387816,16285,-2,0,27639.6412274253,55891.8773190985,27800.2426577913,52504.9867407357,60642.9857298558,42270.6761044751,46159.5328475715,50627.2799347161,53772.6417311435,2003.4112818974
2054387816,16285,-2,0,27731.2518168052,55895.7223112945,27794.5846787686,52525.5136452760,60648.1083302182,42269.8365333943,46186.6059730025,50639.3989607518,53773.2987867719,2000.8317301709
2054387816,16285,-2,0,27713.0489423581,55883.1409127796,27789.1092151983,52504.6703806183,60638.5810236059,42265.0424608461,46168.5612786141,50627.0730838701,53777.2411205425,1999.4081096427
2054408185,16286,-2,0,27593.6351657378,55873.5649353799,27783.9257763518,52468.1186193622,60636.2326581191,42276.7842882802,46121.3019441538,50600.3163185565,53777.0464373934,2010.2130244214
2054408185,16286,-2,0,27534.3906499069,55883.7979684080,27789.4012399221,52469.9072707952,60647.4026038025,42291.3490213773,46117.4204488673,50601.9224545371,53780.0518585086,2015.3477924807
2054408185,16286,-2,0,27616.9971436378,55896.0021683214,27801.9826384370,52505.1570884912,60652.8172288887,42283.4521861392,46163.9497215182,50638.0605141013,53787.5958305389,2001.0629164106
2054408185,16286,-2,0,27729.3293207072,55897.1094287323,27801.8001229847,52520.3423741263,60648.3638518515,42266.9892923377,46189.1611893353,50647.8920131342,53780.9644357704,1995.4779435688
2054408185,16286,-2,0,27721.4811562564,55897.6569750893,27792.3701579469,52503.8429772344,60649.9213170449,42269.9703780594,46164.7527895085,50628.0099965255,53770.1838563852,2008.8989131645
2054408185,16286,-2,0,27605.1214715386,55896.0630068055,27793.8181138688,52478.7531863855,60650.4201926146,42275.7622017471,46127.4831341398,50612.7760401032,53776.5718972173,2017.3676301533
2054408185,16286,-2,0,27537.1648847825,55889.6627982767,27798.8555403535,52472.6815056708,60643.8009655429,42272.1970665780,46118.5885477623,50617.2780879277,53782.4245593891,2014.5690598840
2054408185,16286,-2,0,27595.9591958309,55895.1504295438,27799.4639251947,52495.5324403043,60646.6603742963,42274.3385812188,46150.2853979860,50631.7941502374,53779.1392812469,2010.7970738689
2054435781,16287,-2,0,27706.2593675309,55900.8935824443,27795.8622869351,52518.9795920821,60648.5341996070,42268.2182297169,46184.5131291490,50643.2074498574,53772.2280294515,2003.2774372323
2054435781,16287,-2,0,27722.6005843641,55892.1693438222,27793.9276231402,52509.6226332253,60637.5711047696,42263.0226231735,46179.6947212071,50635.9555025509,53773.0189297450,1998.4225262000
2054435781,16287,-2,0,27611.8988786690,55884.7348810634,27790.7396865726,52479.0087080187,60636.7193659920,42274.3507489156,46135.2582924097,50605.8404529141,53771.0599305565,2010.4685460547
2054435781,16287,-2,0,27528.2216276176,55896.4888761943,27798.5635156298,52479.5805897694,60648.3516841547,42290.8136427171,46122.8959124376,50605.4632543126,53778.7985857359,2017.1242762169
2054435781,16287,-2,0,27580.0560160834,55906.9165923716,27813.4689442379,52508.0895034256,60654.2165140234,42285.7153777482,46160.4940956205,50638.4377127028,53791.8423567301,2007.4874603331
2054435781,16287,-2,0,27697.3039426692,55906.9165923716,27808.6870393864,52521.5226407181,60650.8582297002,42269.7878626070,46190.5969775604,50649.1696213006,53784.2983846998,1999.2620972808
2054435781,16287,-2,0,27718.0742011460,55904.2031959801,27794.8402004019,52508.0895034256,60654.2895202043,42272.4525882112,46179.8650689626,50631.2222684868,53773.0554328354,2005.9299951397
2054435781,16287,-2,0,27619.3576768215,55899.1901048890,27791.9442885581,52483.5229235401,60653.9731600869,42276.2610773168,46143.6053324302,50615.7449581280,53777.2897913298,2010.1035151500
2054466392,16288,-2,0,27532.0909552073,55894.7488955487,27799.5734344661,52473.0587042723,60649.9456524385,42273.2434885047,46124.1005144231,50612.3136676239,53782.6922487192,2009.2031055851
2054466392,16288,-2,0,27560.0523225064,55900.0905144539,27799.0502235027,52491.4562618686,60655.0074143169,42275.1659846028,46147.5111631104,50623.5566194883,53777.0951081807,2006.6113861618
2054466392,16288,-2,0,27675.1709021483,55903.5826434421,27797.0060504364,52519.3811260773,60654.1070047520,42263.4363248654,46190.2684497462,50642.9275928304,53774.6372334224,1994.8087202436
2054466392,16288,-2,0,27719.5586601584,55891.1472572891,27788.5981719318,52514.2341903212,60640.5765258848,42248.3362131082,46189.7330710860,50637.3547876855,53768.3587018618,1988.2138285655
2054466392,16288,-2,0,27629.8705668765,55880.7195411118,27776.6859967421,52484.8370347969,60634.6630252289,42255.5638250210,46142.9239414082,50602.5065039846,53758.2960165892,1998.0453275985
2054466392,16288,-2,0,27523.7925859741,55885.2824274204,27779.6184116764,52475.5652498178,60641.4282646625,42269.5323409737,46121.4722919093,50594.9868673480,53760.7782267411,2007.7794850568
2054466392,16288,-2,0,27542.1414727831,55890.5753755384,27792.6865180643,52493.2814163920,60638.9338868137,42262.7549338434,46149.6648454481,50623.1185824027,53768.0666771380,2002.5473754230
2054466392,16288,-2,0,27657.5034063614,55894.2621876757,27792.2606486755,52512.3847004041,60637.8509617965,42253.2762980183,46185.5473833789,50638.2917003409,53763.3334430739,1999.4324450363
2054514688,16289,-2,0,27708.2670375067,55896.8417394022,27782.2466341902,52511.5572970201,60642.5233573765,42256.1478744685,46185.0241724155,50627.3894439875,53756.5438682467,2006.2463552571
2054514688,16289,-2,0,27635.5528812928,55889.5897920957,27778.6814990211,52486.6378539267,60639.5179362613,42258.5205753490,46151.0154597954,50610.8048732179,53762.7250582328,2008.2418575361
2054514688,16289,-2,0,27526.6763301211,55880.5491933563,27779.4237285273,52465.4782291516,60635.5269317033,42261.8423565816,46122.5795523202,50598.2964808839,53768.2735279840,2008.9475839518
2054514688,16289,-2,0,27519.1080226972,55885.5014459632,27780.7743428746,52478.7288509918,60645.4192692204,42269.1673100690,46135.8058387667,50606.1689807283,53768.2126894999,2011.6123095561
2054514688,16289,-2,0,27630.4546163240,55892.8994056316,27783.8406024740,52510.9245767853,60647.2809268343,42259.4574880043,46181.0696709481,50635.4444592843,53768.7480681601,2002.4135307579
2054514688,16289,-2,0,27701.5626365573,55885.2824274204,27778.5598220528,52508.3571927557,60636.4030058746,42244.3695439439,46186.8493269390,50634.7022297781,53762.6398843550,1995.9281483513
2054514688,16289,-2,0,27637.6700605400,55876.5216857079,27768.1077704819,52477.1227150112,60632.1443119866,42252.0595283360,46141.4881531830,50601.6547652070,53753.1612485299,2007.7064788759
2054514688,16289,-2,0,27520.3247923795,55879.4054298549,27771.1131915972,52460.7693304811,60637.1208999871,42267.6828510566,46108.6353717611,50588.8056773620,53759.6222955429,2015.7979972632
2054538438,16290,-2,0,27505.7235561920,55880.8047149896,27782.3926465521,52470.3331401840,60634.0059696005,42260.2605559947,46122.4822107456,50603.5529259114,53765.8521563163,2006.0516721080
2054538438,16290,-2,0,27613.7118654956,55887.4482774549,27785.0330367626,52496.7613776834,60633.5070940307,42251.7796713091,46162.3314178407,50619.6142857177,53758.6367121003,2001.7199720390
2054538438,16290,-2,0,27694.7852294269,55894.5785477931,27782.3439757648,52509.1967638365,60639.1407376597,42253.8238443753,46180.4856215006,50620.7702169159,53753.5871179187,2007.2197710030
2054538438,16290,-2,0,27657.3817293932,55890.4293631765,27781.6260816522,52497.1142408913,60633.6774417862,42251.9135159741,46160.4575925300,50609.6732774133,53757.4321101148,2010.4077075706
2054538438,16290,-2,0,27540.8638646167,55876.9962258840,27781.7720940141,52474.1172938959,60625.1113832229,42256.3668930113,46124.8792470197,50591.7624276900,53756.1179988579,2014.3013705539
2054538438,16290,-2,0,27499.8465586265,55880.7925472928,27781.0785352952,52479.7631052218,60630.9518776979,42259.7738481217,46124.5263838119,50593.3198928833,53751.8106341826,2013.6808180160
2054538438,16290,-2,0,27594.4747368185,55886.6695448582,27784.6923412516,52510.6447197584,60633.4584232434,42244.7954133327,46169.7658805996,50622.8508930726,53751.2874232192,1998.0818306890
2054538438,16290,-2,0,27687.8983130251,55881.3035905593,27778.5963251433,52514.2341903212,60626.5228360543,42226.5560357951,46189.1125185480,50627.4137793812,53743.2567433161,1986.4130094358
2054577037,16291,-2,0,27654.0234450700,55877.7992938743,27765.8810819633,52489.4850949833,60630.2704866758,42233.0049151113,46156.5274264562,50598.8075241504,53732.6221762928,1996.8163902194
2054577037,16291,-2,0,27534.3784822100,55878.3955110186,27766.6963176505,52469.5909106778,60635.4295901287,42242.6417309950,46119.4767896303,50584.7538343200,53739.2535710613,2003.5694619561
2054577037,16291,-2,0,27493.3855116135,55876.6798657666,27776.5156489866,52469.6030783746,60631.3169086026,42242.7147371760,46122.0076705695,50597.5299159840,53749.6691195418,1996.9745702781
2054577037,16291,-2,0,27576.4300424301,55880.6952057182,27778.6693313242,52488.8645424453,60632.4971751944,42243.4813020758,46155.2984890771,50613.7372881522,53744.4856806952,1993.5554474708
2054577037,16291,-2,0,27672.6278535123,55888.7988918022,27776.2601273533,52503.5874556011,60636.4760120555,42245.3064565993,46178.4657838280,50618.4461868227,53740.5190115309,1994.5531986103
2054577037,16291,-2,0,27662.1392988509,55880.2815040262,27773.2912093285,52487.6842758535,60628.5913445143,42237.5434660262,46162.4287594153,50608.7850355453,53742.5266815067,1993.8596398914
2054577037,16291,-2,0,27547.3614147201,55871.2530729836,27771.5025578955,52457.3867107644,60621.2907264205,42241.0234273176,46116.4713685151,50581.2617053318,53741.5410980640,1999.1647557062
2054577037,16291,-2,0,27484.5152606296,55878.7848773170,27777.2943815832,52459.8445855226,60630.5746790964,42256.4398991922,46107.4672728661,50578.2562842165,53745.1184009300,2004.4577038242
2054591888,16292,-2,0,27558.5921988877,55887.4117743644,27787.6977623669,52493.0015593651,60631.4750886613,42250.9644356219,46149.3363176338,50610.1721529831,53750.6547029844,1993.2755904439
2054591888,16292,-2,0,27668.7585259226,55884.2603408873,27786.4201542005,52505.3517716404,60624.8558615896,42239.3564528528,46178.5387900089,50623.6296256693,53746.1769905536,1984.3201655822
2054591888,16292,-2,0,27664.1104657362,55879.6366160946,27775.3962208789,52491.4927649591,60630.5990144900,42246.9855987608,46159.8492076889,50604.5020062636,53738.3288261028,1991.9006407029
2054591888,16292,-2,0,27549.7706186911,55878.6753680456,27775.3475500916,52472.3529778566,60638.4958497281,42260.7472638676,46125.5606380418,50593.6119176071,53748.5740268277,1998.3860231095
2054591888,16292,-2,0,27480.0618835924,55874.1489848274,27784.7531797357,52469.6395814651,60637.6197755569,42256.3182222240,46118.3208584322,50601.5817590261,53757.7241348385,1993.7866337105
2054591888,16292,-2,0,27533.4294018578,55881.4982737085,27785.4710738483,52492.5391868858,60640.7712090340,42251.4268081012,46150.9546213113,50616.7913800548,53751.6281187302,1989.7226229716
2054591888,16292,-2,0,27640.1401029950,55888.0201592056,27777.7202509721,52513.8934948101,60643.1195745208,42246.0121830150,46183.5640487968,50626.0996681243,53745.0940655363,1983.0425574158
2054591888,16292,-2,0,27661.4944109193,55880.6465349309,27770.9185084480,52504.8042252834,60634.9915530431,42235.7061438060,46176.2269276125,50621.2690924856,53743.3905879811,1979.6477700022
2054630359,16293,-2,0,27554.9053867503,55870.3526634187,27765.3457033031,52465.0158566724,60627.7396057366,42245.5619782325,46125.2321102276,50588.3919756700,53738.4991738583,1991.6816221601
2054630359,16293,-2,0,27465.4241443144,55878.1156539917,27773.8144202919,52457.5205554294,60636.0988134540,42264.7991069096,46107.9539807390,50584.1697848725,53742.3076629639,2001.8051459168
2054630359,16293,-2,0,27511.2720259433,55886.5965386773,27787.8194393351,52484.3868300145,60637.8387940997,42256.1478744685,46142.6684197749,50613.9563066950,53754.3415151218,1992.6793732996
2054630359,16293,-2,0,27632.4866216934,55886.7912218265,27788.2088056334,52502.3463505251,60631.1587285439,42244.6859040613,46178.0034113487,50627.7544748922,53750.6060321971,1985.4639290836
2054630359,16293,-2,0,27660.0099519069,55884.1629993127,27775.7004132994,52494.6441984362,60630.8423684265,42246.0243507118,46168.1597446189,50610.8900470956,53742.1008121179,1992.8983918424
2054630359,16293,-2,0,27563.2889298613,55877.5316045442,27772.2082843113,52472.1096239201,60627.8491150081,42249.0541072207,46128.7242392158,50591.8841046582,53746.1526551599,1995.9403160481
2054630359,16293,-2,0,27473.2723087652,55870.5473465678,27780.9325229333,52460.4286349701,60622.8481916138,42251.3903050107,46109.9859861084,50590.2292978903,53753.0030684712,1994.0178199501
2054630359,16293,-2,0,27496.2327526701,55876.8623812189,27788.4643272667,52478.5585032363,60632.8865414927,42261.2339717405,46132.6422375928,50603.3460750654,53752.4311867206,1995.3197635101
2054655687,16294,3,0,27612.8601267180,55887.0345757629,27791.9077854676,52510.0241672204,60641.2335815133,42255.6855019892,46179.0498332755,50627.2677670193,53753.1125777426,1987.8853007513
2054655687,16294,3,0,27666.0572972279,55880.7682118991,27783.8406024740,52505.7533056356,60635.8189564271,42234.8544050284,46182.8704900779,50627.8639841636,53751.5672802461,1979.5260930340
2054655687,16294,3,0,27579.9343391151,55871.1313960153,27767.7062364868,52466.0379432055,60630.6355175805,42233.9296600698,46136.4628943952,50593.7822653626,53741.9913028465,1986.4251771326
2054655687,16294,3,0,27469.2691365105,55875.3414191161,27765.4552125745,52451.0351730228,60638.2159927012,42248.9324302525,46108.9395641817,50579.2540353560,53741.4315887926,1992.4360193631
2054655687,16294,3,0,27484.4665898423,55882.9097265399,27778.7180021115,52470.8076803601,60641.9393079290,42246.8395863989,46133.4331378863,50604.0152983907,53749.8759703877,1984.3201655822
2054655687,16294,3,0,27602.0917150297,55886.8642280074,27780.7013366937,52493.4639318444,60638.9825576010,42234.5380449110,46168.8776387315,50618.6165345782,53743.0742278637,1977.4697522709
2054655687,16294,3,0,27658.3064743517,55889.2369288879,27769.9329250054,52494.3400060156,60643.4724377287,42237.6651429944,46171.1651657342,50610.2451591640,53735.1043864447,1982.7018619048
2054655687,16294,3,0,27589.0601117323,55884.2116701000,27766.6233114695,52474.0807908054,60637.7536202219,42240.1230177527,46138.8234275788,50594.3176440228,53737.5500935061,1985.2814136312
2054683457,16295,3,0,27482.2033982333,55878.3225048377,27775.0555253678,52457.2528660993,60631.9861319278,42251.2321249520,46113.1739226761,50587.4793984083,53746.2743321282,1991.5112744046
2054683457,16295,3,0,27473.4913273080,55888.4703639880,27781.5044046840,52474.6526725561,60639.3719238994,42261.0879593786,46131.8513372993,50597.4082390158,53749.2675855466,1996.7920548257
2054683457,16295,3,0,27578.5715570710,55896.9877517641,27784.1569625914,52508.9777452936,60643.8983071175,42249.7476659396,46180.3761122292,50623.6904641534,53748.9147223387,1987.6784499053
2054683457,16295,3,0,27652.6606630259,55887.6672959977,27778.6449959306,52512.5185450691,60632.9352122800,42234.4650387300,46190.7429899223,50626.4403636354,53744.5951899666,1974.7441881825
2054683457,16295,3,0,27596.8839407895,55876.6676980698,27766.7328207409,52478.5341678426,60629.9054557711,42235.9494977424,46148.4359080689,50595.8507738225,53738.7303600979,1983.6266068633
2054683457,16295,3,0,27476.0465436409,55876.5216857079,27766.8301623155,52454.1744388031,60633.5070940307,42250.0761937538,46110.5091970718,50581.1886991508,53743.4392587684,1992.5211932409
2054683457,16295,3,0,27456.4687194527,55878.9308896788,27780.1902934271,52462.4363049459,60632.6188521626,42248.5552316510,46119.4281188431,50599.6227598376,53755.3027631708,1989.5887783065
2054683457,16295,3,0,27557.1199075721,55881.5712798894,27785.5805831197,52484.2529853494,60632.4606721039,42243.3961281981,46154.0695516980,50617.3875971991,53750.8128830431,1985.6586122327
2054717326,16296,3,0,27635.9422475911,55885.3189305109,27778.0852818767,52494.7658754045,60637.2547446522,42244.3695439439,46165.8357145258,50613.3722572475,53744.4735129984,1990.8785541698
2054717326,16296,3,0,27598.4900767701,55879.5879453073,27775.2380408202,52479.1425526838,60632.9838830673,42245.2821212056,46144.3597296333,50599.1603873583,53749.4744363926,1991.3409266490
2054717326,16296,3,0,27488.2264081606,55871.1192283185,27776.0167734168,52460.4164672733,60626.8878669590,42253.0086086882,46111.8233083287,50580.7993328525,53752.5285282951,1996.3540177401
2054717326,16296,3,0,27453.4267952470,55880.2084978452,27780.2754673049,52472.0001146487,60633.7991187545,42262.2560582736,46116.9824117816,50582.3933011363,53752.8935591998,2004.0683375258
2054717326,16296,3,0,27542.2509820545,55889.6871336703,27782.6968389726,52501.4581086571,60635.3200808573,42246.1216922864,46159.2529905445,50607.1910672615,53752.4555221142,1995.7821359894
2054717326,16296,3,0,27633.3261927742,55880.0381500897,27771.9649303748,52499.9249788574,60621.8991112616,42223.9156455845,46175.3021826540,50611.5227673304,53741.9669674528,1983.8212900125
2054717326,16296,3,0,27598.3440644082,55866.2764849830,27753.1536710865,52466.2082909610,60613.9171021458,42223.9643163718,46139.0911169089,50580.2882895859,53726.6843402432,1985.3300844185
2054717326,16296,3,0,27476.3872391519,55862.8573621757,27749.8440575507,52443.3938594180,60613.7467543903,42231.7029715512,46102.0526477799,50563.4847002735,53725.6987568006,1986.1939908929
2054750886,16297,3,0,27430.6123637040,55861.1903877110,27759.2010164075,52447.7012240933,60608.5754832405,42223.0274037164,46105.0580688952,50575.9809249106,53729.5315812998,1974.6103435175
2054750886,16297,3,0,27505.5167053460,55860.6185059603,27760.9044939627,52470.5643264236,60605.2171989174,42210.7136945316,46137.2781300823,50591.4217321789,53719.6757468732,1965.6062478685
2054750886,16297,3,0,27597.1394624228,55862.1516357600,27751.0608272330,52480.8460302390,60604.6939879540,42210.8597068935,46155.5905138008,50593.9647808149,53708.4814657961,1965.7035894431
2054750886,16297,3,0,27594.2435505789,55858.1971342925,27750.5011131791,52468.0577808781,60602.3456224672,42209.7889495731,46140.9284391292,50586.6884981148,53713.2025321634,1967.9181102649
2054750886,16297,3,0,27487.4476755639,55851.5170687367,27751.4988643186,52437.1883340383,60599.5835552884,42219.3770946696,46098.6335249726,50566.4292829046,53717.6194061101,1979.1123913420
2054750886,16297,3,0,27423.9931366323,55864.9015352420,27762.7783192735,52441.5687048945,60615.8639336375,42246.3163754356,46090.1404725902,50566.5874629633,53724.9200242039,1994.2368384929
2054750886,16297,3,0,27491.7185371488,55880.7073734150,27779.6427470701,52478.3516523903,60627.2163947733,42247.8008344480,46134.7472491431,50601.5574236324,53740.5190115309,1995.3319312070
2054750886,16297,3,0,27605.5960117147,55881.4009321339,27783.1470437551,52496.8222161675,60624.4056568072,42236.0103362265,46163.3170012834,50615.1000701964,53742.4293399321,1996.5608685861
2054789963,16298,3,0,27609.4653393044,55877.3369213950,27771.8675888002,52477.7554352460,60623.8581104501,42240.5123840510,46141.8775194814,50591.2757198171,53734.9948771733,2009.8114904263
2054789963,16298,3,0,27501.2580114580,55875.2319098447,27768.4119629025,52449.8670741278,60623.2375579122,42247.5331451179,46104.3888455699,50568.9479961469,53740.1418129294,2017.4649717279
2054789963,16298,3,0,27430.6732021881,55870.0606386949,27774.8243391282,52445.3041878192,60613.5155681506,42242.7999110537,46097.6357738332,50572.6226405875,53746.2134936440,2008.7163977122
2054789963,16298,3,0,27476.6184253915,55868.5396765920,27775.5300655439,52463.0446897870,60613.2843819110,42235.0247527839,46125.8648304624,50586.5911565402,53739.7767820247,2000.2598484203
2054789963,16298,3,0,27580.5427239563,55871.6911100692,27765.9540881443,52487.2462387679,60618.2001314275,42230.5105372626,46158.5837672193,50599.3550705075,53731.3567358232,1990.5256909619
2054789963,16298,3,0,27607.3846631477,55863.8429456184,27759.5052088281,52483.4012465718,60612.3474692556,42223.9764840686,46157.6468545639,50600.2189769819,53733.4617473736,1982.5801849365
2054789963,16298,3,0,27514.2044408776,55856.0069488644,27757.2663526127,52454.5273020110,60610.7535009718,42237.4217890580,46114.3541892679,50576.3824589058,53736.0291314032,1993.8961429819
2054789963,16298,3,0,27429.2739170535,55868.1624779905,27765.8324111760,52452.6534767002,60623.8702781469,42257.5593273000,46099.4122575693,50573.2918639127,53743.8651281572,2008.9840870423
2054816057,16299,3,0,27472.1285452639,55882.5446956353,27782.5873297012,52480.7486886644,60630.5868467932,42255.6489988988,46133.7616657005,50604.2464846303,53753.8061364615,2003.0462509927
2054816057,16299,3,0,27593.2579671363,55886.8642280074,27790.0582955505,52499.4017678940,60627.3015686510,42242.3862093617,46166.9551426335,50621.2447570920,53753.7452979774,1992.7523794805
2054816057,16299,3,0,27623.8475569491,55888.7745564086,27781.9789448601,52485.8712890269,60629.5404248664,42248.2753746241,46154.2033963630,50604.0518014811,53745.5929411061,2000.0651652711
2054816057,16299,3,0,27530.8985209187,55885.7934706870,27778.0122756958,52457.7882447595,60630.4164990377,42253.7265028007,46113.7093013363,50582.3933011363,53746.7853753947,2006.5870507682
2054816057,16299,3,0,27434.7858837143,55880.0138146961,27784.4733227088,52444.7566414622,60624.6490107436,42248.6769086192,46091.0652175488,50579.3270415369,53751.2630878256,2003.9953313449
2054816057,16299,3,0,27448.7057288797,55879.9408085151,27784.3516457406,52459.9905978845,60623.1158809439,42244.8075810295,46108.6110363675,50587.9417708876,53745.6781149838,2000.7587239900
2054816057,16299,3,0,27560.9770674650,55885.3676012982,27780.3971442731,52491.3954233845,60626.2064759370,42240.4758809605,46152.0740494190,50606.7895332663,53740.1783160199,1993.4337705026
2054816057,16299,3,0,27616.2427464348,55875.6334438398,27775.4448916662,52492.3080006462,60616.9833617452,42228.7218858296,46162.3800886280,50607.7751167090,53739.7159435406,1985.9384692597
2054875040,16300,3,0,27536.7755184842,55863.3562377455,27767.8279134550,52462.5579819141,60612.3961400429,42236.5943856740,46124.5142161150,50579.5217246861,53737.7204412616,1997.8871475398
2054875040,16300,3,0,27428.0693150680,55868.1746456874,27771.2713716559,52453.9797556539,60623.0793778535,42254.3835584292,46103.1477404940,50570.0674242547,53742.1373152083,2011.6853157370
2054875040,16300,3,0,27435.9174795188,55873.4675938053,27784.0839564104,52477.7067644587,60624.4056568072,42250.9644356219,46131.3159586391,50596.5565002382,53751.6767895175,2005.1390948463
2054875040,16300,3,0,27552.1433195715,55873.1512336879,27786.0672909926,52502.0056550141,60621.2542233300,42230.1576740547,46172.5887862625,50614.4186791743,53743.4514264652,1996.4026885274
2054875040,16300,3,0,27609.3679977298,55871.2165698931,27775.0555253678,52499.8154695860,60622.1181298044,42223.0030683228,46172.0655752991,50600.1703061946,53725.3702289863,1999.6027927918
2054875040,16300,3,0,27539.8539457804,55863.3319023518,27770.0059311863,52474.4944924974,60617.1293741070,42219.7177901806,46134.6742429622,50574.7763229251,53720.6491626190,2003.2896049292
2054875040,16300,3,0,27430.6001960072,55852.6243291476,27772.1839489176,52449.5020432231,60604.6209817731,42225.3270984160,46100.3004994374,50560.2359252217,53725.8447691624,2005.7961504747
2054875040,16300,3,0,27418.1891452478,55855.2890547519,27770.7968314798,52454.2109418936,60606.8111672012,42231.5569591893,46105.7516276141,50561.0876639993,53723.7884283994,2006.5140445873
2054877962,16301,3,0,27517.4167128389,55861.6162570998,27769.1176893182,52478.6558448109,60605.4362174602,42224.7917197558,46141.9748610560,50582.0404379284,53722.3283047806,1994.2490061897
2054877962,16301,3,0,27589.1331179133,55853.5855771967,27761.1478478992,52479.0208757156,60592.6114650088,42209.4239186684,46153.1204713458,50588.7448388779,53719.4567283304,1982.2029863350
2054877962,16301,3,0,27535.6682580733,55841.8194143689,27750.1239145776,52449.3073600739,60586.1747533895,42218.9512252808,46115.8508159771,50564.0322466305,53715.9037608581,1992.9348949328
2054877962,16301,3,0,27419.3329087491,55843.4498857431,27750.0387406999,52433.2094971772,60595.8237369701,42236.8377396105,46081.7812648729,50550.0393952841,53720.3571378953,2004.1656791004
2054877962,16301,3,0,27399.7185814705,55850.0082743307,27766.6598145600,52450.1347634579,60602.1387716212,42239.9283346035,46098.9255496964,50573.5960563333,53737.0390502395,1998.4103585032
2054877962,16301,3,0,27501.5500361817,55860.7766860190,27775.7734194804,52480.1403038233,60607.8940922184,42239.9891730876,46141.6706686354,50598.8318595441,53739.3265772423,1994.7113786690
2054877962,16301,3,0,27586.9916032724,55873.1755690816,27774.3376312553,52493.8411304459,60619.9401120731,42244.5277240026,46161.7108653028,50600.5231694025,53735.3234049875,2005.5649642351
2054877962,16301,3,0,27554.2361634251,55872.3481656976,27771.4903901987,52476.5021624732,60618.6990069972,42239.1009312196,46137.6553286838,50585.7272500658,53736.2116468556,2006.6113861618
2054907515,16302,3,0,27444.2888549330,55865.4490815990,27771.7580795288,52445.5962125429,60611.2888796320,42241.8508307015,46097.6236061363,50566.9768292616,53738.8520370662,2002.0606675501
2054907515,16302,3,0,27403.3080520333,55874.4045064607,27778.4989835687,52446.0099142349,60620.4633230365,42253.9211859499,46095.0197190162,50565.6140472175,53738.3288261028,2002.1701768215
2054907515,16302,3,0,27491.6333632710,55890.7092202034,27785.7752662688,52480.1646392169,60630.4530021282,42250.7575847759,46137.3024654760,50594.0986254800,53742.8673770177,1993.8109691041
2054907515,16302,3,0,27593.8663519774,55890.4171954797,27785.2642230023,52492.1133174970,60625.6467618831,42234.8422373315,46159.0948104858,50606.5096762394,53740.7988685578,1986.6806987659
2054907515,16302,3,0,27574.9334157209,55882.2040001242,27774.7878360377,52471.1727112648,60621.9112789585,42234.0635047349,46133.0072684975,50580.8845067303,53732.4518285373,1997.2544273050
2054907515,16302,3,0,27461.8103383580,55883.0679065986,27775.6517425122,52451.6922286512,60628.7616922698,42250.7575847759,46098.9742204837,50565.9425750317,53738.5843477360,2010.1035151500
2054907515,16302,3,0,27417.7389404653,55883.0922419923,27788.9875382301,52463.0081866966,60627.9464565826,42248.4092192891,46107.4429374725,50583.9264309360,53749.3892625148,2002.7298908753
2054907515,16302,3,0,27493.5680270659,55882.3135093956,27790.6423449980,52487.4895927043,60622.5683345869,42236.7038949454,46147.0487906311,50602.3361562291,53743.3419171938,1995.9768191386
2054938478,16303,3,0,27588.1231990770,55883.6762914398,27780.2998026985,52504.2445112295,60622.2763098631,42235.6453053218,46173.5865374020,50603.3460750654,53732.1598038135,1999.2255941903
2054938478,16303,3,0,27583.4873065874,55879.1499082217,27775.2623762138,52496.3963467787,60616.3871446008,42225.9841540444,46163.4995167357,50595.5830844924,53731.1133818868,2000.8438978678
2054938478,16303,3,0,27474.8419416554,55866.9578760051,27771.4052163209,52463.0568574839,60607.5412290106,42223.8183040099,46119.6593050827,50570.6149706117,53730.4076554710,2003.8128158926
2054938478,16303,3,0,27402.2616301065,55868.7830305285,27768.8986707754,52452.9820045145,60613.7710897839,42230.8634004704,46103.7196222446,50563.7402219067,53727.4752405367,2006.8060693110
2054938478,16303,3,0,27460.1676992869,55878.5901941678,27773.9482649569,52480.4201608502,60618.1149575497,42228.3690226217,46138.5192351582,50589.0490312984,53731.7582698184,1995.3197635101
2054938478,16303,3,0,27571.7089760628,55876.4486795270,27775.3597177884,52496.9803962262,60615.7057535788,42220.0706533885,46169.1939988489,50605.5240927967,53733.3157350117,1984.9042150297
2054938478,16303,3,0,27578.5107185868,55872.7862027833,27767.4142117630,52480.6635147867,60618.0054482783,42229.5736246072,46153.5220053409,50586.4938149656,53727.8281037446,1993.2025842630
2054938478,16303,3,0,27474.0510413619,55873.1147305975,27769.7747449467,52457.2650337961,60627.8369473112,42253.1911241405,46116.6417162706,50571.3937032084,53739.2900741518,2006.7330631301
2055004712,16304,3,0,27406.2404669676,55873.9908047687,27785.4954092419,52452.3857873701,60628.2384813064,42255.4543157496,46109.5844521133,50582.3811334395,53753.6601240997,2007.7794850568
2055004712,16304,3,0,27451.9058331441,55876.5825241920,27790.1799725187,52471.7689284091,60633.0325538546,42251.2686280425,46138.3367197059,50600.6570140675,53752.5041929015,2004.5063746115
2055004712,16304,3,0,27562.1329986632,55886.9007310979,27787.6734269732,52497.3332594341,60641.3552584815,42249.5529827905,46171.6883766976,50614.8445485631,53748.5740268277,2001.9268228850
2055004712,16304,3,0,27598.2467228337,55883.7006268334,27783.4877392661,52495.7027880598,60639.7977932882,42239.3564528528,46170.9218117977,50615.5137718883,53750.3748459575,1995.4292727816
2055004712,16304,3,0,27510.0065854737,55871.5085946168,27777.2943815832,52464.3953041344,60631.5602625390,42241.4614644032,46128.2496990397,50590.5943287950,53749.5596102703,1997.8141413588
2055004712,16304,3,0,27417.5929281034,55873.2364075657,27776.9293506786,52451.3271977465,60638.2159927012,42257.1699610016,46104.3401747826,50580.7263266716,53749.8394672973,2004.1048406163
2055004712,16304,3,0,27441.9039863557,55879.0403989502,27785.2277199118,52473.2898905120,60641.5621093275,42251.1834541647,46134.2970443607,50605.8161175205,53757.0305761196,1992.9957334170
2055004712,16304,3,0,27553.2384122856,55877.2152444268,27784.6436704643,52493.7072857809,60635.2714100700,42233.8809892825,46169.9118929614,50622.8143899821,53753.6966271901,1981.4242537383
2055011360,16305,3,0,27588.4882299817,55873.5771030767,27769.7990803403,52486.0781398729,60634.3223297179,42236.2293547693,46159.9100461730,50606.0108006696,53741.4315887926,1986.4495125262
2055011360,16305,3,0,27504.7501404462,55873.1999044752,27764.9806723984,52462.4241372491,60638.1673219139,42246.9977664576,46124.3803714500,50586.7371689021,53745.6416118934,1993.9448137692
2055011360,16305,3,0,27419.1503932968,55872.2629918199,27775.4935624535,52453.0063399081,60635.2105715859,42252.7044162676,46107.5889498343,50587.7835908289,53757.6267932640,1994.2611738865
2055011360,16305,3,0,27436.0756595775,55878.8092127106,27783.7432608994,52467.0356943450,60637.8387940997,42254.2618814609,46125.1347686530,50597.6394252554,53755.4001047454,1996.8163902194
2055011360,16305,3,0,27541.5087525483,55890.6970525066,27784.9600305817,52494.7537077076,60646.7333804773,42250.3073799935,46165.2881681687,50615.9396412772,53751.0440692827,1997.1084149431
2055011360,16305,3,0,27592.9537747157,55885.1242473617,27780.6039951191,52493.0867332429,60636.7680367793,42234.4285356395,46172.1385814800,50615.7936289153,53749.1945793657,1986.8632142182
2055011360,16305,3,0,27521.8457544824,55870.6690235361,27770.2249497291,52464.9428504914,60625.5737557022,42232.6520519034,46131.0117662185,50586.6276596307,53742.9768862891,1990.0024799985
2055011360,16305,3,0,27420.7565292774,55869.9632971203,27767.9495904232,52454.6246435856,60627.7031026462,42242.4592155427,46104.4618517508,50571.8317402940,53743.3784202843,2001.8903197945
2055032265,16306,3,0,27421.3527464217,55868.0773041128,27773.8022525951,52469.5544075873,60622.2884775600,42236.1806839820,46123.2244402518,50589.9859439538,53747.3450894486,1993.1295780820
2055032265,16306,3,0,27524.1332814851,55863.3562377455,27775.6517425122,52487.8424559122,60613.1262018523,42226.4465265237,46159.9343815666,50611.5349350272,53743.1594017415,1983.3589175332
2055032265,16306,3,0,27579.1677742153,55863.8794487089,27766.0392620220,52485.7617797555,60616.2046291485,42228.2595133503,46162.7207841391,50603.8327829383,53732.3058161754,1991.3044235586
2055032265,16306,3,0,27516.2364462470,55861.3242323760,27760.9409970532,52464.3831364376,60619.1613794765,42229.9994939960,46132.6544052896,50587.5524045892,53734.0944676084,1997.2787626986
2055032265,16306,3,0,27410.3409807970,55853.1353724142,27762.3037790974,52442.5786237308,60613.0410279745,42227.8458116583,46103.1234051003,50577.4167131357,53738.9493786407,1992.7888825710
2055032265,16306,3,0,27390.9456720612,55854.4129805806,27765.6742311173,52446.0585850222,60618.5894977258,42239.1739374005,46104.1698270271,50579.6555693511,53736.9538763618,1992.6428702091
2055032265,16306,3,0,27485.7807010992,55865.1448891784,27770.7359929957,52476.9523672557,60628.2749843969,42241.2667812540,46144.7612636284,50602.1414730799,53738.1706460441,1987.9461392354
2055032265,16306,3,0,27562.7778865948,55861.7622694617,27770.5899806338,52481.3205704151,60624.4056568072,42233.5524614683,46160.6036048919,50610.5493515846,53740.2026514135,1980.4386702957
2055062227,16307,3,0,27519.5703951765,55853.9627757982,27763.3136979337,52452.9941722113,60619.7332612271,42239.7579868480,46125.8039919783,50584.7173312295,53737.9029567140,1990.0876538763
2055062227,16307,3,0,27409.2702234765,55859.6207548208,27763.8004058066,52440.3884383027,60629.5769279569,42257.9243582046,46093.3770799451,50569.5442132913,53744.0598113064,2002.1580091246
2055062227,16307,3,0,27387.6725616158,55865.9114540783,27773.4858924777,52455.5980593314,60630.9883807884,42255.2718002972,46107.8688068613,50586.2504610292,53756.6168744277,1992.2048331235
2055062227,16307,3,0,27481.8505350254,55865.9236217751,27772.7801660619,52480.9068687231,60625.1478863134,42239.7579868480,46146.2700580345,50604.3316585081,53750.0341504464,1981.9231293081
2055062227,16307,3,0,27563.2524267709,55868.5518442889,27762.4497914593,52488.7306977803,60627.7761088271,42239.5511360020,46159.6058537524,50600.0364615296,53738.3653291932,1989.3940951574
2055062227,16307,3,0,27534.6340038433,55868.2719872619,27760.9409970532,52475.1150450354,60630.2826543726,42244.4425501248,46138.6774152169,50589.9372731665,53741.3585826117,1995.8551421704
2055062227,16307,3,0,27428.6290291218,55860.8618598968,27765.2240263349,52450.3416143039,60627.2407301669,42248.4335546827,46104.9607273206,50578.7673274831,53747.7222880501,1999.4689481268
2055062227,16307,3,0,27385.9812517574,55867.5175900589,27768.9230061691,52451.2663592624,60635.3079131605,42258.5449107426,46102.4176786846,50579.9719294685,53750.2288335956,2004.1170083131
2055108483,16308,3,0,27467.5534912584,55880.6221995372,27774.7756683409,52481.5395889579,60643.8618040270,42254.7120862434,46143.2281338287,50606.7043593885,53751.2509201287,1995.6239559307
2055108483,16308,3,0,27569.8473184489,55881.5956152831,27777.2457107960,52497.3332594341,60638.8608806328,42241.2181104667,46171.0556564628,50622.6683776202,53753.5262794346,1984.7095318805
2055108483,16308,3,0,27557.0712367848,55876.8867166126,27770.6873222084,52481.8437813785,60635.7702856398,42244.2113638852,46148.9591190323,50600.4501632215,53748.1968282262,1997.1205826399
2055108483,16308,3,0,27438.9959068150,55875.6942823239,27767.4750502471,52460.2461195178,60637.3155831363,42256.1843775590,46108.8422226071,50576.7596575073,53746.6515307297,2010.1278505437
2055108483,16308,3,0,27382.7568120994,55873.2850783530,27775.8950964486,52457.5813939135,60630.4043313409,42249.9545167856,46109.5722844165,50586.4694795720,53755.2054215962,2003.7763128021
2055108483,16308,3,0,27449.1072628749,55868.6856889539,27775.9924380232,52475.5287467274,60623.1523840344,42236.5092117963,46139.4683155104,50601.5087528451,53748.3793436785,1991.6451190696
2055108483,16308,3,0,27545.7552787395,55871.1557314090,27763.5935549606,52492.4661807049,60625.9631220005,42239.4659621242,46166.1399069463,50606.6191855108,53737.6474350807,1992.1683300330
2055108483,16308,3,0,27552.7273690190,55870.7907005043,27758.2276006617,52488.7185300834,60628.4209967587,42240.0013407845,46159.7762015079,50605.1225588016,53742.9282155018,1994.1881677056
2055125779,16309,3,0,27454.5948941420,55858.1362958084,27757.1203402508,52461.3047091414,60620.4146522492,42238.5898879530,46121.9468320854,50588.2702987018,53746.2499967345,1998.7267186206
2055125779,16309,3,0,27382.0510856836,55859.2435562193,27757.6800543047,52454.1744388031,60624.5516691690,42243.9923453424,46105.5691121617,50579.2053645687,53742.9525508955,2003.0949217800
2055125779,16309,3,0,27433.8003002716,55871.5450977073,27763.3502010242,52481.6490982293,60630.9275423043,42243.6516498313,46141.6706686354,50603.8206152415,53746.3960090964,1995.6482913244
2055125779,16309,3,0,27545.4875894094,55873.4554261085,27767.1465224329,52498.9028923243,60626.7661899908,42230.2671833261,46174.4017730891,50619.5412795367,53744.2423267587,1985.9871400469
2055125779,16309,3,0,27558.4948573131,55868.7951982253,27757.6678866078,52485.3724134571,60624.4421598976,42232.9684120208,46158.6567734002,50598.7101825759,53734.2039768798,1993.9326460723
2055125779,16309,3,0,27460.6544071598,55870.9610482598,27758.2641037522,52463.1541990584,60634.2858266274,42254.4565646101,46123.2609433423,50582.2837918649,53741.1882348562,2010.5780553261
2055125779,16309,3,0,27387.9280832491,55872.0318055802,27773.0965261793,52456.3767919281,60636.3056643000,42255.3083033877,46113.1982580697,50591.5312414503,53756.2153404325,2010.0183412723
2055125779,16309,3,0,27424.3703352338,55870.8637066852,27776.6616613485,52467.0235266481,60632.1564796834,42248.0320206876,46135.8788449477,50603.4920874273,53752.5163605983,2003.2774372323
2055154761,16310,3,0,27521.3590466095,55874.1489848274,27767.0978516456,52482.8415325180,60634.2979943242,42242.2401969999,46159.6180214492,50610.3303330418,53742.1859859956,1999.2012587967
2055154761,16310,3,0,27553.0802322269,55870.8880420789,27758.6047992632,52480.6026763025,60629.5647602601,42237.4826275421,46157.0749728132,50610.6223577655,53745.2279102014,1995.4049373879
2055154761,16310,3,0,27467.7116713171,55859.5720840335,27754.0054098641,52449.5263786167,60620.1956337064,42243.2501158362,46117.0919210530,50588.1607894304,53749.6082810576,1999.0917495253
2055154761,16310,3,0,27381.0655022410,55867.2255653352,27759.3348610726,52444.5132875257,60631.4385855708,42264.0812127971,46096.7962027524,50581.1643637572,53754.4023536059,2011.1377693800
2055154761,16310,3,0,27412.3851538632,55882.1553293369,27776.1019472946,52475.7599329670,60641.6351155084,42266.1740566506,46130.0870212599,50610.6223577655,53765.8156532258,2004.5915484892
2055154761,16310,3,0,27529.4992357840,55884.6010363983,27783.3173915106,52500.3021774589,60636.8288752634,42244.2478669757,46168.6342847950,50632.6093859246,53762.8345675042,1992.8497210551
2055154761,16310,3,0,27571.1005912217,55880.7073734150,27772.4759736414,52492.7825408223,60634.1519819623,42238.3465340165,46162.9032995914,50613.6034434871,53749.8759703877,1995.0885772705
2055154761,16310,3,0,27490.9519722490,55880.9385596546,27769.1541924087,52474.0077846245,60636.9018814443,42246.7179094307,46130.1721951377,50590.8985212155,53747.1869093899,2003.6911389243
2055186217,16311,3,0,27399.0371904484,55876.6068595857,27778.3529712068,52460.0271009749,60631.9739642310,42248.2997100177,46109.3167627832,50590.2658009807,53754.8282229947,2000.9534071392
2055186217,16311,3,0,27406.7150071437,55880.8290503832,27785.5927508165,52468.7148365065,60634.2614912337,42254.4078938228,46126.1203520957,50600.0121261359,53754.9133968724,1999.1769234030
2055186217,16311,3,0,27507.8042323487,55890.9404064431,27786.6756758337,52494.1088197760,60644.7743812888,42254.2375460673,46165.0691496259,50618.4218514290,53753.8304718552,1998.0818306890
2055186217,16311,3,0,27566.4281956417,55887.9228176310,27782.0519510410,52496.7127068961,60641.5986124180,42241.6804829460,46174.5356177542,50623.6539610629,53754.5118628773,1991.3530943459
2055186217,16311,3,0,27503.0709982846,55875.0493943923,27775.5787363312,52466.9870235577,60633.5922679085,42244.7467425454,46138.6044090360,50601.3505727864,53753.0639069554,1995.6482913244
2055186217,16311,3,0,27397.8569238566,55878.5901941678,27774.8121714314,52454.2231095904,60641.6229478116,42263.6066726210,46110.3510170131,50588.6353296065,53754.4753597868,2008.1810190520
2055186217,16311,3,0,27395.3503783111,55888.7623887118,27786.8581912861,52475.1637158227,60647.9014793723,42263.5214987432,46130.0505181695,50610.9995563670,53766.8620751526,2003.7154743180
2055186217,16311,3,0,27503.7645570035,55890.3806923892,27793.4530829641,52502.0908288919,60643.6671208779,42245.5984813230,46172.4549415974,50635.3227823161,53767.9328324730,1991.3409266490
2055224632,16312,3,0,27569.0442504586,55889.7844752449,27784.2786395596,52503.1372508186,60642.5720281638,42242.8850849315,46177.2125110552,50623.4349425201,53755.7042971659,1996.5487008893
2055224632,16312,3,0,27517.6357313817,55890.4780339638,27780.6161628159,52487.0393879219,60646.5995358122,42253.5074842579,46151.2953168223,50605.5970989777,53755.6434586818,2005.8204858683
2055224632,16312,3,0,27418.5055053652,55885.7447998997,27787.2597252812,52466.9261850736,60641.8054632640,42255.6611665956,46120.9977517332,50596.8363572651,53764.9395790545,2008.7772361963
2055224632,16312,3,0,27395.4233844920,55885.6474583251,27789.6567615554,52463.0203543934,60641.3065876942,42257.4133149381,46118.3695292195,50593.8917746340,53759.8778171762,2009.5681364898
2055224632,16312,3,0,27483.7121926393,55893.4834550791,27785.7387631784,52487.8059528217,60643.9348102080,42249.7233305460,46152.5607572919,50610.0261406212,53751.3360940065,2003.6059650466
2055224632,16312,3,0,27561.7558000617,55886.3531847408,27779.1803745908,52490.6531938783,60634.9793853463,42236.0711747106,46168.0867384380,50617.5457772578,53748.5861945245,1991.3895974363
2055224632,16312,3,0,27523.1355303456,55872.4698426659,27766.2947836553,52461.7184108333,60627.6300964652,42235.0369204807,46134.5038952067,50592.8575204040,53744.4613453015,1995.6117882339
2055224632,16312,3,0,27408.1021245815,55872.3725010913,27762.1212636450,52440.9968231439,60633.8964603291,42254.4930677006,46098.8403758186,50574.6181428664,53745.7632888616,2008.6677269249
2055251057,16313,3,0,27378.3764412431,55877.2760829109,27773.7657495046,52452.0937626464,60636.5246828428,42251.8161743995,46109.8886445339,50593.0765389468,53757.5537870830,2005.4919580541
2055251057,16313,3,0,27464.5359024463,55872.4698426659,27773.1451969666,52473.4359028738,60625.7441034577,42231.4109468275,46146.8419397851,50612.6908662254,53753.5141117378,1988.2381639592
2055251057,16313,3,0,27547.0693899964,55867.9312917509,27757.6922220015,52480.3714900629,60622.0816267140,42226.7628866411,46158.9001273367,50606.3636638775,53739.6064342692,1983.6266068633
2055251057,16313,3,0,27524.8025048104,55866.3129880734,27750.3307654236,52469.9924446729,60621.7287635061,42235.6939761091,46142.6440843812,50592.8453527072,53740.2634898976,1984.5148487314
2055251057,16313,3,0,27422.6668576786,55860.4603259016,27757.3880295809,52453.5903893556,60618.6990069972,42243.6638175282,46113.2590965538,50582.2594564712,53750.0949889306,1987.0092265801
2055251057,16313,3,0,27377.6828825242,55867.0552175796,27766.0392620220,52460.0027655813,60626.0482958783,42253.8725151626,46112.6020409254,50583.0503567647,53753.6601240997,1995.6482913244
2055251057,16313,3,0,27448.7422319702,55883.0314035082,27772.2447874017,52491.8821312574,60637.2790800458,42252.4732300280,46152.8649497125,50606.6435209044,53755.7529679532,1995.0277387864
2055251057,16313,3,0,27547.7994518057,55882.6298695130,27773.0721907857,52505.6437963642,60632.9838830673,42238.9914219482,46179.4026964833,50623.6174579724,53757.4929485989,1987.9218038418
2055277206,16314,3,0,27537.1527170857,55872.0196378834,27763.3380333273,52479.3372358330,60624.6611784404,42237.2392736056,46152.8649497125,50600.7908587326,53748.4766852531,1992.4725224536
2055277206,16314,3,0,27423.8957950577,55871.5207623137,27762.1090959482,52454.5638051014,60632.5093428912,42256.0383651971,46111.9206499033,50577.9764271896,53749.2675855466,2001.4766181026
2055277206,16314,3,0,27371.0028169684,55876.8623812189,27778.2434619354,52462.3511310681,60637.4007570141,42257.9851966888,46114.8530648376,50592.4681541057,53764.5988835435,1997.2909303955
2055277206,16314,3,0,27441.3807753923,55877.2274121236,27783.1227083614,52485.0073825525,60634.0181372973,42243.0554326870,46149.1416344847,50614.1996606315,53764.4042003943,1987.2039097292
2055277206,16314,3,0,27545.5119248030,55880.6708703245,27772.5368121255,52503.7213002661,60636.0136395762,42240.7557379875,46175.4603627127,50617.7161250133,53751.0319015859,1988.9560580717
2055277206,16314,3,0,27556.0734856453,55879.8678023342,27766.8544977092,52499.6937926177,60636.2691612095,42240.3663716891,46167.1984965699,50610.3546684354,53749.2554178498,1992.5455286345
2055277206,16314,3,0,27451.2731129093,55867.8096147827,27767.0370131615,52463.8964285646,60627.4597487097,42239.6971483639,46126.1081843988,50590.0346147411,53752.2851743587,1995.5266143561
2055277206,16314,3,0,27370.5769475796,55871.8614578247,27769.7260741594,52451.0230053260,60631.2439024217,42246.7909156117,46106.9440619027,50580.5316435224,53749.6204487545,2003.9953313449
2055334399,16315,3,0,27414.6726808659,55883.2625897478,27775.3597177884,52474.0686231086,60636.6341921142,42248.1050268685,46134.9419322923,50600.9733741849,53752.4190190237,1999.6392958823
2055334399,16315,3,0,27530.6308315886,55883.1044096891,27777.5134001261,52489.7527843134,60629.5282571696,42234.2338524904,46166.6631179097,50620.3808506175,53752.9787330776,1989.6374490938
2055334399,16315,3,0,27550.4276743195,55875.0128913018,27767.3290378853,52471.2822205362,60624.5029983817,42234.1608463094,46148.0465417706,50600.8151941262,53744.2909975460,1994.1394969183
2055334399,16315,3,0,27444.6660535345,55873.1999044752,27763.6422257479,52439.9504012171,60630.2826543726,42251.3051311330,46101.3712567578,50574.0340934189,53745.1914071109,2005.0295855749
2055334399,16315,3,0,27362.3272491336,55874.0273078592,27776.9780214659,52436.3244275639,60631.8887903533,42255.2961356909,46090.2378141648,50579.9719294685,53757.5051162957,2001.4766181026
2055334399,16315,3,0,27399.9010969229,55874.5626865194,27780.7621751778,52455.9995933266,60631.3534116931,42247.4358035433,46118.7832309114,50599.0630457837,53760.3158542618,1994.5288632167
2055334399,16315,3,0,27510.2377717133,55878.2251632631,27771.8919241939,52481.6247628357,60634.8577083781,42247.0221018513,46155.3836629548,50609.8557928657,53751.1779139478,1993.7379629232
2055334399,16315,3,0,27552.8003752000,55875.0372266955,27766.4407960172,52487.5869342789,60628.1654751254,42243.6759852250,46162.2340762662,50611.4375934527,53751.3969324906,1993.4581058962
2055344827,16316,3,0,27468.1862114932,55859.4625747621,27761.0505063246,52456.7418228328,60615.1703749185,42234.9395789061,46123.2609433423,50588.8421804525,53748.3063374976,2000.0651652711
2055344827,16316,3,0,27364.2984160190,55856.3354766786,27757.5340419428,52441.8485619215,60616.0099459993,42244.4668855185,46095.8471224002,50572.4401251351,53744.9480531744,2008.3635345043
2055344827,16316,3,0,27382.8176505835,55865.8384478974,27764.4817968287,52465.5634030294,60623.7364334819,42246.4137170101,46122.3727014742,50596.2279724240,53752.2486712682,2005.5284611446
2055344827,16316,3,0,27504.5554572970,55867.7244409049,27766.4894668045,52492.6608638541,60622.8481916138,42234.2703555808,46167.2349996604,50622.9847377376,53753.7574656743,1994.4315216421
2055344827,16316,3,0,27554.9297221440,55863.4535793201,27755.7453905098,52486.9055432568,60623.3835702740,42232.8832381430,46163.9010507309,50607.8967936772,53744.7290346316,1996.7677194321
2055344827,16316,3,0,27470.8387694006,55862.7721882980,27750.5741193601,52460.3677964860,60626.3038175115,42245.5741459294,46124.0761790294,50580.9696806080,53745.4590964410,2004.2873560687
2055344827,16316,3,0,27367.4376817993,55860.1317980874,27761.0505063246,52447.0441684649,60623.5174149391,42246.4745554943,46100.7142011294,50577.8182471309,53753.4897763442,1998.0209922048
2055344827,16316,3,0,27373.5215302107,55862.8816975694,27768.1199381788,52457.2406984025,60623.5782534232,42245.3307919929,46114.5367047202,50588.2581310050,53754.5848690582,1993.1904165661
2055383581,16317,3,0,27482.7631122871,55876.4000087397,27768.3146213279,52484.7396932223,60632.5093428912,42247.2654557877,46152.2443971745,50607.3249119265,53749.1459085784,1992.0831561552
2055383581,16317,3,0,27552.6421951413,55880.3058394198,27769.8964219149,52493.9263043237,60636.4881797523,42243.2987866235,46171.6275382135,50620.4051860112,53754.9498999629,1991.4504359204
2055383581,16317,3,0,27496.6099512716,55872.5428488468,27769.1785278023,52469.4327306191,60633.3975847593,42241.6439798556,46139.1154523026,50603.1635596131,53757.3347685402,1997.1935888209
2055383581,16317,3,0,27380.6031297617,55870.1214771790,27764.9320016111,52448.2487704503,60634.7725345003,42247.4358035433,46101.1765736086,50581.6632393269,53751.1049077669,2004.6037161860
2055383581,16317,3,0,27365.7220365472,55875.1710713605,27773.5588986586,52464.0546086233,60637.1087322903,42250.5020631427,46116.6052131801,50598.3694870648,53755.3149308676,1998.6902155301
2055383581,16317,3,0,27474.6594262030,55873.9786370719,27779.6184116764,52490.9087155116,60628.7981953602,42231.7516423385,46159.0339720017,50622.1695020505,53753.9399811266,1985.1840720566
2055383581,16317,3,0,27546.0229680696,55871.6181038882,27767.0856839488,52489.8257904943,60628.6521829984,42230.7173881085,46164.7284541149,50612.8003754968,53740.8962101324,1987.5202698466
2055383581,16317,3,0,27493.7627102151,55871.2165698931,27762.7661515767,52471.0875373870,60636.4273412682,42245.7201582912,46135.8788449477,50596.6173387223,53743.2932464065,1999.4567804299
2055400283,16318,3,0,27387.4535430730,55869.3549122792,27770.0059311863,52454.5029666173,60636.7315336888,42248.2023684431,46106.9805649932,50592.7845142231,53756.1545019484,2003.6303004402
2055400283,16318,3,0,27363.4710126350,55870.5230111742,27774.6418236758,52456.1212702948,60639.4936008676,42247.2167850005,46108.6110363675,50597.0918788984,53757.6511286576,2005.6136350224
2055400283,16318,3,0,27456.9432596288,55882.2040001242,27775.0798607615,52481.7586075007,60646.6968773868,42245.9026737436,46149.0442929101,50614.8202131694,53752.2121681777,2001.8903197945
2055400283,16318,3,0,27543.4677517368,55879.9651439088,27770.7603283893,52488.8037039612,60639.8707994691,42233.4429521969,46167.8190491079,50621.6462910871,53749.7664611163,1987.3134190006
2055400283,16318,3,0,27514.3747886331,55869.6591046998,27764.6034737969,52465.6242415135,60631.0735546661,42234.8787404220,46139.4074770263,50600.3528216470,53744.9237177808,1988.8343811035
2055400283,16318,3,0,27393.5008883940,55867.4932546653,27761.4642080166,52442.0797481611,60635.2227392828,42249.6259889714,46096.1269794271,50575.8227448519,53743.0012216828,1999.7001343664
2055400283,16318,3,0,27352.4470793134,55869.0872229491,27772.3786320668,52450.2929435166,60634.8698760749,42248.4335546827,46100.5438533738,50589.3775591127,53750.4600198352,1993.6892921359
2055400283,16318,3,0,27444.7512274122,55868.7100243476,27780.5188212413,52478.8991987473,60627.5570902843,42236.8012365200,46144.2867234523,50615.1852440741,53750.0706535369,1981.4850922225
2055455538,16319,3,0,27534.9381962639,55866.8361990368,27768.7161553231,52488.0006359709,60624.1744705675,42231.3744437370,46165.3976774401,50610.6223577655,53736.3333238238,1982.2881602128
2055455538,16319,3,0,27513.0971804667,55863.3927408359,27759.0185009552,52476.6968456224,60625.6832649736,42236.1563485884,46149.3119822402,50596.0576246685,53736.4671684889,1990.7082064142
2055455538,16319,3,0,27403.6122444539,55856.4814890405,27762.9243316354,52453.4565446906,60620.5363292175,42242.0941846380,46114.7070524758,50584.9728528628,53747.8196296247,1995.4171050847
2055455538,16319,3,0,27347.0811250145,55856.2989735882,27767.8157457582,52447.7742302742,60623.3714025772,42247.3019588782,46103.6831191542,50579.2783707496,53749.4744363926,1997.9723214175
2055455538,16319,3,0,27417.1305556242,55869.1237260396,27773.6562402332,52477.9136153047,60632.2659889548,42247.5331451179,46140.3565573785,50600.1338031042,53748.6957037959,1992.3508454853
2055455538,16319,3,0,27525.0093556564,55870.7420297170,27774.5079790108,52496.0556512677,60629.7351080156,42230.8877358641,46169.9118929614,50617.9716466466,53747.8926358056,1982.3611663937
2055455538,16319,3,0,27527.5280688987,55864.3539888850,27767.8765842423,52476.4778270796,60625.4642464308,42233.2239336541,46150.0907148369,50603.2730688845,53744.9115500840,1990.8177156857
2055455538,16319,3,0,27417.3009033797,55867.9556271445,27767.7670749709,52450.4632912721,60636.9627199284,42253.4709811674,46109.0247380594,50580.8601713366,53747.8804681088,2010.0426766659
2055472301,16320,3,0,27355.6958543651,55874.2341587052,27781.2002122634,52454.9775067934,60640.5035197039,42258.7395938918,46107.9904838295,50593.2347190055,53761.3501084918,2007.4631249394
2055472301,16320,3,0,27419.5640949888,55876.5581887984,27789.9974570664,52478.7896894759,60636.5855213269,42247.6304866924,46145.9902010075,50616.9860632039,53762.3721950249,1995.4657758720
2055472301,16320,3,0,27525.4717281356,55879.2959205835,27781.1637091729,52498.0511535466,60637.8144587060,42241.7048183397,46173.9637360035,50618.9085593019,53748.8538838546,1995.7091298085
2055472301,16320,3,0,27536.3861521858,55874.6843634876,27772.5854829128,52492.1376528907,60632.2538212580,42237.1540997279,46162.7937903200,50607.1180610805,53743.9381343381,1995.2589250260
2055472301,16320,3,0,27436.1364980616,55861.0322076523,27771.8797564970,52461.2560383541,60621.0352047872,42239.5146329115,46122.3118629901,50586.5789888434,53746.0553135853,1995.4536081752
2055472301,16320,3,0,27356.3772453872,55861.2998969824,27778.2069588450,52448.2731058440,60626.5471714480,42254.9311047862,46102.5271879560,50579.8989232876,53747.4911018104,2005.3094426018
2055472301,16320,3,0,27397.8204207662,55874.3193325829,27787.1867191003,52474.0564554118,60634.9307145590,42259.2019663711,46133.3114609180,50601.5209205420,53752.4920252047,2003.4234495942
2055472301,16320,3,0,27514.7033164473,55877.6654492093,27790.7275188758,52494.0601489887,60633.2394047006,42245.2456181151,46173.3918542528,50625.9779911561,53755.6312909850,1992.0709884584
2055497179,16321,3,0,27539.9512873549,55871.0218867439,27781.2245476571,52477.3539012508,60628.0803012477,42246.6205678561,46158.8636242462,50611.6079412082,53748.6226976150,1995.7578005958
2055497179,16321,3,0,27441.9891602334,55875.4022576002,27779.4237285273,52455.5128854536,60642.6693697384,42269.0821361913,46117.9193244370,50591.9327754455,53755.5096140168,2013.1697747494
2055497179,16321,3,0,27363.2641617890,55883.1774158700,27791.5914253502,52455.4277115759,60649.7388015925,42274.4359227934,46108.7813841230,50601.6547652070,53770.3907072312,2010.3590367833
2055497179,16321,3,0,27402.8700149477,55885.4649428728,27800.9362165102,52474.1172938959,60648.2665102769,42264.7626038191,46136.0248573095,50621.8896450236,53772.8729173831,1998.9944079507
2055497179,16321,3,0,27512.7199818652,55891.4514497096,27796.3246594143,52495.5446080011,60651.3449375732,42259.8346866058,46169.2061665457,50627.7301394986,53761.4839531568,1994.8573910309
2055497179,16321,3,0,27551.4010900653,55890.0399968782,27791.9929593454,52496.9317254389,60650.1281678909,42254.6999185466,46174.2800961209,50625.4182771022,53760.4618666237,1993.9083106787
2055497179,16321,3,0,27469.1839626327,55876.9232197031,27787.8072716383,52470.1506247316,60637.8631294933,42252.0716960328,46137.6918317743,50605.1347264984,53761.6421332155,1993.2999258375
2055497179,16321,3,0,27366.2452475106,55873.2120721721,27783.4634038725,52454.4664635269,60636.4151735714,42258.6665877108,46108.3555147342,50589.1950436603,53759.3302708192,1995.7699682926
2055531273,16322,3,0,27375.3953555215,55879.5027714295,27783.3782299947,52475.9059453289,60639.4449300803,42258.8734385568,46130.1721951377,50606.3028253934,53758.8192275526,1988.8708841940
2055531273,16322,3,0,27496.5491127875,55882.6055341194,27787.1015452225,52507.8096463986,60638.8487129360,42248.5795670446,46176.5919585172,50636.4665458175,53761.8368163647,1978.2363171707
2055531273,16322,3,0,27557.3997645990,55880.9628950483,27779.6670824637,52505.4856163055,60641.7324570830,42253.5318196516,46179.1715102437,50630.4678712837,53759.3546062128,1989.3089212796
2055531273,16322,3,0,27487.1921539307,55887.8254760564,27778.7666728988,52484.8492024938,60655.9929977595,42272.2457373653,46146.3187288218,50610.0504760148,53765.4871254116,2012.5492222114
2055531273,16322,3,0,27389.3030329901,55893.3496104140,27794.3413248322,52475.3218958814,60660.7627349141,42281.7122054935,46128.5173883698,50612.3380030176,53780.8305911053,2019.5091447942
2055531273,16322,3,0,27392.9898451274,55898.1923537496,27807.3729281296,52487.6356050662,60661.4927967235,42280.8969698064,46145.7225116774,50627.1460900511,53785.0406142060,2018.6330706229
2055531273,16322,3,0,27497.3400130810,55906.8922569780,27807.3242573423,52512.9930852452,60664.6563978975,42276.4800958596,46182.6514715351,50640.2263641357,53777.7399961123,2018.4505551706
2055531273,16322,3,0,27562.9847374408,55902.6213953931,27803.6496129017,52515.8646616954,60659.8744930460,42262.5480829974,46192.3491259029,50639.6544823851,53776.8152511537,2012.9142531161
2055574648,16323,3,0,27503.8375631845,55886.6330417678,27795.3755790621,52481.9897937404,60645.5896169759,42256.1235390749,46152.4025772332,50612.7273693159,53772.1428555737,2010.7484030816
2055574648,16323,3,0,27389.0231759632,55885.6596260219,27793.5139214482,52458.9076728672,60649.6901308052,42275.0808107250,46115.9481575517,50593.0887066437,53773.6151468893,2018.9129276498
2055574648,16323,3,0,27374.6652937121,55896.7443978276,27804.0146438064,52479.0452111092,60658.8159034224,42283.5130246233,46133.0194361943,50611.8756305383,53783.2032919858,2014.7759107300
2055574648,16323,3,0,27483.1281431918,55898.5938877447,27810.4635231226,52508.9047391127,60655.1290912851,42266.0280442887,46179.5000380579,50643.0371021018,53783.4223105286,2000.0164944838
2055574648,16323,3,0,27557.8864724720,55893.7998151965,27796.3368271112,52509.9146579490,60649.1304167514,42256.2573837399,46187.5793887484,50634.6778943845,53768.6263911919,2003.1557602641
2055574648,16323,3,0,27505.4193637714,55887.1440850343,27783.2565530265,52486.5161769585,60649.1425844482,42260.7472638676,46154.5562595709,50608.3104953692,53760.8512329220,2010.6997322943
2055574648,16323,3,0,27395.1313597683,55882.7880495717,27790.1556371251,52466.1474524769,60645.5287784918,42264.2515605526,46124.5750545992,50602.6525163465,53771.6804830945,2012.1598559131
2055574648,16323,3,0,27365.1501547966,55882.7880495717,27797.4075844316,52468.4228117828,60643.9348102080,42262.0248720340,46125.0860978657,50606.3879992711,53772.6782342339,2009.4221241279
2055614394,16324,3,0,27449.2897783272,55891.6826359493,27797.7361122458,52494.1818259569,60650.4566957051,42261.2339717405,46161.5526852441,50623.2524270677,53766.9594167271,2006.8182370078
2055614394,16324,3,0,27537.2378909634,55891.4027789224,27796.8357026809,52508.0773357287,60647.6216223453,42253.5683227420,46183.0651732270,50632.9865845261,53768.9549190061,2000.0286621806
2055614394,16324,3,0,27513.4622113714,55881.2549197720,27792.1511394041,52485.1777303080,60639.3354208089,42255.3691418718,46157.3548298402,50614.7350392917,53767.8841616857,2006.0760075016
2055614394,16324,3,0,27397.9907685217,55881.3644290434,27790.9952082059,52458.7373251117,60644.9325613475,42273.4016685634,46118.2965230385,50592.2369678661,53769.4294591822,2020.6650759923
2055614394,16324,3,0,27355.4281650350,55889.3829412497,27801.0822288721,52468.9581904430,60651.3327698763,42278.3174180799,46127.9576743159,50607.2154026551,53778.1050270170,2018.0611888722
2055614394,16324,3,0,27446.9414128404,55890.2711831178,27807.8839713961,52499.0002338988,60648.7167150594,42264.7869392128,46171.4085196707,50637.0870983554,53780.6115725625,2001.9876613691
2055614394,16324,3,0,27547.2032346614,55890.9647418367,27800.2548254881,52513.1269299103,60652.9632412506,42262.1222136086,46194.0161003677,50638.6080604583,53771.4736322485,1999.6879666696
2055614394,16324,3,0,27532.6750046548,55888.6285440467,27789.6689292522,52502.3341828283,60653.9244892996,42263.9108650415,46175.8132259206,50623.6417933661,53768.7724035538,2003.7398097116
2055624507,16325,3,0,27419.5884303824,55878.1034862949,27786.2863095354,52470.8441834505,60646.3926849662,42260.3578975692,46134.2118704829,50606.8260363568,53770.0621794170,2004.0196667385
2055624507,16325,3,0,27359.5165111675,55876.6920334634,27788.8536935650,52461.3898830191,60644.0199840857,42265.8455288364,46122.2631922028,50600.8516972167,53770.3177010503,2009.8723289104
2055624507,16325,3,0,27422.9223793119,55885.1850858458,27790.1799725187,52486.5040092617,60650.9190681843,42264.3489021272,46154.6779365391,50616.3411752723,53764.9882498418,2008.4365406853
2055624507,16325,3,0,27525.3865542579,55883.1287450828,27788.9632028365,52500.1074943097,60644.0808225699,42246.7057417339,46181.7753973638,50628.8982383936,53760.7538913474,1996.7677194321
2055624507,16325,3,0,27528.7448385810,55871.8249547342,27780.7743428746,52478.9843726251,60633.4219201530,42246.4258847070,46163.5360198262,50610.7927055210,53757.4929485989,2000.2233453298
2055624507,16325,3,0,27416.8385309004,55869.8294524553,27776.9901891627,52451.8504087099,60639.2745823248,42266.9771246409,46119.9269944128,50581.8944255666,53755.7651356500,2013.8389980747
2055624507,16325,3,0,27350.6705955773,55877.7992938743,27790.9343697218,52460.8301689653,60647.0497405947,42278.0253933561,46120.9247455523,50594.2811409323,53769.4902976663,2012.5978929987
2055624507,16325,3,0,27413.0057064012,55881.0845720165,27799.3057451359,52485.5062581222,60646.3926849662,42269.0212977072,46155.8947062214,50621.6827941776,53774.1748609432,2001.8173136136
2055653687,16326,3,0,27520.8845064334,55884.6618748824,27791.5305868661,52497.4427687055,60651.1259190303,42260.7472638676,46180.3031060482,50626.7323883591,53765.0369206291,2001.4401150121
2055653687,16326,3,0,27537.9314496823,55887.8619791469,27785.8726078434,52491.3224172036,60659.1200958430,42261.7450150071,46171.6032028198,50621.6462910871,53763.7836478564,2004.9687470907
2055653687,16326,3,0,27442.1230048985,55882.5325279384,27787.5274146113,52464.9185150978,60653.3404398521,42262.3290644545,46134.1875350893,50607.7021105280,53770.4515457153,2006.6235538587
2055653687,16326,3,0,27358.4822569376,55881.0237335324,27789.0970475015,52456.3281211408,60655.2264328597,42269.1551423722,46116.1306730040,50597.6637606491,53771.3276198866,2010.3347013897
2055653687,16326,3,0,27400.0471092848,55894.8584048201,27794.9375419765,52487.6599404599,60667.1021049589,42273.1948177174,46151.7090185143,50622.1695020505,53773.5299730115,2010.2981982992
2055653687,16326,3,0,27523.8899275487,55901.1369363807,27799.6099375565,52516.3392018715,60668.8420856045,42261.2096363468,46197.7272478987,50649.7293353545,53776.0730216475,1998.0939983858
2055653687,16326,3,0,27563.8243085216,55896.2576899547,27795.8987900255,52506.0818334498,60664.7172363816,42259.6521711535,46193.4442186170,50641.4918046053,53773.4326314370,2001.5374565867
2055653687,16326,3,0,27465.9716906715,55891.7556421302,27788.4643272667,52473.8982753531,60666.5788939955,42269.0212977072,46145.5399962251,50609.4177557801,53768.5290496173,2014.8975876983
2055689813,16327,3,0,27365.6003595790,55887.1562527311,27793.0028781817,52459.2605360751,60661.0669273347,42265.9915411983,46123.4312910978,50606.0594714569,53772.5687249625,2013.3766255954
2055689813,16327,3,0,27390.4224610978,55883.4329375033,27798.8677080503,52472.6936733676,60651.2719313922,42256.3668930113,46146.4404057900,50623.7999734248,53773.5421407084,2006.3071937413
2055689813,16327,3,0,27498.6297889442,55887.1075819439,27789.5107491935,52491.5049326559,60650.6878819447,42253.0329440818,46177.4436972948,50631.8428210247,53762.2626857535,2006.9764170665
2055689813,16327,3,0,27543.4069132527,55887.6429606041,27779.9347717938,52493.1475717270,60652.9754089474,42252.0838637296,46180.4856215006,50628.7035552444,53761.2649346140,2007.1102617316
2055689813,16327,3,0,27468.3687269456,55879.2472497962,27776.7346675294,52466.6341603498,60647.7067962231,42247.5696482083,46143.7270093985,50611.2064072130,53763.2239338025,2008.9110808614
2055689813,16327,3,0,27366.8658000486,55877.2517475173,27774.6174882822,52450.2929435166,60652.3061856222,42256.8170977938,46112.7967240745,50594.3176440228,53760.3766927459,2015.0436000601
2055689813,16327,3,0,27376.9406530180,55889.3099350688,27784.7653474325,52475.8572745416,60664.5225532324,42265.4318271444,46137.5093163219,50611.7296181764,53763.1509276216,2014.6664014586
2055689813,16327,3,0,27493.6288655500,55891.6583005556,27790.9465374186,52501.0079038746,60657.6843076179,42247.8495052353,46180.7776462243,50637.5859739252,53763.8201509468,2000.2841838139
2055722293,16328,3,0,27553.8346294299,55882.2526709115,27781.2367153539,52489.7649520102,60646.9645667169,42238.7115649212,46176.8718155442,50623.1915885836,53754.3658505154,1999.7366374569
2055722293,16328,3,0,27479.7211880814,55877.7019522997,27771.7337441352,52457.9950956055,60645.6261200664,42247.1194434259,46132.5205606245,50591.5799122376,53748.2576667103,2013.0237623875
2055722293,16328,3,0,27371.6355372032,55874.4045064607,27779.4358962241,52443.5520394767,60641.6351155084,42253.0694471723,46106.4451863330,50587.9052677971,53755.1567508089,2010.2373598151
2055722293,16328,3,0,27372.0614065920,55873.1147305975,27788.1966379366,52462.4363049459,60639.2989177184,42248.4213869859,46124.6967315674,50602.6768517401,53759.4641154842,2003.6546358339
2055722293,16328,3,0,27477.0442947803,55880.7803795959,27785.4467384546,52489.7041135261,60646.5995358122,42245.0752703596,46165.1056527164,50618.7990500305,53753.7696333711,2003.8614866798
2055722293,16328,3,0,27545.9621295855,55882.3256770924,27776.5034812898,52492.8312116096,60648.4003549420,42241.6439798556,46179.5973796325,50626.2335127894,53753.5627825251,2002.8150647531
2055722293,16328,3,0,27495.5148585576,55873.4432584117,27772.1474458271,52465.9649370245,60641.1484076355,42241.2546135572,46150.5652550130,50611.0360594575,53758.7948921590,2007.5482988172
2055722293,16328,3,0,27386.3219472685,55872.5915196341,27771.5025578955,52447.4457024600,60646.5995358122,42256.8536008842,46116.2036791850,50590.3023040712,53758.2473458019,2018.5843998356
2055764731,16329,3,0,27370.4187675209,55885.7204645060,27782.5264912171,52462.6674911855,60655.6157991580,42264.8112746064,46127.0329293574,50603.7719444542,53764.1243433674,2017.2946239724
2055764731,16329,3,0,27472.9924517383,55888.4338608976,27792.3701579469,52488.7428654771,60653.3891106394,42250.5994047172,46170.4351039248,50633.6801432450,53767.9815032603,2000.5640408408
2055764731,16329,3,0,27549.9044633561,55882.1309939433,27783.8892732613,52484.8613701906,60647.7554670104,42245.4524689611,46178.0277467423,50628.3506920366,53759.1477553668,2000.5762085377
2055764731,16329,3,0,27503.9957432431,55877.4220952728,27773.5102278713,52461.4142184128,60648.9722366927,42253.0694471723,46145.0411206553,50604.0031306938,53754.7917199042,2009.1300994042
2055764731,16329,3,0,27389.8505793471,55870.5473465678,27774.5323144044,52443.9170703814,60644.6648720174,42259.2019663711,46113.9039844854,50595.6074198860,53765.5479638957,2006.3680322254
2055764731,16329,3,0,27358.5552631185,55873.0782275070,27782.7576774567,52452.2397750083,60645.8816416996,42261.2339717405,46122.6403908043,50605.1225588016,53771.1572721311,2003.1435925673
2055764731,16329,3,0,27442.0378310207,55885.7934706870,27783.2808884201,52484.3868300145,60655.5792960675,42264.8964484842,46164.9109695672,50626.6837175718,53767.6894785365,2002.4622015452
2055764731,16329,3,0,27539.7566042058,55890.0399968782,27783.8771055645,52503.3562693614,60659.2782759017,42260.0780405423,46194.5028082406,50642.5017234416,53771.5101353389,2000.0164944838
2055779902,16330,3,0,27518.7673271862,55878.7240388329,27779.7644240383,52478.8870310505,60652.7442227078,42255.1257879354,46169.4251850885,50627.1095869606,53768.6628942824,2003.3626111101
2055779902,16330,3,0,27398.0759423994,55876.5216857079,27778.2312942386,52447.4578701569,60657.4044505910,42271.6860233114,46122.4092045647,50600.4744986152,53767.9936709571,2015.9196742314
2055779902,16330,3,0,27349.9405337679,55888.0323269024,27790.5571711203,52460.7328273907,60666.7127386605,42281.6026962221,46122.9932540122,50610.9022147925,53779.5529829389,2016.5767298598
2055779902,16330,3,0,27436.3920196949,55893.8849890742,27798.9407142313,52492.0889821034,60663.4517959120,42263.9352004352,46166.3832608828,50642.3192079893,53782.1933731495,2003.9466605576
2055779902,16330,3,0,27535.6804257701,55892.7655609665,27788.0141224843,52496.2625021137,60659.3512820826,42250.7819201696,46184.5617999363,50639.2529483899,53769.2469437299,2002.4256984547
2055779902,16330,3,0,27522.4298039299,55890.4415308733,27776.2601273533,52480.7973594517,60657.7086430116,42254.3957261260,46165.8965530099,50619.4561056590,53762.7858967169,2013.1576070526
2055779902,16330,3,0,27414.3198176581,55882.0093169750,27776.3574689279,52456.8513321042,60650.4810310987,42255.0771171481,46131.3281263359,50604.2951554176,53769.9405024488,2017.3432947597
2055779902,16330,3,0,27355.2821526731,55875.9254685636,27774.4958113140,52449.1370123184,60644.5796981396,42254.0915337054,46122.0076705695,50599.7687721995,53768.4560434364,2015.5911464172
2055817087,16331,3,0,27414.4414946263,55883.1165773859,27771.8310857097,52474.0199523213,60651.2475959986,42256.1600421653,46155.2863213803,50615.8544673994,53762.1288410884,2011.9895081576
2055817087,16331,3,0,27517.6478990785,55883.7492976207,27770.5169744529,52493.6221119031,60648.1083302182,42243.5908113472,46187.7375688070,50634.3006957830,53763.3821138612,2000.2476807234
2055817087,16331,3,0,27526.4208084878,55873.4310907149,27763.3258656305,52476.3926532018,60639.6882840168,42238.6872295276,46171.9073952404,50622.5345329552,53759.9994941444,1999.2742649776
2055817087,16331,3,0,27414.5023331104,55872.5550165436,27758.6778054441,52446.0707527190,60644.5310273523,42254.9676078767,46125.0617624721,50593.6605883943,53757.2374269656,2014.3743767349
2055817087,16331,3,0,27339.3668052287,55881.3644290434,27769.8720865213,52448.1514288758,60651.5517884191,42260.6985930803,46118.9414109701,50597.5177482872,53766.4848765511,2013.6929857128
2055817087,16331,3,0,27400.3026309180,55887.8498114501,27783.9866148359,52476.9888703461,60651.4057760573,42251.6701620377,46159.0461396985,50624.2745136009,53772.3010356324,2002.3040214865
2055817087,16331,3,0,27518.6578179148,55893.8119828933,27781.4435661999,52496.3598436883,60653.2187628839,42248.2267038368,46191.6799025777,50631.5021255137,53763.5281262231,2002.4013630611
2055817087,16331,3,0,27541.2775663086,55896.3063607420,27774.9946868837,52491.5901065337,60659.5581329286,42253.9455213435,46184.0994274570,50622.7900545885,53761.9949964234,2009.1179317074
2055846527,16332,3,0,27442.3420234413,55887.1684204280,27777.0145245563,52462.4849757332,60655.1899297692,42259.9685312709,46144.4084004206,50608.1036445232,53770.3542041407,2012.3667067591
2055846527,16332,3,0,27353.7368551766,55885.4771105696,27782.1979634029,52451.3515331402,60656.6257179943,42269.1308069786,46125.8769981592,50602.5795101656,53772.8242465958,2016.8322514931
2055846527,16332,3,0,27388.6216419680,55901.4411288013,27791.4089098979,52484.0583022003,60669.0976072378,42275.2389907837,46159.5328475715,50624.1528366326,53777.7278284155,2017.9516796008
2055846527,16332,3,0,27508.2301017375,55903.7286558040,27794.8523680988,52513.7109793578,60665.8853352766,42256.3547253145,46202.0711156645,50650.2403786210,53778.4213871344,2005.1755979367
2055846527,16332,3,0,27547.0450546027,55892.0841699444,27784.0474533200,52498.5013583291,60653.5472906981,42248.0320206876,46192.4708028712,50636.4422104238,53771.5466384294,2001.1115871979
2055846527,16332,3,0,27454.5948941420,55888.9570718609,27776.9658537690,52467.5832407020,60659.9109961365,42266.6729322203,46146.2822257313,50606.1446453347,53770.7800735296,2014.8002461237
2055846527,16332,3,0,27359.7598651040,55892.5465424237,27787.6369238828,52458.8346666863,60665.7879937020,42277.7577040260,46127.3614571716,50606.5096762394,53783.5804905873,2014.6664014586
2055846527,16332,3,0,27390.7266535184,55894.7002247614,27800.1088131263,52477.2443919794,60662.7704048899,42273.5233455317,46152.7797758347,50629.1294246332,53789.4209850623,2008.8259069836
2055877366,16333,3,0,27506.6726365442,55897.3527826688,27795.3269082748,52497.1020731945,60664.5347209292,42266.5269198585,46184.6469738140,50636.6490612698,53776.9855989093,2005.4797903573
2055877366,16333,3,0,27554.1388218505,55899.4577942191,27787.8681101224,52495.7879619376,60665.5203043719,42262.3533998482,46186.6181406993,50630.8207344916,53771.7291538817,2005.7353119906
2055877366,16333,3,0,27478.5409214896,55887.3752712740,27782.7820128504,52463.1176959680,60652.9754089474,42255.5394896274,46145.0411206553,50609.2595757214,53773.5786437988,2004.7983993352
2055877366,16333,3,0,27368.0704020341,55879.9164731215,27778.6328282338,52443.0531639069,60650.0186586194,42264.2028897653,46113.9039844854,50590.5578257045,53772.5808926594,2011.2472786514
2055877366,16333,3,0,27371.6233695064,55893.2035980521,27783.7919316867,52471.5742452599,60663.4761313056,42273.5841840158,46140.2105450166,50608.2253214914,53777.2289528457,2015.3721278744
2055877366,16333,3,0,27493.4220147040,55897.9489998131,27788.5981719318,52507.2499323448,60663.5491374866,42259.4331526107,46191.3270393698,50639.2042776026,53778.6890764645,2000.5032023567
2055877366,16333,3,0,27570.7598957106,55893.7146413187,27782.2466341902,52507.5054539781,60660.3125301317,42254.0671983118,46200.4528119870,50638.0848494949,53773.6029791925,1999.4567804299
2055877366,16333,3,0,27501.0146575215,55890.6727171130,27774.9216807028,52480.0794653392,60665.7514906115,42266.9162861568,46162.0028900265,50610.4276746164,53769.8188254805,2011.7096511306
2055932362,16334,3,0,27383.0853399136,55890.3806923892,27782.7090066695,52464.1397825011,60667.2602850176,42274.6427736394,46134.4065536321,50606.1811484252,53780.7819203180,2014.4108798253
2055932362,16334,3,0,27371.3313447826,55890.4780339638,27794.8645357956,52472.6936733676,60663.9506714817,42275.8108725344,46144.7855990221,50621.9018127204,53789.0559541576,2008.8989131645
2055932362,16334,3,0,27479.3683248735,55902.2928675789,27796.9330442555,52498.6108676005,60672.3585499864,42277.6846978451,46182.0187513003,50638.0970171917,53784.0671984602,2006.8912431888
2055932362,16334,3,0,27554.1144864568,55905.0062639704,27794.0614678053,52504.9259022516,60672.8209224656,42272.5134266954,46196.0724411308,50641.8203324195,53782.2663793304,2004.7010577606
2055932362,16334,3,0,27507.8894062265,55894.0431691329,27790.6058419075,52475.9546161162,60665.2039442545,42268.4494159565,46164.8622987799,50627.5841271367,53784.5660740299,2006.5018768904
2055932362,16334,3,0,27386.5409658113,55889.7479721544,27787.0772098289,52450.7674836927,60665.4838012814,42279.2908338257,46125.7309857973,50605.0495526206,53783.9698568856,2017.6474871802
2055932362,16334,3,0,27360.2100698864,55899.8714959111,27791.7739408025,52468.0091100908,60676.3130514538,42283.6590369852,46135.5989879207,50617.1929140499,53786.6345824898,2016.1630281678
2055932362,16334,3,0,27465.6796659477,55901.7209858282,27795.4972560304,52500.2048358843,60671.4094696342,42264.6287591541,46181.6415526988,50646.4683926059,53788.3015569546,1996.6582101607
2055938935,16335,3,0,27555.6232808629,55893.5564612600,27786.0429555989,52501.1782516301,60660.5437163713,42251.5849881599,46194.3567958787,50641.3214568498,53775.9878477698,1994.0056522533
2055938935,16335,3,0,27511.5275475765,55889.5289536116,27774.3254635585,52478.0231245761,60660.7140641268,42261.9153627626,46161.8568776646,50614.9540578345,53768.1761864094,2006.3436968317
2055938935,16335,3,0,27394.7663288636,55886.0489923203,27782.2466341902,52461.3898830191,60659.3512820826,42270.2258996926,46131.7053249374,50605.2077326793,53777.5818160536,2010.1886890278
2055938935,16335,3,0,27357.1803133775,55884.0778254349,27790.1313017315,52466.6341603498,60657.8303199798,42271.2114831353,46132.4232190500,50610.7683701274,53779.5043121516,2009.2031055851
2055938935,16335,3,0,27447.9513316767,55897.5961366052,27792.1511394041,52496.9438931358,60668.5987316681,42272.3187435462,46171.0556564628,50628.7035552444,53775.9756800730,2010.0791797564
2055938935,16335,3,0,27547.4952593852,55902.2320290948,27789.9244508855,52512.0926756803,60672.6384070133,42266.4660813744,46199.4672285444,50641.1997798816,53776.4988910363,2005.6988089001
2055938935,16335,3,0,27530.7038377695,55890.8187294749,27782.8550190313,52486.2971584157,60660.9695857601,42253.9333536467,46174.8154747811,50627.4259470780,53773.5056376179,2003.1922633546
2055938935,16335,3,0,27402.1521208351,55880.3058394198,27772.2812904922,52450.2929435166,60657.4166182878,42259.4818233980,46121.8373228140,50595.5100783114,53766.4848765511,2010.5780553261
2055970171,16336,3,0,27334.8404220106,55880.7438765055,27772.9140107270,52452.7021474875,60658.1345124003,42263.3998217750,46117.2014303245,50596.9702019302,53767.8233232016,2007.5726342108
2055970171,16336,3,0,27414.0886314184,55880.9020565642,27781.2245476571,52484.3746623177,60651.3692729668,42254.4565646101,46160.8956296156,50627.6327979240,53770.4758811090,1995.5874528402
2055970171,16336,3,0,27523.9020952455,55882.1188262464,27779.6305793733,52496.2746698105,60650.3593541305,42252.6435777835,46185.7298988313,50632.9379137388,53765.8886594067,2001.4522827089
2055970171,16336,3,0,27517.4045451420,55883.3964344129,27774.1916188934,52478.6071740236,60656.1755132119,42263.5823372273,46165.8357145258,50614.9540578345,53765.0612560228,2014.8975876983
2055970171,16336,3,0,27408.7956833005,55882.1674970337,27782.6603358822,52455.0505129744,60655.1290912851,42272.8176191159,46126.8990846923,50603.9544599066,53779.3339643961,2019.2779585545
2055970171,16336,3,0,27343.3091389994,55881.3765967403,27789.9731216728,52450.2077696388,60654.6545511090,42272.5255943922,46116.9094056007,50604.5385093541,53783.4344782254,2019.0589400117
2055970171,16336,3,0,27406.5689947819,55894.9679140915,27793.1123874531,52481.6612659261,60665.8488321861,42277.1858222754,46153.8018623679,50623.3132655519,53782.7774225970,2018.7060768038
2055970171,16336,3,0,27525.7272497689,55901.6236442536,27793.6599338101,52509.1967638365,60669.1827811156,42263.4484925623,46191.6920702745,50646.6265726646,53784.5660740299,2010.4563783579
2056002335,16337,3,0,27543.1270562257,55888.1053330833,27781.9789448601,52492.8555470032,60655.8104823072,42251.1712864679,46178.8064793390,50632.3538642913,53775.3429598382,2004.0805052227
2056002335,16337,3,0,27431.3789286038,55881.8998077036,27772.1231104335,52462.4119695522,60659.1200958430,42265.2736470857,46131.2916232454,50601.2897343023,53770.6218934709,2013.3036194145
2056002335,16337,3,0,27345.4871567307,55886.8155572201,27778.0001079990,52462.0226032539,60666.9925956875,42274.5454320648,46120.6935593126,50602.9080379798,53777.9346792614,2013.6199795318
2056002335,16337,3,0,27397.3823836805,55888.1418361738,27787.7099300637,52482.3304892514,60661.6874798726,42260.1510467232,46153.9722101234,50628.4723690048,53781.4024728560,2001.8903197945
2056002335,16337,3,0,27519.5460597829,55889.0179103451,27783.8162670803,52496.1529928423,60658.2318539749,42254.5417384879,46183.4180364349,50635.9555025509,53771.3154521898,2001.2697672566
2056002335,16337,3,0,27545.0982231110,55888.4095255039,27776.5886551675,52488.5360146311,60660.9939211537,42263.5093310464,46175.4360273191,50624.9680723198,53766.1806841305,2007.4631249394
2056002335,16337,3,0,27444.2523518425,55879.0282312534,27774.5444821013,52460.5624796352,60653.9366569964,42264.5557529732,46138.0933657694,50608.8702094230,53772.1671909674,2007.4266218490
2056002335,16337,3,0,27351.0112910883,55873.9421339814,27774.7026621600,52447.0441684649,60652.3061856222,42263.2416417163,46117.7003058942,50599.8052752899,53773.9436747035,2008.9719193455
2056058670,16338,3,0,27372.3047605284,55879.9894793024,27772.6584890937,52467.1208682227,60655.8713207913,42260.9176116231,46138.5435705519,50608.6390231834,53765.5114608052,2004.0683375258
2056058670,16338,3,0,27489.1876562096,55884.3333470682,27774.5931528886,52491.8456281669,60655.3116067374,42248.6525732256,46179.6582181166,50631.5386286042,53765.2072683846,1991.4504359204
2056058670,16338,3,0,27535.3153948654,55876.2783317714,27769.0933539246,52478.7896894759,60645.0542383157,42244.4182147312,46174.9858225366,50622.4128559870,53762.3356919344,1992.5211932409
2056058670,16338,3,0,27445.4326184343,55872.7131966023,27764.7129830683,52446.1924296873,60646.9889021105,42261.6476734325,46128.2375313429,50591.5069060567,53758.8800660367,2010.8457446562
2056058670,16338,3,0,27346.0833738750,55878.0548155076,27775.1163638519,52443.6007102640,60653.3282721553,42272.6229359668,46110.8377248861,50592.7966819199,53771.4614645516,2018.8277537721
2056058670,16338,3,0,27368.3745944546,55881.0237335324,27784.2543041660,52463.4827268727,60651.1745898176,42259.6035003662,46135.6963294953,50616.5845292088,53777.4479713885,2009.9453350913
2056058670,16338,3,0,27483.5905156711,55883.2504220510,27779.9226040970,52487.6234373694,60652.2818502285,42248.5187285605,46171.9073952404,50629.3484431760,53766.4362057638,2004.0318344354
2056058670,16338,3,0,27536.6903446064,55883.6397883493,27769.2880370738,52490.7627031497,60653.1944274902,42250.5507339299,46177.9790759550,50625.1384200753,53760.7903944379,2001.6834689485
2056063291,16339,3,0,27466.3853923634,55872.0439732771,27765.4795479682,52461.7062431365,60643.5941146969,42250.6602432014,46141.6950040290,50606.6070178140,53765.4871254116,1999.8339790315
2056063291,16339,3,0,27355.1118049176,55864.5608397309,27764.5548030096,52435.5700303608,60640.1141534056,42258.5084076521,46104.3401747826,50584.6443250485,53766.0955102527,2005.3094426018
2056063291,16339,3,0,27352.7634394308,55876.6190272825,27772.9991846047,52456.0847672043,60651.7708069620,42269.4836701864,46122.0076705695,50599.6835983217,53770.0743471138,2012.2328620940
2056063291,16339,3,0,27477.5796734405,55883.2382543542,27782.2101310997,52495.2039124901,60655.7253084294,42257.9000228110,46174.1949222431,50633.7166463355,53774.1261901559,2003.3382757165
2056063291,16339,3,0,27555.2460822614,55877.9453062362,27776.3574689279,52493.6951180840,60649.4224414751,42249.0784426144,46182.5662976573,50632.3295288977,53767.7016462333,2002.7177231785
2056063291,16339,3,0,27489.9785565031,55878.4806848964,27769.0081800468,52464.0181055329,60654.6423834122,42263.5093310464,46144.6274189634,50605.1103911047,53764.3433619102,2016.6619037376
2056063291,16339,3,0,27374.3854366852,55881.4617706180,27775.7004132994,52449.4777078295,60657.7208107084,42267.3178201520,46118.3816969163,50600.2311446787,53773.6638176766,2020.8840945351
2056063291,16339,3,0,27359.9302128595,55879.9529762120,27782.2101310997,52456.1577733853,60650.8460620034,42251.4876465853,46131.9730142675,50614.8688839567,53776.7544126696,2007.8768266314
2056093063,16340,3,0,27459.4376374775,55878.9065542852,27772.6828244874,52476.8550256811,60645.3705984331,42237.8233230531,46166.0547330686,50622.2911790187,53760.0359972349,1995.1859188451
2056093063,16340,3,0,27535.2667240781,55878.3955110186,27762.0604251609,52484.8005317065,60643.9469779048,42237.2757766961,46179.5608765420,50623.7513026375,53754.9498999629,1989.2480827955
2056093063,16340,3,0,27496.4882743034,55869.2575707046,27760.2109352438,52465.3687198802,60639.4084269898,42241.3032843445,46151.0641305827,50611.3767549686,53759.0504137922,1992.6672056027
2056093063,16340,3,0,27386.2002703002,55867.7001055113,27763.2163563591,52449.5020432231,60641.8054632640,42256.8292654906,46116.3740269405,50591.4582352694,53764.1121756706,2009.3612856438
2056093063,16340,3,0,27361.3538333878,55879.2229144026,27773.4007185999,52464.5169811026,60653.9609923901,42269.1186392818,46126.5462214845,50601.7642744784,53770.7800735296,2020.3000450876
2056093063,16340,3,0,27463.5746543973,55882.1553293369,27782.2709695838,52491.6022742305,60651.3571052700,42253.1181179596,46172.7834694117,50630.5530451615,53774.2722025177,2009.1666024947
2056093063,16340,3,0,27544.9157076587,55871.5572654041,27774.8486745218,52484.7761963128,60639.8464640755,42235.8278207742,46180.5464599847,50626.0388296402,53763.5889647072,2002.6203816039
2056093063,16340,3,0,27500.1750864407,55866.4103296480,27762.0604251609,52457.0095121629,60639.4449300803,42245.7566613817,46145.1871330172,50597.7854376173,53752.9300622903,2010.2251921182
2056124713,16341,3,0,27380.6274651553,55863.7699394375,27762.9730024226,52438.8188054126,60640.2601657675,42250.6602432014,46110.0224891989,50586.2869641196,53760.7417236506,2008.3270314139
2056124713,16341,3,0,27338.8070911749,55862.8086913884,27768.7526584135,52442.0797481611,60638.3741727599,42249.4678089127,46112.1761715366,50595.1450474067,53764.7570636022,2003.0219155991
