steady_timestamp,sequence,battery,flags,EEG-ch1,EEG-ch2,EEG-ch3,EEG-ch4,EEG-ch5,EEG-ch6,EEG-ch7,EEG-ch8,EEG-ch9,EEG-ch10
5563896194,7453,-2,0,-6720.2432907045,-80312.0676441415,-36914.9548385858,-12640.1198197895,-80540.9541890779,-41450.8045248484,-80472.6325714171,-80461.5964703987,-80503.1126519585,-2417.0643030901
5563896194,7453,-2,0,-6720.5718185187,-80312.5300166208,-36938.2073072144,-12640.4970183911,-80540.5891581732,-41281.7222097968,-80473.2287885614,-80461.8884951224,-80502.2974162714,-2416.9547938187
5563896194,7453,-2,0,-6719.4523904110,-80310.8387067624,-36950.7035318516,-12639.5966088262,-80539.2385438259,-41281.6005328286,-80472.8150868694,-80461.6329734891,-80502.1514039095,-2416.4194151585
5563896194,7453,-2,0,-6719.0873595063,-80311.4105885131,-36932.8535206123,-12639.3532548897,-80540.5161519923,-41448.0424576696,-80472.5352298425,-80461.3896195527,-80502.1392362127,-2416.7357752759
5563896194,7453,-2,0,-6719.4280550174,-80312.8585444350,-36907.3135249810,-12639.7304534912,-80541.2218784080,-41559.6445729297,-80472.8029191726,-80462.8010723841,-80503.1126519585,-2416.5410921267
5563896194,7453,-2,0,-6719.3550488364,-80312.7977059509,-36905.8655690590,-12640.3145029387,-80543.2538837774,-41463.9699728109,-80474.0318565517,-80463.1296001984,-80504.5971109709,-2417.4658370853
5563896194,7453,-2,0,-6719.5132288951,-80311.9216317797,-36927.4388955261,-12639.4019256770,-80540.1389533907,-41286.8934809466,-80473.2044531678,-80462.7645692937,-80502.7476210539,-2416.2368997062
5563896194,7453,-2,0,-6719.9756013744,-80311.8242902051,-36942.2104794692,-12640.3753414228,-80540.2849657526,-41264.3102356432,-80473.3017947423,-80462.3021968144,-80503.1613227458,-2416.6749367918
5563939910,7454,-2,0,-6720.4136384600,-80312.3109980780,-36929.9089379812,-12641.2514155941,-80540.4553135082,-41428.1726087578,-80474.4698936373,-80462.2900291176,-80503.7332044965,-2417.7578618090
5563939910,7454,-2,0,-6719.6835766507,-80313.4547615793,-36903.9430729610,-12641.0323970513,-80541.9276048237,-41557.6003998634,-80474.5915706056,-80462.8619108682,-80504.7552910296,-2417.6483525376
5563939910,7454,-2,0,-6720.6934954870,-80314.1118172078,-36898.5771186621,-12640.8863846894,-80543.2538837774,-41483.3652815466,-80474.3238812755,-80463.3851218316,-80504.0982354012,-2418.0863896233
5563939910,7454,-2,0,-6719.9025951935,-80313.2479107334,-36918.6538184199,-12640.0224782150,-80541.0150275620,-41301.7502387674,-80473.8980118867,-80462.6793954159,-80503.3925089855,-2417.0156323028
5563939910,7454,-2,0,-6719.0143533254,-80311.5566008750,-36936.6985128084,-12640.0224782150,-80538.3746373514,-41251.8991848838,-80472.1823666346,-80461.7059796701,-80502.6867825697,-2416.7844460632
5563939910,7454,-2,0,-6719.5010611983,-80312.7733705573,-36927.1833738928,-12640.4726829974,-80540.3823073272,-41394.5045916487,-80473.0827761995,-80462.6307246286,-80502.6016086920,-2417.4901724789
5563939910,7454,-2,0,-6719.3307134428,-80312.3475011685,-36900.1102484618,-12640.0468136086,-80540.8081767160,-41540.3952765558,-80472.1945343314,-80461.5721350050,-80503.6967014061,-2417.2103154520
5563939910,7454,-2,0,-6719.5253965920,-80312.2623272907,-36891.1791589937,-12639.6209442198,-80542.8158466918,-41492.0043462909,-80473.6546579502,-80462.3508676017,-80503.8062106774,-2417.6848556281
5563951370,7455,-2,0,-6720.3284645823,-80313.2600784302,-36910.1729337343,-12640.7525400243,-80540.3336365399,-41309.7079124896,-80472.9732669281,-80462.0345074843,-80503.0883165649,-2417.7213587186
5563951370,7455,-2,0,-6720.2676260982,-80312.6638612859,-36929.6655840447,-12640.9472231735,-80539.3845561877,-41234.7914031507,-80473.2166208646,-80463.1296001984,-80504.2077446726,-2417.1129738774
5563951370,7455,-2,0,-6720.0607752522,-80313.6251093349,-36924.0076050220,-12640.6065276625,-80539.9442702416,-41365.2534484863,-80473.0462731091,-80462.6793954159,-80503.6115275283,-2417.6118494472
5563951370,7455,-2,0,-6719.6105704697,-80312.4326750462,-36898.1755846669,-12639.7912919753,-80542.1709587602,-41524.4920968082,-80473.6789933438,-80463.0687617142,-80504.4754340027,-2417.3806632075
5563951370,7455,-2,0,-6719.7079120443,-80313.2844138238,-36885.3873353060,-12640.4726829974,-80542.8401820854,-41502.4929009523,-80473.5573163756,-80461.9858366970,-80503.9643907361,-2417.2103154520
5563951370,7455,-2,0,-6719.9269305871,-80313.6616124253,-36902.0084091662,-12640.5456891783,-80542.1831264570,-41329.0910535285,-80473.4599748010,-80462.6428923254,-80503.5506890442,-2417.6970233249
5563951370,7455,-2,0,-6719.5375642888,-80312.9193829191,-36924.6768283473,-12640.3145029387,-80540.4431458113,-41229.0725856440,-80474.3238812755,-80462.4725445699,-80504.0008938266,-2417.0277999997
5563951370,7455,-2,0,-6718.9900179317,-80313.0532275842,-36922.3162951636,-12640.1684905768,-80540.2484626622,-41334.9315480036,-80474.4698936373,-80463.0687617142,-80504.1834092790,-2416.6140983077
5563965234,7456,-2,0,-6720.3162968855,-80312.9802214033,-36896.3869332340,-12640.3388383324,-80542.2683003348,-41509.5379974128,-80474.1535335199,-80462.5577184477,-80504.1225707948,-2416.7966137600
5563965234,7456,-2,0,-6719.3915519269,-80313.2235753397,-36881.9195417115,-12640.7768754180,-80542.8888528727,-41518.9071239664,-80472.6569068107,-80462.4238737826,-80503.6601983156,-2417.7091910218
5563965234,7456,-2,0,-6719.8539244062,-80313.6372770317,-36895.8393868769,-12640.0954843959,-80542.1344556697,-41352.9032362110,-80473.7519995248,-80462.4238737826,-80502.7354533570,-2417.2346508457
5563965234,7456,-2,0,-6719.4402227142,-80313.5399354571,-36920.8561715449,-12639.3410871929,-80539.9564379384,-41235.4971295665,-80474.1535335199,-80462.5212153572,-80502.9909749903,-2416.0422165570
5563965234,7456,-2,0,-6719.6349058634,-80313.9779725427,-36924.2874620490,-12641.4339310464,-80540.1389533907,-41324.1266332248,-80473.7885026153,-80463.0079232301,-80504.8769679979,-2417.5023401758
5563965234,7456,-2,0,-6720.0242721617,-80313.2479107334,-36901.1445026917,-12640.0833166991,-80541.9519402174,-41500.4243924924,-80474.5185644246,-80462.9349170492,-80505.2176635089,-2416.5775952172
5563965234,7456,-2,0,-6719.4280550174,-80313.1749045524,-36882.7956158827,-12640.0833166991,-80542.5603250585,-41532.8513045255,-80474.1657012168,-80463.0200909269,-80503.7575398902,-2416.9912969092
5563965234,7456,-2,0,-6719.2820426555,-80314.7323697458,-36894.7321264660,-12639.9251366404,-80543.1930452933,-41381.6190007132,-80474.5428998183,-80463.5919726776,-80504.8282972106,-2417.5145078726
5564019396,7457,-2,0,-6720.0729429490,-80314.3065003569,-36920.7709976671,-12639.9738074277,-80542.1101202761,-41248.0055219005,-80474.5063967278,-80463.7866558268,-80504.5362724868,-2417.1373092711
5564019396,7457,-2,0,-6719.7809182252,-80314.0631464205,-36926.8426783818,-12640.3631737260,-80541.9276048237,-41311.5939054972,-80475.0782784785,-80463.7136496459,-80505.3758435676,-2417.1373092711
5564019396,7457,-2,0,-6719.9877690712,-80313.9414694523,-36905.3545257925,-12639.7547888849,-80542.5846604522,-41492.4180479829,-80473.5329809820,-80463.5919726776,-80504.9621418756,-2416.2734027966
5564019396,7457,-2,0,-6718.2356207287,-80313.9171340586,-36885.5211799711,-12638.1973236915,-80542.8888528727,-41548.9856705128,-80473.5938194661,-80463.1904386825,-80505.0594834502,-2415.7136887428
5564019396,7457,-2,0,-6720.4501415505,-80315.6084439170,-36895.6203683341,-12640.5335214815,-80544.5314919438,-41409.7020449805,-80475.5528186546,-80463.8839974014,-80505.3393404771,-2417.5266755694
5564019396,7457,-2,0,-6719.2698749587,-80315.2069099218,-36920.5033083370,-12639.2802487088,-80541.3800584667,-41258.8956105570,-80474.6159059992,-80464.0786805505,-80504.9256387852,-2416.2247320094
5564019396,7457,-2,0,-6719.3672165333,-80314.0144756332,-36930.0184472526,-12639.7182857944,-80541.9154371269,-41298.9516684981,-80474.9566015103,-80463.9935066728,-80504.3294216408,-2416.0665519507
5564019396,7457,-2,0,-6719.5375642888,-80313.8927986650,-36911.7669020181,-12640.4848506942,-80542.1952941538,-41477.6221286462,-80474.6767444833,-80463.3242833475,-80504.7674587265,-2416.5532598236
5564040071,7458,-2,0,-6719.6835766507,-80313.5277677603,-36888.8794642942,-12639.9859751245,-80542.2439649411,-41563.1732050083,-80473.9223472803,-80462.2900291176,-80504.8648003010,-2417.0521353933
5564040071,7458,-2,0,-6720.7665016679,-80314.1726556919,-36894.2210831995,-12640.8742169926,-80543.6432500758,-41443.6255837229,-80475.3824708991,-80463.3121156507,-80504.8769679979,-2418.2689050756
5564040071,7458,-2,0,-6720.8638432425,-80315.4745992520,-36919.5542279848,-12641.5191049242,-80542.1344556697,-41276.5387709503,-80474.3360489723,-80463.6893142522,-80504.2807508535,-2418.4270851343
5564040071,7458,-2,0,-6719.9025951935,-80313.0532275842,-36931.5759124459,-12640.4483476038,-80539.8104255765,-41284.4721092788,-80473.2044531678,-80461.9736690002,-80503.7088691029,-2416.4072474617
5564040071,7458,-2,0,-6719.7809182252,-80313.2235753397,-36915.5753911237,-12640.2901675451,-80540.5648227796,-41458.6648569961,-80473.7033287375,-80462.7645692937,-80504.1469061885,-2416.5775952172
5564040071,7458,-2,0,-6719.4523904110,-80313.5886062444,-36893.0286489108,-12640.4118445133,-80542.6941697236,-41565.5580735856,-80473.8980118867,-80462.6185569318,-80503.7453721933,-2416.7479429727
5564040071,7458,-2,0,-6718.9535148413,-80313.3452523079,-36892.8704688521,-12639.8034596721,-80542.2926357284,-41461.1105640575,-80473.9466826740,-80463.6406434649,-80504.5241047900,-2416.6749367918
5564040071,7458,-2,0,-6718.7223286016,-80312.2988303812,-36915.4050433682,-12639.2315779215,-80539.7009163051,-41282.9633148728,-80472.9124284440,-80461.6208057923,-80502.9423042030,-2416.4437505522
5564064002,7459,-2,0,-6719.6835766507,-80313.6372770317,-36933.1212099424,-12640.7282046307,-80539.6765809115,-41266.1110547730,-80473.4964778915,-80462.6063892350,-80503.5385213473,-2416.3585766744
5564064002,7459,-2,0,-6719.6470735602,-80313.1140660683,-36920.0044327673,-12640.4848506942,-80540.8811828970,-41426.8950005914,-80473.8371734025,-80462.6307246286,-80503.7453721933,-2417.3076570266
5564064002,7459,-2,0,-6720.9855202107,-80314.2699972665,-36897.1534981338,-12641.2027448068,-80543.1687098997,-41559.4620574773,-80474.2508750945,-80464.0178420664,-80505.1689927216,-2417.7213587186
5564064002,7459,-2,0,-6720.0607752522,-80314.6471958680,-36893.5640275710,-12639.8034596721,-80543.7892624376,-41488.1593540949,-80473.5694840724,-80463.4216249221,-80503.8913845552,-2417.3563278139
5564064002,7459,-2,0,-6719.4037196237,-80314.3065003569,-36916.7678254124,-12640.3631737260,-80541.2705491953,-41311.2410422893,-80474.5550675151,-80463.1661032888,-80504.2807508535,-2416.7479429727
5564064002,7459,-2,0,-6719.3063780491,-80314.5255188998,-36936.4673265687,-12640.0954843959,-80540.1389533907,-41270.5644318102,-80474.8835953293,-80463.4946311031,-80504.7431233328,-2417.1008061806
5564064002,7459,-2,0,-6720.2432907045,-80314.0144756332,-36927.7552556435,-12640.2293290610,-80541.9276048237,-41421.6263878670,-80474.2143720041,-80463.8839974014,-80504.9378064820,-2418.1593958042
5564064002,7459,-2,0,-6718.9170117508,-80313.0653952810,-36902.2152600121,-12639.1950748310,-80542.1709587602,-41562.3458016243,-80474.2143720041,-80462.8984139587,-80503.6967014061,-2416.5654275204
5564119063,7460,-2,0,-6719.4158873206,-80313.8197924840,-36893.8195492043,-12640.4848506942,-80542.3656419094,-41508.1265445813,-80473.4356394074,-80462.5212153572,-80505.1689927216,-2416.6992721854
5564119063,7460,-2,0,-6719.4280550174,-80312.7246997700,-36914.2126090796,-12639.4019256770,-80541.6234124032,-41328.5556748683,-80474.2387073977,-80463.3729541348,-80503.4046766823,-2416.7236075791
5564119063,7460,-2,0,-6719.8782597998,-80314.1483202982,-36936.9053636543,-12640.7525400243,-80540.9541890779,-41259.4188215204,-80475.7353341069,-80464.0786805505,-80505.1324896312,-2416.6749367918
5564119063,7460,-2,0,-6718.5398131493,-80313.5399354571,-36929.1423730813,-12640.1928259705,-80540.7108351414,-41386.9362842248,-80474.1778689136,-80462.8132400810,-80504.4145955186,-2415.8840364983
5564119063,7460,-2,0,-6719.3428811396,-80313.7102832126,-36903.7483898118,-12640.1563228800,-80542.1831264570,-41544.9703305612,-80474.5428998183,-80462.5820538413,-80504.5849432741,-2417.2224831488
5564119063,7460,-2,0,-6719.0630241127,-80313.0532275842,-36892.9678104267,-12640.2414967578,-80543.4485669266,-41519.7466950472,-80474.2995458818,-80463.1661032888,-80503.2343289268,-2417.4536693885
5564119063,7460,-2,0,-6719.9025951935,-80313.2844138238,-36910.6839770009,-12640.5213537847,-80541.1488722271,-41338.6670309282,-80474.0196888549,-80463.2877802571,-80503.7818752838,-2417.1859800584
5564119063,7460,-2,0,-6719.8052536189,-80313.0653952810,-36932.8170175218,-12640.3510060292,-80539.5184008528,-41246.8860937928,-80473.8615087962,-80462.7767369905,-80503.5506890442,-2417.2833216329
5564147263,7461,-2,0,-6719.5740673793,-80312.1893211098,-36930.1279565240,-12639.8886335499,-80538.9465191021,-41363.6229771121,-80472.9976023218,-80462.5577184477,-80503.0883165649,-2417.0764707870
5564147263,7461,-2,0,-6720.1337814331,-80312.3961719558,-36906.4374508097,-12639.9616397308,-80541.4165615572,-41536.2217565455,-80474.3117135786,-80462.2291906335,-80503.6845337092,-2417.1859800584
5564147263,7461,-2,0,-6720.0242721617,-80313.3939230952,-36893.8925553853,-12640.0954843959,-80542.6698343299,-41537.1465015040,-80474.6645767865,-80463.3851218316,-80504.2442477631,-2418.1472281074
5564147263,7461,-2,0,-6719.4037196237,-80313.6129416380,-36907.7758974602,-12639.9981428213,-80541.9397725205,-41370.0353533377,-80472.4622236616,-80462.5455507509,-80503.4168443791,-2416.9547938187
5564147263,7461,-2,0,-6719.1725333841,-80313.1505691588,-36931.5637447491,-12640.3510060292,-80540.1267856939,-41251.9478556711,-80474.0805273390,-80462.5333830540,-80502.6259440856,-2417.0521353933
5564147263,7461,-2,0,-6719.5740673793,-80313.3087492175,-36933.4740731503,-12639.5357703420,-80540.9055182906,-41340.4921854516,-80473.7885026153,-80462.8619108682,-80503.2829997141,-2416.6019306109
5564147263,7461,-2,0,-6719.2820426555,-80311.6661101464,-36909.4915427123,-12639.4505964643,-80541.0880337429,-41519.3816641425,-80474.1900366104,-80462.5212153572,-80503.3925089855,-2417.1373092711
5564147263,7461,-2,0,-6718.3329623033,-80312.2501595939,-36891.4833514143,-12639.3775902833,-80541.5139031318,-41550.0929309236,-80472.4743913584,-80461.7911535478,-80502.5407702079,-2416.8331168505
5564159636,7462,-2,0,-6719.4158873206,-80312.0676441415,-36903.9065698705,-12639.1099009532,-80541.8911017333,-41392.5455924602,-80473.8128380089,-80461.5599673082,-80503.3195028045,-2416.9426261219
5564159636,7462,-2,0,-6720.5961539124,-80312.8342090414,-36930.1279565240,-12640.7768754180,-80540.7108351414,-41259.8811939997,-80472.9367638376,-80461.9858366970,-80503.2951674109,-2417.7821972027
5564159636,7462,-2,0,-6720.0607752522,-80312.0919795352,-36935.4939108229,-12639.9616397308,-80539.5062331560,-41325.7692722959,-80472.7542483853,-80461.1097625258,-80503.3195028045,-2416.6627690950
5564159636,7462,-2,0,-6720.0364398585,-80311.7999548114,-36913.8232427812,-12640.1684905768,-80539.8834317575,-41504.3667262630,-80472.8515899599,-80461.5599673082,-80502.0540623350,-2417.1373092711
5564159636,7462,-2,0,-6719.8417567094,-80312.0433087479,-36893.6735368424,-12640.5700245720,-80541.9641079142,-41559.1822004504,-80472.1823666346,-80462.1561844525,-80502.9423042030,-2417.5510109631
5564159636,7462,-2,0,-6719.3307134428,-80312.3961719558,-36901.6555459583,-12640.0589813054,-80540.9663567747,-41418.6087990549,-80473.1192792900,-80461.1462656162,-80502.8571303253,-2417.3563278139
5564159636,7462,-2,0,-6719.4037196237,-80311.3375823322,-36926.0031073010,-12639.8156273690,-80538.5814881974,-41266.9627935506,-80471.9633480918,-80460.3431976259,-80501.9080499731,-2416.4924213395
5564159636,7462,-2,0,-6718.8805086603,-80311.2280730607,-36935.3235630674,-12640.1198197895,-80537.8392586912,-41303.5145548067,-80471.5983171871,-80461.4747934304,-80501.3970067065,-2417.0886384838
5564181353,7463,-2,0,-6720.5718185187,-80312.3596688653,-36916.2689498426,-12640.9228877799,-80540.6743320510,-41484.2170203242,-80473.1922854709,-80461.9615013033,-80503.3195028045,-2416.9426261219
5564181353,7463,-2,0,-6720.7665016679,-80313.6129416380,-36895.0119834930,-12641.5434403178,-80543.3390576552,-41563.5382359130,-80474.6280736960,-80463.2512771666,-80504.4632663059,-2417.7943648995
5564181353,7463,-2,0,-6720.9976879075,-80314.0023079364,-36898.3702678161,-12640.7403723275,-80543.5459085012,-41434.5119788025,-80475.1269492658,-80463.5554695872,-80504.5971109709,-2418.4027497407
5564181353,7463,-2,0,-6719.5618996824,-80313.8806309682,-36921.3307117210,-12640.2414967578,-80540.4309781145,-41270.4792579324,-80473.7641672216,-80462.6550600223,-80503.6601983156,-2416.1395581316
5564181353,7463,-2,0,-6720.0972783426,-80313.9414694523,-36934.6056689548,-12640.8985523862,-80540.3823073272,-41285.0196556358,-80473.6789933438,-80462.7280662032,-80504.0252292203,-2416.9791292124
5564181353,7463,-2,0,-6720.2919614918,-80314.5985250807,-36918.4347998771,-12641.0445647481,-80542.0614494888,-41457.3629134360,-80475.2851293245,-80464.3950406679,-80505.3150050835,-2417.4171662980
5564181353,7463,-2,0,-6719.1725333841,-80313.7224509095,-36893.4910213901,-12639.6696150071,-80543.5580761980,-41559.1335296631,-80474.6280736960,-80462.8497431714,-80504.1834092790,-2416.9182907283
5564181353,7463,-2,0,-6719.7444151348,-80315.1339037409,-36895.8150514833,-12640.7647077212,-80544.3733118851,-41457.9591305803,-80475.8448433783,-80464.3585375775,-80505.6435328977,-2417.0156323028
5564216372,7464,-2,0,-6718.2842915160,-80313.5886062444,-36918.5199737549,-12639.4992672516,-80540.6986674446,-41283.7907182567,-80473.5208132852,-80462.4360414795,-80503.2586643204,-2415.9570426792
5564216372,7464,-2,0,-6720.1581168268,-80314.5985250807,-36935.0558737373,-12640.3631737260,-80541.6964185841,-41271.9272138544,-80474.8105891484,-80463.2391094698,-80504.4145955186,-2415.9935457697
5564216372,7464,-2,0,-6720.2432907045,-80314.6593635648,-36922.0851089240,-12640.4483476038,-80542.0979525792,-41436.5683195656,-80474.8227568452,-80464.1273513378,-80505.1568250248,-2417.8187002932
5564216372,7464,-2,0,-6719.5132288951,-80314.3916742347,-36899.3923543492,-12640.4118445133,-80543.6310823789,-41560.1434484994,-80475.1999554467,-80464.1151836410,-80505.6557005945,-2417.8065325963
5564216372,7464,-2,0,-6720.2432907045,-80314.5863573839,-36896.9466472878,-12640.9593908703,-80545.0912059977,-41477.3787747097,-80476.4532282195,-80463.9570035823,-80506.0815699833,-2418.3054081661
5564216372,7464,-2,0,-6719.1847010809,-80314.2213264792,-36918.3374583025,-12639.6939504007,-80542.9253559632,-41299.8399103662,-80474.2022043072,-80462.9227493524,-80505.1689927216,-2416.5775952172
5564216372,7464,-2,0,-6719.5740673793,-80314.9027175013,-36937.0635437130,-12639.4505964643,-80539.7374193956,-41263.5923415307,-80474.5550675151,-80463.2269417729,-80504.1225707948,-2416.0543842538
5564216372,7464,-2,0,-6719.8782597998,-80314.3065003569,-36928.3271373942,-12639.9494720340,-80541.5382385254,-41415.4817009714,-80474.5185644246,-80464.0786805505,-80505.3880112644,-2417.7335264154
5564264848,7465,-2,0,-6719.9390982839,-80313.9536371491,-36903.5902097531,-12640.4726829974,-80541.8059278555,-41558.8293372425,-80474.7984214516,-80463.1782709856,-80504.6944525455,-2417.4901724789
5564264848,7465,-2,0,-6720.1581168268,-80313.8319601809,-36897.7253798845,-12640.4726829974,-80544.1907964328,-41504.3667262630,-80474.5794029087,-80463.1174325015,-80504.7309556360,-2418.6704390708
5564264848,7465,-2,0,-6720.3162968855,-80313.1627368556,-36918.6781538136,-12640.4848506942,-80541.5017354349,-41323.0680436012,-80473.8858441898,-80462.0466751811,-80503.6967014061,-2416.9061230314
5564264848,7465,-2,0,-6720.0121044649,-80313.7346186063,-36939.9229524664,-12640.0833166991,-80541.4287292540,-41259.3093122490,-80474.4698936373,-80463.4459603158,-80504.2807508535,-2416.9426261219
5564264848,7465,-2,0,-6719.4158873206,-80314.0388110269,-36934.7638490135,-12640.0346459118,-80540.7351705351,-41397.7533667004,-80475.1756200531,-80463.4824634062,-80505.0108126629,-2416.9426261219
5564264848,7465,-2,0,-6719.6227381665,-80315.3042514964,-36909.6618904678,-12639.4870995548,-80542.9010205696,-41554.8139972909,-80474.6280736960,-80463.8231589173,-80504.7917941201,-2416.5897629140
5564264848,7465,-2,0,-6720.7908370615,-80315.9369717312,-36899.8425591317,-12640.0711490023,-80544.7626781835,-41524.3582521431,-80475.6866633196,-80465.1007670837,-80505.2906696899,-2417.5996817503
5564264848,7465,-2,0,-6719.0386887190,-80314.9270528949,-36918.1792782438,-12639.7182857944,-80543.3268899584,-41349.1555855896,-80475.2729616276,-80463.3607864380,-80505.1081542375,-2416.4802536426
5564269578,7466,-2,0,-6718.8440055699,-80313.7346186063,-36942.0401317136,-12640.2536644546,-80540.7960090192,-41261.8036900977,-80474.0440242485,-80462.0101720907,-80503.4533474696,-2416.1152227379
5564269578,7466,-2,0,-6719.4037196237,-80313.7224509095,-36940.3853249457,-12640.3631737260,-80542.1709587602,-41376.7762573777,-80473.9345149771,-80463.2391094698,-80504.4145955186,-2416.8331168505
5564269578,7466,-2,0,-6721.2288741472,-80314.9027175013,-36917.2788686789,-12642.2004959463,-80544.0812871614,-41547.3186960480,-80476.7209175496,-80465.5996426534,-80506.3979301007,-2418.9502960977
5564269578,7466,-2,0,-6719.7809182252,-80314.1726556919,-36902.4464462518,-12640.0711490023,-80543.5094054107,-41542.9626605854,-80475.6014894419,-80464.2976990934,-80505.0838188439,-2417.5631786599
5564269578,7466,-2,0,-6719.5618996824,-80314.2821649633,-36917.4370487376,-12640.3875091196,-80543.0957037187,-41370.0110179441,-80474.2630427914,-80463.2756125602,-80504.4267632154,-2417.2589862393
5564269578,7466,-2,0,-6719.5862350761,-80315.3164191933,-36941.2492314201,-12639.7791242785,-80541.6112447063,-41258.2142195349,-80474.9931046007,-80464.1760221251,-80504.9743095725,-2416.8817876378
5564269578,7466,-2,0,-6719.3428811396,-80313.0288921905,-36941.3344052979,-12639.3289194961,-80540.5891581732,-41353.6941365045,-80473.7519995248,-80462.7889046873,-80504.2564154599,-2416.4072474617
5564269578,7466,-2,0,-6720.2554584013,-80314.7688728362,-36920.6858237894,-12641.1175709290,-80541.6720831905,-41530.3934297673,-80475.1512846594,-80464.0786805505,-80505.0838188439,-2417.3806632075
5564310280,7467,-2,0,-6720.1946199172,-80312.6516935890,-36900.9984903298,-12639.9129689436,-80542.4508157871,-41552.2222778677,-80473.7519995248,-80463.3972895285,-80503.9522230393,-2418.0498865328
5564310280,7467,-2,0,-6719.7565828316,-80313.8441278777,-36913.5068826638,-12640.5943599656,-80542.9131882664,-41394.3585792868,-80474.6159059992,-80463.4094572253,-80505.1446573280,-2417.6118494472
5564310280,7467,-2,0,-6719.2090364746,-80314.0144756332,-36938.6088412096,-12639.9373043372,-80541.0758660461,-41261.5968392517,-80474.0318565517,-80463.2877802571,-80504.4876016995,-2416.3585766744
5564310280,7467,-2,0,-6720.0486075553,-80314.6958666553,-36943.0865536404,-12640.9228877799,-80542.6211635426,-41328.7990288048,-80476.1003650116,-80464.7114007853,-80506.0937376802,-2417.5023401758
5564310280,7467,-2,0,-6720.3771353696,-80315.3650899806,-36920.5033083370,-12640.6065276625,-80543.8014301345,-41509.7448482588,-80475.5528186546,-80463.9691712791,-80505.8625514405,-2417.6118494472
5564310280,7467,-2,0,-6720.0851106458,-80315.3042514964,-36902.0935830439,-12640.0346459118,-80544.5071565502,-41561.5427336340,-80476.4897313100,-80464.6140592108,-80505.5461913231,-2417.6970233249
5564310280,7467,-2,0,-6719.5132288951,-80313.7224509095,-36910.3189460962,-12640.1928259705,-80542.9983621441,-41412.8899815481,-80474.4942290310,-80463.7866558268,-80504.1712415821,-2416.8574522441
5564310280,7467,-2,0,-6719.2333718682,-80313.7224509095,-36934.1554641724,-12639.5479380389,-80540.9420213811,-41264.3345710369,-80473.6668256470,-80462.3873706922,-80503.8670491616,-2416.7479429727
5564385134,7468,-2,0,-6719.7809182252,-80311.9703025669,-36942.9892120658,-12639.5114349484,-80539.3358854004,-41311.8250917368,-80473.0097700186,-80461.5843027018,-80504.0982354012,-2417.0277999997
5564385134,7468,-2,0,-6720.5718185187,-80313.5277677603,-36923.8250895697,-12640.7647077212,-80541.5382385254,-41489.8384962564,-80474.2265397009,-80463.8718297046,-80504.1347384917,-2417.3319924202
5564385134,7468,-2,0,-6719.7809182252,-80313.4425938825,-36901.5460366869,-12640.6917015402,-80543.3268899584,-41562.4796462894,-80473.7276641311,-80464.0543451569,-80504.5971109709,-2417.4415016916
5564385134,7468,-2,0,-6720.9003463330,-80315.2799161028,-36906.6808047462,-12640.8377139021,-80543.7040885599,-41435.8869285435,-80475.2486262340,-80463.5676372840,-80505.2541665994,-2417.5266755694
5564385134,7468,-2,0,-6719.1847010809,-80313.7102832126,-36931.7949309887,-12639.5114349484,-80541.3192199826,-41273.2048220208,-80474.7740860579,-80462.7158985064,-80503.9522230393,-2416.8696199410
5564385134,7468,-2,0,-6719.3793842301,-80313.6981155158,-36944.3276587163,-12639.0125593787,-80540.8446798065,-41290.3977776316,-80474.2387073977,-80463.3242833475,-80503.6358629219,-2416.4680859458
5564385134,7468,-2,0,-6718.1139437605,-80313.2235753397,-36926.2586289343,-12639.2194102246,-80541.2097107112,-41466.9753939261,-80474.3482166691,-80462.8375754746,-80503.9157199489,-2416.1395581316
5564385134,7468,-2,0,-6719.8052536189,-80314.3551711442,-36904.4419485307,-12641.1784094131,-80543.2782191711,-41565.9231044903,-80474.6037383024,-80463.7501527363,-80504.3294216408,-2417.5145078726
5564390270,7469,-2,0,-6720.3162968855,-80314.1604879951,-36904.4419485307,-12639.8156273690,-80542.2439649411,-41454.3574923207,-80474.2022043072,-80463.2269417729,-80504.3050862472,-2416.8574522441
5564390270,7469,-2,0,-6720.2189553109,-80315.1217360441,-36928.9841930226,-12641.0080616576,-80541.8180955523,-41284.3139292201,-80474.6159059992,-80463.4459603158,-80504.5362724868,-2417.7578618090
5564390270,7469,-2,0,-6720.2554584013,-80314.7810405331,-36943.7801123593,-12641.1054032322,-80540.8325121097,-41277.6947021484,-80475.1269492658,-80464.2125252156,-80504.9864772693,-2418.1837311978
5564390270,7469,-2,0,-6719.1360302936,-80313.7832893936,-36928.8746837512,-12639.4870995548,-80541.3557230731,-41442.3723109501,-80474.9566015103,-80463.3851218316,-80504.3294216408,-2416.4194151585
5564390270,7469,-2,0,-6720.0486075553,-80313.9901402396,-36904.8191471322,-12640.4970183911,-80543.8744363154,-41563.1488696147,-80474.7740860579,-80463.0079232301,-80504.6822848487,-2417.2589862393
5564390270,7469,-2,0,-6719.1968687777,-80313.7711216967,-36903.3590235135,-12639.7182857944,-80542.9375236600,-41479.6176309252,-80474.8835953293,-80463.7379850395,-80503.5750244378,-2416.9061230314
5564390270,7469,-2,0,-6719.2820426555,-80313.7224509095,-36926.7210014135,-12639.5722734325,-80540.9541890779,-41302.1761081562,-80473.5816517693,-80463.0565940174,-80503.8427137679,-2416.5654275204
5564390270,7469,-2,0,-6719.6835766507,-80313.0410598874,-36944.4736710782,-12640.2293290610,-80540.5039842954,-41265.3079867827,-80473.7398318280,-80462.2048552398,-80504.2929185504,-2416.8452845473
5564403960,7470,-2,0,-6719.7687505284,-80313.6737801222,-36933.1820484265,-12639.9859751245,-80540.8811828970,-41423.0135053048,-80473.9710180676,-80462.8132400810,-80504.0617323107,-2416.9791292124
5564403960,7470,-2,0,-6719.8052536189,-80313.9414694523,-36908.8709901743,-12640.3023352419,-80542.5603250585,-41563.8424283336,-80474.4333905469,-80463.2269417729,-80504.2320800663,-2417.5266755694
5564403960,7470,-2,0,-6720.1216137363,-80313.7102832126,-36903.1643403643,-12640.1928259705,-80543.0105298410,-41502.4929009523,-80473.6059871629,-80462.8254077778,-80503.4776828632,-2417.9160418677
5564403960,7470,-2,0,-6721.3140480249,-80315.0365621663,-36924.6403252568,-12639.9008012467,-80542.2926357284,-41324.5890057041,-80474.4455582437,-80463.3121156507,-80503.9765584330,-2417.4171662980
5564403960,7470,-2,0,-6719.2942103523,-80314.0023079364,-36945.5200930050,-12640.1198197895,-80541.4530646476,-41267.4616691203,-80475.1999554467,-80463.5919726776,-80504.3172539440,-2417.5875140535
5564403960,7470,-2,0,-6719.2455395650,-80313.9901402396,-36938.3289841826,-12638.9638885914,-80540.8933505938,-41404.5794446181,-80474.4942290310,-80463.3972895285,-80505.3150050835,-2417.1008061806
5564403960,7470,-2,0,-6719.4888935015,-80314.7567051394,-36914.2369444732,-12640.0103105181,-80542.4021449998,-41560.3502993454,-80475.1391169626,-80463.5311341935,-80505.1933281153,-2417.4171662980
5564403960,7470,-2,0,-6719.5375642888,-80313.4547615793,-36904.6366316799,-12639.7791242785,-80542.8280143886,-41527.6313625885,-80474.2143720041,-80462.7280662032,-80504.3659247313,-2415.8110303174
5564435151,7471,-2,0,-6720.3649676727,-80315.0365621663,-36924.6038221664,-12640.2536644546,-80542.1222879729,-41350.8103923575,-80474.9079307230,-80462.8254077778,-80504.4632663059,-2417.2833216329
5564435151,7471,-2,0,-6719.4158873206,-80313.8197924840,-36946.4205025699,-12640.1319874864,-80540.4918165986,-41265.6973530810,-80474.8714276325,-80463.3972895285,-80504.4389309122,-2417.2589862393
5564435151,7471,-2,0,-6719.2820426555,-80312.8342090414,-36942.7945289167,-12639.8277950658,-80540.0537795130,-41386.6929302884,-80473.0949438963,-80462.2170229366,-80503.1491550490,-2416.2612350998
5564435151,7471,-2,0,-6719.2455395650,-80312.8585444350,-36918.6781538136,-12640.0224782150,-80541.5139031318,-41554.7166557164,-80473.7519995248,-80463.4824634062,-80503.0761488681,-2417.1981477552
5564435151,7471,-2,0,-6719.1481979904,-80311.7877871146,-36904.4784516212,-12638.8908824104,-80541.9154371269,-41545.2866906786,-80472.5352298425,-80461.8033212447,-80502.3582547555,-2417.2224831488
5564435151,7471,-2,0,-6717.7854159463,-80311.8851286892,-36920.7953330608,-12639.0125593787,-80541.6112447063,-41375.0971152161,-80473.3017947423,-80461.3774518558,-80502.0297269413,-2416.4924213395
5564435151,7471,-2,0,-6719.0265210222,-80313.1870722492,-36944.2424848386,-12639.2437456183,-80539.5305685496,-41269.5666806707,-80473.1679500773,-80461.9615013033,-80502.9909749903,-2415.9205395888
5564435151,7471,-2,0,-6719.2577072619,-80313.5399354571,-36945.4592545209,-12639.9494720340,-80539.8955994543,-41367.3584600367,-80472.7664160821,-80461.7424827605,-80503.5385213473,-2416.2977381903
5564463062,7472,-2,0,-6719.9877690712,-80313.6981155158,-36922.7056614620,-12639.9738074277,-80542.3169711221,-41544.1307594804,-80473.7519995248,-80463.1052648047,-80504.4024278218,-2417.2833216329
5564463062,7472,-2,0,-6719.6592412570,-80314.6836989585,-36907.6298850984,-12640.6551984498,-80543.3877284425,-41565.2660488618,-80474.0683596422,-80463.4581280126,-80504.1590738853,-2418.5730974962
5564463062,7472,-2,0,-6719.7322474379,-80313.4790969730,-36919.5177248944,-12639.9616397308,-80542.0736171856,-41401.2333279918,-80473.3504655296,-80462.2413583303,-80503.4533474696,-2417.5510109631
5564463062,7472,-2,0,-6719.3063780491,-80312.0798118384,-36943.8774539339,-12639.9251366404,-80539.2507115227,-41269.9682146659,-80471.7443295490,-80461.2922779781,-80502.3095839682,-2416.8939553346
5564463062,7472,-2,0,-6720.3527999759,-80313.5156000635,-36948.4890110298,-12641.4095956528,-80539.5305685496,-41347.9996543914,-80473.9831857644,-80462.2048552398,-80503.4046766823,-2417.1129738774
5564463062,7472,-2,0,-6719.5984027729,-80312.1041472320,-36925.6259086995,-12640.1076520927,-80541.3557230731,-41527.5583564076,-80473.7885026153,-80462.2900291176,-80503.2829997141,-2416.1517258284
5564463062,7472,-2,0,-6719.2090364746,-80312.2744949875,-36906.5591277779,-12638.9273855009,-80541.3922261635,-41570.6806739481,-80472.3405466933,-80461.4382903400,-80502.4677640269,-2416.3099058871
5564463062,7472,-2,0,-6719.2942103523,-80313.7589539999,-36917.0841855298,-12640.0103105181,-80542.4629834839,-41425.3497030948,-80473.2896270455,-80462.7037308096,-80504.4267632154,-2417.1129738774
5564517908,7473,-2,0,-6719.5618996824,-80313.6372770317,-36942.5511749802,-12639.9008012467,-80541.0636983493,-41282.7199609363,-80474.4333905469,-80463.1661032888,-80504.1712415821,-2416.5045890363
5564517908,7473,-2,0,-6720.1824522204,-80313.6494447285,-36950.7643703357,-12640.3510060292,-80540.4918165986,-41331.2569035630,-80474.1413658231,-80464.0178420664,-80504.5241047900,-2417.2103154520
5564517908,7473,-2,0,-6719.8417567094,-80314.1848233887,-36929.7994287098,-12640.4483476038,-80541.4895677381,-41510.3654007967,-80473.6059871629,-80462.2048552398,-80503.9278876457,-2417.3198247234
5564517908,7473,-2,0,-6719.9756013744,-80312.9680537064,-36908.7493132061,-12640.8377139021,-80543.4485669266,-41581.9357935093,-80474.6767444833,-80462.6185569318,-80503.4411797728,-2417.8187002932
5564517908,7473,-2,0,-6719.9999367681,-80313.5399354571,-36914.7479877398,-12640.5821922688,-80543.3268899584,-41449.1983888678,-80473.8858441898,-80463.1904386825,-80504.8404649074,-2417.7213587186
5564517908,7473,-2,0,-6719.3915519269,-80313.4790969730,-36939.1807229602,-12639.8642981563,-80540.5648227796,-41290.6289638712,-80474.1413658231,-80462.3630352985,-80503.7818752838,-2416.8331168505
5564517908,7473,-2,0,-6718.8196701762,-80313.0897306747,-36950.3506686437,-12639.8399627626,-80538.9708544958,-41317.9211078451,-80472.9610992313,-80461.9371659097,-80503.0396457776,-2416.4315828553
5564517908,7473,-2,0,-6719.5253965920,-80313.0775629778,-36934.2041349597,-12639.8521304594,-80541.1002014398,-41493.4766376065,-80472.9854346249,-80460.8664085893,-80503.3925089855,-2416.2247320094
5564569148,7474,-2,0,-6718.9048440540,-80313.1140660683,-36911.8764112896,-12639.8399627626,-80542.1101202761,-41587.3869216860,-80473.7033287375,-80462.4847122667,-80504.0252292203,-2416.6140983077
5564569148,7474,-2,0,-6720.5109800346,-80314.8175436235,-36914.0179259304,-12640.8012108116,-80543.6554177726,-41476.3810235703,-80474.3725520627,-80464.2855313965,-80504.6336140614,-2418.3054081661
5564569148,7474,-2,0,-6721.1315325726,-80313.8441278777,-36937.7205993415,-12640.4848506942,-80541.4165615572,-41305.4857216920,-80475.3216324149,-80463.5433018903,-80504.9743095725,-2418.2202342883
5564569148,7474,-2,0,-6719.6835766507,-80313.5521031539,-36951.4700967514,-12640.0224782150,-80539.4818977623,-41299.8520780630,-80473.3626332265,-80462.3386999049,-80503.6236952251,-2416.0300488602
5564569148,7474,-2,0,-6720.6569923965,-80314.1239849046,-36937.8544440065,-12640.8377139021,-80541.2462138016,-41471.1610816332,-80474.5915706056,-80463.1904386825,-80504.2199123694,-2417.1616446647
5564569148,7474,-2,0,-6719.9877690712,-80314.7323697458,-36915.7579065761,-12640.7282046307,-80544.0812871614,-41592.8258821658,-80475.0904461753,-80462.8375754746,-80504.5849432741,-2417.1859800584
5564569148,7474,-2,0,-6718.7831670858,-80313.8076247872,-36912.8133239449,-12639.3897579802,-80543.9231071027,-41500.3635540083,-80473.9831857644,-80463.4702957094,-80504.1590738853,-2415.8597011047
5564569148,7474,-2,0,-6719.1481979904,-80314.9513882886,-36936.6620097179,-12639.4140933738,-80542.7185051172,-41323.8467761979,-80476.0030234370,-80464.4072083648,-80505.6557005945,-2416.5654275204
5564611749,7475,-2,0,-6720.2432907045,-80315.8761332471,-36955.0717350110,-12640.2171613641,-80541.6355801000,-41296.9561662192,-80475.2729616276,-80463.9448358855,-80505.5218559295,-2417.1981477552
5564611749,7475,-2,0,-6719.9025951935,-80315.6084439170,-36943.9991309021,-12640.4726829974,-80542.5603250585,-41454.1993122620,-80475.0296076912,-80463.8231589173,-80505.5096882327,-2417.3563278139
5564611749,7475,-2,0,-6720.9611848171,-80316.5331888755,-36919.8949234959,-12640.8133785085,-80544.8843551517,-41590.3315043171,-80475.8083402879,-80464.4802145457,-80505.8625514405,-2418.3784143470
5564611749,7475,-2,0,-6720.2432907045,-80315.6206116138,-36914.1517705954,-12640.0954843959,-80544.8478520612,-41525.9035496396,-80475.7353341069,-80464.5410530298,-80504.8769679979,-2417.1373092711
5564611749,7475,-2,0,-6719.6714089538,-80314.9513882886,-36935.3357307642,-12640.1198197895,-80543.5337408044,-41345.1037425475,-80474.7010798770,-80464.3463698806,-80505.1568250248,-2417.3684955107
5564611749,7475,-2,0,-6719.1360302936,-80314.0388110269,-36954.8527164682,-12639.4870995548,-80541.1245368334,-41286.9543194307,-80474.5672352119,-80463.5554695872,-80504.8891356947,-2416.4194151585
5564611749,7475,-2,0,-6719.4767258047,-80315.7301208852,-36948.3186632743,-12640.4483476038,-80542.0979525792,-41431.8229178046,-80475.7231664101,-80463.8109912204,-80505.2298312057,-2416.8331168505
5564611749,7475,-2,0,-6718.3572976970,-80314.4038419315,-36923.3870524841,-12639.1342363469,-80542.9861944473,-41586.4013382433,-80473.8980118867,-80463.4946311031,-80505.2785019930,-2416.9304584251
5564630442,7476,-2,0,-6719.9025951935,-80316.2046610613,-36915.6483973047,-12641.1540740195,-80545.5535784770,-41548.4624595494,-80475.8691787720,-80465.1737732646,-80506.7021225213,-2417.7578618090
5564630442,7476,-2,0,-6719.4523904110,-80316.8860520834,-36935.6155877911,-12640.4240122101,-80544.7383427898,-41370.8992598122,-80476.6235759750,-80465.4292948979,-80506.5196070690,-2417.1859800584
5564630442,7476,-2,0,-6720.7178308806,-80317.0563998389,-36958.1379946104,-12641.3365894718,-80543.5945792885,-41292.8434846930,-80476.2098742830,-80465.6118103502,-80507.3348427561,-2417.7335264154
5564630442,7476,-2,0,-6719.6835766507,-80315.5841085234,-36953.9523069033,-12640.5456891783,-80541.8180955523,-41412.5006152498,-80474.9079307230,-80464.6505623012,-80505.5826944136,-2417.0521353933
5564630442,7476,-2,0,-6719.8052536189,-80314.9027175013,-36928.7530067830,-12640.1076520927,-80543.7040885599,-41575.9127835819,-80475.4554770800,-80464.1516867315,-80505.7652098659,-2416.8331168505
5564630442,7476,-2,0,-6719.1603656873,-80315.6206116138,-36916.1229374808,-12640.4118445133,-80544.5558273375,-41560.9100133992,-80475.5649863514,-80464.6262269076,-80504.8526326042,-2417.6605202345
5564630442,7476,-2,0,-6719.1116949000,-80315.3894253742,-36932.5614958886,-12639.8886335499,-80543.1200391124,-41382.2152178575,-80474.8227568452,-80463.6649788586,-80505.4245143549,-2416.3464089776
5564630442,7476,-2,0,-6719.3915519269,-80314.3308357506,-36955.1812442824,-12640.0103105181,-80541.4652323445,-41270.7712826562,-80473.3017947423,-80462.6063892350,-80504.4754340027,-2416.3464089776
5564636432,7477,-2,0,-6720.0486075553,-80315.8152947630,-36954.8648841650,-12640.8377139021,-80542.4629834839,-41372.2255387659,-80475.8570110752,-80465.2102763551,-80505.9112222278,-2417.2346508457
5564636432,7477,-2,0,-6719.1360302936,-80314.9270528949,-36929.4222301082,-12639.9251366404,-80542.6576666331,-41544.6904735343,-80473.9223472803,-80463.0565940174,-80504.6822848487,-2417.0886384838
5564636432,7477,-2,0,-6719.5375642888,-80314.3186680538,-36913.4460441797,-12640.3023352419,-80544.5679950343,-41556.5661456334,-80475.2486262340,-80463.9813389760,-80503.7453721933,-2416.5410921267
5564636432,7477,-2,0,-6719.1725333841,-80315.2312453155,-36925.8935980296,-12640.3631737260,-80543.4729023202,-41392.9957972426,-80475.5284832609,-80463.7501527363,-80504.6457817582,-2417.9403772614
5564636432,7477,-2,0,-6720.0972783426,-80316.1438225772,-36950.3019978564,-12639.9859751245,-80542.3534742125,-41268.2890725043,-80476.2707127671,-80464.7844069663,-80505.8990545310,-2417.1494769679
5564636432,7477,-2,0,-6720.5231477314,-80316.3993442105,-36951.9324692307,-12639.9616397308,-80543.4972377139,-41342.2199984005,-80475.7840048942,-80464.5897238171,-80506.1302407706,-2417.2711539361
5564636432,7477,-2,0,-6719.5618996824,-80315.3894253742,-36928.7286713893,-12639.8277950658,-80544.0812871614,-41515.2446472227,-80475.3216324149,-80463.9448358855,-80505.2176635089,-2417.5631786599
5564636432,7477,-2,0,-6718.3694653938,-80314.6106927775,-36908.9926671425,-12639.0125593787,-80542.9010205696,-41552.7819919215,-80474.8227568452,-80463.6406434649,-80505.4001789613,-2416.8209491537
5564657683,7478,-2,0,-6720.0607752522,-80315.8761332471,-36918.9458431437,-12641.1540740195,-80544.4706534597,-41398.3374161479,-80475.9543526497,-80464.3342021838,-80506.2640854357,-2417.2589862393
5564657683,7478,-2,0,-6720.3649676727,-80315.4867669488,-36941.7967777772,-12640.9837262640,-80542.6454989363,-41252.1303711234,-80475.0417753880,-80464.6018915139,-80505.0351480566,-2417.5510109631
5564657683,7478,-2,0,-6719.8295890125,-80314.3673388411,-36947.4790921935,-12640.2171613641,-80541.2827168921,-41305.1450261810,-80475.2242908404,-80464.7479038758,-80505.4975205358,-2417.1738123615
5564657683,7478,-2,0,-6720.0364398585,-80314.3673388411,-36925.6380763963,-12640.1684905768,-80542.5603250585,-41480.6640528519,-80475.1269492658,-80463.4216249221,-80505.2298312057,-2417.5875140535
5564657683,7478,-2,0,-6720.5474831251,-80315.2920837996,-36902.9939926088,-12640.5213537847,-80544.1177902519,-41540.7116366732,-80474.7375829674,-80463.4824634062,-80505.7895452596,-2417.9403772614
5564657683,7478,-2,0,-6719.4767258047,-80315.3042514964,-36909.7348966487,-12639.8034596721,-80544.3368087947,-41403.4235134199,-80475.2242908404,-80464.4437114552,-80505.8625514405,-2417.1738123615
5564657683,7478,-2,0,-6719.6957443475,-80314.5498542934,-36932.8900237028,-12639.3410871929,-80541.6720831905,-41245.9613488342,-80473.4843101947,-80462.9470847460,-80504.9743095725,-2416.2125643125
5564657683,7478,-2,0,-6719.9512659808,-80315.4259284647,-36942.8066966135,-12640.7160369339,-80542.1222879729,-41272.5234309987,-80473.9466826740,-80464.2976990934,-80505.1203219343,-2416.6506013982
5564682380,7479,-2,0,-6719.5862350761,-80315.1825745282,-36923.4600586650,-12640.4726829974,-80541.4774000413,-41448.0789607601,-80474.9687692071,-80463.2877802571,-80505.0473157534,-2416.5410921267
5564682380,7479,-2,0,-6719.8782597998,-80315.6449470075,-36900.5847886379,-12641.0567324449,-80544.2759703106,-41541.3808599984,-80475.4433093832,-80464.4923822425,-80505.1081542375,-2418.1350604106
5564682380,7479,-2,0,-6720.2432907045,-80315.6571147043,-36903.9795760515,-12640.1319874864,-80544.3733118851,-41421.8089033194,-80475.1391169626,-80463.8718297046,-80505.5218559295,-2417.4780047821
5564682380,7479,-2,0,-6718.5154777557,-80314.5741896871,-36926.5628213548,-12639.1099009532,-80541.3192199826,-41250.0010241794,-80474.1778689136,-80462.9957555333,-80504.2320800663,-2416.2368997062
5564682380,7479,-2,0,-6719.0021856286,-80313.8319601809,-36940.6043434885,-12639.4384287675,-80540.6864997478,-41253.3106377153,-80474.3847197596,-80464.1030159442,-80504.1104030980,-2416.9791292124
5564682380,7479,-2,0,-6718.9656825381,-80313.6251093349,-36923.9954373252,-12640.5700245720,-80541.6842508873,-41421.7237294416,-80474.1048627327,-80461.9371659097,-80503.6236952251,-2416.1517258284
5564682380,7479,-2,0,-6717.6880743717,-80312.3961719558,-36898.6257894494,-12638.5866899899,-80541.9032694301,-41529.4565171119,-80473.0462731091,-80462.0345074843,-80503.2951674109,-2416.9912969092
5564682380,7479,-2,0,-6720.3041291886,-80314.0266433300,-36897.2630074052,-12640.0468136086,-80542.9010205696,-41434.6093203771,-80473.5086455883,-80463.2026063793,-80503.9643907361,-2417.7578618090
5564751538,7480,-2,0,-6719.8052536189,-80314.3673388411,-36920.0166004641,-12640.8133785085,-80541.3800584667,-41258.9321136475,-80474.1291981263,-80462.5333830540,-80505.0716511470,-2417.2833216329
5564751538,7480,-2,0,-6720.3527999759,-80314.6958666553,-36936.0414571799,-12641.0567324449,-80541.1245368334,-41231.9441620942,-80475.1756200531,-80464.1516867315,-80503.9765584330,-2417.4293339948
5564751538,7480,-2,0,-6719.7687505284,-80315.2069099218,-36922.7056614620,-12640.4118445133,-80541.9884433078,-41390.0512146115,-80474.6524090897,-80463.4581280126,-80504.1347384917,-2417.4658370853
5564751538,7480,-2,0,-6719.8295890125,-80314.5376865966,-36897.5185290385,-12640.6673661466,-80542.8280143886,-41521.8638742944,-80474.1900366104,-80462.7158985064,-80504.2320800663,-2417.5266755694
5564751538,7480,-2,0,-6719.5132288951,-80313.6372770317,-36891.0331466319,-12639.6696150071,-80543.2903868679,-41447.2637250730,-80473.2652916519,-80462.8375754746,-80504.0373969171,-2416.5410921267
5564751538,7480,-2,0,-6719.0508564159,-80314.5741896871,-36910.7204800914,-12639.6452796135,-80541.8059278555,-41264.7482727288,-80474.7984214516,-80463.0444263206,-80504.5727755773,-2415.9935457697
5564751538,7480,-2,0,-6719.6592412570,-80314.9878913790,-36930.5051551255,-12640.5943599656,-80542.0371140951,-41214.9458896325,-80475.0417753880,-80463.6771465554,-80504.2077446726,-2416.7114398823
5564751538,7480,-2,0,-6719.4280550174,-80314.0874818141,-36920.5884822148,-12640.3023352419,-80541.3800584667,-41356.6630545293,-80473.6181548597,-80463.4216249221,-80504.5362724868,-2416.5045890363
5564765249,7481,-2,0,-6718.9535148413,-80314.6958666553,-36894.4279340455,-12639.2194102246,-80543.3147222616,-41506.2040484833,-80474.2022043072,-80462.8740785651,-80504.5727755773,-2416.7966137600
5564765249,7481,-2,0,-6720.5474831251,-80316.1924933645,-36887.5166822500,-12641.1540740195,-80545.5657461738,-41466.0506489676,-80475.9300172561,-80465.4171272011,-80505.7165390787,-2418.1958988947
5564765249,7481,-2,0,-6720.0972783426,-80316.0099779122,-36907.5690466142,-12640.9593908703,-80544.2151318264,-41288.5361200177,-80475.4433093832,-80464.7357361790,-80505.1689927216,-2418.5609297994
5564765249,7481,-2,0,-6719.7930859221,-80314.2091587824,-36927.7552556435,-12638.8665470168,-80540.8933505938,-41209.6407738177,-80474.0075211581,-80463.9448358855,-80504.4510986091,-2417.0764707870
5564765249,7481,-2,0,-6719.5862350761,-80313.4304261857,-36921.9999350462,-12640.3510060292,-80540.5769904764,-41336.7688702238,-80473.2896270455,-80462.3995383890,-80503.3681735918,-2416.9061230314
5564765249,7481,-2,0,-6719.4280550174,-80313.4547615793,-36896.4964425054,-12639.2802487088,-80541.0150275620,-41503.4054782140,-80473.7641672216,-80462.2170229366,-80502.7476210539,-2416.7966137600
5564765249,7481,-2,0,-6719.2455395650,-80313.2722461270,-36884.4990934379,-12639.6574473103,-80543.4485669266,-41482.5865489500,-80473.7276641311,-80462.7524015969,-80503.4168443791,-2416.4072474617
5564765249,7481,-2,0,-6719.0630241127,-80314.2091587824,-36901.7650552297,-12639.8886335499,-80542.2317972443,-41309.5862355214,-80472.8637576567,-80462.3752029953,-80503.1978258363,-2416.5410921267
5564770033,7482,-2,0,-6719.6714089538,-80314.8662144108,-36925.9179334232,-12640.2293290610,-80540.7230028383,-41215.1527404785,-80473.9710180676,-80463.2026063793,-80504.0860677044,-2416.5532598236
5564770033,7482,-2,0,-6721.0463586948,-80314.6228604744,-36924.9810207679,-12640.7160369339,-80540.8203444128,-41322.3136463982,-80474.2752104882,-80463.0930971079,-80504.3780924281,-2416.9426261219
5564770033,7482,-2,0,-6720.8760109393,-80314.9878913790,-36901.4730305059,-12641.1905771100,-80542.9983621441,-41495.5816491569,-80475.2607939308,-80464.1030159442,-80505.4245143549,-2418.3297435597
5564770033,7482,-2,0,-6719.3307134428,-80314.5133512029,-36885.7767016044,-12639.4262610706,-80543.1200391124,-41506.1553776960,-80473.6303225565,-80461.8641597288,-80503.8670491616,-2416.0300488602
5564770033,7482,-2,0,-6720.5839862156,-80314.9270528949,-36902.0205768630,-12640.7647077212,-80543.3633930488,-41342.6337000925,-80474.9931046007,-80463.6893142522,-80504.7917941201,-2417.4049986012
5564770033,7482,-2,0,-6719.5132288951,-80314.7080343521,-36926.3559705089,-12639.8399627626,-80540.9298536843,-41221.7232967629,-80474.1048627327,-80462.5212153572,-80504.2077446726,-2417.1494769679
5564770033,7482,-2,0,-6719.0873595063,-80314.0266433300,-36930.4808197318,-12639.7547888849,-80541.8424309460,-41308.2234534772,-80474.4698936373,-80463.1782709856,-80504.6214463646,-2416.7966137600
5564770033,7482,-2,0,-6719.5740673793,-80314.7688728362,-36908.3477792109,-12640.0468136086,-80543.0957037187,-41489.3639560803,-80475.1026138721,-80463.9448358855,-80505.1689927216,-2416.6262660045
5564800594,7483,-2,0,-6719.5618996824,-80314.9757236822,-36891.2034943874,-12639.8764658531,-80544.0691194646,-41523.8228734829,-80475.0904461753,-80464.3342021838,-80504.8161295138,-2416.4559182490
5564800594,7483,-2,0,-6720.8881786361,-80316.7887105088,-36902.7263032787,-12640.5943599656,-80544.5558273375,-41373.4301407513,-80476.4045574322,-80464.6262269076,-80506.7507933086,-2418.4879236184
5564800594,7483,-2,0,-6719.7809182252,-80314.6836989585,-36928.0837834577,-12639.5966088262,-80542.0006110047,-41236.9207500948,-80475.2364585372,-80464.1638544283,-80505.4731851422,-2416.6019306109
5564800594,7483,-2,0,-6718.8440055699,-80314.6106927775,-36933.8756071454,-12638.7813731390,-80540.7595059287,-41293.5492111087,-80474.2022043072,-80462.1318490589,-80504.0739000076,-2415.6041794714
5564800594,7483,-2,0,-6719.3550488364,-80315.0608975600,-36912.9836717004,-12639.5722734325,-80543.1200391124,-41473.3634347582,-80475.1999554467,-80464.1273513378,-80505.3271727803,-2416.6627690950
5564800594,7483,-2,0,-6718.7588316921,-80315.2190776187,-36892.4932702506,-12638.6840315644,-80544.9451936358,-41536.2947627264,-80475.6501602292,-80464.4193760616,-80504.9499741788,-2417.4293339948
5564800594,7483,-2,0,-6718.7831670858,-80314.4890158093,-36900.6821302125,-12639.7426211880,-80543.8744363154,-41393.7623621425,-80474.9444338134,-80464.2611960029,-80504.2564154599,-2416.9061230314
5564800594,7483,-2,0,-6719.4767258047,-80314.6228604744,-36925.1148654329,-12639.9129689436,-80542.5238219680,-41234.8157385444,-80475.3946385959,-80464.1638544283,-80505.0838188439,-2416.4924213395
5564860371,7484,0,0,-6719.4158873206,-80314.9635559854,-36934.8125198008,-12639.8642981563,-80542.0006110047,-41268.5202587439,-80474.9566015103,-80464.2611960029,-80505.7287067755,-2416.5532598236
5564860371,7484,0,0,-6720.8638432425,-80316.4358473010,-36917.3153717694,-12641.0567324449,-80543.4729023202,-41447.5070790094,-80475.9908557402,-80466.0011766486,-80507.3591781498,-2417.6361848408
5564860371,7484,0,0,-6721.0220233012,-80316.7643751152,-36895.2066666421,-12640.8863846894,-80545.8821062912,-41533.6787079095,-80476.8182591242,-80465.4292948979,-80506.4952716753,-2418.0742219264
5564860371,7484,0,0,-6720.1216137363,-80316.7765428120,-36898.6257894494,-12640.1441551832,-80544.7018396994,-41420.4339535784,-80475.6744956228,-80464.8574131472,-80506.6656194308,-2417.2954893298
5564860371,7484,0,0,-6719.5010611983,-80315.1460714377,-36925.0540269488,-12640.4361799069,-80542.7550082077,-41262.1078825182,-80476.0881973148,-80464.4072083648,-80505.5948621104,-2416.5289244299
5564860371,7484,0,0,-6719.0386887190,-80315.6692824011,-36939.2172260507,-12639.2194102246,-80541.8302632491,-41271.1849843482,-80475.8326756815,-80464.1151836410,-80505.4853528390,-2416.1273904348
5564860371,7484,0,0,-6719.2212041714,-80316.0343133058,-36923.8250895697,-12639.5479380389,-80543.6675854694,-41444.0879562022,-80476.1368681021,-80465.3562887170,-80506.3492593134,-2416.1030550411
5564860371,7484,0,0,-6719.2698749587,-80315.7422885821,-36901.1445026917,-12639.7912919753,-80545.4440692056,-41551.0055081854,-80476.7817560337,-80465.2589471424,-80506.6169486436,-2416.2125643125
5564872764,7485,0,0,-6719.9756013744,-80315.9369717312,-36900.3901054887,-12640.0224782150,-80544.2638026137,-41447.6287559776,-80476.6844144591,-80464.8695808440,-80506.1545761643,-2417.4658370853
5564872764,7485,0,0,-6719.4158873206,-80314.9270528949,-36921.9999350462,-12639.8399627626,-80542.5846604522,-41269.1408112819,-80475.6501602292,-80464.0908482474,-80505.1689927216,-2416.7357752759
5564872764,7485,0,0,-6719.3063780491,-80314.5741896871,-36938.8765305397,-12640.6186953593,-80541.7450893714,-41252.3250542726,-80474.8105891484,-80464.1638544283,-80505.0473157534,-2416.6992721854
5564872764,7485,0,0,-6719.9269305871,-80315.6936177948,-36927.5727401912,-12640.5821922688,-80542.7185051172,-41415.5790425460,-80476.1733711925,-80465.5144687757,-80506.0815699833,-2417.3319924202
5564872764,7485,0,0,-6719.2212041714,-80316.2411641518,-36902.1665892248,-12640.3875091196,-80543.5459085012,-41542.7436420426,-80475.7231664101,-80464.4802145457,-80505.7165390787,-2417.3684955107
5564872764,7485,0,0,-6719.9512659808,-80316.2654995455,-36897.8835599432,-12639.9981428213,-80544.2151318264,-41465.7829596375,-80476.2342096767,-80464.8087423599,-80506.0085638024,-2417.6970233249
5564872764,7485,0,0,-6719.5984027729,-80315.3529222837,-36920.6249853053,-12639.7791242785,-80542.7550082077,-41283.7542151663,-80474.7375829674,-80463.1539355920,-80504.6092786678,-2417.6605202345
5564872764,7485,0,0,-6718.9778502349,-80314.5011835061,-36937.7571024320,-12639.8034596721,-80539.7739224861,-41231.9076590037,-80473.8371734025,-80462.3630352985,-80503.6845337092,-2415.2269808699
5564901502,7486,0,0,-6720.3162968855,-80314.1483202982,-36928.9963607194,-12640.6917015402,-80541.1123691366,-41383.6023352953,-80474.8592599357,-80463.4216249221,-80504.7674587265,-2416.6506013982
5564901502,7486,0,0,-6720.9246817266,-80315.0487298631,-36904.5027870149,-12641.3487571687,-80543.4607346234,-41538.0347433721,-80475.6866633196,-80464.2490283061,-80505.0838188439,-2418.6826067676
5564901502,7486,0,0,-6720.0364398585,-80314.5133512029,-36896.8736411069,-12640.2779998482,-80544.1786287360,-41489.8141608628,-80474.7619183611,-80463.5919726776,-80504.8526326042,-2418.1593958042
5564901502,7486,0,0,-6720.0607752522,-80315.5111023424,-36918.0332658820,-12639.9129689436,-80542.9983621441,-41310.1824526657,-80475.4676447768,-80462.8497431714,-80505.2419989026,-2417.6483525376
5564901502,7486,0,0,-6719.3672165333,-80314.7567051394,-36940.8355297282,-12640.0346459118,-80541.5990770095,-41239.0379293420,-80475.0904461753,-80463.7866558268,-80505.1203219343,-2417.1859800584
5564901502,7486,0,0,-6718.6979932080,-80313.6494447285,-36934.8368551945,-12638.8300439263,-80540.3701396304,-41370.6437381789,-80473.7763349184,-80462.8010723841,-80504.1225707948,-2415.3608255349
5564901502,7486,0,0,-6720.4623092473,-80314.8297113203,-36911.0490079056,-12640.6917015402,-80542.8645174791,-41532.6566213764,-80475.0052722976,-80463.7136496459,-80504.9621418756,-2418.6339359803
5564901502,7486,0,0,-6719.1360302936,-80314.1239849046,-36899.1855035032,-12639.8034596721,-80543.3755607457,-41512.4947477408,-80473.8980118867,-80463.4216249221,-80504.5849432741,-2417.4536693885
5564930850,7487,0,0,-6719.5010611983,-80313.7467863031,-36916.5974776569,-12639.5236026452,-80540.9055182906,-41338.6305278377,-80472.8515899599,-80462.2535260271,-80503.0883165649,-2416.2125643125
5564930850,7487,0,0,-6720.0607752522,-80314.4281773252,-36940.0567971315,-12640.5700245720,-80541.1975430144,-41240.3763759925,-80474.6402413929,-80463.0444263206,-80504.0860677044,-2417.4415016916
5564930850,7487,0,0,-6720.1824522204,-80314.8297113203,-36938.8643628428,-12640.7403723275,-80541.6720831905,-41349.0460763182,-80474.3117135786,-80464.1151836410,-80504.5484401837,-2418.0742219264
5564930850,7487,0,0,-6720.2189553109,-80314.2699972665,-36915.2833664000,-12640.8985523862,-80543.2903868679,-41521.1216447882,-80474.3847197596,-80464.0178420664,-80505.1689927216,-2417.4658370853
5564930850,7487,0,0,-6720.1581168268,-80314.9270528949,-36900.1954223395,-12640.4726829974,-80543.4972377139,-41524.2365751749,-80475.4676447768,-80463.8839974014,-80505.3271727803,-2418.1472281074
5564930850,7487,0,0,-6719.5618996824,-80314.9757236822,-36914.2977829573,-12639.8521304594,-80542.9983621441,-41355.9329927200,-80474.4820613342,-80462.9105816555,-80504.1347384917,-2417.1738123615
5564930850,7487,0,0,-6719.9269305871,-80314.5376865966,-36938.7183504810,-12640.3510060292,-80541.2218784080,-41241.4471333129,-80475.4311416863,-80463.1539355920,-80504.3537570345,-2416.6871044886
5564930850,7487,0,0,-6718.6614901175,-80313.5277677603,-36940.4339957330,-12639.4262610706,-80540.3214688431,-41326.7913588290,-80473.3139624392,-80461.7059796701,-80503.0031426871,-2415.5920117746
5564980255,7488,0,0,-6719.4037196237,-80314.0023079364,-36918.7511599945,-12640.4240122101,-80542.3534742125,-41502.3468885904,-80474.0561919454,-80462.7280662032,-80504.2320800663,-2417.6848556281
5564980255,7488,0,0,-6720.1337814331,-80315.3285868901,-36900.8524779680,-12639.7547888849,-80543.5337408044,-41533.9463972396,-80475.3338001118,-80464.2368606092,-80504.9134710883,-2417.8187002932
5564980255,7488,0,0,-6720.6326570028,-80315.0974006504,-36911.7547343213,-12640.0954843959,-80543.3633930488,-41376.8370958618,-80475.8083402879,-80464.1151836410,-80505.4610174454,-2418.0985573201
5564980255,7488,0,0,-6719.8052536189,-80314.8297113203,-36935.2870599769,-12640.4361799069,-80541.8789340364,-41237.8333273565,-80474.7254152706,-80463.7501527363,-80504.7917941201,-2417.2833216329
5564980255,7488,0,0,-6719.1847010809,-80313.8197924840,-36940.1419710093,-12639.8642981563,-80540.4796489018,-41301.8354126452,-80473.8858441898,-80462.9835878365,-80503.3316705014,-2416.9912969092
5564980255,7488,0,0,-6719.8539244062,-80313.8562955745,-36919.9557619800,-12641.1297386259,-80542.2074618507,-41484.6672251067,-80474.4942290310,-80463.3486187412,-80504.8648003010,-2417.5753463567
5564980255,7488,0,0,-6719.2333718682,-80313.2844138238,-36898.9056464763,-12639.1099009532,-80542.5116542712,-41538.6796313037,-80474.5672352119,-80462.6063892350,-80504.0373969171,-2417.1859800584
5564980255,7488,0,0,-6719.1481979904,-80313.5156000635,-36905.9142398463,-12639.7182857944,-80542.1709587602,-41395.2954919422,-80474.4455582437,-80462.1683521493,-80503.6480306188,-2416.0787196475
5565001413,7489,0,0,-6718.7588316921,-80313.3817553984,-36930.4686520350,-12639.3045841024,-80540.5526550827,-41245.2921255089,-80474.1657012168,-80462.6063892350,-80503.7697075870,-2417.0399676965
5565001413,7489,0,0,-6719.9269305871,-80313.3574200048,-36941.1640575424,-12640.2414967578,-80540.1754564812,-41282.5982839681,-80473.4721424979,-80462.2170229366,-80503.7940429806,-2416.9547938187
5565001413,7489,0,0,-6720.0242721617,-80313.3939230952,-36921.8539226844,-12640.4483476038,-80541.3922261635,-41458.4458384532,-80473.4234717106,-80461.9493336065,-80503.5628567410,-2416.9304584251
5565001413,7489,0,0,-6719.6714089538,-80313.3087492175,-36899.8668945253,-12640.2293290610,-80543.0713683251,-41541.1131706683,-80473.6911610407,-80463.0322586238,-80503.5020182569,-2418.0985573201
5565001413,7489,0,0,-6720.6326570028,-80313.2357430365,-36904.5149547117,-12640.4483476038,-80542.9496913569,-41416.1387565999,-80474.5672352119,-80462.7402339000,-80504.1590738853,-2417.0643030901
5565001413,7489,0,0,-6719.5984027729,-80313.2600784302,-36928.5218205433,-12640.2901675451,-80541.0880337429,-41248.6504098321,-80473.6668256470,-80462.7402339000,-80504.0617323107,-2416.9669615156
5565001413,7489,0,0,-6719.7687505284,-80314.8418790172,-36941.1275544519,-12639.7061180976,-80540.2362949653,-41262.3512364547,-80474.6159059992,-80462.8862462619,-80504.8769679979,-2417.1129738774
5565001413,7489,0,0,-6720.0121044649,-80316.1194871836,-36926.2707966311,-12641.2392478973,-80544.2759703106,-41438.6246603287,-80475.9908557402,-80465.2711148392,-80506.9211410641,-2417.3198247234
5565026571,7490,0,0,-6718.9048440540,-80316.0099779122,-36902.0570799534,-12639.6939504007,-80544.0326163741,-41543.0478344632,-80475.3703032022,-80465.0277609027,-80505.6435328977,-2417.6605202345
5565026571,7490,0,0,-6719.8174213157,-80316.3628411200,-36903.9430729610,-12640.7282046307,-80545.5170753865,-41442.7008387644,-80476.8912653051,-80464.8695808440,-80506.8968056705,-2417.5631786599
5565026571,7490,0,0,-6719.4523904110,-80315.9248040344,-36927.5119017070,-12640.3996768165,-80543.6919208631,-41268.6906064995,-80476.2707127671,-80465.0642639932,-80506.4831039785,-2417.5510109631
5565026571,7490,0,0,-6719.0386887190,-80314.7688728362,-36943.9139570244,-12639.4140933738,-80540.6864997478,-41251.7775079156,-80475.3703032022,-80464.3098667902,-80504.6944525455,-2416.6627690950
5565026571,7490,0,0,-6719.3307134428,-80314.4646804157,-36930.6146643969,-12639.5114349484,-80541.7450893714,-41414.5082852256,-80474.9931046007,-80463.6041403744,-80504.9743095725,-2416.8331168505
5565026571,7490,0,0,-6719.5862350761,-80315.4380961615,-36906.9363263794,-12640.4726829974,-80544.0812871614,-41543.4493684583,-80475.6258248355,-80464.2976990934,-80505.4731851422,-2417.4171662980
5565026571,7490,0,0,-6719.6957443475,-80315.0243944695,-36904.3811100466,-12640.0346459118,-80543.9961132836,-41463.7509542680,-80475.3459678086,-80464.0421774601,-80504.9864772693,-2417.2589862393
5565026571,7490,0,0,-6718.9535148413,-80315.3042514964,-36926.9035168659,-12639.5479380389,-80542.3413065157,-41282.6591224522,-80475.6744956228,-80463.2999479539,-80504.8282972106,-2416.7966137600
5565050636,7491,0,0,-6719.7930859221,-80314.4890158093,-36945.7391115478,-12639.2072425278,-80540.3944750240,-41244.3795482472,-80473.8980118867,-80462.8375754746,-80504.5849432741,-2415.7258564396
5565050636,7491,0,0,-6719.9269305871,-80314.8783821076,-36936.7836866861,-12639.5601057357,-80540.2362949653,-41395.8917090865,-80474.0075211581,-80463.2999479539,-80504.1104030980,-2416.9547938187
5565050636,7491,0,0,-6719.2698749587,-80314.3795065379,-36912.4239576466,-12639.7426211880,-80543.2903868679,-41537.0734953231,-80474.4820613342,-80463.8961650982,-80504.9621418756,-2416.9669615156
5565050636,7491,0,0,-6720.1094460395,-80315.5597731297,-36905.8047305749,-12640.2049936673,-80544.5193242470,-41482.3553627103,-80475.1147815689,-80464.1395190347,-80505.7043713818,-2417.2468185425
5565050636,7491,0,0,-6720.0364398585,-80315.3894253742,-36926.4168089930,-12640.3510060292,-80542.6941697236,-41302.3099528212,-80475.7596695006,-80464.3828729711,-80505.8382160469,-2417.6605202345
5565050636,7491,0,0,-6719.9390982839,-80315.5111023424,-36946.4326702667,-12640.1319874864,-80542.4021449998,-41233.7814843144,-80475.0296076912,-80464.2368606092,-80505.4975205358,-2417.1494769679
5565050636,7491,0,0,-6720.1581168268,-80315.1582391346,-36940.4461634298,-12639.9738074277,-80541.0636983493,-41367.2976215526,-80475.0417753880,-80463.7866558268,-80504.8891356947,-2416.9182907283
5565050636,7491,0,0,-6719.7200797411,-80314.9392205917,-36916.2324467522,-12639.8277950658,-80542.7063374204,-41528.8359645740,-80475.8691787720,-80464.4802145457,-80505.0959865407,-2417.1738123615
5565089526,7492,0,0,-6719.5618996824,-80313.8441278777,-36904.9043210100,-12639.4627641611,-80542.2439649411,-41499.7795045608,-80474.4577259405,-80462.8010723841,-80505.1203219343,-2416.8331168505
5565089526,7492,0,0,-6719.3915519269,-80314.1118172078,-36922.4258044350,-12640.4118445133,-80542.8401820854,-41321.1333798063,-80474.4577259405,-80463.8596620077,-80504.1834092790,-2417.4293339948
5565089526,7492,0,0,-6719.9877690712,-80313.8076247872,-36944.4006648973,-12640.8863846894,-80541.1002014398,-41229.3767780645,-80473.3626332265,-80463.7014819490,-80504.3659247313,-2417.7335264154
5565089526,7492,0,0,-6719.1968687777,-80313.4060907921,-36941.1275544519,-12639.5601057357,-80540.7716736256,-41340.6868686008,-80474.7984214516,-80462.6185569318,-80503.2708320172,-2416.4437505522
5565089526,7492,0,0,-6719.6105704697,-80314.5011835061,-36917.2423655885,-12640.1319874864,-80543.2052129901,-41507.8953583417,-80474.2630427914,-80463.9205004918,-80504.4754340027,-2417.5266755694
5565089526,7492,0,0,-6718.9291794476,-80314.6350281712,-36902.0935830439,-12639.5114349484,-80543.7527593472,-41509.7205128651,-80474.7619183611,-80463.1052648047,-80503.8062106774,-2416.7966137600
5565089526,7492,0,0,-6719.1360302936,-80314.1726556919,-36918.5443091485,-12639.8886335499,-80541.9154371269,-41339.8229621264,-80473.1071115932,-80462.9105816555,-80503.1613227458,-2417.0034646060
5565089526,7492,0,0,-6718.5519808461,-80313.0775629778,-36940.5800080949,-12639.9616397308,-80539.7009163051,-41222.3681846945,-80473.2166208646,-80461.7668181542,-80502.4069255428,-2416.5167567331
5565121521,7493,0,0,-6719.4888935015,-80312.0919795352,-36941.9914609263,-12640.6065276625,-80538.8978483148,-41314.3438049791,-80472.8272545662,-80462.4968799636,-80502.5772732983,-2417.5388432662
5565121521,7493,0,0,-6720.0121044649,-80311.6661101464,-36918.4226321803,-12640.6065276625,-80540.1024503003,-41492.8317496749,-80473.4599748010,-80460.9759178607,-80502.6137763888,-2417.4171662980
5565121521,7493,0,0,-6719.2820426555,-80312.7733705573,-36901.0836642076,-12639.5357703420,-80540.8811828970,-41515.9625413353,-80472.0971927569,-80461.4626257336,-80502.2974162714,-2417.4171662980
5565121521,7493,0,0,-6720.1581168268,-80312.7612028604,-36913.2391933337,-12640.3023352419,-80540.4431458113,-41354.9352415805,-80473.2166208646,-80462.0223397875,-80503.3803412886,-2416.7601106696
5565121521,7493,0,0,-6719.7687505284,-80313.2357430365,-36938.2924810922,-12640.1441551832,-80540.3214688431,-41224.4975316385,-80473.8128380089,-80463.0200909269,-80503.4168443791,-2416.2003966157
5565121521,7493,0,0,-6719.2333718682,-80313.6372770317,-36943.0987213372,-12640.0833166991,-80539.2142084322,-41291.1156717441,-80474.1900366104,-80462.4238737826,-80504.1347384917,-2417.1008061806
5565121521,7493,0,0,-6719.0143533254,-80314.0388110269,-36921.5862333543,-12638.7935408358,-80540.7960090192,-41468.1921636084,-80472.7299129917,-80462.2535260271,-80503.5020182569,-2416.2734027966
5565121521,7493,0,0,-6719.3307134428,-80314.5498542934,-36902.1300861344,-12640.4726829974,-80544.4584857629,-41523.7376996052,-80475.0052722976,-80463.6163080713,-80504.2442477631,-2417.1373092711
5565166383,7494,0,0,-6719.6470735602,-80314.5863573839,-36911.3045295389,-12640.0346459118,-80542.5846604522,-41379.3679768009,-80474.2265397009,-80463.7136496459,-80504.6579494551,-2417.9768803519
5565166383,7494,0,0,-6720.6083216092,-80314.3186680538,-36937.3068976495,-12640.4848506942,-80540.8325121097,-41228.5737100742,-80474.0926950358,-80463.2512771666,-80504.6944525455,-2417.3076570266
5565166383,7494,0,0,-6720.1946199172,-80314.2943326601,-36944.5831803496,-12640.6186953593,-80541.6599154936,-41270.6496056880,-80474.9809369039,-80463.3364510443,-80504.6701171519,-2417.5996817503
5565166383,7494,0,0,-6719.4767258047,-80314.5985250807,-36925.0053561615,-12639.9616397308,-80542.2561326380,-41450.1231338264,-80474.3725520627,-80463.4216249221,-80505.1933281153,-2416.9304584251
5565166383,7494,0,0,-6720.4988123378,-80315.6936177948,-36903.2616819389,-12640.1319874864,-80544.4219826724,-41524.4312583241,-80475.1391169626,-80464.0421774601,-80505.8138806532,-2418.3784143470
5565166383,7494,0,0,-6719.7444151348,-80315.9613071249,-36908.2626053331,-12640.6065276625,-80544.3733118851,-41396.1715661134,-80476.0638619211,-80463.7744881300,-80505.8625514405,-2417.4415016916
5565166383,7494,0,0,-6720.3284645823,-80315.6327793106,-36932.3424773457,-12640.6430307529,-80542.6454989363,-41235.4362910824,-80475.2486262340,-80464.3828729711,-80504.9621418756,-2416.8696199410
5565166383,7494,0,0,-6719.7322474379,-80313.8806309682,-36945.1793974940,-12639.7061180976,-80540.0781149066,-41252.1547065171,-80474.4090551532,-80463.5189664967,-80504.1347384917,-2416.2368997062
5565198404,7495,0,0,-6719.7809182252,-80314.2699972665,-36927.5970755848,-12639.8399627626,-80541.3922261635,-41426.5299696867,-80474.5915706056,-80463.7501527363,-80504.2685831567,-2416.8331168505
5565198404,7495,0,0,-6719.4280550174,-80314.8297113203,-36905.1963457338,-12640.2658321514,-80542.6820020267,-41528.6291137280,-80473.9345149771,-80463.2026063793,-80504.0373969171,-2417.2468185425
5565198404,7495,0,0,-6719.0386887190,-80314.7688728362,-36906.2914384478,-12640.4240122101,-80543.7040885599,-41419.5092086198,-80474.8470922389,-80464.3342021838,-80504.0252292203,-2416.6384337013
5565198404,7495,0,0,-6719.8417567094,-80315.3772576774,-36930.3104719763,-12640.6308630561,-80541.8789340364,-41244.1361943108,-80474.6645767865,-80463.9813389760,-80505.0351480566,-2417.2103154520
5565198404,7495,0,0,-6719.0995272032,-80313.5156000635,-36943.4029137578,-12639.8521304594,-80540.1267856939,-41234.3898691556,-80473.4721424979,-80462.4360414795,-80503.7088691029,-2415.7866949237
5565198404,7495,0,0,-6719.2212041714,-80312.4813458335,-36930.2009627049,-12639.7912919753,-80539.6157424274,-41401.6957004710,-80473.2044531678,-80461.4261226431,-80502.2974162714,-2416.5045890363
5565198404,7495,0,0,-6719.3793842301,-80313.4547615793,-36906.6686370493,-12639.5114349484,-80541.6720831905,-41523.8472088766,-80473.5816517693,-80461.7789858510,-80503.8183783743,-2416.6992721854
5565198404,7495,0,0,-6718.9170117508,-80313.8927986650,-36903.3590235135,-12639.7791242785,-80542.6698343299,-41438.3204679081,-80473.7398318280,-80462.7889046873,-80503.5993598315,-2417.1251415743
5565208563,7496,0,0,-6720.2676260982,-80314.6715312616,-36926.3559705089,-12640.0833166991,-80542.3899773030,-41262.9352859022,-80474.5915706056,-80463.1539355920,-80504.1590738853,-2416.7722783664
5565208563,7496,0,0,-6721.9346005629,-80316.1316548804,-36945.3497452495,-12641.6894526797,-80542.6698343299,-41227.0649156682,-80475.2486262340,-80465.2346117487,-80506.1424084675,-2417.5753463567
5565208563,7496,0,0,-6719.5740673793,-80314.2091587824,-36933.1942161234,-12639.6696150071,-80541.2705491953,-41377.2386298569,-80474.9809369039,-80463.7258173427,-80504.6822848487,-2416.6262660045
5565208563,7496,0,0,-6720.1581168268,-80315.6206116138,-36909.0778410203,-12640.2901675451,-80544.3246410978,-41521.6691911453,-80475.7961725910,-80464.9182516313,-80505.3758435676,-2416.6871044886
5565208563,7496,0,0,-6719.1725333841,-80314.9757236822,-36903.9795760515,-12639.4019256770,-80544.3854795820,-41462.5098491921,-80474.6645767865,-80463.8109912204,-80504.8161295138,-2415.6650179555
5565208563,7496,0,0,-6719.4523904110,-80314.7202020489,-36923.6304064205,-12639.5601057357,-80542.7306728140,-41278.4369316546,-80474.8105891484,-80463.7014819490,-80504.6336140614,-2416.6627690950
5565208563,7496,0,0,-6719.8052536189,-80314.6228604744,-36943.8531185403,-12639.8886335499,-80541.1245368334,-41216.0774854371,-80474.5672352119,-80462.5455507509,-80504.7917941201,-2416.7236075791
5565208563,7496,0,0,-6719.6957443475,-80313.9901402396,-36936.4673265687,-12639.7547888849,-80540.8690152001,-41353.6454657172,-80474.2995458818,-80463.3607864380,-80504.7187879392,-2416.2855704935
5565245272,7497,0,0,-6720.5109800346,-80314.9757236822,-36911.3532003262,-12640.4361799069,-80543.5215731075,-41510.0855437698,-80475.3338001118,-80463.7744881300,-80505.0838188439,-2417.5266755694
5565245272,7497,0,0,-6719.1116949000,-80315.1339037409,-36901.4608628091,-12640.4848506942,-80544.2759703106,-41479.0214137808,-80474.0805273390,-80464.4437114552,-80505.2176635089,-2417.6361848408
5565245272,7497,0,0,-6720.7908370615,-80315.6814500980,-36919.5663956817,-12640.8255462053,-80543.0957037187,-41302.0787665816,-80475.1269492658,-80464.6383946044,-80505.3515081740,-2419.1571469437
5565245272,7497,0,0,-6719.1725333841,-80314.0874818141,-36942.4051626183,-12640.7647077212,-80540.5648227796,-41211.2469097984,-80474.4212228500,-80462.9470847460,-80505.1811604184,-2417.1251415743
5565245272,7497,0,0,-6720.1337814331,-80314.5133512029,-36937.7084316447,-12640.4726829974,-80541.3557230731,-41328.1784762668,-80474.0075211581,-80463.2391094698,-80503.3681735918,-2416.5654275204
5565245272,7497,0,0,-6719.7809182252,-80314.6228604744,-36913.5555534511,-12640.8255462053,-80542.2926357284,-41497.8813438564,-80475.1634523563,-80464.5897238171,-80505.1568250248,-2417.5510109631
5565245272,7497,0,0,-6719.2090364746,-80315.3894253742,-36900.9011487553,-12639.8886335499,-80544.5679950343,-41492.9047558558,-80474.4698936373,-80463.9448358855,-80505.3271727803,-2417.0277999997
5565245272,7497,0,0,-6718.3086269097,-80313.8927986650,-36915.5145526396,-12639.1099009532,-80542.0127787015,-41318.5538280799,-80475.1026138721,-80463.6893142522,-80505.0716511470,-2415.6406825619
5565272919,7498,0,0,-6720.3649676727,-80315.5962762202,-36939.5579215618,-12640.6430307529,-80541.4652323445,-41211.5024314316,-80474.5428998183,-80464.1395190347,-80505.7043713818,-2417.0034646060
5565272919,7498,0,0,-6721.2288741472,-80315.5354377361,-36941.5169207502,-12641.0810678386,-80542.9010205696,-41309.2820431008,-80476.2098742830,-80464.3585375775,-80506.3370916166,-2417.5388432662
5565272919,7498,0,0,-6720.4501415505,-80315.1339037409,-36916.8529992901,-12640.6430307529,-80543.6797531662,-41481.6983070819,-80475.4919801705,-80464.3220344870,-80505.6800359882,-2416.5167567331
5565272919,7498,0,0,-6719.8417567094,-80315.8274624598,-36900.4144408823,-12640.6308630561,-80544.8965228485,-41502.8092610697,-80475.5163155641,-80464.4558791521,-80505.8260483501,-2418.2810727724
5565272919,7498,0,0,-6720.2676260982,-80315.6206116138,-36911.7547343213,-12639.8034596721,-80543.3998961393,-41343.7531282002,-80475.5893217451,-80464.2246929124,-80505.9233899246,-2417.2468185425
5565272919,7498,0,0,-6720.1581168268,-80315.6692824011,-36937.7692701288,-12640.2901675451,-80542.5116542712,-41212.3663379061,-80475.0661107817,-80464.2368606092,-80505.1811604184,-2416.9061230314
5565272919,7498,0,0,-6719.0386887190,-80314.9635559854,-36941.7724423835,-12639.2194102246,-80541.0758660461,-41283.6568735917,-80475.8691787720,-80463.2512771666,-80505.3028373867,-2416.0908873443
5565272919,7498,0,0,-6719.5375642888,-80315.0730652568,-36919.3838802293,-12639.8764658531,-80542.0614494888,-41464.6878669234,-80474.8835953293,-80464.0543451569,-80505.0473157534,-2416.0787196475
5565325649,7499,0,0,-6719.1725333841,-80315.0243944695,-36900.8159748775,-12639.9738074277,-80543.0592006283,-41512.0932137456,-80474.7984214516,-80462.8375754746,-80504.4267632154,-2416.0908873443
5565325649,7499,0,0,-6719.8539244062,-80314.8297113203,-36909.8079028297,-12639.7912919753,-80543.5337408044,-41364.0853495913,-80474.8105891484,-80463.8839974014,-80505.0229803597,-2417.1129738774
5565325649,7499,0,0,-6720.9855202107,-80315.7301208852,-36935.1167122214,-12640.3875091196,-80541.7207539777,-41219.3019250951,-80474.0683596422,-80464.0665128537,-80504.7674587265,-2417.6848556281
5565325649,7499,0,0,-6720.9125140298,-80315.8031270662,-36943.5124230292,-12640.7038692370,-80541.8667663396,-41265.8920362302,-80475.5163155641,-80465.0399285996,-80505.7043713818,-2417.0521353933
5565325649,7499,0,0,-6720.0851106458,-80315.6206116138,-36923.4600586650,-12639.9008012467,-80542.9983621441,-41442.9563603976,-80474.8957630261,-80464.1881898220,-80505.4366820517,-2416.0057134665
5565325649,7499,0,0,-6719.4402227142,-80315.2190776187,-36902.8236448533,-12639.9373043372,-80544.3489764915,-41519.1626455997,-80475.1391169626,-80465.0034255091,-80505.7652098659,-2417.1859800584
5565325649,7499,0,0,-6719.0265210222,-80314.6836989585,-36908.2626053331,-12639.1464040437,-80542.9983621441,-41389.4793328608,-80473.7763349184,-80463.1296001984,-80504.3659247313,-2416.1152227379
5565325649,7499,0,0,-6720.1459491299,-80315.0000590759,-36933.6565886026,-12639.6452796135,-80542.1466233665,-41228.2573499568,-80475.4554770800,-80463.3607864380,-80505.4610174454,-2415.7866949237
5565334778,7500,0,0,-6719.5497319856,-80314.5376865966,-36944.7778634988,-12639.5479380389,-80540.3093011463,-41252.0330295489,-80474.2022043072,-80462.6793954159,-80503.8548814647,-2416.6871044886
5565334778,7500,0,0,-6720.0607752522,-80314.3795065379,-36928.5826590275,-12640.8863846894,-80541.9641079142,-41430.7278250906,-80475.6136571387,-80463.3729541348,-80505.2663342962,-2418.2202342883
5565334778,7500,0,0,-6720.4136384600,-80314.1969910855,-36907.2891895873,-12640.5213537847,-80543.4607346234,-41526.8039592045,-80474.5915706056,-80463.5189664967,-80504.3172539440,-2417.3563278139
5565334778,7500,0,0,-6720.2919614918,-80314.2943326601,-36909.2360210790,-12640.0954843959,-80543.0835360219,-41416.5402905950,-80473.7641672216,-80462.9470847460,-80504.0739000076,-2418.3419112565
5565334778,7500,0,0,-6720.3284645823,-80313.4669292762,-36933.3158930916,-12640.2049936673,-80540.5526550827,-41248.5043974702,-80473.5086455883,-80462.7645692937,-80504.0739000076,-2417.3319924202
5565334778,7500,0,0,-6719.9147628903,-80313.7467863031,-36949.8274576803,-12639.9373043372,-80540.1632887844,-41244.6472375773,-80472.3040436029,-80462.0831782716,-80502.3460870587,-2416.5289244299
5565334778,7500,0,0,-6720.1702845236,-80312.9437183128,-36935.7129293657,-12640.0711490023,-80539.9199348479,-41412.4519444625,-80472.3283789965,-80461.6816442764,-80503.6967014061,-2416.8939553346
5565334778,7500,0,0,-6719.1116949000,-80313.1140660683,-36912.9106655195,-12639.6696150071,-80540.8811828970,-41533.1189938556,-80472.4743913584,-80461.1219302226,-80502.9301365062,-2417.1981477552
5565389025,7501,0,0,-6719.5984027729,-80313.2965815207,-36912.3144483752,-12640.5456891783,-80542.5359896649,-41448.4074885743,-80473.2652916519,-80461.7911535478,-80503.2221612299,-2417.0156323028
5565389025,7501,0,0,-6720.3041291886,-80313.1627368556,-36936.3578172973,-12640.4361799069,-80541.3192199826,-41270.1385624214,-80473.0219377154,-80462.6672277191,-80503.5263536505,-2416.6992721854
5565389025,7501,0,0,-6720.8151724552,-80315.5354377361,-36956.3980139647,-12641.3487571687,-80540.9298536843,-41239.3177863689,-80475.1147815689,-80463.2877802571,-80505.0229803597,-2418.0012157455
5565389025,7501,0,0,-6720.0486075553,-80314.0388110269,-36943.6949384816,-12639.6939504007,-80541.4530646476,-41394.7236101915,-80473.9710180676,-80463.0930971079,-80503.5993598315,-2416.6506013982
5565389025,7501,0,0,-6718.4668069684,-80314.1969910855,-36919.3108740484,-12639.3167517992,-80542.8036789950,-41529.4321817183,-80474.8227568452,-80463.5189664967,-80504.6701171519,-2417.3684955107
5565389025,7501,0,0,-6719.2577072619,-80314.7445374426,-36913.8597458717,-12638.8908824104,-80543.8866040122,-41465.3692579455,-80474.1900366104,-80463.7744881300,-80504.2077446726,-2416.9182907283
5565389025,7501,0,0,-6719.2090364746,-80314.7810405331,-36935.5060785197,-12638.9273855009,-80542.4751511808,-41288.0250767511,-80475.0417753880,-80463.1296001984,-80503.7332044965,-2416.4072474617
5565389025,7501,0,0,-6719.2942103523,-80314.8175436235,-36956.3128400869,-12639.9008012467,-80540.8081767160,-41231.6156342800,-80474.2873781850,-80463.1539355920,-80504.3659247313,-2415.9935457697
5565408027,7502,0,0,-6719.1238625968,-80312.7368674668,-36947.0167197142,-12640.1928259705,-80539.7982578797,-41374.1723702575,-80473.1922854709,-80461.5721350050,-80502.9058011126,-2416.3707443712
5565408027,7502,0,0,-6720.9125140298,-80314.5498542934,-36923.6790772078,-12641.1419063227,-80543.0105298410,-41533.6787079095,-80474.7010798770,-80463.3242833475,-80504.8891356947,-2417.9403772614
5565408027,7502,0,0,-6719.8904274966,-80314.7323697458,-36913.9084166590,-12640.8620492957,-80544.1056225550,-41496.1048601202,-80474.7619183611,-80462.9957555333,-80504.3415893377,-2417.9890480487
5565408027,7502,0,0,-6719.7687505284,-80314.6836989585,-36931.5272416586,-12639.6574473103,-80542.6454989363,-41310.8881790814,-80474.0561919454,-80463.4094572253,-80504.2929185504,-2417.5875140535
5565408027,7502,0,0,-6719.9756013744,-80314.9757236822,-36953.3317543653,-12639.9251366404,-80541.5139031318,-41226.0671645287,-80474.3360489723,-80463.6041403744,-80505.1324896312,-2417.0399676965
5565408027,7502,0,0,-6719.5253965920,-80314.2943326601,-36948.6106879980,-12640.8377139021,-80541.1732076207,-41346.8193877996,-80474.6645767865,-80463.7623204331,-80504.9986449661,-2417.1616446647
5565408027,7502,0,0,-6718.9170117508,-80314.9513882886,-36921.7687488066,-12639.4992672516,-80541.3800584667,-41508.9904510557,-80475.1269492658,-80463.7136496459,-80504.4876016995,-2416.0300488602
5565408027,7502,0,0,-6719.7079120443,-80315.3042514964,-36907.6785558856,-12640.3875091196,-80544.3246410978,-41495.8128353965,-80474.2508750945,-80463.3486187412,-80503.9400553425,-2418.1350604106
5565447946,7503,0,0,-6720.4258061569,-80314.4646804157,-36922.7178291588,-12640.4361799069,-80542.9496913569,-41321.3158952587,-80474.5550675151,-80463.6284757681,-80504.9378064820,-2417.4658370853
5565447946,7503,0,0,-6719.8904274966,-80313.7711216967,-36944.1573109608,-12639.4992672516,-80541.3557230731,-41211.1252328301,-80474.2508750945,-80463.0687617142,-80504.0982354012,-2416.8452845473
5565447946,7503,0,0,-6718.4789746652,-80313.6007739412,-36942.5755103738,-12639.3897579802,-80539.4453946718,-41306.3861312569,-80472.7177452948,-80462.7158985064,-80503.2099935331,-2415.2634839603
5565447946,7503,0,0,-6719.5375642888,-80314.9270528949,-36917.7290734614,-12639.8521304594,-80543.2173806870,-41483.2071014879,-80475.2607939308,-80463.8109912204,-80504.9499741788,-2417.3806632075
5565447946,7503,0,0,-6719.6470735602,-80316.0586486995,-36901.7650552297,-12639.8886335499,-80545.0547029072,-41501.4221436319,-80476.1125327084,-80464.5288853330,-80505.8138806532,-2417.1494769679
5565447946,7503,0,0,-6719.1603656873,-80316.3506734232,-36914.8088262239,-12639.9738074277,-80544.7261750930,-41337.7666213633,-80475.7718371974,-80464.1030159442,-80505.4610174454,-2417.1981477552
5565447946,7503,0,0,-6719.2212041714,-80315.8517978535,-36939.0468782952,-12639.4019256770,-80542.4508157871,-41212.0256423950,-80475.2242908404,-80464.5532207266,-80505.4001789613,-2417.4780047821
5565447946,7503,0,0,-6719.8660921030,-80315.1217360441,-36941.7116038994,-12639.8886335499,-80541.8302632491,-41289.5703742476,-80475.3216324149,-80464.0786805505,-80504.7917941201,-2416.9547938187
5565477889,7504,0,0,-6719.3550488364,-80314.5376865966,-36918.0576012756,-12639.2802487088,-80541.4895677381,-41467.2674186499,-80474.0683596422,-80462.6307246286,-80503.3195028045,-2416.7722783664
5565477889,7504,0,0,-6719.7930859221,-80314.4038419315,-36898.9543172636,-12640.1563228800,-80544.0691194646,-41512.3122322884,-80474.4090551532,-80463.0687617142,-80504.3659247313,-2417.8673710805
5565477889,7504,0,0,-6719.9147628903,-80314.5376865966,-36908.9196609616,-12639.8034596721,-80542.7306728140,-41361.0555930824,-80473.6059871629,-80462.9470847460,-80503.9157199489,-2416.7722783664
5565477889,7504,0,0,-6719.9877690712,-80313.9536371491,-36933.4254023630,-12640.7160369339,-80540.3336365399,-41214.1428216422,-80473.5451486788,-80462.9957555333,-80503.8062106774,-2417.7456941122
5565477889,7504,0,0,-6720.1824522204,-80314.3916742347,-36939.7404370141,-12640.6430307529,-80540.7595059287,-41261.4143237993,-80474.1048627327,-80462.3630352985,-80503.6845337092,-2417.2224831488
5565477889,7504,0,0,-6719.2212041714,-80314.0996495110,-36918.0332658820,-12639.9494720340,-80542.1222879729,-41440.7783426663,-80474.3603843659,-80463.2026063793,-80503.8062106774,-2417.1129738774
5565477889,7504,0,0,-6719.1847010809,-80314.0753141173,-36895.8880576642,-12639.0247270755,-80542.5481573617,-41506.0823715151,-80474.1657012168,-80462.2535260271,-80504.7552910296,-2416.6506013982
5565477889,7504,0,0,-6718.5276454525,-80313.5764385476,-36901.2661796599,-12639.5236026452,-80542.6333312395,-41368.1371926334,-80474.5063967278,-80462.6915631127,-80504.3659247313,-2417.4658370853
5565511544,7505,0,0,-6719.6592412570,-80313.7832893936,-36924.4821451981,-12639.7426211880,-80541.1732076207,-41211.3807544634,-80472.7055775980,-80462.4482091763,-80504.2807508535,-2416.7601106696
5565511544,7505,0,0,-6719.8052536189,-80313.7467863031,-36934.2406380501,-12640.4848506942,-80540.8203444128,-41236.0690113172,-80474.2752104882,-80462.0223397875,-80503.8427137679,-2416.8817876378
5565511544,7505,0,0,-6719.6105704697,-80313.2844138238,-36915.4415464587,-12639.3897579802,-80540.5769904764,-41407.0738224668,-80472.5839006298,-80462.1683521493,-80503.4411797728,-2417.0277999997
5565511544,7505,0,0,-6719.4767258047,-80313.6129416380,-36890.7654573018,-12639.9494720340,-80543.0226975378,-41498.8547596022,-80474.3360489723,-80463.0444263206,-80503.7575398902,-2417.1981477552
5565511544,7505,0,0,-6719.9147628903,-80314.0631464205,-36892.1647424364,-12639.8521304594,-80543.1565422029,-41383.4198198430,-80474.0440242485,-80462.9957555333,-80504.2442477631,-2416.4315828553
5565511544,7505,0,0,-6719.8904274966,-80314.2699972665,-36915.0400124635,-12640.2901675451,-80541.9884433078,-41211.5389345221,-80473.9953534612,-80463.1782709856,-80503.5750244378,-2416.9912969092
5565511544,7505,0,0,-6719.0508564159,-80313.6981155158,-36926.7696722008,-12639.5844411293,-80539.4210592782,-41209.4095875781,-80474.2387073977,-80462.4725445699,-80503.2586643204,-2415.7015210460
5565511544,7505,0,0,-6719.2333718682,-80313.2965815207,-36910.7448154850,-12639.0855655596,-80540.8325121097,-41378.8447658376,-80473.5451486788,-80462.1926875430,-80504.3415893377,-2416.1882289189
5565530345,7506,0,0,-6719.5253965920,-80314.5620219902,-36887.5288499469,-12639.6087765230,-80542.4751511808,-41493.5496437874,-80474.3968874564,-80463.0444263206,-80504.8648003010,-2417.7091910218
5565530345,7506,0,0,-6719.5618996824,-80315.2434130123,-36885.3143291251,-12640.3875091196,-80543.3755607457,-41399.8583782508,-80474.5063967278,-80463.6041403744,-80504.4024278218,-2418.1837311978
5565530345,7506,0,0,-6720.0972783426,-80315.4259284647,-36907.9097421253,-12640.4970183911,-80541.9641079142,-41224.1325007338,-80473.6424902534,-80462.8740785651,-80503.8792168584,-2417.2468185425
5565530345,7506,0,0,-6718.7709993889,-80313.4790969730,-36924.0197727189,-12639.8399627626,-80540.3579719336,-41194.5406620605,-80474.4577259405,-80462.7280662032,-80503.1369873522,-2416.1395581316
5565530345,7506,0,0,-6719.0265210222,-80314.1604879951,-36911.4505419008,-12639.5479380389,-80540.7108351414,-41352.3313544604,-80474.8349245420,-80463.1417678952,-80503.4898505601,-2416.7479429727
5565530345,7506,0,0,-6719.2090364746,-80314.5011835061,-36886.9204651057,-12639.4870995548,-80542.7915112982,-41489.4978007454,-80474.7132475738,-80462.8740785651,-80504.1712415821,-2416.2855704935
5565530345,7506,0,0,-6719.3185457460,-80314.4403450220,-36881.8830386210,-12638.7813731390,-80543.1687098997,-41423.0986791826,-80474.2630427914,-80463.8353266141,-80503.8183783743,-2416.9061230314
5565530345,7506,0,0,-6719.1116949000,-80314.6593635648,-36902.9088187310,-12639.5966088262,-80542.6454989363,-41241.3132886478,-80475.2851293245,-80464.7965746631,-80505.5340236263,-2416.3829120681
5565560351,7507,0,0,-6720.1094460395,-80314.7932082299,-36921.4158855987,-12639.3289194961,-80541.2948845889,-41187.9092672920,-80475.0417753880,-80463.5067987999,-80505.0473157534,-2416.7601106696
5565560351,7507,0,0,-6720.2311230077,-80316.2411641518,-36915.4780495492,-12640.4483476038,-80541.9276048237,-41333.6539398372,-80475.0174399944,-80464.1030159442,-80505.7530421691,-2417.3928309044
5565560351,7507,0,0,-6719.8660921030,-80315.9613071249,-36890.3030848225,-12639.7061180976,-80544.2638026137,-41483.0002506419,-80475.4676447768,-80464.5288853330,-80505.7287067755,-2417.4049986012
5565560351,7507,0,0,-6719.6227381665,-80315.9248040344,-36880.8609520879,-12640.0954843959,-80545.1763798755,-41439.7684238300,-80475.4068062927,-80464.7114007853,-80506.1545761643,-2416.6749367918
5565560351,7507,0,0,-6719.7444151348,-80316.8008782057,-36900.7794717870,-12639.9008012467,-80545.4197338119,-41262.8987828117,-80476.3680543417,-80465.3441210201,-80506.9698118514,-2416.6627690950
5565560351,7507,0,0,-6720.1824522204,-80317.1415737167,-36922.1094443177,-12640.6917015402,-80543.1930452933,-41184.8308399957,-80477.1954577257,-80465.5266364725,-80507.6512028735,-2417.0399676965
5565560351,7507,0,0,-6720.0121044649,-80315.7666239757,-36917.7290734614,-12640.2901675451,-80543.0592006283,-41308.3938012327,-80476.4045574322,-80464.6992330885,-80505.8503837437,-2416.5289244299
5565560351,7507,0,0,-6720.0729429490,-80315.0608975600,-36893.9412261725,-12639.8886335499,-80544.1786287360,-41474.7748875896,-80475.6258248355,-80464.9182516313,-80505.5218559295,-2417.8673710805
5565582922,7508,0,0,-6719.0508564159,-80315.8761332471,-36882.1263925575,-12640.0103105181,-80544.7991812739,-41460.5995207909,-80474.8957630261,-80464.7600715726,-80505.1811604184,-2417.6605202345
5565582922,7508,0,0,-6720.0364398585,-80316.8008782057,-36899.4896959238,-12640.4848506942,-80544.3854795820,-41284.8614755772,-80476.9399360924,-80465.4779656852,-80505.9720607119,-2416.8452845473
5565582922,7508,0,0,-6718.8075024794,-80314.5863573839,-36921.6105687479,-12639.6452796135,-80540.5648227796,-41181.3873817949,-80474.5550675151,-80463.4459603158,-80504.4389309122,-2416.3585766744
5565582922,7508,0,0,-6719.2577072619,-80314.9635559854,-36919.9557619800,-12639.4140933738,-80541.0880337429,-41286.6622947069,-80474.8714276325,-80464.1760221251,-80504.9378064820,-2416.7479429727
5565582922,7508,0,0,-6719.6835766507,-80315.6692824011,-36896.7519641386,-12640.5821922688,-80543.4120638361,-41458.4215030596,-80475.4311416863,-80465.5023010788,-80505.3515081740,-2416.9182907283
5565582922,7508,0,0,-6720.6326570028,-80315.3894253742,-36881.5180077163,-12640.1319874864,-80545.3710630246,-41467.4499341022,-80476.1368681021,-80465.3441210201,-80505.5948621104,-2417.8673710805
5565582922,7508,0,0,-6719.2820426555,-80316.5453565724,-36895.3283436104,-12639.8642981563,-80544.7383427898,-41299.7425687916,-80475.7475018038,-80465.0764316900,-80505.9720607119,-2417.8552033836
5565582922,7508,0,0,-6719.3063780491,-80315.2069099218,-36918.3496259994,-12639.7061180976,-80542.7915112982,-41172.4806277205,-80475.2607939308,-80463.9813389760,-80505.1446573280,-2416.0422165570
5565610179,7509,0,0,-6718.9535148413,-80314.0753141173,-36920.6614883957,-12639.5357703420,-80540.9785244715,-41252.8482652360,-80474.4698936373,-80463.7744881300,-80504.3050862472,-2416.1152227379
5565610179,7509,0,0,-6720.0851106458,-80313.9779725427,-36898.0782430923,-12640.2536644546,-80542.6698343299,-41437.5660707051,-80474.7984214516,-80463.3242833475,-80505.4245143549,-2416.5775952172
5565610179,7509,0,0,-6720.1824522204,-80315.7301208852,-36882.2359018289,-12640.8620492957,-80544.5558273375,-41481.7956486565,-80475.6379925323,-80464.3098667902,-80505.2663342962,-2417.7578618090
5565610179,7509,0,0,-6719.4645581078,-80315.3042514964,-36892.2985871014,-12639.6087765230,-80543.9596101932,-41330.1131400617,-80475.5041478673,-80464.3220344870,-80504.7917941201,-2417.4536693885
5565610179,7509,0,0,-6719.9999367681,-80315.9126363376,-36918.2766198184,-12640.5456891783,-80543.7649270440,-41192.7885137179,-80476.1125327084,-80465.1981086583,-80506.0937376802,-2417.4293339948
5565610179,7509,0,0,-6719.4645581078,-80315.4259284647,-36924.9323499806,-12639.5357703420,-80542.9496913569,-41249.5143163065,-80475.0052722976,-80463.9570035823,-80505.9477253183,-2416.4437505522
5565610179,7509,0,0,-6718.7223286016,-80315.4259284647,-36904.8921533132,-12639.9616397308,-80543.5337408044,-41427.8075778531,-80475.9543526497,-80465.0885993868,-80506.0085638024,-2416.2247320094
5565610179,7509,0,0,-6718.4546392715,-80315.8517978535,-36883.7933670222,-12639.6817827039,-80544.6044981248,-41488.9259189947,-80475.7475018038,-80465.1494378710,-80505.3880112644,-2417.1494769679
5565671434,7510,0,0,-6720.3284645823,-80315.7787916725,-36891.4225129302,-12640.6795338434,-80545.5049076897,-41353.5602918395,-80476.0638619211,-80465.1251024773,-80506.3370916166,-2417.6240171440
5565671434,7510,0,0,-6720.4379738537,-80316.5940273597,-36917.4978872218,-12641.1905771100,-80542.9861944473,-41197.6677601440,-80476.9521037892,-80464.8939162377,-80507.6512028735,-2417.6605202345
5565671434,7510,0,0,-6720.7056631838,-80315.8761332471,-36927.0982000151,-12640.9837262640,-80542.7185051172,-41226.3835246461,-80476.1247004053,-80465.0520962964,-80505.6678682914,-2417.9890480487
5565671434,7510,0,0,-6719.5010611983,-80316.1316548804,-36909.0170025362,-12640.7282046307,-80542.5968281490,-41404.9444755228,-80476.0760296180,-80464.4680468489,-80506.4466008880,-2416.7114398823
5565671434,7510,0,0,-6719.0265210222,-80316.1073194867,-36887.1273159517,-12639.7426211880,-80544.9816967263,-41490.2887010389,-80476.5992405814,-80465.4049595042,-80506.2519177389,-2417.0764707870
5565671434,7510,0,0,-6719.4645581078,-80316.5453565724,-36890.3395879130,-12640.0711490023,-80545.9064416848,-41366.5675597432,-80476.5384020972,-80465.5144687757,-80506.6656194308,-2416.3829120681
5565671434,7510,0,0,-6719.4280550174,-80317.7377908610,-36914.2004413827,-12639.5479380389,-80544.3003057042,-41197.5339154789,-80477.3901408748,-80466.2323628882,-80507.2983396656,-2416.7966137600
5565671434,7510,0,0,-6719.7930859221,-80317.3727599563,-36928.8990191449,-12640.3388383324,-80544.2029641296,-41204.5911796362,-80477.7186686891,-80466.6947353675,-80508.0162337782,-2416.8939553346
5565681609,7511,0,0,-6719.5618996824,-80316.5088534819,-36911.3775357198,-12639.9008012467,-80543.3877284425,-41376.7032511967,-80476.4532282195,-80465.5266364725,-80505.8990545310,-2416.5897629140
5565681609,7511,0,0,-6720.2067876140,-80317.0685675358,-36889.3540044703,-12640.6430307529,-80546.3323110736,-41493.1602774891,-80477.0251099702,-80466.3175367660,-80508.3204261988,-2418.1472281074
5565681609,7511,0,0,-6719.6470735602,-80317.7986293451,-36888.9159673847,-12640.2779998482,-80545.3467276310,-41398.5442669939,-80477.1711223320,-80465.4779656852,-80507.5295259053,-2417.5996817503
5565681609,7511,0,0,-6720.7421662743,-80317.5674431055,-36912.8011562481,-12640.7160369339,-80545.1033736945,-41221.2244211932,-80477.2562962098,-80466.3662075533,-80507.4686874212,-2417.8308679900
5565681609,7511,0,0,-6720.4136384600,-80317.1294060199,-36929.2640500495,-12639.8764658531,-80542.9375236600,-41197.0472076060,-80476.6357436718,-80465.1859409614,-80507.4321843307,-2416.5167567331
5565681609,7511,0,0,-6719.2212041714,-80316.8982197802,-36916.0012605125,-12639.9129689436,-80543.4850700171,-41360.2038543048,-80477.0981161511,-80465.6361457439,-80508.0284014750,-2416.6262660045
5565681609,7511,0,0,-6719.2212041714,-80316.5818596628,-36891.6415314730,-12639.2924164056,-80545.8821062912,-41491.4567999339,-80476.0516942243,-80465.1494378710,-80506.2397500420,-2417.3806632075
5565681609,7511,0,0,-6719.2455395650,-80317.0685675358,-36885.8740431789,-12639.5722734325,-80544.8478520612,-41416.8201476220,-80476.5992405814,-80464.6748976949,-80506.5561101594,-2417.1494769679
5565710650,7512,0,0,-6719.8904274966,-80316.7157043279,-36908.2382699395,-12639.9251366404,-80545.3710630246,-41237.9428366279,-80477.1467869384,-80465.3684564138,-80507.1888303942,-2417.1859800584
5565710650,7512,0,0,-6720.6083216092,-80317.0077290516,-36927.8404295213,-12640.2171613641,-80543.5824115916,-41188.0552796538,-80476.9277683956,-80466.1958597977,-80507.4200166339,-2417.5388432662
5565710650,7512,0,0,-6719.0021856286,-80315.1339037409,-36916.2446144490,-12640.1563228800,-80541.9397725205,-41329.0302150444,-80475.2972970213,-80463.9448358855,-80505.1324896312,-2416.9061230314
5565710650,7512,0,0,-6718.7466639953,-80315.4137607678,-36891.1426559033,-12639.6574473103,-80543.2417160806,-41478.9970783872,-80475.8691787720,-80465.0277609027,-80505.4853528390,-2416.8087814569
5565710650,7512,0,0,-6719.9269305871,-80316.0343133058,-36884.4747580443,-12640.3753414228,-80544.9086905453,-41434.9013451009,-80476.5018990068,-80465.3076179297,-80506.4100977976,-2417.4415016916
5565710650,7512,0,0,-6719.8295890125,-80315.8761332471,-36904.5027870149,-12639.6331119166,-80543.4120638361,-41251.9600233679,-80476.2220419798,-80464.8574131472,-80505.4123466581,-2416.9547938187
5565710650,7512,0,0,-6719.0751918095,-80314.7445374426,-36923.9589342347,-12639.4505964643,-80541.8180955523,-41173.9042482487,-80475.0174399944,-80463.7014819490,-80504.7674587265,-2416.7722783664
5565710650,7512,0,0,-6719.3550488364,-80315.3042514964,-36919.2500355643,-12640.3145029387,-80542.3291388189,-41302.7479899069,-80475.0539430848,-80464.6018915139,-80505.0838188439,-2416.6871044886
5565740519,7513,0,0,-6718.3207946065,-80314.4646804157,-36892.8339657617,-12638.9882239850,-80543.0713683251,-41463.3250848792,-80474.7010798770,-80463.9326681887,-80505.4731851422,-2416.6627690950
5565740519,7513,0,0,-6719.8295890125,-80316.3263380296,-36881.4206661417,-12641.0689001417,-80545.7239262325,-41442.8346834294,-80476.3437189481,-80464.9912578123,-80505.8868868342,-2417.3198247234
5565740519,7513,0,0,-6720.0607752522,-80315.3164191933,-36898.1512492733,-12640.8985523862,-80544.2638026137,-41268.6297680154,-80476.1247004053,-80464.7479038758,-80505.7165390787,-2417.1008061806
5565740519,7513,0,0,-6719.7444151348,-80314.5985250807,-36920.6006499116,-12640.0468136086,-80542.3899773030,-41168.1245922578,-80475.4311416863,-80463.4337926189,-80504.5971109709,-2416.9304584251
5565740519,7513,0,0,-6720.0486075553,-80314.7688728362,-36919.2135324738,-12640.6186953593,-80540.7960090192,-41272.6937787542,-80474.9200984198,-80464.4072083648,-80504.6214463646,-2416.3707443712
5565740519,7513,0,0,-6718.7953347826,-80314.1848233887,-36893.5761952679,-12639.7061180976,-80542.8158466918,-41444.7206764370,-80476.0151911338,-80464.2611960029,-80505.7287067755,-2416.7844460632
5565740519,7513,0,0,-6720.3893030664,-80315.9004686408,-36880.2890703372,-12640.3023352419,-80545.4805722960,-41454.0046291129,-80476.4897313100,-80465.4414625947,-80506.8603025800,-2417.5631786599
5565740519,7513,0,0,-6720.1824522204,-80316.6792012374,-36894.7686295565,-12640.0833166991,-80544.4463180661,-41284.3991030979,-80475.8205079847,-80464.7722392695,-80505.9477253183,-2416.5410921267
5565823113,7514,0,0,-6719.2333718682,-80315.8152947630,-36918.1306074566,-12639.6574473103,-80541.5382385254,-41165.4598666536,-80475.1269492658,-80464.3098667902,-80505.2663342962,-2415.9327072856
5565823113,7514,0,0,-6719.3307134428,-80315.6206116138,-36921.0751900877,-12640.6673661466,-80541.3070522858,-41252.6292466932,-80475.5893217451,-80464.4802145457,-80506.3370916166,-2416.3707443712
5565823113,7514,0,0,-6719.2212041714,-80315.2920837996,-36897.9322307305,-12639.9616397308,-80543.0713683251,-41427.8927517308,-80474.8470922389,-80463.7623204331,-80505.0473157534,-2416.9669615156
5565823113,7514,0,0,-6719.8904274966,-80316.8860520834,-36880.1430579753,-12640.8012108116,-80545.7482616261,-41459.9911359498,-80476.5140667036,-80465.6604811375,-80506.6291163404,-2418.2810727724
5565823113,7514,0,0,-6720.1094460395,-80317.0442321421,-36890.9601404509,-12640.3510060292,-80545.1520444818,-41306.7633298584,-80476.4410605227,-80464.8209100567,-80506.3492593134,-2417.1008061806
5565823113,7514,0,0,-6719.3185457460,-80316.5818596628,-36916.1351051776,-12639.6331119166,-80543.7405916503,-41169.8524052067,-80476.1003650116,-80465.7578227121,-80506.5561101594,-2416.1517258284
5565823113,7514,0,0,-6718.7223286016,-80315.5719408265,-36921.8782580780,-12638.5866899899,-80542.5846604522,-41229.8634859375,-80475.1026138721,-80464.9425870250,-80506.0085638024,-2415.4946702000
5565823113,7514,0,0,-6719.8539244062,-80316.3263380296,-36901.9597383789,-12639.7912919753,-80543.9109394059,-41414.6664652843,-80476.0395265275,-80465.0642639932,-80506.1424084675,-2417.5023401758
5565831677,7515,0,0,-6720.0851106458,-80315.2069099218,-36882.9051251541,-12640.2901675451,-80544.2272995233,-41475.3589370371,-80475.9056818625,-80464.7235684822,-80505.5583590200,-2417.5753463567
5565831677,7515,0,0,-6720.5109800346,-80316.3385057264,-36892.1525747396,-12640.6308630561,-80545.6144169611,-41333.9459645609,-80476.3193835544,-80465.1129347805,-80506.5926132499,-2418.2202342883
5565831677,7515,0,0,-6719.8539244062,-80315.9369717312,-36915.8430804538,-12640.4970183911,-80543.1443745060,-41180.2071152030,-80475.6988310165,-80464.6505623012,-80505.4123466581,-2417.6726879313
5565831677,7515,0,0,-6720.3284645823,-80316.4723503914,-36926.7940075945,-12640.6308630561,-80543.4729023202,-41217.5984475399,-80476.2585450703,-80465.3562887170,-80506.9454764578,-2417.2711539361
5565831677,7515,0,0,-6719.8904274966,-80316.3506734232,-36908.1409283649,-12639.7912919753,-80544.1299579487,-41394.6749394042,-80476.8669299115,-80466.2080274946,-80506.9333087609,-2417.1494769679
5565831677,7515,0,0,-6719.0265210222,-80316.4723503914,-36885.9713847535,-12639.9616397308,-80545.2007152691,-41478.4982028174,-80476.5627374909,-80465.0642639932,-80507.1036565165,-2417.0764707870
5565831677,7515,0,0,-6719.0873595063,-80315.7787916725,-36889.9867247051,-12639.7791242785,-80544.8843551517,-41357.5512963974,-80475.8935141656,-80464.7722392695,-80505.7652098659,-2416.2368997062
5565831677,7515,0,0,-6718.7223286016,-80314.9635559854,-36915.1860248254,-12640.3388383324,-80542.0127787015,-41188.1039504411,-80475.1269492658,-80464.1760221251,-80505.7652098659,-2416.7844460632
5565849199,7516,0,0,-6719.7322474379,-80315.5354377361,-36927.1833738928,-12640.1076520927,-80540.5161519923,-41195.1003761143,-80475.1999554467,-80465.1007670837,-80505.7652098659,-2417.2589862393
5565849199,7516,0,0,-6720.7299985774,-80316.0099779122,-36911.4505419008,-12640.8377139021,-80542.6089958458,-41370.1448626092,-80475.4189739895,-80464.3342021838,-80505.8382160469,-2417.7700295059
5565849199,7516,0,0,-6720.0486075553,-80315.0974006504,-36888.0155578198,-12640.9593908703,-80544.5558273375,-41476.5513713258,-80475.8205079847,-80464.2611960029,-80505.5583590200,-2417.8795387773
5565849199,7516,0,0,-6719.7687505284,-80314.5985250807,-36886.5310988074,-12640.2171613641,-80543.1687098997,-41373.5153146291,-80474.6524090897,-80463.1782709856,-80504.9134710883,-2417.4171662980
5565849199,7516,0,0,-6720.4379738537,-80315.2677484060,-36909.6497227710,-12639.9859751245,-80542.7915112982,-41199.1765545500,-80475.0782784785,-80464.6505623012,-80504.8526326042,-2417.3198247234
5565849199,7516,0,0,-6719.0386887190,-80314.3916742347,-36925.7232502741,-12639.8886335499,-80540.4674812050,-41178.6253146160,-80474.5428998183,-80463.4459603158,-80504.2442477631,-2416.0057134665
5565849199,7516,0,0,-6719.0995272032,-80313.8562955745,-36912.5334669180,-12640.2536644546,-80541.2948845889,-41338.6305278377,-80473.5694840724,-80463.8353266141,-80504.6944525455,-2416.9304584251
5565849199,7516,0,0,-6719.7322474379,-80314.2578295697,-36887.3585021913,-12639.7912919753,-80541.9276048237,-41466.5008537500,-80473.8615087962,-80463.0079232301,-80503.6601983156,-2416.4924213395
5565868096,7517,0,0,-6720.2311230077,-80315.0487298631,-36883.5135099953,-12640.1563228800,-80543.1078714156,-41393.0444680299,-80474.8470922389,-80463.3607864380,-80504.4024278218,-2417.7578618090
5565868096,7517,0,0,-6720.7908370615,-80314.7323697458,-36906.0724199050,-12640.5578568752,-80543.3268899584,-41212.5245179648,-80474.2995458818,-80463.1904386825,-80504.9743095725,-2418.2689050756
5565868096,7517,0,0,-6720.6204893060,-80314.2213264792,-36923.8129218729,-12641.3487571687,-80540.9663567747,-41164.3039354554,-80475.0904461753,-80464.1030159442,-80504.6822848487,-2418.1350604106
5565868096,7517,0,0,-6719.4523904110,-80314.4890158093,-36913.2148579401,-12639.7304534912,-80541.9762756110,-41312.9323521477,-80474.4333905469,-80462.5698861445,-80504.9378064820,-2416.5045890363
5565868096,7517,0,0,-6719.5984027729,-80315.9004686408,-36889.1471536243,-12640.2536644546,-80544.5314919438,-41457.9712982771,-80475.0296076912,-80465.2589471424,-80505.8260483501,-2416.9426261219
5565868096,7517,0,0,-6719.4888935015,-80314.8783821076,-36881.4571692322,-12639.2802487088,-80545.3223922373,-41404.9688109164,-80474.8592599357,-80464.1395190347,-80505.3636758708,-2417.2468185425
5565868096,7517,0,0,-6718.9656825381,-80314.9878913790,-36901.1079996013,-12639.9981428213,-80542.2561326380,-41225.2762642352,-80475.4798124736,-80464.2611960029,-80504.2077446726,-2416.0422165570
5565868096,7517,0,0,-6719.5132288951,-80314.6715312616,-36922.5109783128,-12640.5821922688,-80540.5283196891,-41155.7257091953,-80474.5794029087,-80463.4824634062,-80505.1568250248,-2417.4171662980
5565927754,7518,0,0,-6719.4888935015,-80312.8950475255,-36915.9282543316,-12639.4627641611,-80540.1389533907,-41283.6082028044,-80474.0196888549,-80463.0687617142,-80503.3438381982,-2416.1760612221
5565927754,7518,0,0,-6719.8052536189,-80313.6981155158,-36890.6559480303,-12640.3023352419,-80541.6842508873,-41443.1388758500,-80473.2774593487,-80462.9227493524,-80503.5385213473,-2417.3563278139
5565927754,7518,0,0,-6719.5497319856,-80313.5034323666,-36880.5445919705,-12640.3145029387,-80542.9253559632,-41420.5191274561,-80474.4455582437,-80462.8010723841,-80504.1955769758,-2417.5510109631
5565927754,7518,0,0,-6719.2942103523,-80314.4160096284,-36897.8957276400,-12640.0711490023,-80541.8911017333,-41241.9946796699,-80473.8615087962,-80462.1075136652,-80503.8183783743,-2417.0277999997
5565927754,7518,0,0,-6719.2212041714,-80313.7467863031,-36920.5519791243,-12639.2437456183,-80540.9298536843,-41145.5413469545,-80474.0196888549,-80462.5090476604,-80503.3925089855,-2416.4924213395
5565927754,7518,0,0,-6719.1360302936,-80314.0631464205,-36917.8142473392,-12640.1684905768,-80541.6599154936,-41259.3823184299,-80474.4455582437,-80463.5311341935,-80503.8427137679,-2416.2003966157
5565927754,7518,0,0,-6718.7223286016,-80313.6859478190,-36893.7830461138,-12639.4262610706,-80542.6454989363,-41429.5718938924,-80474.6645767865,-80463.9326681887,-80505.7895452596,-2415.7866949237
5565927754,7518,0,0,-6719.1238625968,-80314.8175436235,-36879.9362071293,-12639.6817827039,-80544.2759703106,-41430.7399927874,-80474.0440242485,-80464.1030159442,-80504.8039618169,-2416.9791292124
5565935279,7519,0,0,-6719.0386887190,-80314.9635559854,-36895.0849896739,-12640.4240122101,-80542.9253559632,-41264.1642232813,-80474.5428998183,-80463.5919726776,-80504.5849432741,-2417.2589862393
5565935279,7519,0,0,-6719.8174213157,-80314.0144756332,-36919.6394018626,-12640.0468136086,-80540.9298536843,-41150.7369534979,-80473.8250057057,-80462.6185569318,-80504.1955769758,-2417.0399676965
5565935279,7519,0,0,-6720.2311230077,-80314.2091587824,-36921.4280532956,-12640.6673661466,-80540.9785244715,-41239.9261712100,-80474.1413658231,-80463.3851218316,-80504.1590738853,-2416.9669615156
5565935279,7519,0,0,-6720.5353154283,-80314.2699972665,-36898.9178141731,-12640.6308630561,-80542.8401820854,-41419.1198423215,-80474.0318565517,-80464.2246929124,-80504.5119370932,-2417.6848556281
5565935279,7519,0,0,-6719.7687505284,-80314.2821649633,-36882.0290509829,-12639.9251366404,-80542.8888528727,-41450.1109661295,-80474.2995458818,-80463.2269417729,-80504.5119370932,-2417.6361848408
5565935279,7519,0,0,-6719.0508564159,-80314.6715312616,-36892.7244564903,-12639.8886335499,-80542.6454989363,-41289.4486972794,-80473.4599748010,-80462.6550600223,-80504.7674587265,-2416.5775952172
5565935279,7519,0,0,-6719.3307134428,-80314.5863573839,-36918.0576012756,-12639.5601057357,-80540.9541890779,-41154.8252996304,-80473.6546579502,-80462.6672277191,-80503.6480306188,-2416.4437505522
5565935279,7519,0,0,-6720.1459491299,-80315.0974006504,-36924.1779527776,-12639.6939504007,-80541.0880337429,-41223.3172650467,-80474.2022043072,-80463.2147740761,-80504.1712415821,-2416.3950797649
5565964755,7520,0,0,-6720.0729429490,-80314.9027175013,-36904.0890853229,-12639.8886335499,-80542.5359896649,-41404.4334322562,-80474.8227568452,-80464.1516867315,-80505.3880112644,-2416.8452845473
5565964755,7520,0,0,-6719.5740673793,-80314.1726556919,-36883.8542055063,-12640.7160369339,-80542.9010205696,-41459.6017696514,-80474.0440242485,-80463.4337926189,-80503.9765584330,-2417.0156323028
5565964755,7520,0,0,-6719.9999367681,-80315.5354377361,-36892.3837609792,-12640.7768754180,-80543.3147222616,-41318.1036232974,-80474.2630427914,-80462.8984139587,-80505.2054958121,-2417.9160418677
5565964755,7520,0,0,-6718.5519808461,-80314.0753141173,-36915.2955340968,-12638.2946652661,-80540.3093011463,-41164.4986186046,-80473.9710180676,-80462.0345074843,-80503.9522230393,-2415.9448749824
5565964755,7520,0,0,-6719.3063780491,-80314.6836989585,-36925.3217162789,-12639.0612301659,-80541.3800584667,-41203.0458821397,-80475.1026138721,-80463.8109912204,-80503.9522230393,-2415.7015210460
5565964755,7520,0,0,-6719.4645581078,-80314.9392205917,-36906.2671030542,-12639.7669565817,-80543.1200391124,-41384.3932355888,-80475.1512846594,-80463.3729541348,-80505.3150050835,-2416.4437505522
5565964755,7520,0,0,-6719.4523904110,-80315.5476054329,-36886.3972541423,-12640.4605153006,-80544.3976472788,-41468.6058653004,-80475.1999554467,-80464.2246929124,-80505.7043713818,-2417.6483525376
5565964755,7520,0,0,-6719.6470735602,-80314.9148851981,-36890.4490971844,-12639.6209442198,-80543.5459085012,-41340.9302225373,-80474.7497506643,-80464.1760221251,-80505.4975205358,-2416.8209491537
5565993919,7521,0,0,-6718.8075024794,-80314.4281773252,-36914.4437953192,-12639.7912919753,-80542.0127787015,-41175.8145766499,-80474.0196888549,-80462.6185569318,-80503.9157199489,-2416.1030550411
5565993919,7521,0,0,-6719.4280550174,-80314.4038419315,-36927.4632309197,-12640.0468136086,-80540.5404873859,-41191.1702100405,-80474.4820613342,-80463.5067987999,-80503.3925089855,-2416.2368997062
5565993919,7521,0,0,-6719.3915519269,-80314.5255188998,-36910.0269213725,-12639.6817827039,-80541.2583814985,-41363.2092754201,-80474.3360489723,-80463.1052648047,-80503.9887261298,-2416.5410921267
5565993919,7521,0,0,-6719.5984027729,-80315.8031270662,-36887.7235330960,-12639.9981428213,-80544.5314919438,-41465.6369472756,-80477.0494453638,-80464.7965746631,-80505.6557005945,-2417.2224831488
5565993919,7521,0,0,-6720.1702845236,-80316.2898349391,-36888.5022656927,-12641.1054032322,-80545.6265846579,-41363.5134678406,-80476.4897313100,-80465.2224440519,-80506.1667438611,-2418.2445696820
5565993919,7521,0,0,-6719.5740673793,-80315.4380961615,-36911.8520758959,-12640.0346459118,-80542.8888528727,-41188.2864658935,-80475.3459678086,-80464.3585375775,-80504.8769679979,-2417.0764707870
5565993919,7521,0,0,-6719.9147628903,-80315.6936177948,-36927.1833738928,-12640.0468136086,-80541.3557230731,-41172.4927954173,-80475.0661107817,-80464.3828729711,-80506.2275823452,-2417.2954893298
5565993919,7521,0,0,-6719.3307134428,-80314.2821649633,-36912.5821377053,-12640.2171613641,-80541.9762756110,-41336.5133485905,-80474.8592599357,-80463.9326681887,-80504.9621418756,-2416.4194151585
5566030546,7522,0,0,-6718.7101609048,-80313.8806309682,-36888.3927564213,-12639.3897579802,-80543.5824115916,-41463.3494202729,-80474.4455582437,-80463.7623204331,-80504.6701171519,-2415.8962041951
5566030546,7522,0,0,-6719.4037196237,-80314.8418790172,-36885.6306892425,-12640.1928259705,-80544.4706534597,-41379.7816784929,-80474.9200984198,-80464.3585375775,-80505.8260483501,-2417.3198247234
5566030546,7522,0,0,-6719.4888935015,-80314.6958666553,-36907.0701710445,-12640.2779998482,-80541.9762756110,-41199.9674548435,-80474.9322661166,-80463.7379850395,-80504.8891356947,-2416.5532598236
5566030546,7522,0,0,-6719.5984027729,-80314.8905498044,-36924.9566853742,-12640.3145029387,-80541.8180955523,-41160.1060800515,-80475.1269492658,-80463.5919726776,-80504.9378064820,-2416.8939553346
5566030546,7522,0,0,-6718.7588316921,-80315.0487298631,-36914.5533045906,-12639.1220686501,-80541.7329216746,-41309.3307138881,-80474.6037383024,-80464.1516867315,-80505.0229803597,-2416.4924213395
5566030546,7522,0,0,-6720.7056631838,-80317.2754183817,-36890.0962339765,-12641.5312726210,-80545.7847647166,-41453.1528903353,-80476.8304268210,-80466.5730583993,-80507.5173582085,-2418.6096005867
5566030546,7522,0,0,-6718.4424715747,-80315.4015930710,-36882.0533863765,-12639.0855655596,-80544.7018396994,-41397.0598079815,-80476.0151911338,-80464.0421774601,-80506.0694022865,-2416.0543842538
5566030546,7522,0,0,-6718.7101609048,-80315.3407545869,-36903.1765080612,-12638.7570377454,-80542.6698343299,-41216.7345410655,-80474.7132475738,-80464.4923822425,-80504.0617323107,-2416.0300488602
5566060687,7523,0,0,-6719.2942103523,-80314.8297113203,-36923.7885864792,-12639.8886335499,-80541.7085862809,-41149.5688546029,-80475.0661107817,-80463.4946311031,-80504.3659247313,-2416.2734027966
5566060687,7523,0,0,-6719.5253965920,-80314.5498542934,-36917.7290734614,-12640.6795338434,-80541.1853753175,-41286.2485930150,-80475.2851293245,-80463.9570035823,-80505.2054958121,-2417.0277999997
5566060687,7523,0,0,-6719.7322474379,-80314.4160096284,-36892.9313073362,-12639.6087765230,-80542.9740267505,-41443.2970559087,-80474.3725520627,-80463.5189664967,-80505.2054958121,-2416.9304584251
5566060687,7523,0,0,-6719.7322474379,-80316.0464810026,-36883.0633052128,-12640.8133785085,-80545.6022492643,-41412.2815967070,-80476.2463773735,-80464.9547547218,-80505.2176635089,-2418.1350604106
5566060687,7523,0,0,-6719.8052536189,-80315.2434130123,-36900.3657700951,-12640.1441551832,-80543.5215731075,-41234.7427323635,-80475.6744956228,-80463.8474943109,-80505.0229803597,-2417.5145078726
5566060687,7523,0,0,-6720.5474831251,-80316.3263380296,-36923.4478909682,-12640.4361799069,-80541.9762756110,-41146.4782596098,-80475.1147815689,-80464.2125252156,-80505.8625514405,-2417.8917064741
5566060687,7523,0,0,-6720.6083216092,-80316.3141703327,-36921.5497302638,-12641.6164464988,-80542.9131882664,-41262.1322179119,-80475.9908557402,-80465.4292948979,-80506.3127562230,-2418.2445696820
5566060687,7523,0,0,-6719.2455395650,-80315.8761332471,-36896.3991009308,-12640.3145029387,-80544.0082809805,-41431.7742470174,-80475.8813464688,-80465.6239780471,-80505.5583590200,-2417.1129738774
5566089479,7524,0,0,-6719.6592412570,-80317.0929029294,-36883.7203608413,-12640.0954843959,-80545.8456032007,-41434.0009355360,-80477.0372776670,-80465.3927918074,-80507.8945568100,-2417.6118494472
5566089479,7524,0,0,-6719.5010611983,-80317.5309400150,-36898.2972616352,-12639.7061180976,-80545.2128829659,-41261.9253670659,-80477.0981161511,-80466.3175367660,-80507.4808551180,-2416.9791292124
5566089479,7524,0,0,-6719.7930859221,-80316.3993442105,-36922.3041274668,-12640.0589813054,-80543.1808775965,-41147.9140478349,-80476.3193835544,-80465.8551642867,-80506.4831039785,-2416.8209491537
5566089479,7524,0,0,-6720.0121044649,-80316.6670335406,-36924.1292819903,-12641.4217633496,-80543.2782191711,-41244.0145173425,-80476.6722467623,-80465.5266364725,-80506.4344331912,-2417.3928309044
5566089479,7524,0,0,-6720.8760109393,-80316.7643751152,-36901.4486951123,-12640.7647077212,-80544.6288335184,-41421.5047108988,-80477.2197931193,-80466.5122199151,-80506.4344331912,-2417.5996817503
5566089479,7524,0,0,-6720.1824522204,-80316.8373812961,-36885.3021614283,-12640.6551984498,-80545.7482616261,-41446.9108618651,-80477.1711223320,-80466.0011766486,-80507.6633705703,-2417.5388432662
5566089479,7524,0,0,-6720.1094460395,-80316.0586486995,-36897.9930692146,-12639.8156273690,-80545.0547029072,-41289.2296787366,-80476.7452529432,-80464.7235684822,-80506.4222654944,-2417.3441601171
5566089479,7524,0,0,-6719.3915519269,-80315.4015930710,-36922.9490153984,-12639.8764658531,-80542.3413065157,-41160.5562848340,-80475.0052722976,-80464.2611960029,-80505.2906696899,-2416.2612350998
5566114667,7525,0,0,-6719.5984027729,-80315.3894253742,-36929.0450315067,-12640.3753414228,-80541.0028598652,-41231.2992741626,-80474.9687692071,-80464.3098667902,-80504.8891356947,-2415.9083718920
5566114667,7525,0,0,-6720.2432907045,-80315.8274624598,-36909.0656733235,-12640.1441551832,-80542.8766851759,-41413.2063416655,-80475.5041478673,-80464.2611960029,-80505.5826944136,-2416.7722783664
5566114667,7525,0,0,-6718.8075024794,-80314.6471958680,-36889.9015508273,-12640.1198197895,-80543.3633930488,-41465.1502394027,-80473.9831857644,-80463.8596620077,-80505.3271727803,-2416.3707443712
5566114667,7525,0,0,-6719.4888935015,-80315.0608975600,-36898.9543172636,-12640.0468136086,-80543.7892624376,-41317.1667106421,-80474.7375829674,-80463.9326681887,-80505.1811604184,-2417.0399676965
5566114667,7525,0,0,-6719.1603656873,-80314.6958666553,-36924.2752943521,-12640.0224782150,-80542.1709587602,-41165.5085374409,-80475.0782784785,-80463.9813389760,-80504.9013033915,-2416.7114398823
5566114667,7525,0,0,-6719.2090364746,-80314.9148851981,-36932.3181419521,-12640.7160369339,-80541.2340461048,-41210.4438418080,-80474.7984214516,-80464.3342021838,-80505.3028373867,-2417.3806632075
5566114667,7525,0,0,-6718.4668069684,-80313.4060907921,-36912.0224236514,-12638.8787147136,-80541.8302632491,-41388.8831157165,-80473.3139624392,-80462.5333830540,-80503.7332044965,-2416.0300488602
5566114667,7525,0,0,-6719.5132288951,-80315.1460714377,-36891.9335561968,-12639.4262610706,-80544.3368087947,-41467.0605678039,-80474.6159059992,-80463.8839974014,-80505.6070298072,-2416.7722783664
5566154753,7526,0,0,-6718.8683409635,-80315.1339037409,-36897.6523737035,-12639.8156273690,-80543.3877284425,-41342.6823708798,-80475.1634523563,-80463.1782709856,-80504.9256387852,-2417.3198247234
5566154753,7526,0,0,-6720.4501415505,-80316.0464810026,-36922.7421645524,-12640.6551984498,-80542.4751511808,-41183.5045610420,-80474.8470922389,-80464.3585375775,-80505.4001789613,-2417.5510109631
5566154753,7526,0,0,-6720.4136384600,-80315.1339037409,-36933.1820484265,-12640.5213537847,-80541.1245368334,-41200.5636719878,-80475.4798124736,-80464.2490283061,-80505.0838188439,-2416.8939553346
5566154753,7526,0,0,-6719.3672165333,-80315.4380961615,-36915.2346956127,-12639.6331119166,-80541.9276048237,-41374.1602025607,-80475.3581355054,-80463.3729541348,-80505.0473157534,-2416.9547938187
5566154753,7526,0,0,-6719.9756013744,-80316.4966857851,-36893.2598351505,-12640.4118445133,-80544.7018396994,-41474.6653783182,-80476.2585450703,-80465.3441210201,-80505.9963961056,-2418.4514205280
5566154753,7526,0,0,-6720.0486075553,-80315.2190776187,-36893.3085059377,-12639.1707394374,-80544.1177902519,-41362.6860644567,-80475.4554770800,-80464.2855313965,-80506.0450668929,-2416.7966137600
5566154753,7526,0,0,-6719.3672165333,-80315.2920837996,-36915.9039189380,-12640.0833166991,-80543.2295483838,-41188.5419875267,-80474.3238812755,-80463.3121156507,-80504.7917941201,-2416.5167567331
5566154753,7526,0,0,-6719.0873595063,-80314.1239849046,-36928.6678329052,-12638.9882239850,-80540.3579719336,-41178.1629421368,-80473.8006703121,-80462.9835878365,-80504.4145955186,-2416.1152227379
5566186547,7527,0,0,-6718.9170117508,-80314.4768481125,-36914.4559630160,-12639.4262610706,-80541.1367045302,-41340.4678500580,-80473.9466826740,-80463.0809294111,-80504.7552910296,-2415.9448749824
5566186547,7527,0,0,-6719.5497319856,-80315.8517978535,-36889.2931659862,-12640.2536644546,-80545.2737214500,-41459.1272294753,-80475.9178495593,-80464.5045499393,-80505.5948621104,-2418.4270851343
5566186547,7527,0,0,-6719.7809182252,-80315.3164191933,-36884.1705656237,-12639.6696150071,-80543.0348652346,-41371.4346384724,-80474.9566015103,-80464.1273513378,-80504.6822848487,-2417.0399676965
5566186547,7527,0,0,-6719.6592412570,-80315.3285868901,-36905.7560597876,-12640.1076520927,-80542.2561326380,-41189.0165277028,-80474.1291981263,-80463.9570035823,-80504.7431233328,-2416.4802536426
5566186547,7527,0,0,-6718.7831670858,-80314.0874818141,-36921.7079103225,-12639.4870995548,-80540.6986674446,-41149.9825562948,-80474.5550675151,-80461.9006628192,-80503.9157199489,-2415.7623595301
5566186547,7527,0,0,-6719.3307134428,-80314.6106927775,-36910.0025859788,-12639.4992672516,-80541.0393629556,-41306.7389944648,-80473.7276641311,-80463.3729541348,-80503.4898505601,-2416.9547938187
5566186547,7527,0,0,-6718.2599561224,-80314.0874818141,-36883.7933670222,-12639.6087765230,-80542.0127787015,-41449.9771214645,-80474.0683596422,-80463.2512771666,-80504.4754340027,-2415.9935457697
5566186547,7527,0,0,-6719.4767258047,-80314.2213264792,-36877.8433632758,-12639.2559133151,-80543.4972377139,-41389.4428297703,-80474.3117135786,-80463.3729541348,-80504.3902601250,-2416.6262660045
5566215529,7528,0,0,-6719.4888935015,-80314.6958666553,-36898.8813110827,-12639.9129689436,-80543.4485669266,-41209.7746184828,-80474.7619183611,-80463.7988235236,-80504.7674587265,-2417.2468185425
