steady_timestamp,sequence,battery,flags,EEG-ch1,EEG-ch2,EEG-ch3,EEG-ch4,EEG-ch5,EEG-ch6,EEG-ch7,EEG-ch8,EEG-ch9,EEG-ch10
655432071,5570,-2,0,55594.8516719536,62564.9099461299,62953.0716424786,68811.2579486713,79552.5478407567,76772.1682782303,78082.2155243692,64130.6613410029,64097.5165348573,6821.1134973667
655432071,5570,-2,0,56050.1425516745,63032.5510381261,63372.3583073004,69197.9351860076,78671.9472862867,76447.2055991800,78403.8929252773,64570.0003701889,64482.2956114891,7050.0243776967
655432071,5570,-2,0,55890.3198539051,62979.3051968289,63664.2978571732,68834.3644049381,78930.2066513537,77836.0873530347,78049.1558921012,64566.6664212594,64196.3547361500,6895.6649758009
655432071,5570,-2,0,55295.1612992045,62436.7232601003,63383.2727313506,68199.1984630837,80010.4912783849,78945.9638187394,77495.5865251415,64087.8675512767,63606.5621357484,6567.8793910876
655432071,5570,-2,0,55096.5479839637,62168.1456881275,62928.8944288914,68165.7616322143,80417.6224140806,78341.3022928201,77498.4337661981,63804.0681905784,63521.7654565893,6521.4109569208
655432071,5570,-2,0,55505.2730879431,62494.8605155203,62914.5365466404,68708.0150411287,79713.1006003354,76970.6477488061,77994.4012563980,64060.9647736011,63998.1064518138,6795.3544831925
655432071,5570,-2,0,55973.8875956851,62968.4516112628,63313.8681886725,69125.1358559160,78840.4090488003,76564.3805195849,78342.2270377786,64498.3569712954,64420.5202147191,7036.3357187709
655432071,5570,-2,0,55878.6875357424,62972.1019203097,63631.8344420496,68842.8939604110,78988.4047452578,77810.1336557114,78059.6079436721,64548.7069007488,64220.7388005832,6909.1954546680
655475914,5571,-2,0,55308.4849272257,62464.9644844263,63411.3679433147,68209.8938685911,80027.1123522451,79029.7505790621,77498.9934802519,64109.8059086484,63652.2518373185,6570.2520919681
655475914,5571,-2,0,55028.8347511440,62126.0941279074,62948.7399424097,68073.2628009663,80606.2460502298,78715.9213426048,77408.9038529749,63774.3668426336,63476.4286182270,6473.2390451988
655475914,5571,-2,0,55366.5370087679,62366.1262831335,62839.2185033064,68559.2649474682,80069.1030739810,77365.9032124026,77855.7138480101,63947.2333113971,63877.0378684255,6715.7534105768
655475914,5571,-2,0,55876.1566548032,62857.3118684821,63182.6882492244,69049.3676077995,79125.4008437873,76688.0408223965,78277.6043999520,64392.2668226962,64343.2553398934,6989.9281230882
655475914,5571,-2,0,55881.3522613466,62954.7507846402,63567.6498413086,68862.2771014499,79115.0096307005,77770.7224857019,78075.2677694833,64531.7572990744,64239.7204076270,6914.0747010940
655475914,5571,-2,0,55314.1064031579,62460.9248090811,63414.1908489777,68194.8910984084,80184.2824921070,79084.7120656114,77479.1236313401,64104.7563144669,63642.8827107648,6563.4260140504
655475914,5571,-2,0,54968.0449378166,62058.5999136305,62920.3283703281,67976.3592634683,80907.0801864802,79005.5003592940,77314.7137118685,63704.7189460190,63380.4741610813,6418.9954527621
655475914,5571,-2,0,55250.8952181627,62245.3740598627,62756.1009663088,68415.3454294464,80486.8322736094,77846.4663984247,77724.8502686794,63827.5396777498,63734.3472877829,6631.8449732858
655513532,5572,-2,0,55744.5995167536,62718.0282429498,63057.9206860019,68912.4931862382,79590.8517503553,77135.2401837301,78156.7183320161,64252.0462845086,64198.2772322480,6908.3193804967
655513532,5572,-2,0,55812.2397433923,62872.0469493346,63437.1999636698,68814.0808543343,79447.8448095952,77935.4000945036,78034.4329789455,64432.8339239039,64156.9192307469,6880.9420626451
655513532,5572,-2,0,55308.5701011034,62450.7526145371,63362.7214914166,68194.7329183497,80401.5002157902,79135.0863304583,77469.6814986055,64084.9594717360,63606.9880051372,6556.8067869788
655513532,5572,-2,0,54892.4105343652,62002.6041728513,62899.6311180323,67881.2565451002,81256.1957437241,79366.7957810576,77216.7759201406,63659.4307784440,63279.4822774509,6368.2196539200
655513532,5572,-2,0,55091.1941973616,62104.9223354354,62662.4827069531,68255.4010547089,80995.2473176593,78333.9651716358,77574.7982314589,63708.4544289437,63572.2248953140,6541.5363274660
655513532,5572,-2,0,55622.6305238004,62594.6964679525,62917.3594523033,68817.5608156256,80035.3620506910,77442.8517271109,78069.3907719178,64137.5847604952,64098.2709320603,6846.3979713648
655513532,5572,-2,0,55786.6510769736,62837.2108333306,63353.7173957676,68825.1412907463,79712.9424202767,78007.0313257002,78035.6010778405,64401.1614090738,64165.0107491341,6873.8117923069
655513532,5572,-2,0,55310.2005724777,62457.1041522787,63351.1013409507,68225.0669865293,80596.9986006444,79054.6456867619,77476.8117689437,64092.7954684900,63633.4770811207,6557.4151718199
655570982,5573,-2,0,54848.6676642867,61973.9249114397,62887.1957318792,67843.7192004015,81503.0174737775,79449.3657716981,77171.9866281354,63638.5145076054,63249.7444264156,6334.1622705126
655570982,5573,-2,0,55002.3335074636,62030.7480556028,62618.8736815397,68157.6092753429,81337.5854677727,78684.4313432270,77486.0470508323,63647.8106279781,63495.0086912756,6484.9078664520
655570982,5573,-2,0,55529.1582768065,62505.6289272086,62840.8854777711,68724.3805933555,80429.2790676369,77820.9994089743,77993.1479836252,64056.2072041434,64020.1421507602,6796.8997806890
655570982,5573,-2,0,55785.3734688072,62818.1562201058,63271.9139700270,68842.1273955111,79951.4657810968,78139.8295688258,78063.6111159269,64371.7277504591,64179.0766066614,6883.1322480732
655570982,5573,-2,0,55396.7980707666,62526.9345643455,63357.9152511715,68295.1529202294,80665.5635722416,79004.2592542181,77551.8256198571,64150.5311899148,63714.8303020789,6605.3924003928
655570982,5573,-2,0,54890.5975475385,62014.9300497330,62947.8882036320,67845.5321872281,81672.2214657973,79574.1941734047,77169.4070764089,63683.9608552391,63269.5656045402,6348.9946929397
655570982,5573,-2,0,54957.6658924266,61983.9389259249,62611.6825727173,68095.8460462696,81677.1615507074,78955.1260944470,77423.0670520768,63612.7798288249,63442.9552842671,6453.9410780376
655570982,5573,-2,0,55487.6299275498,62450.2294035737,62776.3358461254,68704.9852846198,80752.9033000367,78039.7989332444,77970.7107506837,64010.2863163336,63996.2447941999,6776.4337146329
655575872,5574,-2,0,55802.3230704816,62822.0255476955,63231.0670117924,68891.2362198885,80152.4396295214,78245.0314755570,78109.0087927733,64378.2618036530,64239.9515938666,6903.5009725548
655575872,5574,-2,0,55442.0253998575,62573.0257999109,63364.6683229083,68356.4902799139,80780.9985120009,78986.1293859519,77612.5302593068,64195.4908296756,63803.6544888864,6639.2429329542
655575872,5574,-2,0,54896.9125821897,62035.4934573637,62959.3866771297,67842.6241076874,81806.4676648448,79613.5931757174,77177.4255886152,63703.9523811192,63304.5355652093,6346.2447934577
655575872,5574,-2,0,54882.7372153909,61926.0328567446,62585.0839874624,68003.3593827185,81932.5371716273,79245.9827193026,77346.4105620922,63567.3091457976,63384.7571903630,6398.4928836155
655575872,5574,-2,0,55364.4928357017,62329.2703294568,62681.0141092145,68579.2686410451,81106.6669174669,78377.7810478953,77866.3605827302,63900.9108895922,63884.5210019717,6699.4973676214
655575872,5574,-2,0,55750.0019741429,62740.6601590405,63100.7388111218,68871.6705633972,80375.4613445891,78338.6497349127,78099.1529583467,64298.2470293453,64186.8274295376,6872.0353085707
655575872,5574,-2,0,55501.1482387201,62596.9596595616,63326.8632888794,68436.8822528231,80809.3249102047,78887.4128616274,77681.3142494469,64218.7798013947,63836.2152455846,6665.5859965759
655575872,5574,-2,0,54926.6626009218,62052.9541023047,62995.3665566352,67856.5926236401,81896.6424659996,79532.1061100941,77178.7153644784,63734.8461633526,63292.5747192323,6352.2434679915
655620160,5575,-2,0,54819.9518997846,61860.9235110450,62569.3876585608,67921.4342800096,82186.4405012316,79347.5464846837,77271.2872019074,63515.5477635128,63291.1145956136,6353.3263930087
655620160,5575,-2,0,55278.9660947332,62236.9296782675,62608.6163131180,68497.6842338473,81390.1012472606,78565.0175666067,77792.6000045895,63818.2922281644,63784.9527388695,6643.8058192628
655620160,5575,-2,0,55703.7768939126,62683.4476485791,63025.9318110544,68842.7236126555,80585.4636240562,78489.7360263632,78072.7612239377,64238.5644764288,64134.2751469594,6847.6147410471
655620160,5575,-2,0,55512.2573459195,62598.6509694200,63277.4381043846,68453.5641651673,80905.5348889837,78938.4685174964,77698.4220311799,64202.8887893439,63834.4509295452,6670.6720938478
655620160,5575,-2,0,54947.2016731589,62078.9808058089,62989.6964099157,67853.4168547693,81959.0019122172,79534.4544755809,77174.5783475587,63738.8493356074,63284.7752255688,6349.8464317173
655620160,5575,-2,0,54776.0873527378,61840.2992649301,62572.8797875490,67838.6939416136,82391.1741679745,79577.6011285151,77189.4229376826,63483.3885408097,63218.1814208569,6314.0612353611
655620160,5575,-2,0,55177.8403664377,62155.8928174267,62557.1226201633,68376.6156504590,81737.8175193698,78880.7449637684,77680.7301999994,63729.3098612982,63678.5097270624,6582.1155963705
655620160,5575,-2,0,55652.4292133198,62632.8787005829,62940.0035360908,68812.1826936299,80834.7675642615,78591.3362948347,78048.0486316904,64171.6908146899,64108.3579527265,6821.4298574841
655627233,5576,-2,0,55573.0471592469,62655.1090826784,63279.5552836318,68542.0476564638,80956.8704018797,78883.6773787027,77774.5674778979,64245.4757282242,63921.2187755896,6700.3369387022
655627233,5576,-2,0,55001.0437316004,62141.1820719678,63063.6638389023,67904.7280322717,82024.5614626992,79405.1726968372,77211.3247919639,63804.5914015417,63343.2410088031,6361.9776254498
655627233,5576,-2,0,54756.7772178798,61830.6137782590,62607.0223448341,67815.0277712930,82582.4746974248,79579.2559352830,77166.6693446237,63493.0496920871,63207.9240524351,6287.7060040426
655627233,5576,-2,0,55142.7608964972,62123.2347191540,62544.7602401912,68350.0900713850,81970.1475225070,79017.9114100534,77662.2109654349,63719.1011636638,63659.9661571043,6556.2957437122
655627233,5576,-2,0,55651.8451638723,62627.4519077999,62926.1566971063,68834.8997835983,81024.9973363913,78749.6867012885,78074.8053970040,64178.3830479425,64128.4711555748,6829.5700466586
655627233,5576,-2,0,55646.9294143558,62716.2760946073,63295.4949664699,68642.1878013166,80994.0548833706,79031.6000689792,77872.1524064179,64302.9680957126,64012.9632096346,6755.0915744054
655627233,5576,-2,0,55116.8680376580,62255.5097513162,63147.4992700124,68020.9903754149,81953.3561008914,79458.6132212836,77320.4812001625,63910.6207116569,63460.5376061762,6431.8445406071
655627233,5576,-2,0,54798.8409457968,61886.6703575223,62697.2579844731,67826.5992509716,82623.7596927450,79719.4643057738,77176.4278374757,63548.7047373553,63235.7880781597,6306.7606172673
655664606,5577,-2,0,55097.9959398856,62081.1344881466,62545.0400972181,68286.8667186930,82172.6301653376,79173.1347184237,77606.3977401080,63682.3425515616,63610.8816681205,6529.0157674352
655664606,5577,-2,0,55631.1235761828,62583.2588329389,62859.3438738515,68824.9952783844,81166.8240105596,78707.9028303985,78077.3484456400,64133.7276006023,64123.3485552124,6826.6984702084
655664606,5577,-2,0,55720.6048186187,62762.7688641678,63280.7963887077,68739.4320343255,80949.1682497908,78923.2223933773,77964.1888651866,64344.2287556392,64113.7360747222,6809.3229991453
655664606,5577,-2,0,55202.4677848074,62329.7935404202,63208.2890833398,68102.7329626714,81886.5676130302,79337.7879918317,77390.7496493150,63983.8580788341,63554.8494242509,6487.0250456992
655664606,5577,-2,0,54815.4620196569,61902.5978726636,62734.9778446242,67830.0427091725,82664.6796571605,79695.8711416341,77180.1633204004,63570.2537284287,63251.1923823375,6318.2590907650
655664606,5577,-2,0,55054.0462189611,62044.9112547047,62528.6745449912,68239.6073842327,82300.9263606387,79286.2577957866,77568.2398428713,63654.2108365070,63575.5345088499,6511.2265946800
655664606,5577,-2,0,55574.7263014085,62532.5682079746,62808.0205286523,68782.3353333232,81324.6390383531,78836.3450380615,78046.4303280129,64084.1685714425,64084.3389191980,6803.1418091592
655664606,5577,-2,0,55729.9861128692,62760.6151818301,63220.3594385882,68776.9328759338,80976.6185738233,79006.4251042526,78004.6951279102,64328.4837559503,64127.5342429194,6816.9156419628
655703409,5578,-2,0,55272.4198738425,62389.8654596351,63214.8231365337,68180.5332161573,81785.3445431602,79304.7405272606,77461.7481602769,64028.5256938712,63599.7847286180,6507.7588010855
655703409,5578,-2,0,54815.3403426887,61911.0179188650,62773.6346174307,67805.2206076537,82679.2808933481,79705.7391437575,77150.9973511158,63579.1726501999,63213.1804974627,6292.4027350162
655703409,5578,-2,0,54958.5054635074,61958.2285825381,62499.8857743081,68123.5032211482,82501.2431534348,79389.0748339404,77463.5124763162,63573.3808265122,63452.3730816080,6441.9923997575
655703409,5578,-2,0,55499.5664381332,62447.7228580282,62726.8133200560,68714.1232249338,81504.1734049756,78838.1093541008,77987.7941970231,63995.3930554223,63994.6873290066,6758.6202064841
655703409,5578,-2,0,55751.3525884903,62763.9612984565,63186.7644276600,68816.2588720656,81000.1752348725,78951.6096300652,78044.3618195530,64319.1754678808,64141.6974420214,6841.1415263373
655703409,5578,-2,0,55338.7581569212,62447.9540442678,63259.1257206661,68244.4866306587,81747.8315338550,79226.6604167478,77515.8579080485,64074.8967864634,63650.3780120078,6557.4151718199
655703409,5578,-2,0,54849.6167446389,61947.4358354561,62829.3018303957,67820.8682657680,82703.1660822115,79695.8711416341,77162.9947001832,63614.7266603166,63226.9056594789,6311.5911929060
655703409,5578,-2,0,54946.5811206209,61949.1271453145,62527.3604337343,68093.7166993256,82636.4749359250,79552.6938531185,77434.0058115206,63578.0897251827,63424.8619190914,6428.3402439221
655733595,5579,-2,0,55463.3918754785,62408.6888866202,62714.2927600252,68679.4817920789,81724.6642391042,79048.7321861059,77958.8594139782,63975.4623680263,63958.3059155060,6741.6219340224
655733595,5579,-2,0,55777.2332796327,62771.1159041883,63151.1374113625,68874.0067611873,81104.7322536721,79083.4101220513,78104.8109373694,64335.5653555013,64188.1415407945,6867.3385775971
655733595,5579,-2,0,55450.0439120638,62548.4713877222,63301.6639887591,68375.4110484736,81673.2678877241,79263.0539979452,77639.3113600141,64178.2005324902,63779.3677660278,6614.0801359243
655733595,5579,-2,0,54921.9537022513,62032.9017379405,62931.1089497132,67870.4516303215,82699.3697608028,79680.5763467277,77208.9399233866,63709.8902171688,63298.8654184898,6330.5606322530
655733595,5579,-2,0,54921.6008390434,61938.8089384086,62562.8414376700,68045.5569553004,82808.8181937251,79592.4578863359,77397.0525162693,63579.5133457110,63394.1871554007,6397.6289771410
655733595,5579,-2,0,55432.6806086974,62376.5296639172,62682.7905929506,68653.5645978460,81899.9034087482,79046.6515099492,77944.9152334191,63944.4469088246,63924.0903520399,6716.2766215402
655733595,5579,-2,0,55808.9422975533,62791.6428087286,63134.1026358103,68924.1741751882,81153.7437364749,79058.7583682880,78157.4605615223,64349.1688405493,64218.7919690915,6886.2836815504
655733595,5579,-2,0,55533.0641074867,62622.4631521025,63337.5465266899,68464.8557878190,81618.9269537128,79246.6762780216,77722.7939279163,64243.5167290357,63849.9039045104,6667.6180019453
655767227,5580,-2,0,54986.1139675986,62098.0962575178,62985.3160390594,67922.1400064253,82640.7336298130,79692.4155157364,77256.5521210548,63772.1036510245,63350.1522605985,6369.0348896071
655767227,5580,-2,0,54915.9793631112,61947.1803138228,62596.6554671410,68022.1706420067,82854.2888767525,79729.8190157701,77374.8099664770,63596.5237858694,63396.3651731320,6395.3779532288
655767227,5580,-2,0,55373.3265835951,62328.9052985522,62660.0856706790,68591.9473811346,82048.0207821738,79183.2339067867,77892.5332985963,63909.0997495540,63892.7950358113,6692.1359110435
655767227,5580,-2,0,55804.8782868144,62780.3268506833,63079.4088385912,68948.3148856850,81191.2202426896,79041.5410772836,78188.5855299953,64332.5234312956,64254.8205193842,6900.9579239188
655767227,5580,-2,0,55637.9983248878,62716.7628024803,63358.8764992206,68585.9973773882,81442.5440205674,79205.5616304568,77835.5763097681,64321.5725041549,63978.9058262272,6733.9562850240
655767227,5580,-2,0,55076.3861103281,62196.8979557201,63088.7657974481,67989.8654069418,82489.5013260007,79619.9082103685,77312.9493958291,63864.7849977248,63430.5807365982,6416.4524041261
655767227,5580,-2,0,54923.2556458113,61965.8455607492,62656.5692062972,68005.7685866894,82865.8481887342,79685.9666364202,77359.3448238150,63617.4278890113,63385.1587243581,6394.6843945099
655767227,5580,-2,0,55363.0935505670,62321.2639849474,62660.2803538282,68580.7652677544,82099.0277672556,79118.1245610872,77884.4052771186,63902.8333856902,63888.5606773169,6686.5874412923
655779653,5581,-2,0,55840.5174708088,62806.3170510971,63082.7792906112,69000.1127710602,81180.4396633044,78985.3384856584,78238.4974223630,64360.2657800519,64310.9622725253,6927.6903538389
655779653,5581,-2,0,55735.9239489188,62796.9357568466,63398.5431908633,68702.3327267124,81324.7607153213,79233.7785193892,77940.5957010470,64402.4025141497,64089.7413765874,6789.8181811381
655779653,5581,-2,0,55191.6020315445,62300.1165278691,63166.4078708753,68101.9785654684,82328.8633925442,79664.0161113516,77406.3608043389,63963.8665529541,63528.7375468688,6460.4264604442
655779653,5581,-2,0,54960.6348104514,62004.9282029445,62723.5645450043,68015.7582657810,82830.2698432240,79825.7369698254,77360.3304072577,63659.3456045663,63390.2083185396,6384.1228336676
655779653,5581,-2,0,55315.7125391385,62266.8987155425,62643.0022243396,68512.2611346412,82225.3892987619,79253.8917222376,77820.9750735806,63855.0751756601,63801.6224835169,6634.8990651884
655779653,5581,-2,0,55813.5173515587,62748.4839880977,62987.0560197051,68986.9108200073,81247.3254927401,78896.4291249732,78231.6226736581,64296.4583779124,64256.8890278441,6896.5410499721
655779653,5581,-2,0,55810.5240981403,62831.0661464350,63350.0549190239,68793.9189806986,81188.9205479900,79077.4236152144,78022.8006607828,64421.0555933793,64127.8262676432,6813.5208545492
655779653,5581,-2,0,55256.5288617917,62339.0288223089,63186.7157568727,68147.3884100116,82186.0511349333,79465.5853115631,77448.3028552875,64002.3164749146,63539.6519709190,6468.2016187141
655811975,5582,-2,0,54937.4796833973,61961.0271528073,62709.0119796041,67965.9802180784,82834.3581893565,79728.1642090022,77318.8385610914,63628.3423130614,63313.0894560758,6336.0117604297
655811975,5582,-2,0,55253.8276330970,62180.5810742805,62576.0068856325,68439.9850155129,82305.8056070647,79258.7222978763,77759.2970183851,63781.4606098813,63701.0564692753,6564.6306160359
655811975,5582,-2,0,55769.0687550645,62678.3007128229,62913.6118016818,68948.9476059197,81318.8350469686,78934.8668792368,78196.8230607445,64227.1025060216,64182.3375494100,6845.9234311887
655811975,5582,-2,0,55829.5543759713,62824.9822980235,63299.6928218738,68834.9849574761,81144.6788023418,79139.8438999161,78064.8035502156,64404.4101841255,64127.9966153987,6806.0863917904
655811975,5582,-2,0,55326.2010937999,62402.2521750009,63202.5215950458,68226.4419362703,82038.8098356789,79477.4001451782,77518.1819381417,64051.4861377761,63585.5120202447,6488.8015294353
655811975,5582,-2,0,54959.0773452581,61995.8267657210,62759.5687599034,67969.9712226363,82789.7027420163,79808.4588403368,77316.6848787538,63666.5245456918,63309.0862838211,6334.2839474808
655811975,5582,-2,0,55200.2289285920,62138.5903525445,62569.3146523798,68376.3479611289,82434.4911686641,79367.5258428670,77702.1088433173,63751.6497526651,63643.5032633028,6531.7291638267
655811975,5582,-2,0,55738.4548298580,62639.7656169847,62851.8607403054,68940.5640628087,81408.8395003679,78845.3978044978,78198.6847183584,64192.8017686777,64177.7624954046,6843.0640224353
655846020,5583,-2,0,55897.8394905417,62880.1384677219,63292.5138807482,68936.8164121873,81043.6504156209,79011.0366613485,78163.0333666672,64459.5055153398,64236.9096696609,6868.9325458809
655846020,5583,-2,0,55419.7220115810,62495.4445649678,63282.1956738424,68322.7492566239,81888.6361214901,79372.3199154153,77604.3048962545,64148.0733151566,63702.5165928941,6558.5467676244
655846020,5583,-2,0,54993.0860578782,62039.1802695011,62828.9733025814,67992.7248156952,82736.5420745968,79774.2432768707,77337.2239509909,63716.5337796341,63353.4253710439,6360.8460296453
655846020,5583,-2,0,55188.1342379500,62134.0152985391,62587.6513714920,68357.8895650485,82462.7323929902,79400.9383383428,77685.6946203031,63754.1441305138,63635.7889435171,6530.9139281395
655846020,5583,-2,0,55720.9941849171,62623.3392262737,62842.7593030818,68923.6874673153,81471.9046730012,78876.2794190344,78191.8951435312,64180.1838670723,64166.5195435402,6845.9234311887
655846020,5583,-2,0,55949.0533264695,62915.9966702591,63279.9689853238,69002.8383351486,80986.9976192133,79046.7731869174,78231.4523259026,64479.6673889754,64291.3844483372,6918.3698980725
655846020,5583,-2,0,55546.2295554491,62606.6451462326,63339.2500042452,68446.5434041005,81675.2512223062,79392.7251429873,77719.4234758963,64242.0201023265,63816.3332289759,6639.9364916731
655846020,5583,-2,0,55060.7384522138,62114.9485176176,62931.0602789259,68022.6938529701,82601.4076336812,79819.0569042696,77364.0537224855,63792.5575493839,63404.0308221305,6406.2923772790
655883567,5584,-2,0,55142.7487288004,62104.9223354354,62622.4753197993,68285.7351228885,82520.9061515007,79461.9958410003,77625.4523533328,63738.0827707075,63596.6576305345,6524.9760920899
655883567,5584,-2,0,55667.5293250770,62569.6553478909,62794.5265528757,68881.1005284350,81524.9436634524,78753.9818982670,78156.7304997129,64129.2985589588,64132.2918123772,6839.5962288407
655883567,5584,-2,0,55979.6307485855,62934.5159048236,63247.3960609288,69062.3870434000,80876.9894722371,78864.9026225049,78283.2745466715,64488.1239382673,64343.2918429839,6958.9491669770
655883567,5584,-2,0,55621.0365555166,62679.8581780163,63377.0063674867,68533.0678962084,81477.6113228111,79281.7557479621,77791.8577750833,64300.3155378052,63900.9473926826,6694.7154627700
655883567,5584,-2,0,55102.1816275927,62163.3029447919,62977.6138869705,68054.9139141573,82442.5218485673,79784.2086205687,77386.5882970016,63827.9533794418,63439.4753229757,6424.4465809388
655883567,5584,-2,0,55131.3110937868,62099.9944182222,62636.5655127203,68258.3943081273,82453.2050863778,79499.9225519974,77596.7122534370,63728.4946256111,63572.1275537394,6508.4645275012
655883567,5584,-2,0,55628.9577261483,62526.0341547806,62774.9487286876,68837.3698260534,81546.1884621052,78783.2817122166,78117.5626836398,64089.2303333208,64088.4516007242,6820.2860939827
655883567,5584,-2,0,55993.3680782986,62921.0584321375,63206.8167920242,69098.7197861133,80801.7931058713,78780.6899927933,78323.1115860698,64473.6200436544,64367.7002428107,6978.5269911651
655923474,5585,-2,0,55727.6012442919,62760.0067969890,63404.7243808494,68660.4636819446,81221.1771122676,79218.8609230843,77907.5482364758,64378.7850146164,64010.5418379669,6763.0005773403
655923474,5585,-2,0,55180.3104088928,62238.0126032848,63068.3605698760,68120.0232598568,82234.4177298045,79764.0102438426,77442.4380254189,63915.6094673543,63501.6887568314,6471.3043814039
655923474,5585,-2,0,55108.4601591533,62083.1543258192,62666.4128730269,68223.2296643090,82433.7246037643,79508.7684675877,77570.2961836344,63732.8141579832,63538.8732383223,6499.5821088205
655923474,5585,-2,0,55589.7412392880,62485.4427181793,62733.5420563991,68815.9911827355,81556.0321288350,78665.5470777578,78109.4955006462,64061.4271460804,64059.8453454934,6804.9426282890
655923474,5585,-2,0,56013.9679890199,62936.4384009217,63175.4606373115,69152.3428260120,80703.6119602070,78600.2673843028,78389.1578444247,64492.6868245759,64413.9253230410,7006.4275199801
655923474,5585,-2,0,55804.3064050637,62830.9444694667,63430.6537427791,68753.6195688211,81020.8968225620,79126.8609674060,78005.9605683798,64448.5667558960,64102.6391352197,6820.5902864033
655923474,5585,-2,0,55247.6464431110,62308.9624434594,63131.0485439078,68179.9856698003,82025.1698475404,79754.1665771128,77504.9191486047,63985.4155440275,63573.4903357836,6509.1094154328
655923474,5585,-2,0,55115.5295910075,62098.8019839335,62722.3234399283,68209.9425393784,82326.7097102065,79586.2523609562,77559.9779767285,63757.3077316878,63549.0697682600,6493.9119621010
655957078,5586,-2,0,55540.1092039472,62440.2518921789,62738.6524890647,68755.0066862589,81575.9384808373,78729.7195108020,78056.7241995251,64028.5378615680,64017.1732327354,6774.8154109554
655957078,5586,-2,0,55998.2594924214,62907.1629223657,63129.3085632621,69157.9399665506,80654.3936265582,78424.4076621208,78398.3201201324,64458.9214658923,64413.0735842634,7005.2350856915
655957078,5586,-2,0,55897.5718012116,62906.8708976419,63448.1630585073,68868.8841608248,80759.7172102576,78958.1558509560,78107.8528615751,64509.2592276488,64199.9563744096,6872.6193580182
655957078,5586,-2,0,55339.9870943003,62399.8794741204,63225.9200760363,68253.5150617013,81763.7103782090,79646.3364478679,77564.4435214625,64070.7962726341,63640.0354697083,6542.5219109086
655957078,5586,-2,0,55112.9013684937,62099.6658904079,62769.7409544474,68177.1992672278,82229.1369493833,79533.8825938303,77534.5474903686,63763.3307416152,63518.9912217137,6472.7158342354
655957078,5586,-2,0,55502.2554991310,62395.1949108436,62708.1967439169,68712.0790518675,81521.0743358627,78594.6824114610,78027.9354288420,63992.7648329085,63982.8603276947,6741.3177416018
655957078,5586,-2,0,56000.3888393654,62893.8879651318,63095.1538382801,69174.5732081076,80527.6062256631,78212.4828865556,78421.9741227562,64453.9448778917,64443.6875094699,7003.6289497108
655957078,5586,-2,0,55960.6248061481,62955.6025234178,63450.4870886005,68949.3369722181,80515.0369948450,78854.2923908753,78189.9726474332,64559.6943309799,64299.8409976291,6910.2175412011
655964862,5587,-2,0,55423.0681282073,62481.9870922816,63280.7112148300,68336.6812694861,81451.9253148179,79634.9718190353,77645.6994008461,64155.4956102186,63746.2229598821,6591.6550706797
655964862,5587,-2,0,55141.8361515387,62146.0613183938,62849.5245425154,68188.3327098208,82009.4370155483,79605.5138250269,77544.4033247951,63825.5320077740,63562.5394086430,6499.7159534855
655964862,5587,-2,0,55468.8065005648,62378.1601352914,62747.4619015645,68666.3041764196,81463.6549745552,78617.6306876691,77986.0298809838,63994.3101304051,63959.5591882787,6747.3042484387
655964862,5587,-2,0,56002.6276955809,62884.4701677909,63079.8347079800,69194.7594171368,80434.9248789628,77930.9832205568,78443.4136045582,64446.4374089519,64454.6262689138,7040.5579095685
655964862,5587,-2,0,56078.4567821814,63045.8381630567,63480.9793368388,69088.7544424153,80215.2857836118,78535.5352372047,78315.3607631936,64639.2832358987,64419.2061034622,7003.7384589822
655964862,5587,-2,0,55555.2336510981,62605.8664136360,63390.4881755666,68457.2996480920,81119.9540423976,79460.6817297435,77748.0418988239,64273.8994680026,63867.4497233291,6675.4539986993
655964862,5587,-2,0,55189.9593924734,62194.9632919252,62926.0350201380,68212.9722958873,81815.7272821271,79527.9082546902,77562.2655037312,63877.0500361224,63589.8437203136,6519.2207714927
655964862,5587,-2,0,55462.9051676056,62366.3818047668,62747.2307153249,68650.2306489165,81344.0343470889,78506.0164047123,77975.8576864398,63987.5813940620,63938.1075387799,6730.9873669992
656002225,5588,-2,0,55990.1801417310,62863.9554309474,63052.6277378839,69188.7729102999,80312.2988303812,77755.2451753431,78447.3316029352,64434.0628612830,64447.8731971770,7029.5826470342
656002225,5588,-2,0,56111.6137560240,63063.6760065992,63461.4988542253,69143.3387303631,79987.6890145387,78360.1987259861,78375.4448501053,64659.3477679598,64464.7619603673,7030.7872490196
656002225,5588,-2,0,55638.8865667558,62677.8870111310,63428.5974020160,68547.2919337944,80779.4045437171,79392.2992735985,77836.0386822474,64345.9078978008,63948.1823917493,6723.0053578833
656002225,5588,-2,0,55223.1772048000,62236.5646473629,62995.4760659066,68222.8768011012,81556.2633150746,79594.1126931038,77572.3038536102,63928.8844245881,63612.5364748884,6532.7512503598
656002225,5588,-2,0,55399.1586039502,62320.5460908348,62756.5025003040,68573.0022771813,81267.1223354711,78552.5335096664,77908.2904659820,63957.5515183029,63879.4957431838,6698.3779395137
656002225,5588,-2,0,55934.4764256756,62812.5590795673,62995.9141029922,69151.8926212296,80233.6711735113,77510.5892953242,78423.2760663162,64380.5371629589,64415.0447511487,7015.7236403528
656002225,5588,-2,0,56170.3715639819,63116.4351400234,63451.9715476129,69234.3287672050,79729.6851711051,77974.4705690020,78465.9116759838,64695.4736598271,64549.9358381279,7089.7884109141
656002225,5588,-2,0,55745.1348954138,62787.5787979898,63509.9141198837,68656.7768698073,80463.3607864380,79145.0151710659,77934.7795419656,64439.1367908582,64056.4383903830,6797.3499854715
656039736,5589,-2,0,55264.3040200616,62288.4112035254,63067.0707940128,68249.8525849576,81339.1916037534,79488.9107863727,77595.5928253293,63975.1825109994,63643.1138970045,6557.6098549691
656039736,5589,-2,0,55379.8606367891,62304.0101908524,62761.3939144268,68542.4005196716,81146.1389259606,78501.2588352545,77882.7626380475,63946.1868894703,63853.6637228287,6686.8307952287
656039736,5589,-2,0,55898.4722107765,62766.3705024274,62958.4254290807,69118.5896350252,80161.8939299528,77439.0554057021,78392.2119363273,64348.1224186226,64374.0031097650,6999.9299698767
656039736,5589,-2,0,56174.6789286573,63097.3683591019,63386.9473757911,69262.7038361961,79565.1535746652,77734.7304384996,78491.1718145883,64678.0251825830,64553.1481100891,7104.2071316493
656039736,5589,-2,0,55819.4065168210,62841.1166640107,63498.1114539655,68740.7826486729,80144.9078251880,78972.4528947229,78010.6207962630,64486.3109514407,64114.2957887761,6841.3605448801
656039736,5589,-2,0,55306.4164187658,62334.6241160589,63115.4252211871,68264.2591379960,81078.2310099917,79521.6662262200,77603.7816852911,64022.0524791614,63652.3735142867,6571.7730540710
656039736,5589,-2,0,55324.0839145527,62261.4475873658,62765.6891114053,68456.7764371286,81088.4883784135,78595.5706533291,77803.5996025175,63912.0443321851,63774.4033457240,6647.1641035859
656039736,5589,-2,0,55826.2690978291,62698.1462263412,62890.2741591754,69045.7051310558,80134.8573076122,77306.6951996622,78334.4275441151,64277.0874045702,64306.8860940896,6961.0663462242
656088326,5590,-2,0,56179.4121627214,63101.4445375376,63344.8471447837,69289.4484338130,79395.4872101661,77417.1170483303,78524.3287884308,64675.3847923724,64584.6989479510,7115.9611267802
656088326,5590,-2,0,55873.7231154386,62911.1295915299,63538.2040149971,68806.6220561818,79897.3073625379,78733.6496768759,78070.3155168763,64550.7875769055,64195.3204819201,6881.1732488847
656088326,5590,-2,0,55326.1645907094,62384.3656606711,63174.2316999324,68279.1645666041,80884.3387611181,79417.5350768093,77617.1296487059,64070.9179496023,63691.4439887852,6585.1696882730
656088326,5590,-2,0,55289.0652830963,62259.0505510917,62795.8528318294,68417.0245716080,80993.7993617373,78615.1119744267,77767.7170645866,63912.6283816326,63754.5821675995,6625.1892431237
656088326,5590,-2,0,55756.9010582416,62654.7683871674,62887.1105580014,68981.5692011021,80140.8681498427,77368.1664040117,78277.2880398346,64236.2769494261,64252.3626446260,6922.1053809971
656088326,5590,-2,0,56152.5702235300,63077.8513733979,63309.1836253957,69292.2348363854,79343.0322691624,77226.4614068117,78529.7920843043,64639.5630929257,64582.8129549435,7110.2788123639
656088326,5590,-2,0,55947.9947368459,62978.0397563593,63559.0716150484,68904.4016678510,79658.7474986273,78483.1046315946,78157.2658783731,64596.1730860551,64279.8981425363,6925.0256282346
656088326,5590,-2,0,55388.7795585603,62454.8409606696,63265.9517985838,68321.6663316066,80675.1273819445,79404.6494858738,77647.0378474967,64133.2530604262,63739.9687637151,6610.2959822124
656092348,5591,-2,0,55244.5558481179,62231.8557486924,62841.6277072773,68344.9918064162,80987.1192961815,78754.0670721448,77700.7582289699,63893.6346068920,63707.7730379216,6594.6604917949
656092348,5591,-2,0,55679.8795373523,62582.6139450073,62850.5222936549,68909.3660881547,80191.7169548658,77363.8468716395,78215.8898416660,64173.5646400006,64200.0293805905,6885.7239674965
656092348,5591,-2,0,56136.6548760856,63054.5137308915,63270.2226601686,69303.1005896483,79287.7665901926,77045.8927859592,78542.1787996700,64619.4255546837,64603.7778965694,7115.4135804232
656092348,5591,-2,0,55997.0913935264,63019.3855901637,63572.3587399791,68973.4776827148,79497.4160064519,78296.8901994163,78217.8731762482,64637.7379384022,64361.8110775484,6960.7256507131
656092348,5591,-2,0,55437.6450290012,62507.7826095462,63319.5870061793,68371.6512301553,80503.8792168584,79319.0010679371,77689.6734571642,64186.4989017234,63807.2439594492,6636.9675736483
656092348,5591,-2,0,55236.4278266402,62239.6917454464,62892.6346923591,68325.2436344726,80910.3654646224,78821.4517771502,77675.0600532799,63905.8509745023,63708.9654722102,6591.2413689877
656092348,5591,-2,0,55611.4970812074,62526.6668750154,62852.5786344179,68832.4297411433,80246.9948015324,77490.0623907839,78138.1869297547,64127.1570443179,64140.2981568867,6857.0447060848
656092348,5591,-2,0,56086.0372573021,62997.2403819459,63215.8330553701,69273.3992417035,79302.1974786246,76900.1967842013,78512.9763272950,64556.9931022852,64573.7966915977,7111.0332095669
656133145,5592,-2,0,56043.8396847202,63051.8855083777,63559.1324535325,69047.0800807968,79304.8013657447,77986.6139304313,78272.8833335847,64656.7803839301,64428.5752300159,7011.1364186506
656133145,5592,-2,0,55487.4109090070,62560.2010474595,63383.3944083188,68408.4098422574,80299.8999473186,79214.8212477391,77701.1110921778,64236.9705081450,63860.3316206876,6673.3976579362
656133145,5592,-2,0,55186.5767727566,62201.1931526986,62909.7911448794,68247.3947101994,80880.7371228586,78906.4796425489,77585.1529414552,63878.2546381078,63656.7660528398,6558.0843951452
656133145,5592,-2,0,55526.3475388404,62440.0450413329,62787.2502701756,68743.8124051818,80286.7101639625,77520.7006513841,78045.1648875433,64053.0557706662,64064.0553685942,6800.5257543423
656133145,5592,-2,0,56044.5575788327,62942.5465847268,63138.1788142460,69245.5838867663,79293.0473706138,76814.8525586852,78475.3781441121,64512.8000274243,64544.9105793400,7080.2246012113
656133145,5592,-2,0,56070.6207854275,63063.4934911468,63526.2188336265,69096.0185574186,79193.7346291449,77821.4131106662,78307.3544186841,64671.2477754526,64466.2464193797,7026.8692506427
656133145,5592,-2,0,55550.5004170340,62615.9169312117,63410.3215213880,68481.9635695521,80123.2128217526,79109.1082977414,77756.2672618762,64294.9739189000,63920.2575275406,6705.8489053630
656133145,5592,-2,0,55208.4056208570,62226.8548252981,62969.3276854341,68259.1730407240,80792.7525071319,79001.9838949122,77584.3985442522,63923.4332964114,63669.2014389929,6570.1425826967
656202189,5593,-2,0,55471.2765430198,62393.8686318899,62809.7483416012,68682.5115485878,80371.4703400311,77716.9047626540,77981.1019637705,64033.1494186639,64011.4787506222,6781.8726751127
656202189,5593,-2,0,55993.9521277461,62883.1317211404,63093.5720376931,69218.8757922399,79367.7205260162,76744.8274634692,78454.1698485497,64463.1679920835,64512.4471642164,7073.9095665601
656202189,5593,-2,0,56125.4119242212,63089.6418716193,63502.2119677948,69179.7931500446,79057.8701264200,77517.0990131245,78383.8770640036,64694.7922688050,64534.0326583803,7072.0357412494
656202189,5593,-2,0,55631.8779733858,62681.9145187794,63463.9810643771,68555.6876446023,79926.8992012113,78940.8533860737,77818.8578943334,64362.9548410497,63990.4651382090,6747.3772546197
656202189,5593,-2,0,55209.5615520552,62228.9598368485,63007.4369118835,68234.5821254448,80730.8432656967,79032.7438324806,77563.1537455993,63934.5302359139,63660.2216787375,6553.3511610810
656202189,5593,-2,0,55420.0748747889,62346.8526513660,62784.2448490603,68622.4517970697,80393.3843620093,77760.7206389134,77930.4478418966,63991.3655477739,63966.6286201329,6735.8422780315
656202189,5593,-2,0,55955.2223487587,62846.5556244906,63061.6318335329,69188.8094133904,79388.2230951628,76735.9085416979,78428.9705484294,64424.9735917563,64488.3551245070,7052.1780600344
656202189,5593,-2,0,56146.8392383264,63107.0173426825,63493.5485676569,69226.0060625781,78986.1293859519,77351.0342868850,78433.5456024348,64699.6715152310,64575.2811506101,7099.3765560106
656209717,5594,-2,0,55713.3772067059,62763.3407459185,63510.9605418105,68650.2914874006,79738.6040928763,78775.0806845580,77906.4409760650,64427.2246156685,64076.4420839599,6799.8443633202
656209717,5594,-2,0,55254.6063656937,62287.4012846891,63088.4129342402,68262.4096480789,80604.5547403714,79094.1298629523,77582.3057003986,63987.0216800081,63683.6323274249,6573.0141591469
656209717,5594,-2,0,55366.3909964061,62306.9426057868,62803.3724684660,68545.3572699996,80455.8898205887,77953.4569565888,77862.3087396881,63959.1941573740,63888.1226402312,6703.6830553285
656209717,5594,-2,0,55887.4604451517,62773.0627356800,62994.7338364004,69125.7320730603,79470.8052535001,76707.8011620370,78380.7743013137,64357.4428743889,64416.6873902198,7022.6713952387
656209717,5594,-2,0,56170.4324024661,63116.2647922679,63447.8832014804,69271.9269503879,78883.3488508885,77079.1349336795,78482.8491099614,64704.4777554761,64605.6395541833,7134.4681936479
656209717,5594,-2,0,55784.6677423915,62836.6632869735,63559.4488136499,68719.3188314772,79556.3319944686,78594.9501007911,77971.4894832804,64494.4876437057,64142.2084852879,6862.9582067408
656209717,5594,-2,0,55265.7884790740,62317.7718559592,63143.7516193909,68250.9355099749,80512.3357661503,79087.1699403696,77579.4219562516,64014.8613703390,63689.0591202079,6599.2963842845
656209717,5594,-2,0,55328.2087637757,62282.2665166298,62809.9186893567,68490.4931250249,80457.6298012344,78021.4865495259,77818.8578943334,63937.5234893324,63853.5785489509,6695.6402077285
656217102,5595,-2,0,55837.3660373317,62727.6042203495,62972.5886281826,69073.9098522914,79528.7234903773,76780.9655230333,78339.2337843602,64317.1191271177,64382.4231559664,7000.5991932019
656217102,5595,-2,0,56161.2457913647,63092.5377834632,63396.9248871859,69283.4740946729,78859.8408606266,76926.0409722532,78499.4458484279,64674.0098426314,64616.1159411479,7127.3744264002
656217102,5595,-2,0,55859.1218792511,62885.1637265098,63549.1914452282,68804.2493553013,79364.7394402946,78350.2212145913,78048.6691842283,64531.8059698617,64215.4945232525,6890.5667108321
656217102,5595,-2,0,55321.5165305230,62361.1983659203,63193.8703626046,68281.9022983893,80342.7302401354,79077.2289320653,77598.5617433541,64057.8376755176,63714.0150663918,6603.3968981138
656217102,5595,-2,0,55275.8876674370,62227.0373407505,62814.6640911177,68411.8046296710,80479.0449476428,78180.0559745225,77745.5353532784,63895.2042397822,63774.6345319637,6644.8887442800
656217102,5595,-2,0,55757.2539214494,62630.1774718882,62893.5107665303,69000.3926280872,79590.5232225411,76766.2426098775,78276.7526611744,64226.0317487012,64290.4962064691,6948.3876061347
656217102,5595,-2,0,56165.3219698004,63065.2091363989,63330.3797532612,69314.1731937572,78774.2897842645,76685.0354012812,78531.1913694389,64645.5982705499,64613.3782093627,7134.8940630367
656217102,5595,-2,0,55923.5620016254,62931.9971915813,63567.1144626484,68880.5894851685,79179.2429022288,78150.3546265777,78115.3238274244,64575.1959767323,64261.2207279131,6927.7876954134
656255810,5596,-2,0,55355.0628706639,62396.6306990687,63241.0323554904,68306.0916796732,80215.0545973722,79032.5248139378,77620.3662560608,64097.6138764318,63721.5347030283,6614.8345331274
656255810,5596,-2,0,55246.9528843921,62208.8101309097,62830.6281093494,68369.5340509081,80460.3918684132,78270.4619619169,77705.2967798849,63886.8571997617,63721.7050507839,6621.8431264974
656255810,5596,-2,0,55689.0661484537,62571.9550425904,62872.3389740584,68927.2891055749,79678.7146891138,76921.3564089764,78211.2052783892,64179.4538052629,64208.9848054522,6911.7871740913
656255810,5596,-2,0,56123.9274652088,63022.6830360027,63270.8432127066,69295.3497667721,78824.7005522019,76597.6226673052,78517.9164122051,64597.2316756787,64586.0738976920,7125.1112347911
656255810,5596,-2,0,55982.7821820626,62983.4057106582,63554.5452318303,68964.0963884643,79033.5712358646,77893.7013974913,78193.8054719324,64605.9680819975,64344.3139295170,6968.1722811688
656255810,5596,-2,0,55423.4574945057,62471.8027300408,63303.9758511554,68358.1694220754,80058.2373207181,78995.9852203785,77658.2929670579,64158.9755715099,63792.2655246601,6641.3114414141
656255810,5596,-2,0,55218.0059336503,62195.8880368838,62855.9612541347,68308.3548712823,80486.2117210715,78433.2657454079,77647.9017539711,63873.7282548897,63690.5557469171,6586.4472964394
656255810,5596,-2,0,55615.4272472812,62504.1323004994,62806.2440449162,68846.4834309737,79765.3365227963,76962.2642056951,78141.9832511635,64107.4575431616,64143.5347642416,6855.9861164613
656300981,5597,-2,0,56102.4514803163,62993.9186007132,63201.2439868793,69290.7868804635,78807.5440996816,76450.0163371461,78522.1264353058,64561.6654978652,64574.3807410452,7106.8961926471
656300981,5597,-2,0,56026.4520459602,63017.3049140069,63542.8764105771,69023.4382458698,78899.4467137853,77695.6842993948,78252.2225843793,64634.5378341378,64386.3411543434,6991.5950975529
656300981,5597,-2,0,55469.1228606822,62515.8984633271,63332.5821063862,68406.4265076752,79901.5538887291,78878.5426106434,77705.6861461832,64205.5291795545,63825.5441754709,6663.3836434509
656300981,5597,-2,0,55215.9739282808,62202.3734192904,62890.6270223833,68298.8884031541,80407.9004243190,78479.1744655208,77638.0702549382,63894.4498425792,63681.5029804809,6579.4021999790
656300981,5597,-2,0,55562.4369276173,62460.0365672130,62814.5789172399,68788.4800202188,79824.4471939621,77114.9931362167,78089.3822977979,64088.8531347193,64103.4665386037,6829.2050157540
656300981,5597,-2,0,56066.1795760871,62952.8161208453,63162.5263755887,69276.2708181537,78853.1607950708,76363.1024787398,78512.0272469428,64532.3656839156,64572.5920896122,7103.4892375367
656300981,5597,-2,0,56091.8047455962,63072.6679345513,63537.5712947623,69123.1646890306,78737.0201288958,77388.1579298917,78341.3022928201,64684.8877635911,64489.8760866098,7039.9738601210
656300981,5597,-2,0,55554.7104401347,62613.9700997200,63414.7748984252,68486.8428159781,79702.1253378011,78777.3803792575,77772.1461062302,64298.8675818833,63924.0295135557,6705.8489053630
656310830,5598,-2,0,55192.9161428014,62206.2549145769,62936.5844132835,68253.9652664838,80387.8967307421,78611.3278207148,77596.3472225323,63903.6851244678,63656.5226989034,6560.0068912432
656310830,5598,-2,0,55475.0971998222,62385.0713870869,62763.1703981630,68703.2696393677,79898.7674861567,77194.5577057419,78017.8362404790,64020.5436847553,64016.9177111021,6787.5671572259
656310830,5598,-2,0,56012.8242255185,62891.5761027355,63088.6441204798,69241.6415529956,78880.9031438271,76316.0621628223,78484.2118920055,64472.6831309990,64521.7189491955,7094.6554896433
656310830,5598,-2,0,56105.8706031235,63069.5895072551,63500.4111486650,69158.9377176901,78663.3203892392,77221.2171294810,78377.8662217730,64675.3969600692,64500.5349890267,7075.8198949613
656310830,5598,-2,0,55603.3933951233,62651.9819845949,63429.3639669159,68539.3464277691,79554.6163492166,78629.4941920715,77820.7073842505,64326.9749615443,63958.3059155060,6748.7400366638
656310830,5598,-2,0,55205.2906904703,62222.0485850531,62979.6093892495,68246.0805989425,80310.4493404641,78667.6155862177,77583.5711408682,63915.7919828066,63651.4366016314,6564.9104730628
656310830,5598,-2,0,55413.0419460252,62334.1009050956,62763.2555720407,68617.7185630056,79983.6615068903,77401.2382039764,77937.3225906016,63972.0310775223,63942.9624498122,6736.5115013568
656310830,5598,-2,0,55943.2980058722,62821.0034611624,63019.5194348287,69179.6228022891,78985.5940072917,76304.5028508405,78435.8574648312,64397.9004663252,64461.8295454330,7039.5844938226
656345938,5599,-2,0,56138.8328938169,63089.1794991400,63458.5786069877,69218.6689413939,78564.4091817655,76948.5390436789,78439.3860969098,64683.8900124517,64553.6469856589,7082.9379976028
656345938,5599,-2,0,55683.7123618516,62730.8164923108,63491.6504069525,68617.8280722770,79377.6858697142,78495.1506514494,77891.1096780681,64403.7044577098,64037.9191558185,6782.2377060174
656345938,5599,-2,0,55213.7229043686,62242.0766140237,63044.2928655602,68231.4915304518,80265.5262037938,78746.1702369067,77572.6445491212,63948.6934350158,63645.6934487309,6561.9658904317
656345938,5599,-2,0,55370.6861933846,62298.3400441329,62767.0883965399,68568.1717015426,80032.3444618789,77481.4111583428,77898.5806439173,63950.6037634170,63904.4516893676,6717.2622049829
656345938,5599,-2,0,55906.2838721368,62781.9086512703,62991.8744276470,69152.2333167406,79030.5049762652,76316.4515291207,78414.0286167308,64366.6173177934,64440.3778959341,7034.2307072205
656345938,5599,-2,0,56154.8577505327,63085.9793948756,63425.9570118054,69258.2139560685,78513.5968798329,76779.2133746908,78480.4399059904,64679.0594368129,64587.3028350711,7116.0949714453
656345938,5599,-2,0,55768.3508609519,62792.9690876824,63504.7793518245,68714.5855974131,79198.1636707885,78275.6575684603,77978.2425550171,64455.2468214518,64126.1836285721,6843.9887673938
656345938,5599,-2,0,55271.9696690600,62294.4707165432,63102.6734749167,68267.5565838350,80122.6531076988,78755.3081772207,77601.7131768312,63998.2646318725,63689.4728218999,6595.0011873060
656404570,5600,-2,0,55325.2641811445,62258.4543339473,62778.7085470059,68491.1136775629,80084.9819183350,77693.2264246366,77831.4027897579,63924.4918860350,63841.5811998835,6697.3193498901
656404570,5600,-2,0,55832.9978341722,62704.1814039653,62927.9088454488,69076.5624101988,79138.4081116910,76354.4512462987,78357.6070065628,64298.6120602500,64376.9963631834,7015.6141310814
656404570,5600,-2,0,56172.1602154149,63091.8198893506,63380.8026888955,69296.4813625766,78455.6664752589,76547.6012656661,78522.5036339073,64681.0549390919,64633.5157476047,7151.6368138651
656404570,5600,-2,0,55844.3746307017,62871.7549246109,63550.6028980597,68788.7112064584,79033.9119313756,78118.1102299969,78044.9580366973,64530.8933926000,64209.2159916919,6896.5653853658
656404570,5600,-2,0,55294.8692744808,62331.9715581515,63163.9378284202,68267.7756023778,80056.6555201312,78788.7571757870,77600.2895563029,64036.3495229283,63693.4881618515,6602.1192899474
656404570,5600,-2,0,55282.3730498436,62225.1391800461,62786.6297176376,68435.9818432582,80126.5711060758,77799.7059395341,77777.6702405878,63897.8081269023,63780.2073371086,6662.8604324875
656404570,5600,-2,0,55772.3783686003,62644.3041678996,62901.3102601938,69017.4882421234,79237.6356792821,76479.8393620591,78299.6035958079,64250.5131547089,64298.5755571595,6972.3944719663
656404570,5600,-2,0,56149.1511007227,63053.7836690821,63336.2324154331,69296.7490519067,78499.1051529168,76467.6716652362,78521.8465782789,64646.6325247798,64605.8950758166,7146.7210643486
656471330,5601,5,0,55907.5249772127,62918.7830728316,63558.3658886327,68874.2622828205,78917.1750480563,77913.0115323494,78125.5568604525,64571.0346244189,64271.8431272395,6940.9044725886
656471330,5601,5,0,55356.1822987716,62401.1692499836,63243.3320501899,68318.5514012199,79941.6464497607,78811.2309118189,77639.7372294029,64111.8257463210,63753.9737827583,6638.9509082304
656471330,5601,5,0,55248.1818217712,62215.0156562894,62835.6898712277,68381.3488845231,80199.8814794340,78031.3910547398,77725.5073243078,63903.5999505900,63760.1063019571,6646.2271909306
656471330,5601,5,0,55699.4451938436,62585.1569936433,62865.4885607471,68953.1576290205,79376.0797337335,76566.2056741084,78244.7029477427,64198.5570892750,64260.9895416735,6936.7309525783
656471330,5601,5,0,56153.5071361853,63056.0711960848,63300.4107159863,69331.7068448790,78493.3498323196,76295.1215565900,78556.9990544004,64639.9889623145,64645.6956121244,7158.4750594796
656471330,5601,5,0,55985.6172554224,62996.2791338969,63603.1308452443,68969.3284980982,78783.2208737325,77734.2680660203,78203.4057847257,64637.2390628325,64367.5420627520,6993.9677984334
656471330,5601,5,0,55413.1757906903,62467.3128499131,63320.0493786586,68364.1680966092,79835.5441334647,78768.5466313640,77677.9437974269,64171.3501191789,63802.4498869009,6669.6986781020
656471330,5601,5,0,55241.3922469440,62217.5830403191,62872.0469493346,68353.9959020652,80185.8764603908,78103.4481553252,77698.4098634831,63907.9559860526,63734.4324616607,6634.8138913106
656479851,5602,5,0,55649.4116245077,62538.5182117210,62857.1901915138,68889.1433760350,79462.8232443843,76714.4203891086,78188.0258159415,64161.3726077841,64197.3403195927,6912.1643726928
656479851,5602,5,0,56112.8913641904,63004.4558261619,63234.5834761742,69306.3615323968,78549.4915854606,76222.7602635840,78540.7065083545,64591.0991564799,64616.7243259890,7151.7341554397
656479851,5602,5,0,56036.7945882597,63026.7227113479,63557.1491189504,69047.0679130999,78639.5690450409,77444.4700307883,78278.1641140058,64660.4671960675,64438.5284060170,7032.8192543891
656479851,5602,5,0,55481.6190853193,62530.7795565416,63357.2338601495,68425.5176239904,79648.4414594183,78679.9049600089,77728.3058945771,64234.2692794503,63871.9396034567,6701.1400066925
656479851,5602,5,0,55215.4263819238,62197.7010237104,62898.1101559294,68302.8307369247,80179.4032456810,78258.8783145415,77652.9878512431,63899.0492319782,63699.0853023900,6611.1598886868
656479851,5602,5,0,55577.0381638048,62462.2267526411,62801.6811586076,68815.6748226181,79540.5626593861,76767.8122427677,78128.4892753868,64092.3330960107,64126.1349577848,6868.7743658222
656479851,5602,5,0,56097.1098614110,62974.0244164077,63177.9428474634,69314.6599016301,78528.9768486171,76071.9903322509,78556.1229802291,64559.1467846228,64607.0023362275,7150.9797582367
656479851,5602,5,0,56098.7159973916,63073.8968719304,63566.9076118024,69128.7618295692,78492.6684412975,77223.1152901854,78356.6700939075,64699.0752980867,64496.3858044101,7077.5112048197
656490892,5603,5,0,55554.7104401347,62601.6807259289,63412.1831790019,68498.8158296518,79474.0418608551,78536.0706158649,77794.3764883257,64298.0645138930,63930.5635667497,6742.9968837634
656490892,5603,5,0,55238.0339626208,62233.7295740031,62948.4844207764,68314.7307444175,80074.5663698545,78265.2298522831,77661.5052390191,63937.8763525403,63716.8866428420,6620.0544750644
656490892,5603,5,0,55538.1380370619,62439.6678427314,62815.1264635969,68767.9896187690,79559.4955956426,76884.1232566982,78084.6247283401,64083.5845219950,64101.1060054200,6842.2609544450
656490892,5603,5,0,56057.9055422475,62934.1630416158,63130.0021219810,69287.6597823800,78541.9354457336,75960.0961922672,78539.1247077675,64522.5463525794,64600.3101029749,7125.5857749672
656490892,5603,5,0,56158.1308609781,63118.0291083072,63533.2760977838,69213.5341733346,78281.9726031114,76829.0887639680,78443.1945860154,64730.5044589803,64579.2964905616,7107.1395465836
656490892,5603,5,0,55657.3936336235,62700.7136103708,63472.3524397913,68593.8820449295,79178.9630452019,78305.1155624687,77882.7017995634,64388.5800105588,64021.0303926282,6788.8447653923
656490892,5603,5,0,55254.9227258111,62260.7418609500,63003.1903856923,68297.5986272908,79934.0538069432,78283.0555281287,77650.4691380007,63968.1495822357,63703.3196608844,6614.8345331274
656490892,5603,5,0,55490.2338146700,62395.1219046626,62784.5003706936,68705.7275141260,79521.0091705916,76860.5787633458,78037.4262323639,64042.2508558874,64031.7744689229,6811.6105261480
656497070,5604,5,0,56035.2736261568,62906.6883821896,63078.8247891437,69271.8417765102,78466.2402037981,75809.1437454817,78534.2576290383,64492.5043091236,64567.5911662180,7120.5848515730
656497070,5604,5,0,56198.0409065573,63147.7061208584,63515.9371298111,69268.8241876981,78103.0587890269,76560.5476950857,78496.2092410730,64749.9971092907,64621.5062308404,7143.2289353604
656497070,5604,5,0,55731.0568701896,62773.4155988879,63504.7915195213,68668.8107219652,78922.8208593821,78044.6538442768,77952.4105346620,64446.7781044630,64096.4701129305,6831.6020520281
656497070,5604,5,0,55285.8286757414,62307.3319720851,63060.6340823934,68312.9785960750,79737.5576709495,78224.3463909580,77658.0496131214,64010.6148441478,63732.0597607802,6618.2536559346
656497070,5604,5,0,55438.8861340771,62364.3254640037,62801.5594816393,68638.8538523871,79497.4890126329,76986.0155498935,77972.7914268405,64019.2539088921,63981.4002040759,6771.3476173609
656497070,5604,5,0,55969.5072248288,62843.4528618007,63021.1742415966,69223.4021754580,78492.2060688182,75756.9078230209,78490.9527960454,64432.9921039626,64519.6261053419,7087.9389209970
656497070,5604,5,0,56228.3628070401,63164.0351699948,63467.4488579717,69337.3039854176,77940.4618563819,76214.6687451967,78561.5619407090,64758.4293231890,64678.5483935464,7172.2367245863
656497070,5604,5,0,55813.8337116761,62854.1239319145,63553.8030023241,68754.7876677161,78662.1887934347,77823.1895944024,78024.5528091253,64524.1281531664,64182.7147480115,6880.7473794959
656535713,5605,5,0,55296.9377829407,62331.2414963422,63128.9922031447,68293.3277657060,79621.8793772538,78266.5804666304,77639.7615647965,64043.3459486015,63729.8452399584,6622.0256419497
656535713,5605,5,0,55377.0985696102,62311.9800322715,62800.9024260109,68556.7827373163,79507.9045611133,77059.6787864596,77901.8050835754,63979.7819003985,63910.9857425615,6733.0437077622
656535713,5605,5,0,55903.3636248993,62777.1754172062,62984.7319896119,69155.1535639782,78527.4072157270,75778.5906587593,78433.8862979458,64379.7584303622,64449.0534637689,7055.1713134528
656535713,5605,5,0,56213.7250677621,63136.3293243290,63432.9777728723,69340.8447851931,77905.8569266175,76066.5392040743,78571.7584706466,64739.1191883310,64668.4127020929,7180.7906154529
656535713,5605,5,0,55871.3382468613,62895.4697657188,63562.9166072445,68829.2661399693,78498.9104697677,77594.1327017105,78095.2349599697,64563.4298139045,64244.0156046055,6924.1738894570
656535713,5605,5,0,55340.7414915033,62374.4124846700,63179.5489834440,68328.3220617688,79475.5749906547,78238.2662361234,77665.8247713913,64088.9991470812,63762.0166303583,6642.3821987345
656535713,5605,5,0,55331.0073340449,62274.8320538710,62821.1616412211,68491.4665407708,79545.9407813818,77260.8108149428,77841.0031025512,63953.3414952022,63853.3473627113,6701.3225221448
656535713,5605,5,0,55817.7395423563,62686.8059329022,62920.5473888709,69073.2892997534,78639.4595357694,75842.6657502289,78366.6841083927,64290.9707466452,64366.6051500966,7005.2472533883
656570068,5606,5,0,56202.4456128072,63104.8393249512,63358.1951081985,69358.2810947403,77856.5655867877,75834.1361947561,78595.5584856323,64696.6660941157,64673.0607622792,7179.2939887436
656570068,5606,5,0,55929.5363407655,62942.9116156315,63574.5854284977,68895.0568766909,78326.6037150580,77412.4324850535,78155.0635252481,64600.2249290971,64302.8464187444,6957.7323972947
656570068,5606,5,0,55354.4909889132,62395.2314139340,63222.0385807498,68322.6884181397,79388.2839336469,78266.3857834812,77660.5561586670,64108.4796296947,63765.4114177719,6642.6255526710
656570068,5606,5,0,55273.2351095296,62228.5339674597,62807.3878084175,68421.5022840389,79568.5483620788,77354.2100557557,77777.9622653115,63913.0055802342,63793.3119465869,6662.9091032748
656570068,5606,5,0,55744.0398026997,62620.2121281902,62871.6089122490,69001.0375160188,78717.5518139791,75942.8423981722,78302.3899983803,64234.7438196264,64296.1176824013,6965.5927294423
656570068,5606,5,0,56168.2422170379,63062.3253922518,63292.8789116529,69346.2107394920,77881.1686697637,75727.0726304110,78587.9658428148,64657.4374395586,64648.0196422176,7170.4359054565
656570068,5606,5,0,55996.5438471694,62991.8500922533,63562.2717193129,68990.0865888781,78169.8472768880,77124.2649211958,78243.0359732780,64640.4026640065,64372.9931909287,7001.9498075493
656570068,5606,5,0,55436.5256008935,62475.5503806623,63291.1145956136,68401.4012488874,79192.0311515897,78168.1681347264,77725.0692872222,64187.2289635328,63833.4045076185,6681.7446979567
656598569,5607,5,0,55263.4644489808,62230.2252773181,62866.2551256469,68391.8252714877,79554.6893553975,77512.3049405762,77746.6304459924,63928.7140768326,63774.7318735383,6647.2857805542
656598569,5607,5,0,55681.3274932743,62560.8459353911,62844.1829236101,68943.3261299875,78788.8301819679,75985.3806662652,78250.8111315479,64182.4835617719,64247.0940319017,6929.5276760591
656598569,5607,5,0,56166.0155285193,63052.9440980013,63244.0986150897,69374.1599390943,77817.5072799861,75492.7836280852,78615.1849806077,64634.9393681330,64669.1184285086,7183.3214963920
656598569,5607,5,0,56067.7127058868,63061.9968644376,63577.1041417400,69076.4285655337,77960.4777176557,76856.8797835116,78321.4689469987,64691.8233507802,64448.7614390451,7056.4732570129
656598569,5607,5,0,55498.2401591795,62547.8751705778,63343.1193318348,68448.7214218318,79006.1574149225,78055.6777775984,77767.3033628946,64241.6307360282,63870.6376598967,6722.0441098343
656598569,5607,5,0,55266.8470686976,62246.7246742100,62884.0929691894,68368.1956042575,79467.8728385658,77523.4262154724,77726.3833984791,63936.1607072882,63739.1413603311,6648.4417117523
656598569,5607,5,0,55637.9983248878,62526.6425396218,62824.2522362141,68879.3483800925,78814.3093391151,76097.9561972711,78195.2412601575,64152.2224997732,64177.5191414681,6905.8493380417
656598569,5607,5,0,56129.8166304711,63010.8925377812,63190.9987861544,69342.7916166847,77856.9184499956,75439.1727558834,78594.2322066786,64594.9563163728,64632.8100211889,7171.2146380532
656635980,5608,5,0,56119.3037404161,63097.1615082559,63554.8615919477,69150.8096962124,77821.0602474584,76568.4566980206,78391.8955762099,64719.3953517810,64516.0853055665,7097.4783953062
656635980,5608,5,0,55574.9574876481,62625.2617223717,63415.2129355108,68521.5450873171,78816.6455369051,77948.1883438645,77830.0035046232,64320.1975544139,63953.8890415592,6768.9140779963
656635980,5608,5,0,55245.6266054384,62244.4128118137,62959.4475156138,68322.3233872351,79458.3820350439,77697.3026030722,77682.0078081658,63947.7200192700,63726.0002477624,6639.3037714383
656635980,5608,5,0,55550.7559386673,62450.3754159356,62807.9353547746,68791.8261368451,78918.5256624036,76207.0152638951,78118.2319069651,64086.6872846848,64107.4210400711,6870.3196633187
656635980,5608,5,0,56082.1922651061,62957.9022181173,63135.1977285244,69319.2836264228,77874.9631443840,75326.0010077332,78577.9153252390,64542.3553630072,64608.2312736066,7168.3917323903
656635980,5608,5,0,56149.3579515687,63114.4153023508,63535.7339725420,69204.3110591428,77702.2791910728,76353.2831474037,78444.8615604801,64733.4490416115,64560.9232683590,7137.4371116727
656635980,5608,5,0,55628.5075213659,62671.2312809688,63433.5131515325,68577.0297848297,78647.4050417948,77796.6275122379,77881.1565020669,64362.6141455387,64001.9757794035,6806.3054103332
656635980,5608,5,0,55262.2598469953,62262.3723323243,62973.9392425300,68325.0611190202,79358.1202132229,77704.7370658311,77681.1317339945,63968.8918117419,63727.3386944129,6645.1442659133
656674596,5609,5,0,55512.7683891860,62416.0503431981,62793.5288017362,68737.0836688387,78956.9390812737,76362.9199632875,78072.7977270282,64064.8706042813,64059.1517867745,6843.2100347972
656674596,5609,5,0,56037.7071655214,62900.8600554114,63069.1636378663,69282.9995544968,77947.4704497519,75310.4750265871,78551.0368829571,64494.2321220725,64569.5501654065,7143.3506123287
656674596,5609,5,0,56205.3050215606,63140.5636828233,63492.1736179159,69292.3321779600,77570.8437299914,76022.1271106705,78527.6992404507,64755.3143928023,64630.9726989687,7172.0663768308
656674596,5609,5,0,55746.5585159421,62772.8072140467,63498.5008202638,68693.8883451172,78401.7392429396,77579.5192978262,77982.1240503037,64462.7421226947,64114.6243165903,6868.1173101937
656674596,5609,5,0,55292.4113997226,62298.3522118298,63048.8314164752,68326.8254350596,79251.5676921444,77757.6908824045,77681.5454356865,64015.8834568721,63741.8790921163,6654.0023492004
656674596,5609,5,0,55456.4076175022,62363.5467314071,62772.8923879245,68670.3438517648,78960.6502288047,76389.5063808456,78014.8673224542,64021.6387774694,64001.8419347385,6807.9845524947
656674596,5609,5,0,55994.1224755016,62854.6471428778,63011.3549102605,69253.4807220043,77907.3170502362,75200.5642211855,78532.2986298498,64450.0512149084,64543.6329711736,7119.6722743112
656674596,5609,5,0,56223.4348898268,63150.1274925262,63462.8859716631,69334.0065395786,77424.3568279400,75777.7389199817,78570.1645023628,64759.0985465143,64672.4888805286,7185.3778371551
656684735,5610,5,0,55810.4389242625,62834.3027537899,63527.0219016168,68770.5570027986,78170.9302019053,77326.4798746962,78054.8747096080,64517.1682305837,64187.7035037089,6903.0264323787
656684735,5610,5,0,55335.8014065932,62352.8269905061,63113.6244020573,68359.6417133910,79061.4961000732,77685.6946203031,77710.7114049711,64068.5817518123,63777.5912822916,6675.4053279120
656684735,5610,5,0,55430.0888892742,62356.0149270737,62816.6717610934,68629.3143780779,78937.2152447237,76517.1941913056,77976.4295681905,64026.9925640715,63969.6948797322,6805.1859822255
656684735,5610,5,0,55944.8919741560,62813.3378121640,62988.2484539937,69214.4102475059,77947.7868098693,75174.1116482924,78501.8793877924,64411.1632558622,64499.2695485572,7125.0747317006
656684735,5610,5,0,56264.0019910345,63183.6373295765,63432.8074251168,69410.1154832061,77268.3061161858,75402.2681314194,78648.6096437803,64779.0048985166,64734.4346250541,7253.6021132414
656684735,5610,5,0,55926.3240688042,62951.7088604345,63588.3835966949,68897.1862236350,77861.9193733898,77006.6641314021,78171.3682389909,64621.7009139896,64316.3403945210,7003.4099311680
656684735,5610,5,0,55391.9188243406,62424.0566877076,63200.9762975492,68397.3615735421,78848.6587472463,77614.1972337715,77745.0729807991,64145.1774033127,63840.2792563234,6721.1802033599
656684735,5610,5,0,55411.8251763429,62346.3902788867,62833.2198287726,68595.1231500054,78839.1801114212,76482.1512244555,77948.6020455565,64026.3963469272,63962.7471248463,6792.7505960724
656748422,5611,5,0,55920.3253942705,62784.6828861459,62966.8089721917,69189.7463260458,77870.7287858896,75095.0337866401,78480.3912352031,64397.0365598508,64488.7323231085,7106.4216524710
656748422,5611,5,0,56277.1187682096,63183.4548141242,63409.1290870993,69438.1985274734,77131.2005083849,75167.7601105508,78675.6827692114,64781.9373134509,64757.0787088416,7263.2145937315
656748422,5611,5,0,55999.5736036783,63013.1313939967,63600.9041567257,68982.3966044860,77601.2629720487,76670.0813018858,78247.9760581881,64671.1626015749,64382.7151806902,7037.9783578420
656748422,5611,5,0,55456.9308284656,62495.7852604788,63265.4772584077,68445.5213175673,78594.6945791578,77472.2123795446,77782.3061330773,64203.7040250311,63871.8909326694,6740.1374750100
656748422,5611,5,0,55378.9237241337,62336.0477365872,62879.7856045140,68535.0268953969,78776.4434666021,76606.7971107097,77890.2457715936,64021.5049328043,63900.0591508146,6760.7982242154
656748422,5611,5,0,55830.1384254188,62709.5716936579,62932.2648809114,69096.8094577121,77921.8087771523,75135.6373909383,78400.7779948906,64325.8068626493,64393.0942260802,7054.2709038879
656748422,5611,5,0,56252.8077099574,63154.2888448396,63355.1531839927,69440.6198991412,77053.5462672608,74919.0767228835,78684.6625294667,64747.8677623467,64746.1277817010,7255.3785969775
656748422,5611,5,0,56048.3539002415,63057.7016674591,63623.6212466941,69045.0359077305,77396.6509822742,76454.0560124913,78300.7595270060,64715.7937135214,64433.5396503196,7067.5215257281
656753273,5612,5,0,55467.7479109412,62515.9349664176,63321.5216699741,68443.3189644424,78490.8919575613,77504.7001300619,77775.6260675215,64238.5158056415,63867.1820339990,6740.3929966433
656753273,5612,5,0,55316.6859548843,62282.8992368646,62877.4980775113,68461.2784849531,78806.3881684834,76730.2505626753,77824.5645441434,63989.8080825806,63826.4445850358,6717.9314283082
656753273,5612,5,0,55747.6657763529,62628.9728699027,62885.1758942066,69015.5170752381,78019.5153826406,75264.3959587186,78327.9299940117,64266.6110176057,64313.1889610439,7004.6267008503
656753273,5612,5,0,56199.5010301761,63092.0267401966,63285.8094797988,69412.5368548738,77109.3108218004,74847.0804607822,78664.3181403787,64697.9923730694,64715.3921795263,7236.4699961146
656753273,5612,5,0,56093.3257076991,63086.1132395407,63594.6986313460,69122.8118258228,77258.0730831577,76143.8770850809,78376.1870796115,64740.3602934069,64506.4728250763,7103.6839206859
656753273,5612,5,0,55543.8081837814,62590.8514757565,63371.4457300387,68517.6149212433,78262.9666606740,77331.3834565159,77842.2563753239,64312.1425391171,63955.6776929922,6780.2787068289
656753273,5612,5,0,55305.0049659343,62290.2728611393,62929.9165154246,68425.7488102301,78734.4040740789,76832.2645328388,77791.3954026040,64006.7090134676,63824.6802689964,6708.8786618719
656753273,5612,5,0,55674.3432352979,62564.7030952840,62856.8981667901,68940.7222428674,78056.4930132855,75298.0396404341,78265.5462124005,64213.7667103036,64266.7691976644,6968.8536721909
656789722,5613,5,0,56184.7294462330,63064.8684408878,63229.9719190783,69421.2610934959,77032.6664995127,74601.5850096825,78680.2821586104,64673.8151594823,64730.7599806136,7239.9742927997
656789722,5613,5,0,56165.3463051941,63143.0823960657,63603.6175531172,69209.5796718672,77018.5398035012,75827.8454954986,78462.1518576656,64789.5299562684,64590.8558025434,7154.9220920073
656789722,5613,5,0,55615.2082287384,62660.8522355788,63438.4532364426,68583.7341857791,78027.0471869740,77153.3822196931,77905.1877032922,64379.4664056385,64024.2426645895,6820.4199386478
656789722,5613,5,0,55324.2785977019,62311.5298274890,62981.5805561348,68434.4973842458,78580.7260632051,76766.2912806648,77801.2512370306,64034.2080082875,63834.9011343277,6708.3432832117
656789722,5613,5,0,55650.2511955885,62542.6065578535,62873.0203650805,68909.7432867562,77994.0362254933,75310.1464987729,78241.2473218450,64203.1078078867,64226.1777610630,6948.6674631616
656789722,5613,5,0,56164.3972248419,63034.4126957400,63209.0921513301,69413.7536245561,76971.9861954567,74447.7731541437,78679.3939167424,64647.9223006430,64706.1325622440,7233.2942272439
656789722,5613,5,0,56240.6156777408,63195.7198525217,63606.0875955723,69317.3246272343,76762.1177606546,75379.1981782431,78560.9048850805,64836.5216013986,64677.3802946514,7204.8096489814
656789722,5613,5,0,55745.4877586216,62778.6598762186,63528.1534974213,68712.3102381072,77657.7332530040,76818.5150354289,78019.3815379755,64489.2068632846,64143.2305718210,6889.6297981767
656823769,5614,5,0,55372.6330248762,62365.8585938034,63075.6855233634,68449.7678437586,78363.2163147982,76729.0824637803,77815.3414299516,64093.3795179375,63853.6637228287,6726.9111885635
656823769,5614,5,0,55619.6737734724,62514.5965197671,62873.6409176185,68864.7958146923,77902.6689900498,75241.3381732392,78203.8316541145,64176.9715951111,64177.8598369791,6925.7678577408
656823769,5614,5,0,56162.3408840788,63024.1553273182,63165.7264798532,69422.7333848115,76805.4590967379,74162.8908684282,78694.7373824361,64629.5612461372,64703.5895136080,7231.4690727204
656823769,5614,5,0,56306.6376007021,63251.1437115502,63600.2349334004,69398.5075004370,76461.9285123358,74997.9720690835,78638.8389832315,64882.8926939909,64747.7825884689,7248.1753204583
656823769,5614,5,0,55827.4615321178,62861.5948977637,63576.5200922925,68791.3394289722,77324.6182170823,76518.2892840196,78085.8658334161,64563.0647829998,64219.5828693850,6943.3136765595
656823769,5614,5,0,55401.3731247720,62404.8317267273,63122.5068207381,68456.2532261652,78110.1038854874,76598.2797229336,77811.8493009634,64130.4544901570,63872.1464543027,6748.0099748545
656823769,5614,5,0,55574.5194505625,62480.2227762423,62886.1006391651,68794.8558933540,77803.0277207668,75295.0463870156,78134.1837575000,64159.4379439892,64133.8492775706,6910.5825721058
656823769,5614,5,0,56088.4099581826,62946.4280800133,63120.2922999163,69349.4595145437,76790.5415004330,74114.9623106426,78626.2332493229,64565.4496515771,64650.8303801837,7212.7186519163
656867300,5615,5,0,56316.3595904636,63236.9561770547,63547.6583154285,69436.0813482262,76287.3707337138,74637.0538459214,78671.3267337487,64865.1156889326,64786.6948829087,7278.6554009998
656867300,5615,5,0,55905.0671024545,62925.5604799619,63615.3107097641,68872.9603392605,77035.5867467502,76254.7613062283,78151.0603529934,64626.3976449632,64310.7797570730,6991.3395759197
656867300,5615,5,0,55408.7467490467,62421.7569930080,63194.5152505363,68440.9462635619,77973.4606501657,76652.3286322211,77784.4354800213,64161.6281294173,63881.5764193405,6747.6571116466
656867300,5615,5,0,55497.1694018590,62412.6312203908,62877.8631084160,68708.2218919747,77822.6055449549,75383.1161766201,78045.9801232305,64104.9996684034,64069.7985214946,6863.9559578803
656867300,5615,5,0,56016.0364974797,62876.4273201909,63065.5254965163,69287.9153040133,76809.8881383814,74091.2961403220,78562.2920025184,64499.0505300143,64599.8477304956,7178.1015544550
656867300,5615,5,0,56291.9146875463,63207.9240524351,63510.1331384266,69432.0051697905,76226.6052557801,74495.7138796261,78655.0950261869,64832.2385721170,64788.6782174908,7282.1962007753
656867300,5615,5,0,55921.6760086178,62938.1175430832,63618.7663356618,68901.1528927992,76905.0030244464,76104.3442381031,78159.7724239186,64628.7946812374,64347.3923568132,7015.7966465338
656867300,5615,5,0,55401.3852924688,62424.6772402455,63221.6005436641,68426.7952321568,77890.3187777746,76684.0498178386,77753.4808593038,64157.6371248594,63886.2974857078,6741.8774556557
656899605,5616,5,0,55407.9315133596,62342.4357774193,62872.2172970902,68609.1768398359,77921.6140940032,75663.0218743350,77938.8435527044,64043.4067870856,63985.2208608783,6810.5519365244
656899605,5616,5,0,55886.4018555281,62753.6552592474,62989.8424222776,69174.9139036186,77023.8449193160,74294.7035281111,78443.1459152281,64381.8026034285,64478.6087993518,7111.7267682858
656899605,5616,5,0,56242.2583168119,63146.7205374157,63411.5747941607,69424.4003592762,76288.1981370978,74340.6244159209,78641.6618888944,64762.4689985342,64753.4405674916,7266.7310581133
656899605,5616,5,0,55960.7951539036,62971.6638832241,63607.7910731275,68960.8597811094,76796.3941626048,75953.0267604130,78199.9258234343,64657.0967440475,64381.4497402206,7035.7638370202
656899605,5616,5,0,55402.2005281560,62436.7719308875,63255.3902377414,68409.1642394604,77868.8062897916,76798.3409940965,77724.3027223223,64174.7327388956,63864.7119915439,6728.9431939329
656899605,5616,5,0,55336.9086670041,62285.7829810117,62847.8454003538,68517.9069459670,78031.7074148572,75835.7301630399,77851.9296942982,63988.7494929570,63903.6486213773,6757.3912691050
656899605,5616,5,0,55807.1779815140,62682.9974437966,62919.7199854869,69090.2632368214,77157.3123857669,74419.4224205462,78369.9815542318,64313.2011287407,64405.5052768396,7059.5638520059
656899605,5616,5,0,56210.3546157421,63111.6897382625,63345.3216849598,69406.5016772497,76366.7527877867,74325.3661241049,78626.9024726482,64723.4593625199,64734.8604944430,7248.0658111869
656914637,5617,5,0,56001.7394537128,63005.3684034236,63581.5940218677,69017.0015342505,76754.6467948053,75818.9387414242,78253.0743231569,64674.4722151107,64426.6649016147,7058.7972871061
656914637,5617,5,0,55447.0993294326,62487.1948665218,63287.5007896572,68445.3996405991,77815.9011440054,76842.6922490161,77753.0063191277,64216.9789822649,63891.9554647305,6751.9401409283
656914637,5617,5,0,55294.2243865492,62260.6201839818,62880.0289584505,68450.0355330887,78170.5895063942,76182.4000132223,77783.6324120310,63975.5718772977,63847.9327376251,6732.7273476449
656914637,5617,5,0,55702.1099194478,62584.7797950418,62877.8144376287,68980.0360713024,77444.8472293898,74726.7906099906,78271.3502037850,64229.7550639290,64311.8991851807,7007.8024697211
656914637,5617,5,0,56162.5842380153,63053.7349982948,63269.5899399338,69385.3177170809,76540.3371506628,74300.6291964639,78614.8807881871,64663.4604494859,64713.2506648854,7238.8061939047
656914637,5617,5,0,56048.4390741192,63043.3316175112,63586.4732682937,69082.8409417594,76743.9757246916,75728.7517725726,78313.7546272129,64704.7332771093,64489.4502172210,7102.4793187004
656914637,5617,5,0,55480.9133589036,62528.6258742039,63345.7718897423,68465.2938249046,77829.2856105107,76936.0306513449,77771.6107275699,64255.3558980445,63922.4842160592,6772.3332008035
656914637,5617,5,0,55258.4391901929,62238.2802926149,62888.0718060505,68399.1867280656,78276.7161580839,76341.1032828839,77745.1094838896,63955.8237053541,63808.3025490727,6709.0246742338
656952123,5618,5,0,55642.0380002330,62534.0770023806,62841.1288317076,68919.3679349432,77591.3341314412,74889.1320210023,78221.8763485029,64186.2798831806,64254.0539544844,6968.9388460686
656952123,5618,5,0,56118.9022064209,63009.6757680989,63207.1818229289,69359.9359015083,76652.4868122799,74308.5016963083,78598.2110435397,64622.5404850704,64681.5781500553,7215.7484084252
656952123,5618,5,0,56086.2562758449,63069.9667058566,63541.5136285329,69149.7146034983,76677.2237399209,75484.5826004266,78383.6823808544,64721.2691770917,64538.4130292366,7122.9088816661
656952123,5618,5,0,55561.0133070890,62608.5798100275,63380.5958380495,68551.6723046507,77660.3736432146,76791.3932392105,77852.5502468362,64327.2426508744,63998.2159610852,6807.4126707441
656952123,5618,5,0,55265.9953299200,62259.9752960502,62943.1671372647,68390.8275203482,78243.0116378844,76477.5153319659,77739.9747158303,63986.6323137098,63801.8171666661,6699.2540136849
656952123,5618,5,0,55579.6420509249,62476.2439393812,62819.9205361452,68858.0184075619,77673.5755942675,74979.7083561523,78176.9653795294,64140.8457032438,64194.3227307806,6931.2919920984
656952123,5618,5,0,56107.6105837692,62981.2520283206,63159.2532651434,69378.2117821363,76623.4546876603,74105.0943085192,78631.1003280521,64599.6773827401,64700.5840924927,7225.0566964947
656952123,5618,5,0,56170.4080670724,63132.7276860694,63566.7129286532,69258.9075147874,76463.9848530988,75169.3784142283,78488.6165982554,64786.3906904881,64657.7051288887,7191.6320333221
656990069,5619,5,0,55654.5950633543,62695.3233206782,63468.8359754095,68642.1512982261,77426.0846408889,76607.7826941524,77936.5195226113,64419.6563082446,64110.3291196118,6873.5075998863
656990069,5619,5,0,55304.6034319392,62301.9538500893,63012.1214751604,68415.4914418083,78086.3160381985,76397.9750978344,77764.5899665031,64033.6847973241,63853.5663812541,6728.8580200552
656990069,5619,5,0,55574.1787550514,62478.2151062665,62848.6363006473,68842.9182958046,77594.5707387961,74969.6700062733,78165.9657816015,64148.4140106676,64198.4475800036,6940.1135722951
656990069,5619,5,0,56094.2869557481,62965.8355564459,63139.1400622950,69371.6533935488,76555.6562809629,73961.2112935879,78630.7352971474,64580.0387200678,64692.6020833769,7233.5740842708
656990069,5619,5,0,56236.5029962146,63181.7026657817,63543.1927706945,69350.4329302895,76212.6610752210,74719.8306874079,78583.9626705600,64819.9978691131,64727.7788948920,7247.5912710108
656990069,5619,5,0,55779.3017880926,62811.5004899437,63525.1724116997,68766.8580229644,77039.9306145160,76229.0874659319,78051.1148912897,64525.1259043059,64220.8848129451,6947.9252336554
656990069,5619,5,0,55354.9898644830,62363.3033774706,63097.2953529209,68438.1355255958,77836.8417502377,76344.1330393929,77781.7220836298,64106.1677672984,63883.1825553211,6752.4025134075
656990069,5619,5,0,55538.1988755460,62449.3289940088,62856.8738313964,68796.1943400045,77504.0430744334,74935.6247905627,78126.1530775968,64136.4775000843,64161.1049184539,6921.5821700337
656999597,5620,5,0,56081.5230417808,62944.6029254899,63108.1976092743,69376.0946028891,76416.6890155481,73718.5874189384,78640.4937899994,64570.4384072745,64699.1726396613,7238.3438214254
656999597,5620,5,0,56301.5636711269,63231.9187505700,63556.7840880457,69440.5468929603,75937.4399407828,74348.9957913351,78669.1243806238,64873.0611949579,64812.7215864130,7301.1656401222
656999597,5620,5,0,55881.8998077036,62905.0700785121,63602.9604974888,68877.0730207866,76708.5068884527,75905.9256060114,78151.0238499029,64616.0429349669,64326.7559430015,7018.2545212920
656999597,5620,5,0,55425.5016675719,62434.9102732736,63183.5886587893,68493.9244155290,77554.7215317010,76151.2507093556,77832.5100501688,64177.4826383776,63945.3108152991,6794.2593904785
656999597,5620,5,0,55543.8568545687,62459.8053809734,62910.0710019063,68778.9527136064,77343.1131162532,74907.9311125937,78109.3008174970,64160.3261858573,64156.7002122040,6923.2856475889
656999597,5620,5,0,56047.5995030385,62908.6717167717,63100.7509788187,69335.6613463465,76334.8855898074,73614.9673127943,78610.1962249103,64544.2900268020,64661.4527795101,7224.3874731695
656999597,5620,5,0,56334.6841418790,63247.1648746891,63532.0471604047,69495.0703424239,75701.6178086574,73910.1799731125,78724.5239042586,64882.2599737561,64856.8294873961,7330.8913234607
656999597,5620,5,0,55988.9755397455,63001.4869081371,63658.4330273046,68985.8522303837,76316.1838397906,75499.5001967315,78252.4050998317,64706.2542392122,64428.6604038936,7079.6162163701
657062065,5621,5,0,55475.1337029127,62492.1592868256,63273.3740936457,68515.9722821722,77274.1222752671,76040.1961404526,77851.8201850268,64244.0277723023,63970.3641030575,6819.4465229020
657062065,5621,5,0,55512.6345445210,62434.3870623102,62925.6943246270,68734.2364277821,77189.7879685873,74791.5592601791,78076.9225762512,64147.4649303154,64119.8077554369,6915.1332907176
657062065,5621,5,0,56041.3574745683,62896.7717092789,63076.6954421997,69347.4761799616,76114.9666374296,73275.2817205882,78633.6433766881,64541.2846056868,64685.7151669751,7244.8657069225
657062065,5621,5,0,56413.1657863869,63311.3859785206,63540.0413372173,69608.8018046279,75296.8350384486,73322.7965766818,78844.2175379059,64950.6302622042,64980.7209764473,7410.5775699541
657062065,5621,5,0,56145.4886239790,63147.6209469806,63732.8506610737,69171.8233086256,75722.5584148897,74785.6214241295,78434.4216766061,64847.2778453901,64616.9798476223,7195.0511561294
657062065,5621,5,0,55640.7603920666,62658.5890439698,63397.1804088192,68688.4615523342,76616.0567279920,75423.0140545025,78017.3008618188,64406.5638664632,64140.3346599772,6923.7966908555
657062065,5621,5,0,55614.6850177750,62546.7557424701,63047.2374481914,68824.5207382083,76644.1032691688,74404.5534950286,78166.9148619537,64269.1053954544,64213.7180395163,6977.3710599669
657062065,5621,5,0,56080.6347999127,62938.7137602275,63135.6844363973,69352.9638112287,75683.7921328118,72883.0316781070,78677.2280667079,64593.6543728127,64716.6454522990,7281.2714558167
657067147,5622,5,0,56491.0512137506,63375.1447098728,63561.4929867162,69649.5270858943,74771.8110882355,72652.6120033709,78946.3045142504,65008.4511575068,65059.6406580409,7475.1880400839
657067147,5622,5,0,56284.8209202985,63276.4281855483,63822.2832327223,69269.9922865931,75082.4037173379,74169.4614247125,78568.4123540203,64967.9448947832,64750.6298295255,7288.0610306439
657067147,5622,5,0,55721.5904020614,62749.9441117164,63527.1922493723,68719.0998129344,76128.4362778126,75167.1517257097,78061.3965951051,64502.2262988851,64202.4872553488,6974.6941666659
657067147,5622,5,0,55583.5235462115,62532.6898849428,63096.3949433561,68761.3217209100,76375.1119955041,74289.1307229662,78117.0273049796,64261.6100942114,64165.4001154324,6959.6913964832
657067147,5622,5,0,56014.6493800419,62880.3696539615,63112.1521107418,69240.6681372498,75510.1469314516,72762.3281256234,78613.0799690573,64541.7834812565,64638.2003108815,7238.2221444572
657067147,5622,5,0,56445.3371767868,63325.8412023463,63517.2877441584,69548.8028915940,74600.2465630320,72437.9981668079,78911.6995844860,64959.2693269485,65007.3560647927,7450.9378203158
657067147,5622,5,0,56295.2608041726,63280.2245069571,63800.5517261965,69243.8804092110,74834.4138883895,73856.7151132725,78583.3421180220,64961.8610463718,64753.7082568217,7292.8672708890
657067147,5622,5,0,55737.1893893884,62772.5030216262,63553.1337789988,68698.4390637290,75888.4406256769,75034.6211719142,78051.5894314658,64517.7522800312,64200.8081131872,6970.3381312033
657101053,5623,5,0,55514.7760591618,62483.6662344432,63124.5388261075,68655.8034540614,76358.3570769789,74525.3665567836,78008.0899153238,64224.3647742364,64077.3911643121,6910.3635535630
657101053,5623,5,0,55861.9082818235,62743.5317354907,63063.1284602421,69117.2755237683,75718.0076962779,73079.7833357340,78448.8282296444,64420.9095810174,64485.5687219345,7154.3988810439
657101053,5623,5,0,56320.0950733882,63198.9686275735,63410.3215213880,69496.2019382284,74795.7206124925,72531.4947491954,78805.6459389772,64838.3345882253,64901.0468976507,7381.5697807282
657101053,5623,5,0,56239.5570881172,63219.9214015026,63735.9655914604,69226.3589257860,74945.3954511116,73970.5074139606,78525.8740859273,64904.3686788834,64701.4966697544,7253.3465916081
657101053,5623,5,0,55633.1799169459,62682.1457050190,63515.3287449699,68571.6516628340,76140.4701299704,75486.5781027055,77912.7438430192,64437.5184871807,64076.4542516567,6886.2836815504
657101053,5623,5,0,55295.4411562315,62288.4963774032,63004.4436584651,68395.7067667742,76856.1618893991,75212.9022657639,77760.5502911579,64039.9876642784,63835.4365129879,6748.2046580036
657101053,5623,5,0,55584.4117880795,62484.7004886731,62859.0275137341,68837.2359813883,76401.1265313115,73888.6309820390,78158.3609710872,64166.3005249973,64189.9545276211,6960.0199242974
657101053,5623,5,0,56045.1902990675,62930.1111985737,63161.1027550605,69280.2861581053,75561.1417488365,73267.3970530469,78537.0683670044,64562.4929012492,64612.8306630057,7209.9444170406
657150863,5624,5,0,56053.6833514499,63023.7294579294,63499.9487761857,69116.4481203844,75587.7525017883,74425.5549397450,78361.2573156097,64689.1829605696,64517.6549384566,7143.1802645732
657150863,5624,5,0,55531.2267852665,62576.2989103562,63371.4700654323,68504.7293303078,76638.6034702049,75918.5921784041,77809.6712832321,64309.4899812097,63970.3762707543,6820.8458080366
657150863,5624,5,0,55173.5208340656,62175.5193124022,62915.1570991783,68271.8396131167,77407.7479217767,75843.2619673733,77627.3748494308,63922.3138683037,63701.2389847277,6668.4575730261
657150863,5624,5,0,55425.1731397577,62329.6231926647,62722.1652598697,68691.7224950828,77003.3910209567,74421.4300905220,78024.0417658587,64016.9298787989,64036.5077029870,6862.6540143202
657150863,5624,5,0,55952.5211200640,62825.2743227473,63003.8109382303,69234.4747795669,75975.9872043179,73418.3008290450,78502.6337849955,64454.3829149773,64542.7568970023,7152.1721925253
657150863,5624,5,0,56076.8628138976,63030.7502189963,63419.1309338878,69186.3150355417,75724.5782525623,74367.0648211171,78426.1476427665,64685.4718130386,64551.3716263530,7150.4322118796
657150863,5624,5,0,55583.1098445195,62621.4775686598,63370.5209850801,68565.4461374543,76692.6888825829,75976.7294338241,77861.4570009105,64348.6334618891,64000.3331403324,6827.7935629225
657150863,5624,5,0,55160.3797214968,62165.9311673057,62905.3012647517,68241.2378556070,77544.0017908000,76087.8570089080,77594.3152171628,63913.7234743467,63656.7782205366,6629.0098999261
657157058,5625,5,0,55336.3854560407,62244.0721163026,62667.7026488902,68573.9391898367,77294.4423289614,74872.4379409612,77909.9209373563,63940.4437365699,63912.4093630898,6781.7631658413
657157058,5625,5,0,55818.1167409578,62683.2529654299,62891.3084134054,69085.6881828160,76405.6772499233,73876.5484590939,78363.4475010378,64325.2228132018,64389.8819541189,7059.1014795266
657157058,5625,5,0,56002.7980433364,62931.0237758354,63281.1249165220,69132.4364740097,76047.8982925415,74495.4096872055,78376.9779799050,64588.0815676678,64487.4425472452,7097.2593767634
657157058,5625,5,0,55602.8701841599,62620.3946436426,63314.4765735136,68604.3584318940,76825.9129950972,76006.8688188545,77893.6283913104,64347.9034000798,64035.2909333047,6820.5537833128
657157058,5625,5,0,55173.2896478260,62175.0934430134,62912.2490196376,68256.6664951785,77673.0402156073,76246.7792971125,77610.6077632088,63936.5014027993,63683.8391782709,6616.1243089906
657157058,5625,5,0,55334.8279908473,62236.8445043898,62644.0121431759,68603.0443206372,77400.4351359861,74849.5140001468,77949.2591011849,63948.4744164730,63949.5330060966,6775.8009943981
657157058,5625,5,0,55907.1356109144,62753.7647685188,62874.9428611785,69235.7645554301,76260.6383037938,73444.6073895762,78522.0899322154,64400.1393225406,64530.3945170302,7123.3104156613
657157058,5625,5,0,56214.5646388429,63122.8840193396,63359.7039026045,69399.4444130924,75595.8561878724,73833.6938308835,78641.9782490118,64777.2284147804,64736.6248104823,7246.9342153824
657193439,5626,5,0,55849.0470262817,62861.9720963653,63485.1041860618,68865.1243425065,76245.4408504620,75425.0217244783,78152.9585136978,64586.8526302887,64292.5282118385,6986.0101247112
657193439,5626,5,0,55354.0529518276,62366.0167738621,63093.6328761772,68413.7392934658,77158.9793602316,75880.4707842578,77774.2146146900,64130.3693162792,63855.5618835331,6732.4109875275
657193439,5626,5,0,55407.8950102691,62328.8201246744,62784.1475074857,68639.8029327393,77073.1484268426,74729.9055403773,78002.3710978170,64056.1585333561,64015.3115751215,6830.6529716759
657193439,5626,5,0,55909.2771255553,62766.2244900655,62936.4384009217,69214.5805952614,76090.3757221504,73335.8768507664,78517.9894183860,64424.0123437073,64539.1065879555,7144.3240280745
657193439,5626,5,0,56260.7653836796,63158.4988679403,63370.4966496865,69456.7177620379,75333.5814828539,73391.1303620394,78711.3341209026,64803.8026646417,64810.7139164372,7299.9853735304
657193439,5626,5,0,55983.7921008990,62984.9145050643,63563.6223336602,69005.2353714227,75808.1581620391,74943.8136505246,78283.0190250382,64693.8188530592,64440.9132745943,7079.3363593432
657193439,5626,5,0,55448.4134406895,62469.4300291603,63229.1810187848,68483.9834072247,76811.9931499318,75707.7868309466,77831.5974729070,64228.1489279484,63942.9624498122,6793.6266702437
657193439,5626,5,0,55404.2447012222,62336.7656306998,62851.3375293420,68613.2895213621,76902.6181558691,74670.7827015146,77980.1528834183,64062.3518910389,64002.4503195796,6834.5588023561
657243420,5627,5,0,55885.0147380903,62739.7475817788,62938.8841079831,69188.3348732143,75953.7933253129,73181.8338089880,78503.5585299540,64395.6981132003,64514.3088218303,7133.0445731196
657243420,5627,5,0,56274.9894212656,63157.8296446151,63367.9049302632,69483.3650180802,75131.9627464977,73116.0187368727,78743.0918096105,64802.0505162992,64822.0663775730,7310.2184065585
657243420,5627,5,0,56043.8153493265,63028.6817105364,63587.9212242156,69075.7471745116,75533.4845739580,74624.1925903795,78354.3703992079,64736.0772641252,64486.8098270105,7106.0079507791
657243420,5627,5,0,55505.5529449700,62518.3198349949,63274.3718447852,68535.4892678762,76543.6710995923,75515.2208610268,77880.2074217147,64286.3591895493,63972.7733070285,6804.8209513208
657243420,5627,5,0,55401.1906093197,62335.3663455651,62884.4093293068,68589.6355187383,76779.5297348082,74716.7279247180,77953.9679998554,64082.9031309729,63967.3586819422,6809.0309744215
657243420,5627,5,0,55822.8621427187,62679.9798549845,62906.5910406150,69118.2489395142,75973.0182862931,73254.4627913241,78440.6880404699,64354.6808072101,64433.5396503196,7087.6590639701
657243420,5627,5,0,56250.9582200403,63123.5167395744,63288.9730809728,69477.4515174242,75071.8299887988,72892.0114383623,78741.2179842997,64765.0363825638,64802.7319073213,7297.5761695595
657243420,5627,5,0,56100.7480027611,63077.4255040091,63577.5786819161,69137.0236957120,75321.8883262070,74377.8575681991,78405.8154213753,64771.1445663690,64545.0930947923,7138.1185026948
657250773,5628,5,0,55515.8589841791,62540.4650432127,63316.3990696117,68510.3873093305,76446.4390342801,75620.8486371467,77848.7660931242,64305.2799581090,63962.6376155749,6801.9128717801
657250773,5628,5,0,55292.1193749988,62245.3497244690,62853.2843608337,68448.3685586239,76911.0503697674,75011.2591940141,77821.2305952139,64000.4913203911,63846.3144339476,6743.7147778760
657250773,5628,5,0,55670.7050939478,62536.5835479261,62803.4576423437,68955.0679574217,76222.3465618920,73561.2104282305,78288.0442838261,64226.5792950582,64289.3889460582,7002.9840617792
657250773,5628,5,0,56122.8810432820,62990.4386394219,63174.0126813896,69353.4991898889,75342.4882369283,73133.4550464200,78624.6879518264,64643.7609483296,64691.8355184770,7228.3663100306
657250773,5628,5,0,56030.1023550071,62992.8478433928,63478.2416050536,69076.0635346290,75526.6341606467,74504.7909814560,78344.5754032655,64687.6254953763,64479.0711718311,7090.5063050266
657250773,5628,5,0,55464.5356389799,62485.8929229618,63262.1433094782,68445.5456529610,76636.4984586545,75879.3513561501,77777.2078681085,64243.6384060040,63887.9644601725,6740.7215244575
657250773,5628,5,0,55164.3828937516,62130.4501633700,62804.5162319673,68281.3304166386,77299.1877307224,75631.5683780477,77653.0608574240,63892.2109863638,63671.4646306019,6623.4614301748
657250773,5628,5,0,55453.9132396535,62332.2270797848,62676.3903844217,68718.0412233108,76848.9586128799,74309.6089567192,78057.2230750949,64029.8763082185,64027.8929736364,6838.2091114029
657294575,5629,5,0,55920.2158849991,62787.8343196231,62981.4223760761,69167.0292360773,75979.7835257267,73656.9823699239,78447.0395782115,64435.2309601780,64467.2320028223,7085.9555864149
657294575,5629,5,0,55903.7894942881,62869.0658636130,63329.7592007233,68966.3717477702,76038.1519673863,74941.1367572235,78231.5009966899,64552.1625266465,64346.8569781530,7000.4653485369
657294575,5629,5,0,55326.0307460444,62370.9203556818,63172.1996945630,68290.8698909478,77200.3373617328,76544.1821428588,77624.1625774695,64127.8506030368,63747.1477048406,6641.0315843872
657294575,5629,5,0,54947.0799961907,61947.4845062434,62674.8694223189,68042.1621678868,78020.8781646847,76460.3588794456,77427.3014105711,63711.7153716922,63462.3870960933,6479.0187011897
657294575,5629,5,0,55198.8904819414,62104.3991244721,62491.7212497400,68455.6813444145,77678.3331637253,75193.9814972043,77809.2089107528,63808.4242260410,63792.2411892665,6676.9019546212
657294575,5629,5,0,55683.2013185850,62564.8369399490,62780.1686706246,68945.4798123252,76845.1866268648,74473.0819635354,78234.5672562892,64220.8239744609,64259.8701135658,6949.9450713280
657294575,5629,5,0,55757.8623062906,62720.8024778255,63153.4736091525,68857.4221904176,76776.6338229643,75499.1351658268,78119.9110491267,64402.0496509418,64235.7537384627,6916.0945387666
657294575,5629,5,0,55262.0164930589,62304.9106004173,63081.5746886257,68245.3870402236,77812.1413256872,77107.1936425532,77563.1294102057,64053.0070998789,63688.4142322763,6584.7073157938
657327478,5630,5,0,54837.4733832096,61847.1375105446,62620.2121281902,67915.4234377791,78743.6636913611,77336.2870383355,77292.0939634746,63614.8848403753,63331.2436597357,6382.9425670757
657327478,5630,5,0,54999.3037509547,61912.0156700045,62361.4295521599,68241.9922528100,78576.8689033122,76159.6950909507,77606.1543861716,63620.3238008551,63573.9770436565,6539.2001296760
657327478,5630,5,0,55497.4735942796,62370.6039955644,62583.3926776040,68779.1108936651,77714.9700988592,75196.7070612926,78079.5507987650,64014.5085071311,64066.0630385699,6829.7768975046
657327478,5630,5,0,55655.8240007334,62606.5599723549,62993.3223835689,68778.3078256748,77484.9154550278,76074.3873685251,78038.9471944668,64266.3919990629,64118.2746256372,6849.2695478150
657327478,5630,5,0,55166.8651039035,62217.5708726222,62987.1898643701,68143.0445422458,78505.7243799885,77818.8943974239,77456.2483613129,63950.8106142630,63568.5989216608,6518.7218959229
657327478,5630,5,0,54666.7362613901,61701.7822042977,62510.8975399329,67721.6041950864,79558.6925276523,78236.4045785095,77103.1296318143,63464.8206354579,63144.8102090145,6264.3196907489
657327478,5630,5,0,54768.7015607663,61708.1945805234,62203.0061395252,67994.5499702186,79541.8646029461,77216.5447339010,77369.2858321194,63421.8443302793,63342.0607422113,6374.2548315442
657327478,5630,5,0,55250.2381625342,62137.5926014050,62377.4787442693,68532.7393683942,78769.8364072273,76222.2492203174,77847.8656835593,63789.7589791146,63831.8227070315,6657.4214720077
657360914,5631,5,0,55491.0247149634,62430.6272439920,62769.7652898410,68648.0647988820,78391.1655144005,76723.0837892466,77917.0633753914,64088.9018055066,63985.3425378465,6734.5281667746
657360914,5631,5,0,55119.4110862940,62150.8675586389,62847.0545000603,68122.8461655197,79168.1702981199,78232.9611203086,77427.8976277155,63877.0622038192,63541.7326470757,6465.1840299020
657360914,5631,5,0,54615.0478852862,61646.3461775724,62444.7296046097,67667.3484349529,80218.4737201795,78863.2964865243,77043.2767311423,63414.7018922442,63098.7068057524,6204.2112684435
657360914,5631,5,0,54656.4910606651,61597.2251854982,62105.2873663401,67889.6157528176,80302.0779650499,77951.8264852145,77271.0681833646,63321.4729991868,63247.2257131732,6293.8750263318
657360914,5631,5,0,55160.4283922841,62039.2654433789,62249.5719152666,68473.4218463823,79463.9183370984,76780.3084674049,77798.0024619789,63690.6409207949,63768.3438327062,6602.9831964218
657360914,5631,5,0,55482.7628488207,62407.4112784538,62690.6509250982,68675.9896630907,78909.3633866960,77059.2164139803,77944.6232086954,64057.0467752241,63997.6562470314,6732.3623167402
657360914,5631,5,0,55156.4495554230,62183.7325077576,62841.6885457614,68170.2515123419,79565.7619595064,78343.2856274022,77470.0343618133,63896.1654878312,63578.8441223857,6480.6370048671
657360914,5631,5,0,54634.6865479584,61669.7933293502,62469.1380044366,67671.2786010267,80621.6138513172,79068.5168611400,77047.1825618224,63429.3517992190,63101.0795066329,6199.1130034747
657397501,5632,5,0,54624.3318379621,61571.1254758130,62112.1256119546,67831.2229757643,80787.4352236202,78431.3189139162,77218.9417701751,63299.2547847881,63194.5517536267,6251.6896214467
657397501,5632,5,0,55093.4087181834,61969.1916773755,62206.3035853642,68398.7730263736,80020.1402619655,77337.5281434115,77732.7471039175,63630.1066291008,63695.9825397002,6548.1920576281
657397501,5632,5,0,55480.4266510307,62383.4530834094,62620.0417804347,68705.3989863117,79322.0186567492,77299.9542956222,77982.1118826068,64033.7456358082,64016.8812080116,6726.2054621478
657397501,5632,5,0,55264.5960447853,62267.5071003836,62851.0090015278,68311.1899446421,79741.0132968472,78317.9768180105,77604.0372069244,63983.9432527119,63700.1560597104,6530.7800834745
657397501,5632,5,0,54722.2087912059,61755.7824427980,62545.0400972181,67756.6349942397,80797.6074181642,79151.2206964456,77124.1067411371,63527.2165847660,63177.2492887445,6231.3087292682
657397501,5632,5,0,54619.9636348027,61571.2836558717,62129.0143751449,67821.7686753329,81087.2716087312,78654.1094427443,77216.2405414804,63311.0209476159,63178.4782261236,6241.6877746582
657397501,5632,5,0,55080.3041087050,61945.7445255977,62162.7919015254,68399.4422496989,80296.2618059685,77500.4049330834,77743.7467018454,63610.9060035142,63690.7017592790,6541.2564704390
657397501,5632,5,0,55527.4182961609,62406.7055520381,62587.6027007047,68776.4461680609,79457.5667993568,77327.5141289262,78056.5051809823,64049.7339894336,64076.4907547472,6761.2240936042
657404545,5633,4,0,55378.7777117718,62357.3777091178,62878.3498162889,68444.7182495770,79723.2727948794,78318.0863272819,77732.6862654334,64059.8453454934,63820.4702458957,6604.2729722851
657404545,5633,4,0,54846.0029386825,61864.4643108205,62623.6677540879,67881.4877313399,80709.9148271613,79174.5340035583,77241.2816615420,63627.1377110760,63295.1056001715,6295.4324915251
657404545,5633,4,0,54686.7399549670,61632.6818540402,62218.5077852776,67874.7833303904,81073.7654652577,78786.7373381143,77268.5494701222,63384.9153704217,63237.0170155388,6262.7987286460
657404545,5633,4,0,55090.3424585840,61948.8716236812,62202.3855869872,68406.6455262181,80388.3226001309,77604.4874117068,77760.2095956468,63632.8808639764,63697.2236447761,6534.3452186436
657404545,5633,4,0,55583.0855091258,62439.2906441299,62587.5053591301,68858.3834384666,79447.9664865635,77113.5573479916,78147.6290624893,64085.3245026407,64145.9074651221,6798.8952829680
657404545,5633,4,0,55543.9541961432,62499.3747310416,62945.8318628690,68632.8186747629,79487.3289857857,78053.5119275639,77912.4639859923,64190.3560616163,64001.4160653497,6714.1229392026
657404545,5633,4,0,55012.0920003156,62031.6119620772,62781.1420863704,68026.6848575280,80476.3193835544,79092.9739317542,77375.3088420467,63786.0721669772,63457.4226757896,6406.8885944233
657404545,5633,4,0,54753.1999150139,61716.3834404853,62339.5885363627,67910.7997129863,81000.6984458359,78817.8258034970,77306.8898828113,63466.2564236830,63305.4359747742,6326.7156400569
657462175,5634,4,0,55112.3659898335,61982.1137714015,62254.9865403528,68419.9934896328,80378.8926350931,77589.5819830987,77780.3227984952,63667.5831353154,63735.5153866779,6582.7969873926
657462175,5634,4,0,55620.9148785484,62475.3678652099,62617.5474025860,68908.4048401057,79404.3696288469,76988.2665738058,78199.4756186519,64124.1637908995,64206.0280551242,6859.7459347795
657462175,5634,4,0,55643.8266516660,62586.0695709050,62994.8433456718,68753.8385873639,79317.7842982548,77915.1287115965,78030.9651853509,64277.5011062622,64121.8032577158,6798.4937489729
657462175,5634,4,0,55149.5261359308,62158.6792199992,62873.8721038581,68172.7337224938,80201.4511123242,79038.7425070143,77512.4387852413,63917.8726589633,63600.6851381829,6490.0061314208
657462175,5634,4,0,54848.1687887170,61809.7948489950,62452.1762350654,67990.1817670592,80795.3807296456,78876.0604004916,77382.1470876612,63577.9315451240,63382.1898063333,6369.3634174213
657462175,5634,4,0,55132.3575157136,62001.0345399612,62312.4059016603,68429.0219206754,80309.7679494420,77587.8054993626,77798.0146296757,63707.6026901661,63738.9101740915,6590.6938226306
657462175,5634,4,0,55658.4643909440,62500.3116436970,62617.1215331972,68963.8652022247,79281.6097356002,76668.8766999004,78266.7751497796,64151.2369163305,64242.3729655344,6888.0723329834
657462175,5634,4,0,55774.4347093634,62699.2778221457,63037.4667876425,68908.4900139835,78997.1533192735,77475.6436700487,78182.8788801854,64382.1676343332,64253.2873895846,6884.8722287189
657474626,5635,4,0,55289.9170218739,62298.5955657662,62994.9041841559,68305.3494501671,79857.7623478633,78804.1249768743,77640.9905021757,64055.9760179037,63727.5820483493,6574.0605810737
657474626,5635,4,0,54905.4543053594,61881.5720925535,62551.4403057470,68029.3495831323,80570.5216923576,78776.0297649102,77424.7705296320,63652.6898744041,63437.4554853031,6406.2072034012
657474626,5635,4,0,55147.8713291628,62028.8985656857,62365.0311904195,68438.1233578990,80158.5113102360,77492.8609610532,77811.8371332666,63738.9588448788,63769.7431178408,6604.7718478548
657474626,5635,4,0,55678.8696185160,62525.6082853918,62656.8733987177,68993.4327055044,79143.6767244153,76505.9755748348,78303.5946003658,64181.1937859086,64290.7273927088,6916.3987311872
657474626,5635,4,0,55857.9416126593,62774.7540455384,63086.6729535945,69019.0578750135,78751.4145142373,77132.6484643068,78295.7586036118,64449.3698238863,64362.0179283944,6957.8784096566
657474626,5635,4,0,55432.0843915531,62432.2212122758,63102.0894254692,68455.6326736272,79491.5390088864,78514.5459601851,77780.9920218204,64181.5953199038,63866.7074938229,6668.4697407229
657474626,5635,4,0,54989.8129474328,61974.0465884079,62685.2363000120,68087.5720124300,80298.4641590935,78745.8538767893,77476.5075765231,63756.5533344848,63494.5949895837,6458.7594859795
657474626,5635,4,0,55120.2019865875,62012.7033612144,62419.7736584259,68389.9636138738,80081.0517522611,77537.0905390046,77771.8419138096,63745.9187674615,63719.1985052383,6602.7398424854
657513380,5636,4,0,55638.4363619734,62479.1398512250,62628.0724603378,68965.7268598386,79067.5799484847,76311.0490717313,78284.3574716887,64146.6253592346,64250.0386145328,6914.6952536319
657513380,5636,4,0,55894.1891814948,62794.5995590566,63073.1424747274,69080.1153776711,78513.4752028647,76764.3444491731,78352.6182508654,64469.3978528568,64414.7405587282,7002.3148384540
657513380,5636,4,0,55503.6669519625,62502.5991706997,63165.2276042834,68527.1422278556,79203.3957804223,78268.8193228458,77842.3658845953,64246.2179577304,63950.5307572361,6726.4853191747
657513380,5636,4,0,55027.5449752808,62017.7529553959,62757.1108851451,68107.4418613419,80096.8210873437,78646.3586198681,77494.6739478798,63791.7544813935,63528.7618822625,6489.9939637240
657513380,5636,4,0,55116.2961559073,62009.7222754927,62451.6530241020,68368.4389581940,79975.2171252952,77532.7223358451,77752.1910834405,63741.6600735735,63708.6612797897,6603.3482273265
657513380,5636,4,0,55614.7945270464,62448.0270504488,62618.6668306937,68933.2147739277,79037.1607064273,76303.3469196424,78256.0310734849,64116.2304525709,64223.8780663635,6902.1746936011
657513380,5636,4,0,55914.3753905241,62796.4612166705,63035.3252730017,69113.1750099390,78390.9708312513,76492.1652389408,78388.7319750359,64459.2256583128,64445.2328069665,7014.3730260055
657513380,5636,4,0,55599.1590366289,62583.8307146896,63181.8121750531,68629.5333966207,78921.9082821204,77950.7922309846,77937.1765782397,64308.5287331607,64045.2076062154,6770.5688847642
657558339,5637,4,0,55077.0796690470,62073.9433793242,62826.8074525469,68126.3261268111,79888.9603225174,78626.1359077483,77505.4058564776,63847.3243527839,63560.3127201244,6496.9538863067
657558339,5637,4,0,55053.4865049073,61964.4706110082,62462.5674481522,68276.8405365109,79968.0016810792,77654.8251734633,77668.8788632938,63703.4778409431,63640.0476374051,6559.5931895512
657558339,5637,4,0,55538.9776081427,62379.0970479468,62559.8968550389,68861.8268966675,79053.9034572557,76251.7680528099,78197.4922840697,64048.6753998100,64162.4311974076,6869.0055520618
657558339,5637,4,0,55922.3330642463,62800.1115257174,63000.4039831199,69147.3662380115,78285.7080860361,76261.0033346985,78425.3932455634,64457.3518330021,64473.1090003878,7041.9693623999
657558339,5637,4,0,55669.2693057227,62652.4200216805,63217.4513590475,68712.6265982246,78726.1300402393,77736.9449593214,78009.9029021504,64375.3415564155,64125.2345482199,6828.6818047906
657558339,5637,4,0,55131.0799075472,62140.7318671854,62885.3827450526,68175.7878143964,79716.3250399935,78518.5856355304,77546.2284793186,63911.3264380726,63616.8560072606,6531.9116792790
657558339,5637,4,0,55052.7321077043,61983.7442427758,62501.1025439904,68264.8675228371,79890.1284214124,77696.9254044707,77653.3650498446,63727.6185514398,63641.0088854541,6550.9541248069
657558339,5637,4,0,55488.9197034131,62345.3925277473,62552.5962369451,68810.2480298350,79090.2240322722,76332.7197397729,78146.5461374721,64021.9064667995,64123.1173689727,6835.3010318623
657564579,5638,4,0,55906.0891889876,62775.1434118367,62948.3262407177,69156.8083707461,78242.2694083782,76047.5454293336,78433.6672794030,64429.0619378888,64479.7160597627,7034.1211979491
657564579,5638,4,0,55747.7752856243,62712.4189347145,63219.0818304218,68813.1926124662,78486.3655743432,77398.5126398881,78096.0745310505,64423.1119341424,64212.8054622546,6866.8883728146
657564579,5638,4,0,55194.0477386059,62203.8578783028,62964.6917929445,68224.3734278104,79503.8405503744,78456.5547171270,77576.5260444077,63978.4677891416,63669.0432589342,6552.8887886018
657564579,5638,4,0,55015.9248248149,61953.4831807771,62537.6421375497,68208.2755649136,79865.2819844999,77796.3719906046,77593.2566275393,63714.8424697757,63597.5580400994,6519.0017529499
657564579,5638,4,0,55429.3953305552,62277.0830777833,62517.5289347014,68753.3032087037,79110.6414275411,76329.9576725941,78090.5625643897,63968.6362901087,64065.5763306970,6801.4261639072
657564579,5638,4,0,55896.0021683214,62748.2284664644,62915.8628255941,69164.8998891333,78190.9825662695,75903.8449298547,78432.7912052318,64408.7418841945,64482.5146300320,7040.5092387812
657564579,5638,4,0,55799.2203077917,62750.9540305527,63237.4185495339,68880.9423483763,78340.8277526440,77194.5942088324,78146.1567711737,64461.3915083473,64280.3240119251,6912.0670311182
657564579,5638,4,0,55252.4891864465,62257.4079120206,63018.0958143004,68281.0018888244,79337.9583395873,78338.0656854652,77610.8024463579,64032.3950214609,63725.2215151657,6587.5302214567
657589431,5639,4,0,55009.9504856748,61952.1934049139,62584.2322486848,68182.1515198348,79815.7716261274,77907.7064165346,77549.2582358275,63726.9493281146,63579.7566996474,6508.7443845281
657589431,5639,4,0,55344.5134775184,62200.7916187034,62504.1201328025,68655.4749262472,79223.4603124834,76535.5309104177,77986.8694520646,63907.9316506590,63978.4556214448,6751.6116131141
657589431,5639,4,0,55831.4038658884,62679.9311841972,62845.2171778401,69123.0308443656,78273.6255630909,75833.5521453086,78390.5936326498,64337.1106529978,64433.1016132340,7019.0697569791
657589431,5639,4,0,55838.6314778013,62784.0379982143,63217.2080051110,68950.5780772940,78223.3729752121,76945.2537655367,78203.0650892146,64477.0269987648,64333.2656608018,6953.2546848639
657589431,5639,4,0,55304.5912642423,62320.3270722920,63083.8013771443,68325.4504853185,79213.4584656949,78314.3508443573,77640.9905021757,64087.5876942497,63773.5272715528,6624.0333119255
657589431,5639,4,0,54987.2698987968,61946.3042396516,62625.4929086114,68139.6619225290,79851.1187853980,78055.9941377157,77508.0219112945,63720.4152749206,63550.3717118200,6495.3477503261
657589431,5639,4,0,55293.7011755858,62151.7801359006,62484.4693024335,68603.7257116592,79327.0439155371,76641.5115497456,77939.7317945725,63862.5339738126,63931.8776780065,6718.7953347826
657589431,5639,4,0,55803.5276724671,62641.7124484764,62809.5901615425,69108.7703036891,78338.7835795777,75832.4448848977,78376.5156074257,64303.4913066760,64417.1740980928,7000.1854915099
657648565,5640,4,0,55870.5595142647,62798.9555945192,63198.5062550942,69009.6644130662,78172.1956423748,76778.3494682164,78252.7944661300,64490.5939807224,64377.2032140294,6970.7031621080
657648565,5640,4,0,55386.6258762226,62394.1728243104,63116.7880032313,68421.8429795499,79064.9273905773,78151.7174086218,77726.7971001710,64153.1715801254,63846.7524710332,6660.1713714896
657648565,5640,4,0,55021.4489591725,61992.8091769089,62680.8680968526,68160.9067211819,79776.2266114528,78128.8421385947,77518.9485030416,63767.8084540460,63559.0229442611,6497.9151343557
657648565,5640,4,0,55242.6576874136,62120.0589502832,62484.5301409176,68543.2887615397,79412.9843581975,76821.1554256395,77884.8676495979,63837.8335492620,63862.7894954459,6683.3873370278
657648565,5640,4,0,55762.9119004721,62603.9804206284,62745.4663992856,69090.7134416038,78401.4837213064,75750.5806206729,78368.4605921289,64258.6411761866,64374.4898176379,6981.2768906471
657648565,5640,4,0,55935.5471829960,62851.7633987308,63172.8810855851,69103.3921816934,78028.2274535658,76478.6225923768,78347.2401288697,64527.9366422720,64446.1332165314,7013.2657655946
657648565,5640,4,0,55477.8470993042,62489.1051949230,63186.1803782125,68511.0078618684,78870.5484338308,78014.5874654273,77808.2111596133,64242.1052762043,63939.3486438558,6714.5123055009
657648565,5640,4,0,55044.7866016789,62033.8751536863,62752.1708002350,68165.9319799698,79703.7314737817,78168.0829608487,77528.2202880206,63813.0844539242,63590.9388130277,6513.3194385336
657703282,5641,4,0,55217.3975488091,62111.5902332944,62501.9786181617,68509.8397629734,79427.9384575929,76892.7501537457,77859.3763247538,63837.3103382986,63860.8061608637,6670.9397831780
657703282,5641,4,0,55732.7238446544,62583.5873607532,62729.7579026872,69065.8670046914,78447.1734228765,75779.5519068084,78352.0828722052,64245.2445419846,64373.9666066745,6972.9298506265
657703282,5641,4,0,55957.4368695805,62869.6499130605,63148.2171641250,69147.7191012193,77973.2294639261,76281.7370900848,78396.9208349978,64541.5766304105,64499.1478715889,7036.4087249518
657703282,5641,4,0,55568.1679128209,62572.6729367030,63213.5941991546,68608.0330763346,78669.9517840077,77765.8067361854,77901.6469035167,64317.6058349906,64037.2864355837,6765.0447504066
657703282,5641,4,0,55094.9905187703,62091.2458442065,62818.1318847122,68189.5981502904,79563.2675816577,78188.6585361763,77549.3434097053,63877.5367439953,63618.8636772364,6533.2622936264
657703282,5641,4,0,55167.5951657128,62070.6702688789,62508.2571497223,68436.9309236103,79476.4875679165,77064.9473991839,77796.4814998760,63814.8244345698,63786.4980363660,6641.9441616489
657703282,5641,4,0,55675.4748311024,62516.0688110827,62665.8044881858,69016.7581803140,78507.8172238421,75743.5111888188,78318.5486997612,64190.2708877385,64308.8815963686,6952.8653185655
657703282,5641,4,0,55982.9403621213,62873.4827375598,63105.2165235527,69197.9351860076,77865.5575147399,76023.5020604115,78448.7673911603,64544.3386975893,64528.8127164433,7074.6639637632
657712201,5642,4,0,55637.7914740418,62630.9075336976,63245.3762232562,68677.1942650762,78484.6864321816,77598.5617433541,77963.7873311915,64365.6560697444,64097.3096840113,6817.9255607991
657712201,5642,4,0,55117.5372609832,62113.3667170306,62851.8485726086,68189.4643056254,79452.2008450579,78167.7666007313,77550.0856392115,63887.4655846028,63623.3778927577,6546.3304000142
657712201,5642,4,0,55140.0475001057,62044.0595159271,62502.5870030028,68387.0677020299,79458.4307058312,77131.0788314166,77752.7873005849,63780.1830017149,63747.2328787184,6624.8485476126
657712201,5642,4,0,55627.6436148914,62463.6382054726,62628.9972052964,68958.4870802289,78561.7687915550,75824.6575589310,78265.7773986401,64129.9921176777,64257.1323817806,6928.7489434624
657712201,5642,4,0,55984.3396472560,62852.1649327260,63045.8138276631,69213.2421486109,77838.9467617881,75843.2132965860,78468.0896937151,64505.4872416337,64532.0006530109,7085.7487355689
657712201,5642,4,0,55734.3056452414,62699.4481699012,63248.9656938189,68785.7422884336,78278.9063435120,77306.3910072416,78060.4840178434,64416.2980239215,64188.5430747897,6878.3746786155
657712201,5642,4,0,55200.1802578047,62191.0817966387,62937.3388104866,68250.0351004100,79282.7778344952,78153.9197617468,77598.5374079604,63965.4361858442,63687.3191395622,6589.0025127723
657712201,5642,4,0,55120.0194711351,62028.3266839350,62552.7300816102,68339.6745229046,79484.1532169149,77296.4378312404,77710.9912619980,63779.9153123848,63707.3958393201,6612.7781923643
657719620,5643,4,0,55581.7835655658,62409.9786624834,62608.6041454211,68914.3061730648,78632.0737437979,75838.8815965170,78234.4699147147,64090.2767552476,64201.7085227521,6912.7362544435
657719620,5643,4,0,56002.1044846175,62852.3839512688,63033.6461308401,69256.5226462101,77781.8072575076,75652.7523382165,78512.3922778475,64512.1186364022,64550.5442229690,7112.7975256063
657719620,5643,4,0,55802.8949522323,62757.8287792577,63293.0005886212,68870.5146321991,78115.3359951212,77106.8772824358,78139.1846808942,64477.3798619727,64255.6722581619,6924.5875911490
657719620,5643,4,0,55250.1894917470,62245.2767182881,63001.8154359513,68297.0389132370,79133.4071882968,78061.4330981956,77641.3555330804,64019.8257906428,63728.7014764571,6609.8092743395
657719620,5643,4,0,55113.9964612078,62034.3253584687,62591.0339912088,68321.6663316066,79430.2989907766,77358.5904266120,77691.5716178686,63792.2411892665,63698.4282467616,6599.6492474923
657719620,5643,4,0,55531.5674807775,62371.0785357405,62603.0800110635,68858.2009230142,78692.9000602158,75967.4819842387,78179.8977944638,64059.1517867745,64159.5474532606,6884.9330672030
657719620,5643,4,0,55987.0408759507,62831.3216680683,62985.3890452404,69262.5334884406,77800.1683120134,75514.7341531538,78523.5865589246,64486.1892744725,64554.9002584316,7121.1810687173
657719620,5643,4,0,55895.9778329278,62837.6001996289,63295.1177678683,68988.0302481150,77930.7398666204,76797.8177831331,78247.9395550976,64542.2823568263,64348.0859155321,6997.4112566343
657773783,5644,4,0,55349.2710469762,62343.0684976541,63083.7405386602,68383.1983744402,78955.9413301342,78018.3351160487,77713.5829814213,64115.8532539694,63790.7202271636,6677.4008301909
657773783,5644,4,0,55105.3087256762,62033.6683028403,62634.1198056588,68285.9906445217,79442.8925569883,77518.1697704449,77661.0793696303,63800.9045894044,63648.9300560858,6598.7366702306
657773783,5644,4,0,55467.6262339729,62304.8132588427,62556.2952167793,68794.2475085129,78777.1613607147,76038.1397996895,78129.4870265263,64005.5287468758,64081.5403489287,6848.6003244897
657773783,5644,4,0,55951.3651888658,62787.1042578137,62925.0372689986,69248.9300033926,77814.7330451104,75438.3940232867,78516.0425868944,64452.1440587619,64527.2065804626,7103.5257406272
657773783,5644,4,0,55912.6719129689,62850.5709644422,63276.7445456657,69027.6726043642,77849.4961549336,76645.6729020590,78287.1682096548,64558.4288905103,64385.4894155658,7011.9638220345
657773783,5644,4,0,55375.2977504804,62381.0925502258,63107.3580381935,68411.8289650646,78842.4045510793,77926.5298435196,77742.7611184027,64154.7777161060,63833.1246505915,6685.0664791894
657773783,5644,4,0,55083.1148466711,62033.9846629577,62665.5854696430,68249.9134234417,79425.0182103554,77642.3411165230,77625.6713718756,63821.0907984337,63637.0665516835,6574.1092518610
657773783,5644,4,0,55382.7078778456,62240.3488010748,62546.2690345972,68698.3052190640,78921.0322079492,76286.2878086966,78043.2910622326,63967.3586819422,64010.5783410573,6796.2670604543
657783309,5645,4,0,55885.0390734840,62720.4252792240,62859.4168800324,69195.4408081589,77952.5930501144,75441.1804258592,78478.7607638289,64395.2965792051,64488.5376399593,7070.3687667847
657783309,5645,4,0,55954.2124299224,62873.1298743519,63247.2013777796,69087.3429895839,77777.2443711990,76415.5452520467,78348.5907432170,64578.7611119014,64447.6055078469,7033.6344900762
657783309,5645,4,0,55438.0587306932,62438.0738744476,63162.1126738968,68461.3514911340,78729.4396537751,77892.5211308995,77784.0217783293,64215.5675294334,63885.6404300794,6706.4451225073
657783309,5645,4,0,55056.4675906289,62017.1202351611,62700.9204612168,68197.6653332840,79468.7124096466,77814.1246602693,77577.2804416107,63807.6576611411,63590.0992419469,6538.8229310744
657783309,5645,4,0,55302.9242897776,62165.4079563423,62504.0957974089,68609.7608892834,79046.7001807365,76428.7350354028,77966.2695413434,63892.9167127795,63921.8149927340,6732.6543414639
657783309,5645,4,0,55817.9950639895,62650.5826994603,62786.2160159456,69138.1431238197,78055.1058958477,75488.1477355957,78428.6906914025,64322.9109508054,64425.3507903578,7027.4654677870
657783309,5645,4,0,55943.2493350849,62854.6593105747,63189.2344701151,69101.0803192970,77779.8725937127,76307.4474334717,78363.1919794046,64548.4635468123,64445.2206392696,7036.6764142819
657783309,5645,4,0,55479.1368751674,62476.5724671954,63161.9788292317,68509.1583719513,78639.2040141362,77778.8991779669,77827.6551391364,64235.7050676754,63925.7451588078,6736.3533212981
657835881,5646,4,0,55060.7141168201,62037.8174874569,62736.7178252699,68179.1217633258,79453.5027886179,77953.5299627698,77556.2911645912,63818.6085882818,63586.7896284111,6548.2163930218
657835881,5646,4,0,55224.2236267268,62110.0936065852,62498.4256506894,68508.6473286848,79220.3332143999,76735.7381939424,77871.1303198848,63837.0791520590,63851.7047236402,6706.5424640819
657835881,5646,4,0,55737.2502278725,62577.3574999798,62712.7596302255,69070.1013631858,78249.3996787164,75571.6059681043,78367.4385055958,64238.0290977686,64368.7953355247,7003.4464342585
657835881,5646,4,0,55960.9533339623,62865.3547160820,63136.3658274194,69147.2810641337,77778.7288302114,76134.6539708891,78402.2016154189,64532.4265223997,64481.9549159781,7061.1578202897
657835881,5646,4,0,55535.2056221275,62538.7859010511,63193.7608533332,68568.0135214839,78563.1924120833,77742.1162304711,77869.5728546914,64279.4601054507,63972.2744314587,6767.9893330377
657835881,5646,4,0,55051.0042947554,62041.5164672911,62763.2312366471,68149.5664277429,79497.0753109409,78103.3386460538,77520.9196699269,63818.7667683405,63549.5321407392,6529.1861151907
657835881,5646,4,0,55156.0480214279,62048.1965328469,62462.4701065776,68430.2873611450,79360.6145910716,76923.1328927125,77799.6085979595,63782.4826964145,63755.0323723819,6657.7499998219
657835881,5646,4,0,55664.2562146317,62498.0119489974,62652.8580587662,68995.3065308152,78421.1102162818,75740.4570969162,78302.1709798375,64174.6840681083,64275.0675668976,6968.8415044940
657839640,5647,4,0,55938.2970824780,62822.0742184828,63076.0992250554,69142.2801407395,77874.2087471810,76101.1806369292,78404.0997761233,64504.3069750419,64463.8372154087,7067.1564948234
657839640,5647,4,0,55586.8088243536,62569.9473726146,63186.3628936649,68632.1251160440,78512.8668180236,77620.0985667307,77930.1923202633,64315.9145251322,64038.7465592024,6804.0787218146
657839640,5647,4,0,55080.8394873653,62069.3804930156,62811.7681792738,68164.8733903462,79487.3776565730,78231.6591767486,77526.9670152479,63859.6745650592,63585.9257219367,6536.9856088542
657839640,5647,4,0,55091.9729299582,61992.8700153930,62468.2010917812,68345.4176758050,79539.3337220070,77240.1987365248,77717.6834952507,63743.4487250065,63697.0898001111,6608.8480262905
657839640,5647,4,0,55584.6551420160,62415.0282566649,62577.4548415544,68925.1475909341,78640.3112745471,75879.7407224484,78240.8822909403,64093.6715426612,64217.1249946268,6912.5902420816
657839640,5647,4,0,55945.9992345669,62816.1607178269,63010.8438669939,69181.9468323823,77922.7091867172,75977.5446695113,78443.4136045582,64485.2401941203,64493.7454141995,7068.3610968089
657839640,5647,4,0,55653.8650015449,62631.5402539324,63204.9551344103,68711.6045116914,78454.1211777624,77546.0702992599,77999.3291736113,64364.4636354558,64106.4111212348,6835.3983734368
657839640,5647,4,0,55101.9382736562,62099.6415550143,62846.8233138207,68173.6949705428,79492.6219339037,78317.8673087391,77535.0463659383,63883.5232508322,63590.0384034628,6533.0797781740
657879782,5648,4,0,55047.3783211022,61959.1654951934,62457.4935185770,68291.8433066936,79644.8398211587,77424.6853557542,77669.9617883111,63712.5184396825,63638.1738120944,6565.8595534150
657879782,5648,4,0,55503.3627595419,62341.8152248813,62533.4199467522,68850.0607338397,78824.1286704512,76098.0535388457,78171.9887915288,64030.3995191819,64129.1890496874,6858.2493080703
657879782,5648,4,0,55896.7687332213,62760.7976972825,62943.9215344678,69164.3766781699,78049.8007800329,75954.4503809413,78428.9462130357,64431.3738002851,64459.4081737652,7042.8211011775
657879782,5648,4,0,55707.0743397516,62671.8883365973,63193.3471516413,68789.1857466345,78390.8248188895,77366.7914542707,78067.7359651499,64398.8617143742,64169.0869275698,6860.1109656842
657879782,5648,4,0,55160.7204170079,62162.2200197747,62916.2886949829,68213.9943824204,79433.1218964395,78390.5206264689,77564.3340121911,63947.8173608446,63638.8673708133,6548.6909331979
657879782,5648,4,0,55004.8765560996,61928.6732469551,62494.3129691632,68215.4545060392,79780.0229328616,77712.9015903992,77598.9146065619,63697.7468557395,63588.2619197267,6526.4362157087
657879782,5648,4,0,55423.4818298993,62260.3159915612,62483.7270729273,68760.4699821324,79028.3391262307,76262.9136630997,78097.6076608502,63956.9674688555,64061.2202952344,6809.4081730230
657879782,5648,4,0,55879.8069638501,62727.7258973177,62884.0564660989,69157.6966126141,78139.9634134909,75911.6687589119,78429.4450886055,64393.0455552929,64465.8692207782,7044.4394048550
