steady_timestamp,sequence,battery,flags,EEG-ch1,EEG-ch2,EEG-ch3,EEG-ch4,EEG-ch5,EEG-ch6,EEG-ch7,EEG-ch8,EEG-ch9,EEG-ch10
2853191238,5485,-2,0,64626.1177879363,49271.7985086404,73188.3556944851,75439.2214266707,66649.6666080757,78655.1923677615,76537.1492140952,81855.7955077650,82991.8081862453,66687.3743005300
2853191238,5485,-2,0,64620.5328150946,49214.1114580028,73188.6720546025,75435.7414653793,66647.2817394984,78665.0725375817,76537.2222202761,81855.4183091635,82992.6477573261,66677.3846214384
2853191238,5485,-2,0,64633.8564431157,49257.2581109370,73187.2606017710,75440.8762334386,66653.2804140321,78650.8363322989,76538.4024868679,81858.5332395502,82997.3566559966,66680.5482226123
2853191238,5485,-2,0,64641.4734213269,49356.1571507139,73179.6436235599,75440.0244946610,66651.9784704721,78650.9701769640,76535.6282519923,81857.4016437456,82996.9794573951,66682.5072218008
2853191238,5485,-2,0,64635.3530698249,49327.7577463291,73182.0893306213,75436.8000550029,66650.4940114597,78671.8256093185,76543.6954349859,81865.5174975265,83000.5567602610,66677.1899382892
2853191238,5485,-2,0,64634.9515358298,49235.1007350224,73192.0181712288,75446.5707155517,66657.7094556756,78669.9396163109,76554.4273435838,81876.0790583689,83009.0133095530,66682.4220479231
2853191238,5485,-2,0,64636.2656470867,49239.3594289104,73187.7838127344,75448.4323731656,66657.8189649471,78647.7822403964,76552.5413505762,81871.6378490285,83004.6572740904,66682.5680602849
2853191238,5485,-2,0,64642.8605387647,49291.9238791855,73182.9410693989,75445.2201012044,66658.8167160865,78659.3172169845,76548.1609797199,81867.5373351991,83000.8609526816,66676.8370750813
2853224011,5486,-2,0,64654.9187263162,49322.7689906317,73189.1830978690,75450.7199001683,66668.7942274814,78666.8003505306,76552.6021890603,81874.8014502024,83003.7081937382,66681.4242967836
2853224011,5486,-2,0,64654.9552294067,49341.0448712598,73189.0735885976,75451.6811482174,66667.4192777404,78656.9566838008,76551.1055623511,81872.3192400506,83002.5279271464,66689.1507842661
2853224011,5486,-2,0,64642.3494954981,49297.8860506288,73188.2705206073,75449.1380995814,66657.6729525852,78663.0405322123,76551.2029039257,81868.8392787592,83000.7879465007,66689.3454674153
2853224011,5486,-2,0,64639.0885527496,49217.6765931719,73194.3056982315,75449.9046644812,66654.9838915873,78672.4339941596,76557.0312307039,81872.9397925885,83002.6861072051,66691.1219511515
2853224011,5486,-2,0,64648.2143253668,49255.1044285993,73193.6608102999,75455.5504758070,66655.9694750300,78652.0165988907,76554.2569958282,81867.8293599229,83002.7226102955,66698.6659231817
2853224011,5486,-2,0,64648.3603377287,49351.2900719847,73181.3957719024,75447.1669326960,66648.3038260315,78641.4063672611,76548.1488120231,81855.1384521366,82991.5404969152,66693.1539565209
2853224011,5486,-2,0,64638.5288386957,49326.5896474341,73180.4588592470,75433.3687644988,66640.1636368570,78657.1391992532,76540.3614860564,81853.3254653099,82989.9221932378,66684.2593701433
2853224011,5486,-2,0,64626.9086882298,49237.0475665141,73184.3768576240,75426.2263264638,66635.2235519469,78651.1405247195,76532.0387814296,81853.5931546401,82992.4044033897,66688.8100887551
2853252923,5487,-2,0,64619.5350639551,49223.4927522533,73178.3416799998,75423.9387994610,66629.6020760147,78641.3333610802,76526.9283487639,81848.3853803998,82991.3214783724,66694.3463908095
2853252923,5487,-2,0,64624.0127763860,49252.6343861443,73177.5142766158,75428.6598658283,66633.4835713012,78656.0319388423,76533.5962466229,81853.0942790703,82991.5283292184,66695.3563096458
2853252923,5487,-2,0,64640.9502103635,49296.4867654941,73186.3966952966,75442.7013879620,66649.9221297090,78661.9454394982,76546.9807131281,81862.1835485971,83000.1430585691,66702.2675614413
2853252923,5487,-2,0,64641.0597196349,49343.6122552894,73179.1447479901,75439.2335943675,66646.9167085937,78636.8556486493,76537.5264126967,81854.5909057795,82994.2417256099,66700.2598914655
2853252923,5487,-2,0,64619.6567409233,49294.0653938264,73166.4538402038,75419.7774471476,66628.4339771197,78641.3455287770,76522.5844809981,81844.4308789324,82982.2808796330,66683.6144822117
2853252923,5487,-2,0,64612.3561228296,49196.8819993015,73171.8806329868,75419.7896148444,66624.3943017744,78653.5132255999,76525.3465481769,81848.0568525856,82986.1988780100,66677.7618200399
2853252923,5487,-2,0,64625.6675831539,49229.2115697601,73175.3484265814,75431.0812374961,66630.8188456970,78638.0359152412,76526.7945040989,81848.3367096125,82989.5084915458,66681.9961785342
2853252923,5487,-2,0,64637.5675906467,49336.3116371956,73171.6859498377,75432.4318518435,66633.9581114773,78645.0080055207,76528.0599445684,81846.8400829033,82986.6004120051,66677.7618200399
2853281746,5488,-2,0,64638.5045033021,49336.3603079829,73179.4367727139,75436.0821608903,66638.3628177272,78668.8566912937,76541.6147588292,81857.7058361662,82998.0015439282,66678.2363602160
2853281746,5488,-2,0,64632.7005119175,49274.1833772177,73188.5625453311,75442.0686677272,66643.5462565738,78663.6975878408,76550.1564819989,81866.6369256342,83005.1561496601,66693.5189874256
2853281746,5488,-2,0,64621.4088892658,49247.5117857818,73183.5251188464,75439.0024081278,66641.1005495123,78650.5808106656,76545.7274403554,81861.9280269638,83000.5810956547,66697.0232841106
2853281746,5488,-2,0,64621.0803614516,49243.5694520112,73182.7342185529,75435.4372729587,66641.9036175027,78665.3280592150,76544.5350060667,81862.7189272573,82997.7946930822,66690.3188831611
2853281746,5488,-2,0,64636.2656470867,49285.1221366615,73187.8568189153,75441.7523076098,66650.4331729755,78653.5375609936,76547.9419611771,81866.0650438836,82999.1209720359,66690.1363677088
2853281746,5488,-2,0,64637.7987768863,49352.7745309971,73178.9378971441,75436.3741856141,66643.6070950579,78638.4861200236,76538.6215054108,81856.1483709729,82989.5814977267,66687.9583499775
2853281746,5488,-2,0,64621.3358830849,49315.2615216919,73172.7080363708,75427.6377792952,66635.1262103723,78655.7642495122,76539.9356166676,81856.3673895157,82986.1380395258,66681.0105950916
2853281746,5488,-2,0,64612.3317874359,49210.1326211417,73183.2452618195,75430.9230574374,66638.8373579033,78667.9806171224,76552.8942137841,81864.4345725093,82993.1101298054,66688.8709272392
2853307541,5489,-2,0,64619.3403808059,49223.3710752851,73185.5084534285,75438.9537373405,66646.7341931414,78647.7700726995,76550.8987115051,81864.3007278442,82994.0957132481,66701.6348412065
2853307541,5489,-2,0,64625.4850677015,49310.3214367818,73178.1713322443,75435.5832853206,66643.6435981483,78646.7601538632,76538.9865363155,81856.4038926061,82984.6049097262,66695.9646944870
2853307541,5489,-2,0,64628.0281163375,49316.1862666505,73180.3858530661,75431.9938147578,66641.2465618742,78659.9377695225,76539.2907287360,81858.2898856137,82987.2209645431,66686.3157109064
2853307541,5489,-2,0,64621.1655353294,49273.6479985575,73179.6071204694,75431.8356346991,66639.6282581968,78647.5875572472,76538.5484992298,81859.2633013595,82990.8591058931,66686.8875926571
2853307541,5489,-2,0,64610.9690053918,49243.3382657715,73173.8152967817,75428.8910520680,66635.6007505484,78640.4937899994,76538.1104621442,81856.5255695744,82985.5053192911,66687.8853437966
2853307541,5489,-2,0,64612.0154273185,49214.6468366630,73174.6548678625,75430.8500512565,66636.6106693847,78653.6470702650,76543.2087271130,81859.5796614769,82984.3372203961,66684.6365687448
2853307541,5489,-2,0,64629.8532708610,49253.7781496456,73179.5219465916,75440.5112025339,66646.5030069017,78648.6461468708,76543.4034102622,81862.9136104064,82987.6468339319,66692.5212362861
2853307541,5489,-2,0,64639.6117637130,49340.3026417536,73173.6571167230,75441.0222458005,66645.7607773955,78642.6353046402,76538.1226298410,81858.0708670709,82983.5219847089,66693.8110121493
2853341469,5490,-2,0,64633.0412074286,49315.3223601761,73176.4556869923,75436.7148811251,66642.7310208866,78660.0351110971,76537.9036112982,81860.8329342497,82984.5927420293,66684.1376931751
2853341469,5490,-2,0,64629.2813891103,49213.3813961935,73185.4354472476,75441.9104876685,66649.8856266185,78664.5249912247,76548.3434951723,81871.5770105444,82994.6554273019,66682.6654018595
2853341469,5490,-2,0,64633.2480582746,49222.1299702091,73185.0095778588,75446.7045602168,66655.6166118221,78645.2756948508,76548.3069920818,81871.9663768427,82992.0393724850,66687.3986359236
2853341469,5490,-2,0,64639.2954035956,49305.1501656321,73181.9068151689,75445.4634551408,66659.8144672260,78653.0386854239,76548.7815322579,81870.0682161383,82987.5981631446,66682.7749111309
2853341469,5490,-2,0,64645.5982705499,49331.6514093124,73189.3047748373,75448.3228638942,66667.5409547086,78669.1973868047,76553.9163003172,81876.1277291561,82991.1754660106,66682.0205139279
2853341469,5490,-2,0,64641.7897814443,49320.2137742989,73189.7914827102,75447.7388144467,66667.8208117355,78652.0774373748,76548.8180353484,81875.0691395325,82992.7937696880,66686.9605988380
2853341469,5490,-2,0,64632.0312885923,49283.8201931015,73181.7973058975,75441.6184629448,66659.5589455927,78648.3176190566,76543.3182363844,81870.6887686763,82985.1159529927,66685.9506800017
2853341469,5490,-2,0,64635.4017406122,49227.5567629922,73188.3313590914,75448.3471992879,66664.4625274124,78666.2406364768,76555.8752995057,81877.8920451955,82991.7838508517,66686.7050772047
2853377931,5491,-2,0,64650.3923430981,49262.4293820867,73196.3377036009,75465.6253287764,66676.6180565385,78665.7904316943,76574.3823663734,81887.1881655682,82999.7901953612,66694.6505832301
2853377931,5491,-2,0,64653.8114659053,49361.7421235556,73188.6842222993,75457.9353443843,66671.3007730269,78646.9913401029,76560.7667136285,81875.2394872881,82993.2804775609,66688.5667348186
2853377931,5491,-2,0,64639.5630929257,49343.3932367466,73183.4886157559,75441.0587488909,66660.4350197640,78664.2573018946,76548.1974828104,81870.6644332826,82989.5328269395,66674.2940264453
2853377931,5491,-2,0,64634.5865049251,49246.2463453122,73191.6044695368,75444.1371761871,66661.0190692115,78668.8688589905,76551.8234564637,81879.2669949365,82998.2205624710,66679.4044591110
2853377931,5491,-2,0,64638.4801679084,49240.6857078641,73190.0226689498,75450.9997571953,66663.9758195395,78651.9679281034,76551.7869533732,81877.3444988384,82997.5878422362,66688.5545671218
2853377931,5491,-2,0,64643.9921345692,49292.5809348140,73183.1600879417,75448.1646838355,66662.0533234414,78657.4190562801,76552.1276488842,81872.9276248917,82992.6842604166,66683.3346251848
2853377931,5491,-2,0,64654.8700555289,49324.6793190329,73187.3701110424,75454.9299232691,66668.4291965767,78666.3258103545,76559.8419686700,81878.4639269461,82996.2250601921,66682.5923956786
2853377931,5491,-2,0,64653.4707703943,49344.1232985560,73185.3137702793,75456.0980221641,66663.7933040871,78650.2766182451,76557.4449323959,81875.5436797086,82992.6599250229,66685.8898415176
2853401482,5492,-2,0,64639.8916207399,49311.2340140435,73180.9455671199,75450.3792046573,66655.0203946778,78659.6092417083,76555.0113930313,81870.2142285002,82989.5328269395,66683.3102897911
2853401482,5492,-2,0,64636.1318024216,49234.0664807925,73188.7207253898,75454.1998614597,66655.7747918808,78668.7593497191,76564.9158982451,81875.7383628578,82994.6919303924,66680.5117195218
2853401482,5492,-2,0,64647.8249590684,49254.8610746629,73186.9685770473,75459.4441387904,66654.7648730445,78642.2459383419,76561.3872661665,81869.8491975955,82992.4409064801,66684.1863639624
2853401482,5492,-2,0,64646.7298663544,49352.9692141462,73171.0167265124,75445.3417781726,66641.3317357520,78628.6911240811,76543.8779504383,81848.7625790013,82973.7391564633,66678.9664220253
2853401482,5492,-2,0,64636.9470381087,49345.4130744192,73168.7535349033,75438.1993401375,66634.3231423820,78650.5078044847,76548.2948243850,81846.9495921747,82972.2303620572,66672.3228595600
2853401482,5492,-2,0,64630.2913079466,49257.3919556020,73174.3871785323,75445.9866661042,66636.3308123577,78646.6263091982,76557.0190630070,81855.7833400682,82978.8495891289,66679.7816577125
2853401482,5492,-2,0,64618.7928344489,49230.6473579852,73165.6872753039,75439.0267435215,66627.6917476135,78624.5662748582,76541.2618956213,81844.5038851133,82970.2835305656,66679.1367697809
2853401482,5492,-2,0,64619.9487656471,49253.1697648045,73159.3235698655,75430.2660018090,66621.8390854416,78633.6555443849,76528.4614785636,81838.0793411908,82964.6255515429,66667.3462715594
2853428670,5493,-2,0,64627.8821039757,49282.6642619033,73162.6940218855,75430.8865543469,66623.7250784492,78636.5514562288,76528.6926648032,81840.1113465602,82967.4727925995,66662.4183543461
2853428670,5493,-2,0,64629.7924323769,49325.0565176344,73160.7350226970,75433.7581307972,66621.6809053829,78626.2575847166,76527.2082057908,81836.5097083006,82967.5701341740,66671.0209160000
2853428670,5493,-2,0,64616.1889473288,49290.5732648382,73159.2627313814,75429.8644678138,66613.0905114259,78642.0269197991,76531.3452227106,81835.6214664326,82969.1397670642,66672.7487289488
2853428670,5493,-2,0,64607.5863856750,49192.0757590565,73170.0189753729,75431.5679453690,66615.2441937636,78661.7385886523,76539.2542256455,81845.7328224924,82981.3439669776,66679.4531298982
2853428670,5493,-2,0,64615.9942641796,49204.6693252682,73174.4236816228,75438.5887064359,66624.3577986840,78643.8399066257,76544.4498321890,81850.9040936422,82987.1114552717,66690.1972061929
2853428670,5493,-2,0,64623.2462114861,49304.9554824829,73164.7990334359,75437.4084398440,66622.6543211288,78630.5527816951,76536.4556553763,81843.3236185215,82981.7576686696,66687.1309465935
2853428670,5493,-2,0,64623.5504039067,49310.9541570166,73161.5502583841,75433.1862490465,66620.3911295197,78647.1616878584,76534.0464514053,81845.1244376513,82980.0663588112,66677.5184661034
2853428670,5493,-2,0,64619.7054117106,49240.0408199325,73164.1298101106,75436.1429993745,66618.2739502725,78642.3432799165,76538.5728346235,81848.6895728204,82982.9379352614,66679.3436206269
2853489069,5494,-2,0,64610.2267758856,49210.3029688972,73157.9364524277,75434.0014847336,66612.9566667609,78629.4211858905,76535.8716059288,81841.0847623061,82978.3385458623,66681.3877936931
2853489069,5494,-2,0,64607.1848516798,49206.8351753027,73156.1112979043,75429.5237723028,66608.1260911222,78636.5757916224,76532.2699676692,81836.4853729070,82975.0167646297,66674.9632497706
2853489069,5494,-2,0,64617.3448785270,49235.7091198636,73159.8832839194,75429.4751015155,66612.8958282768,78632.0250730106,76530.1649561188,81838.0063350099,82977.1826146642,66675.1579329198
2853489069,5494,-2,0,64620.1799518867,49301.1713287710,73155.1622175521,75425.0825629624,66607.4447001001,78617.3629983390,76519.6764014574,81829.0022393609,82969.8454934799,66678.2728633064
2853489069,5494,-2,0,64606.2966098117,49277.4321522694,73151.1955483878,75416.9910445751,66599.1706662605,78635.0548295195,76516.5128002835,81826.1671660011,82968.2636928929,66674.0993432962
2853489069,5494,-2,0,64602.3421083443,49175.7102068296,73163.7282761154,75421.3349123409,66605.4978686084,78653.0751885143,76527.5489013019,81838.0550057972,82980.1028619017,66678.1268509446
2853489069,5494,-2,0,64613.4755509373,49182.6822971092,73166.1861508737,75430.6675358041,66616.0350940571,78631.5748682282,76529.2767142507,81845.5381393433,82982.9257675646,66686.7780833857
2853489069,5494,-2,0,64623.0393606401,49279.3911514579,73155.9287824519,75429.7914616329,66613.5163808147,78627.5230251862,76524.9450141818,81837.6048010147,82976.5377267326,66679.8303284998
2853496978,5495,-2,0,64629.7802646800,49301.3660119201,73159.7007684671,75432.6630380831,66616.4731311427,78647.8917496678,76533.3772280801,81842.9950907073,82980.5165635936,66673.7464800883
2853496978,5495,-2,0,64632.4449902843,49265.7024925321,73168.8387087811,75443.4314497714,66619.3690429866,78645.4703780000,76545.8856204141,81849.4318023266,82988.8757713110,66688.7249148773
2853496978,5495,-2,0,64618.8050021457,49232.0466431198,73162.1221401348,75438.1263339566,66611.9467479246,78628.8979749271,76544.9000369714,81842.1555196265,82982.7797552027,66691.8763483545
2853496978,5495,-2,0,64607.6837272496,49193.3777026165,73157.0603782565,75426.4331773098,66603.5023663295,78635.0913326100,76538.7310146822,81835.5241248580,82975.9171741946,66682.0083462311
2853496978,5495,-2,0,64614.7166560132,49217.1777176022,73157.8634462468,75422.2839926931,66606.4591166574,78627.7542114258,76527.7922552383,81833.5164548822,82975.8320003168,66684.2472024465
2853496978,5495,-2,0,64619.9731010407,49305.0893271480,73150.9035236641,75419.7166086635,66604.7921421927,78616.6207688328,76516.0625955010,81825.0477378934,82971.4272940669,66688.5423994250
2853496978,5495,-2,0,64613.2321970008,49298.8838017683,73150.5506604562,75415.2510639295,66599.3896848033,78635.0791649132,76517.1455205183,81827.5907865294,82969.7724872990,66683.0547681578
2853496978,5495,-2,0,64609.1073477778,49197.6485642014,73163.1320589711,75418.6823544335,66606.0697503591,78643.3531987528,76527.2933796686,81838.4200367018,82978.7400798575,66686.1575308477
2853522910,5496,-2,0,64610.0199250396,49184.1302530311,73160.8932027557,75423.4885946786,66609.6105501346,78618.9447989260,76530.1892915125,81836.1081743055,82973.2767839840,66691.0124418801
2853522910,5496,-2,0,64615.7752456368,49255.0800932057,73152.0594548622,75422.2231542090,66605.7412225449,78622.8019588188,76526.8796779766,81828.1991713706,82965.6354703792,66684.8434195908
2853522910,5496,-2,0,64626.9816944108,49278.3082264407,73159.2018928973,75426.7738728208,66611.4235369612,78644.9836701271,76530.8098440504,81835.6214664326,82972.3763744191,66684.9285934686
2853522910,5496,-2,0,64627.7604270074,49265.5686478670,73162.1343078316,75431.0690697993,66615.4023738223,78634.4099415879,76530.2379622998,81840.8535760664,82978.3263781655,66692.1683730782
2853522910,5496,-2,0,64616.8703383509,49234.4680147876,73157.0603782565,75427.9298040190,66608.2477680904,78629.7132106143,76526.6971625243,81838.2983597336,82974.5787275441,66691.0124418801
2853522910,5496,-2,0,64610.7256514553,49177.3650135975,73160.4429979733,75427.4309284492,66608.2599357872,78643.3653664496,76534.0951221926,81843.3357862183,82975.4182986248,66685.1841151019
2853522910,5496,-2,0,64622.4188081021,49195.0933478686,73163.1320589711,75433.8919754622,66615.2441937636,78628.2895900860,76539.0473747996,81844.9540898958,82977.4868070847,66686.6199033270
2853522910,5496,-2,0,64628.2349671835,49290.5732648382,73152.4123180701,75429.8279647233,66610.7178105455,78615.3066575759,76530.0797822411,81832.8228961633,82966.0005012839,66686.6807418111
2853581020,5497,-2,0,64618.4399712410,49286.7526080358,73149.0418660502,75422.3448311772,66605.4857009116,78635.6267112702,76527.7557521479,81830.7178846129,82961.8999874546,66679.7329869252
2853581020,5497,-2,0,64607.5742179782,49183.5218681899,73158.5205018752,75422.7463651724,66606.6172967161,78640.2139329725,76534.6061654592,81840.1965204380,82972.5102190842,66678.9299189349
2853581020,5497,-2,0,64604.7269769216,49162.8124481973,73158.4596633911,75426.7130343367,66608.9169914157,78626.1967462325,76534.1924637672,81841.7539856313,82974.4083797885,66682.4463833167
2853581020,5497,-2,0,64611.0906823600,49218.8446920670,73155.0770436743,75425.3624199893,66610.4136181249,78629.8713906730,76533.7057558943,81839.8801603206,82971.3907909764,66680.3900425536
2853581020,5497,-2,0,64620.1434487963,49252.3180260269,73159.4209114401,75426.1411525860,66618.2131117884,78639.4838711631,76537.8549405109,81844.5525559006,82976.4282174611,66680.6942349742
2853581020,5497,-2,0,64621.5183985372,49274.0130294622,73159.9927931908,75428.8910520680,66622.3622964050,78627.7907145163,76534.1924637672,81844.3700404483,82975.5278078962,66686.9971019285
2853581020,5497,-2,0,64608.0244227606,49252.6830569316,73156.1234656011,75421.2132353727,66614.6358089224,78628.3382608733,76526.5268147688,81836.9720807799,82970.2956982624,66682.2151970771
2853581020,5497,-2,0,64603.5102072393,49175.4911882868,73164.4948410153,75422.6611912946,66616.2906156904,78651.4082140496,76532.7080047548,81843.5913078516,82976.2822050993,66676.6180565385
2853586412,5498,-2,0,64615.9212579987,49184.0085760629,73172.2456638915,75430.7162065914,66625.7205807281,78638.7903124442,76538.4754930489,81847.9716787079,82982.3903889044,66682.0813524120
2853586412,5498,-2,0,64625.6310800634,49288.0667192927,73166.4416725070,75430.5215234423,66628.5799894815,78631.0516572648,76533.8396005593,81843.4696308834,82977.2921239356,66686.9119280507
2853586412,5498,-2,0,64623.6964162686,49304.2740914608,73167.9626346098,75429.9253062979,66626.0247731487,78652.9656792429,76539.4489087947,81844.4917174165,82980.2610419604,66683.8213330577
2853586412,5498,-2,0,64614.1569419594,49217.9929532893,73176.8328855938,75430.2538341122,66628.7868403275,78655.7764172090,76544.7418569127,81854.1041979066,82986.8924367289,66688.4572255472
2853586412,5498,-2,0,64611.7112348980,49192.4407899612,73175.2510850068,75436.6662103378,66631.2325473889,78643.5843849924,76545.5449249030,81854.7855889287,82988.6080819809,66695.6239989759
2853586412,5498,-2,0,64616.7973321699,49225.6464345910,73173.2190796373,75436.3498502204,66635.2843904310,78651.0553508417,76547.4795886979,81856.5864080585,82989.3868145776,66693.2878011859
2853586412,5498,-2,0,64628.7581781469,49260.9205876807,73179.9234805868,75437.5422845091,66644.8482001338,78659.7917571606,76549.3534140086,81864.5197463871,82996.6874326713,66693.1904596114
2853586412,5498,-2,0,64631.7635992622,49306.2087552557,73179.4246050170,75434.5246956970,66644.9942124957,78645.1296824889,76546.1411420473,81860.4435679514,82995.2881475367,66698.2522214897
2853615463,5499,-2,0,64619.5350639551,49286.8377819135,73173.8517998721,75427.4430961460,66636.3308123577,78652.1017727685,76542.2109759735,81856.0388617015,82990.5062426853,66692.8619317971
2853615463,5499,-2,0,64616.0429349669,49193.4020380102,73180.5440331248,75429.5237723028,66638.5209977859,78667.3722322813,76546.4209990743,81862.6459210763,82994.5945888178,66688.0313561584
2853615463,5499,-2,0,64627.6022469487,49193.2195225578,73183.6346281178,75439.2214266707,66645.1158894639,78650.3982952133,76545.3015709665,81863.6801753063,82996.4075756444,66694.0543660858
2853615463,5499,-2,0,64639.2345651115,49300.4777700521,73175.6039482146,75439.1605881865,66646.1014729066,78638.7781447474,76538.1347975378,81856.4282279998,82988.4499019222,66690.6474109754
2853615463,5499,-2,0,64636.0709639375,49325.7257409597,73175.4944389432,75434.1109940050,66643.6679335420,78655.6669079376,76540.3979891469,81855.1992906207,82986.1380395258,66674.8172374087
2853615463,5499,-2,0,64630.3034756434,49259.8498303603,73181.8338089880,75437.1772536044,66643.3759088182,78653.5132255999,76547.1997316709,81859.4214814182,82991.5039938248,66676.7153981131
2853615463,5499,-2,0,64623.0028575496,49226.8388688796,73177.3317611635,75436.1795024649,66637.1095449544,78642.2824414324,76542.0892990053,81855.4183091635,82988.9609451888,66683.3467928816
2853615463,5499,-2,0,64621.4453923563,49231.0732273740,73176.4921900827,75435.1087451445,66636.7931848370,78659.3050492877,76543.1600563257,81853.4714776718,82988.1700448953,66686.1940339382
2853643885,5500,-2,0,64638.5531740894,49267.0652745763,73187.9298250963,75447.3251127547,66650.2749929168,78669.9639517046,76556.3741750754,81864.8239388076,82997.0767989697,66693.9083537239
2853643885,5500,-2,0,64647.6424436161,49340.2783063599,73184.8270624064,75448.7365655862,66653.5967741495,78651.4690525337,76552.5778536667,81862.4269025335,82994.9839551161,66696.5000731472
2853643885,5500,-2,0,64635.4625790963,49329.2543730383,73177.8306367332,75436.4471917950,66642.7431885834,78652.9900146366,76539.2542256455,81855.6859984936,82988.2673864699,66686.4130524810
2853643885,5500,-2,0,64623.4895654226,49216.8248543943,73180.0694929487,75431.6774546404,66635.4669058833,78660.8016759969,76539.7287658217,81855.6738307968,82987.9631940493,66676.5937211449
2853643885,5500,-2,0,64630.4251526116,49199.1330232138,73182.3448522546,75440.9005688322,66640.2244753411,78646.4316260490,76546.8590361599,81857.3043021710,82991.0294536487,66684.1255254783
2853643885,5500,-2,0,64638.1638077910,49289.6363521828,73174.4480170165,75441.8253137908,66638.1194637907,78636.3932761701,76539.5949211566,81846.4507166050,82979.5553155446,66679.0759312967
2853643885,5500,-2,0,64638.7965280258,49318.8753276484,73173.9856445372,75435.2060867191,66636.6593401720,78654.9976846123,76537.4169034253,81845.5746424337,82980.1271972953,66671.7996485966
2853643885,5500,-2,0,64635.0002066171,49275.7408424110,73180.0816606455,75435.9118131348,66638.6548424509,78654.1702812284,76538.0982944474,81850.6607397057,82985.0186114181,66678.9055835412
2853696814,5501,-2,0,64627.8577685820,49239.4689381818,73176.2245007526,75436.2160055554,66634.5543286216,78644.8011546747,76533.9734452244,81848.3488773094,82985.0794499023,66684.2106993560
2853696814,5501,-2,0,64624.1952918383,49204.7301637523,73173.8152967817,75435.9483162253,66630.6484979414,78654.5961506172,76533.1338741436,81847.9838464047,82983.6923324644,66678.4553787588
2853696814,5501,-2,0,64636.4724979326,49219.3800707272,73179.1569156869,75441.4967859765,66636.5133278101,78649.8264134626,76536.9788663397,81851.4273046056,82987.4156476923,66680.2318624949
2853696814,5501,-2,0,64641.2057319968,49304.2497560672,73171.8562975932,75439.5864575754,66635.6859244261,78629.7862167952,76530.7611732631,81843.2262769469,82980.2488742635,66678.1998571255
2853696814,5501,-2,0,64628.4783211200,49310.2119275104,73165.3465797929,75430.1686602344,66627.9229338531,78645.0688440048,76528.3641369890,81839.7219802619,82974.1650258521,66674.0628402057
2853696814,5501,-2,0,64623.3435530607,49211.7144217287,73178.7675493886,75441.8861522749,66634.5664963184,78663.9287740804,76549.9131280624,81853.8243408797,82985.3228038387,66682.0083462311
2853696814,5501,-2,0,64626.9330236235,49191.0050017361,73179.8383067090,75446.7045602168,66641.5994250821,78642.5257953688,76550.2781589671,81854.3110487526,82990.2507210520,66691.0732803642
2853696814,5501,-2,0,64629.8532708610,49271.0806145278,73167.0257219545,75436.4715271887,66636.3429800546,78631.2706758076,76532.0022783391,81844.1266865118,82977.0366023023,66683.3467928816
2853707876,5502,-2,0,64633.3210644555,49307.8513943268,73166.5755171720,75430.4971880486,66634.7855148612,78644.6673100097,76529.2645465539,81843.2506123405,82975.1262739011,66671.6049654474
2853707876,5502,-2,0,64633.6495922697,49297.6791997828,73171.9171360773,75433.3809321957,66635.9414460594,78644.5212976478,76530.1892915125,81843.9076679690,82978.8982599162,66673.9168278438
2853707876,5502,-2,0,64623.3070499702,49272.8084274767,73171.3452543266,75432.5656965085,66631.5975782936,78643.9859189876,76533.3650603833,81842.5448859248,82978.9834337940,66681.3512906026
2853707876,5502,-2,0,64618.7441636616,49221.2417283411,73174.6792032561,75434.1840001860,66633.1428757901,78659.8890987352,76541.2132248340,81849.0546037251,82984.4588973643,66682.9452588864
2853707876,5502,-2,0,64632.6396734334,49227.2647382684,73179.5097788948,75441.1804258592,66639.5065812285,78647.1008493743,76544.4133290985,81853.6539931242,82986.4787350369,66686.6199033270
2853707876,5502,-2,0,64640.0619684954,49322.7933260253,73164.9815488882,75435.1209128413,66635.4182350960,78621.7433691952,76528.6318263191,81839.0040861493,82974.6030629377,66682.3125386516
2853707876,5502,-2,0,64631.4837422352,49335.3625568434,73157.8877816404,75424.0361410356,66625.6232391536,78637.3423565223,76523.9837661328,81833.6624672441,82968.5922207072,66671.2886053301
2853707876,5502,-2,0,64628.3809795454,49238.3616777710,73172.6471978867,75431.3854299167,66633.2280496679,78657.0783607691,76535.9202767161,81847.1442753239,82978.3263781655,66676.9709197464
2853739047,5503,-2,0,64628.2714702740,49206.2876289457,73176.1393268749,75436.9825704552,66640.6503447299,78641.7713981658,76540.1911383009,81852.2668756864,82983.9965248850,66687.2161204713
2853739047,5503,-2,0,64631.2403882988,49262.0400157884,73171.1019003902,75436.3985210077,66645.8216158796,78648.3906252375,76539.7044304280,81849.0059329378,82980.5774020778,66684.6000656544
2853739047,5503,-2,0,64641.5950982951,49303.8482220720,73179.6071204694,75445.1470950234,66655.7139533967,78665.1212083690,76550.8135376273,81859.6770030515,82988.7784297364,66683.8578361482
2853739047,5503,-2,0,64645.0142211023,49321.9780903382,73183.4399449686,75449.0894287941,66659.4251009277,78651.5420587146,76551.9694688255,81860.3097232863,82991.4918261279,66690.6109078849
2853739047,5503,-2,0,64632.8100211889,49301.1469933773,73176.7355440192,75442.9812449889,66649.9342974058,78644.5578007383,76548.6598552897,81854.9072658969,82983.7775063422,66688.0921946425
2853739047,5503,-2,0,64621.8225909578,49218.3336488004,73176.0906560876,75434.8532235112,66640.9302017568,78652.4181328859,76545.2529001793,81850.1740318328,82980.9302652856,66678.5162172429
2853739047,5503,-2,0,64627.6022469487,49205.5332317427,73176.0784883907,75435.4737760492,66641.9522882899,78637.6830520333,76538.2321391124,81846.4507166050,82979.4823093637,66677.9808385827
2853739047,5503,-2,0,64636.3264855708,49306.2939291334,73167.8896284289,75431.0082313152,66638.5940039668,78626.2697524134,76526.2834608323,81834.4898706280,82968.0325066533,66676.7153981131
2853778978,5504,-2,0,64632.8708596731,49334.8758489705,73165.4439213675,75425.9464694368,66637.4867435559,78650.1184381864,76526.0036038054,81833.4312810044,82968.6652268881,66672.8339028266
2853778978,5504,-2,0,64628.2958056676,49250.6388838653,73177.1370780143,75436.6540426410,66643.8991197816,78660.7286698160,76546.5670114361,81848.3853803998,82982.4877304790,66677.8104908271
2853778978,5504,-2,0,64627.2615514377,49211.2642169463,73176.4921900827,75441.2899351306,66645.6391004273,78640.5789638772,76546.8833715535,81848.2028649475,82981.3439669776,66685.7438291557
2853778978,5504,-2,0,64629.9871155260,49237.2909204505,73172.3916762534,75437.4571106313,66642.5728408279,78642.5866338529,76535.5917489018,81844.1875249959,82977.2312854515,66684.6000656544
2853778978,5504,-2,0,64640.9623780603,49265.6659894416,73181.3471011151,75435.0357389636,66647.1235594397,78656.1292804169,76530.8220117473,81847.8256663460,82982.0131903029,66683.2129482165
2853778978,5504,-2,0,64641.8871230189,49305.5151965368,73180.2276730074,75432.4683549339,66645.2010633417,78638.7538093537,76524.6286540644,81844.2848665705,82979.9081787525,66685.9993507890
2853778978,5504,-2,0,64622.8933482782,49295.7202005943,73172.0631484392,75422.5638497201,66633.6539190567,78638.1575922094,76518.0459300832,81837.0085838704,82971.0744308591,66680.9132535170
2853778978,5504,-2,0,64608.9004969319,49203.1118600749,73175.0685695544,75420.9942168299,66630.0766161908,78655.5452309694,76525.0545234532,81840.5980544332,82974.2988705171,66674.5982188659
2853814150,5505,-2,0,64618.7198282680,49186.1622584005,73180.6292070025,75433.1375782592,66639.7864382555,78645.4825456968,76532.9635263881,81844.8689160180,82981.2101223126,66681.2417813312
2853814150,5505,-2,0,64632.2016363478,49291.8265376110,73174.9955633735,75436.1429993745,66644.3493245641,78639.1431756521,76530.5908255076,81842.3015319884,82979.1659492463,66682.8844204023
2853814150,5505,-2,0,64635.7789392137,49333.3183837772,73174.4845201069,75434.3786833351,66646.5273422954,78657.7962548816,76533.1703772341,81845.7328224924,82979.2146200336,66674.9632497706
2853814150,5505,-2,0,64632.7248473112,49266.5907344002,73182.0893306213,75437.7734707487,66647.8292858554,78657.8935964562,76539.2420579487,81854.1528686939,82986.2232134036,66674.9267466801
2853814150,5505,-2,0,64621.9929387133,49220.4386603508,73175.3484265814,75432.7968827481,66638.7156809350,78635.6510466639,76533.1825449309,81847.8134986491,82982.2200411489,66675.8149885482
2853814150,5505,-2,0,64615.0330161306,49214.4886566043,73168.3520009082,75424.2551595784,66629.0301942640,78643.8399066257,76526.5146470719,81839.8679926238,82974.9680938424,66667.9789917942
2853814150,5505,-2,0,64626.1056202395,49236.0984861619,73174.4723524101,75432.9063920195,66636.6715078688,78656.1536158105,76540.9820385944,81848.5922312458,82982.0131903029,66669.3174384447
2853814150,5505,-2,0,64638.6626833608,49307.5350342094,73176.5895316573,75440.9614073163,66645.2375664321,78643.8885774130,76544.8148630936,81852.4372234419,82983.9600217945,66679.1124343872
2853841620,5506,-2,0,64630.8510220004,49314.4706213985,73170.5178509426,75431.8112993055,66640.5286677617,78647.3928740980,76536.2001337430,81848.0446848888,82978.5818997988,66675.8758270323
2853841620,5506,-2,0,64621.0438583612,49215.3038922915,73176.3705131145,75430.7040388946,66639.7255997714,78660.4609804858,76538.9622009218,81852.9969374957,82985.0064437213,66672.6513873742
2853841620,5506,-2,0,64627.0060298044,49182.9378187425,73179.6922943472,75439.7933084213,66644.5075046228,78644.9471670366,76543.8901181351,81856.5255695744,82987.4034799954,66681.5094706613
2853841620,5506,-2,0,64633.3332321523,49270.6669128359,73170.6881986982,75440.3043516879,66643.5705919674,78631.5748682282,76540.4831630247,81845.7571578861,82977.0609376959,66679.2949498396
2853841620,5506,-2,0,64632.4206548906,49309.4940333979,73168.9847211430,75432.5413611149,66642.1104683486,78649.7534072817,76537.8306051173,81842.0338426583,82973.5809764046,66667.0299114420
2853841620,5506,-2,0,64630.8631896973,49266.2743742828,73176.8572209874,75432.2250009975,66645.8216158796,78651.8340834384,76539.8261073962,81848.5922312458,82980.0663588112,66670.8749036381
2853841620,5506,-2,0,64624.7915089826,49230.8907119217,73173.0487318818,75431.7626285182,66643.7044366325,78641.5767150167,76535.1658795130,81846.1708595781,82978.3507135592,66678.7839065730
2853841620,5506,-2,0,64623.1123668211,49205.9347657378,73173.1095703659,75433.0524043814,66643.1690579722,78656.7133298644,76539.1933871614,81849.7359947472,82981.0397745570,66677.7253169494
2853860497,5507,-2,0,64639.1858943242,49222.1543056028,73181.8094735943,75443.4801205587,66653.4994325749,78658.6114905688,76549.4750909768,81858.8861027580,82987.0141136971,66682.8722527055
2853860497,5507,-2,0,64649.2364118999,49313.6432180145,73179.2785926552,75446.4612062803,66657.8919711280,78639.1553433489,76545.2894032697,81855.3209675889,82984.1790403374,66689.4306412931
2853860497,5507,-2,0,64639.4292482606,49335.8249293227,73172.8905518231,75435.2547575064,66649.4475895329,78648.7556561422,76538.1834683251,81849.1762806933,82978.6914090702,66682.1786939866
2853860497,5507,-2,0,64627.0547005917,49233.9448038242,73178.8405555695,75431.6166161563,66647.8779566427,78662.7728428822,76544.5715091572,81854.8342597160,82984.7995928753,66682.1665262898
2853860497,5507,-2,0,64626.1664587236,49187.7318912907,73180.6657100930,75435.2304221127,66648.4985091807,78645.3121979413,76546.8225330694,81852.2547079895,82986.3692257655,66688.8709272392
2853860497,5507,-2,0,64634.5743372283,49259.0832654604,73172.6471978867,75432.1884979070,66646.7706962318,78638.6564677791,76536.4313199826,81843.3601216120,82977.3772978133,66683.6996560895
2853860497,5507,-2,0,64640.5851794588,49305.2231718130,73172.6593655835,75429.8644678138,66648.1578136696,78655.6912433313,76532.7323401485,81845.6598163115,82977.1461115737,66677.4941307098
2853860497,5507,-2,0,64642.7145264028,49293.8950460709,73177.8428044301,75435.6684591984,66649.0095524473,78652.5398098541,76536.4921584667,81849.7359947472,82983.0596122296,66684.7825811067
2853934089,5508,-2,0,64631.2403882988,49264.9845984195,73173.5476074516,75431.9086408801,66640.7111832140,78640.7249762390,76533.1338741436,81844.7229036561,82980.2610419604,66687.7758345251
2853934089,5508,-2,0,64618.8658406298,49205.8252564664,73169.3619197445,75424.7540351482,66632.3519754966,78649.1450224405,76531.6615828280,81843.3236185215,82978.1925335005,66678.0173416731
2853934089,5508,-2,0,64626.4584834474,49196.6508130619,73173.0608995786,75427.5647731143,66637.5719174337,78642.7448139116,76534.5088238846,81846.9982629620,82979.6039863319,66679.1611051745
2853934089,5508,-2,0,64635.5355852773,49286.7161049453,73163.3997483012,75425.7639539845,66635.0045334040,78622.0232262222,76526.5389824656,81837.5196271369,82970.3808721401,66680.3292040695
2853934089,5508,-2,0,64628.3444764549,49314.5557952762,73152.8260197621,75415.5917594405,66627.7160830071,78631.3680173822,76519.3357059464,81830.2798475273,82960.2451806866,66671.7631455061
2853934089,5508,-2,0,64616.8581706541,49220.1344679302,73158.0946324864,75416.2731504626,66626.8643442295,78647.7579050027,76529.6660805491,81836.7652299339,82967.7283142327,66671.5806300538
2853934089,5508,-2,0,64616.3471273875,49174.9314742330,73161.1122212985,75426.3845065225,66631.2933858731,78632.4874454899,76537.0153694301,81840.1235142571,82972.4372129032,66678.8204096635
2853934089,5508,-2,0,64622.9176836719,49227.7027753541,73156.2816456598,75426.6035250653,66632.8873541569,78632.3170977344,76531.2965519234,81836.8139007212,82971.0987662527,66676.9830874432
2853942703,5509,-2,0,64634.5743372283,49266.6150697938,73162.3898294649,75430.5823619264,66640.5165000648,78652.2112820399,76536.9910340365,81844.7959098371,82977.7788318085,66672.7487289488
2853942703,5509,-2,0,64643.6149359677,49282.5304172382,73170.3961739744,75440.2191778101,66646.6246838700,78644.2292729240,76547.8324519057,81853.0577759798,82985.9190209830,66682.5680602849
2853942703,5509,-2,0,64630.7658481227,49263.6948225563,73161.0635505112,75430.9230574374,66636.6958432624,78631.8303898615,76537.8914436014,81844.4308789324,82977.7909995053,66679.9641731648
2853942703,5509,-2,0,64616.0185995733,49191.5768834867,73159.0315451418,75422.5395143264,66630.2591316431,78644.8741608557,76532.1361230041,81844.8202452307,82974.9680938424,66673.4544553645
2853942703,5509,-2,0,64621.1777030262,49177.0729888738,73163.5214252695,75426.7130343367,66633.3497266361,78638.8876540188,76535.1658795130,81846.4750519986,82976.4525528548,66676.4355410862
2853942703,5509,-2,0,64628.2958056676,49279.1599652183,73154.5051619237,75426.0073079209,66633.2645527584,78620.8429596304,76528.6318263191,81836.1203420023,82969.1032639737,66679.1489374777
2853942703,5509,-2,0,64623.3800561512,49324.4481327933,73148.7133382359,75422.1988188154,66625.5137298822,78635.7362205416,76533.4380665642,81831.0342447303,82964.3091914255,66671.1547606650
2853942703,5509,-2,0,64613.1591908199,49241.3184280989,73157.2185583152,75426.5183511875,66624.5159787427,78646.0909305380,76547.8689549962,81838.2740243400,82971.2447786146,66674.3913680199
2853969142,5510,-2,0,64604.8608215866,49186.8679848163,73156.4641611121,75423.8171224928,66622.3379610114,78627.5230251862,76539.1082132837,81834.3316905693,82971.4029586733,66684.1376931751
2853969142,5510,-2,0,64597.8643959134,49202.5156429306,73147.2410469204,75408.0842905007,66614.3194488051,78623.1669897235,76516.8899988850,81820.9472240641,82960.3546899580,66679.4896329887
2853969142,5510,-2,0,64607.8419073083,49229.9172961758,73151.3902315370,75409.0090354593,66618.6754842677,78641.5280442294,76513.1423482635,81826.9824016883,82964.1388436700,66678.9785897222
2853969142,5510,-2,0,64619.6932440138,49273.4898184988,73157.0238751660,75417.8184479591,66629.1397035354,78632.3292654312,76517.5348868166,81832.7377222855,82970.0523443259,66684.6487364417
2853969142,5510,-2,0,64616.3957981748,49279.2086360056,73155.0648759775,75416.7841937292,66626.1951209042,78633.6312089913,76518.9950104353,81834.0518335424,82968.2636928929,66683.4441344562
2853969142,5510,-2,0,64608.7301491763,49194.3389506655,73160.7593580907,75417.3682431767,66627.8985984594,78657.1878700405,76529.5200681872,81842.8004075581,82973.9581750061,66678.8325773603
2853969142,5510,-2,0,64618.5859836029,49164.6010996303,73169.8729630110,75429.8766355106,66638.6426747541,78649.6438980103,76541.3592371959,81850.2227026201,82981.2952961903,66686.5225617524
2853969142,5510,-2,0,64631.3498975702,49262.6849037200,73165.3222443993,75434.3421802447,66639.5065812285,78626.5009386530,76539.6314242471,81842.7639044676,82973.9825103997,66687.6784929506
2853995669,5511,-2,0,64626.9330236235,49309.0559963122,73155.0527082807,75419.7409440571,66629.1640389290,78634.6654632212,76526.6971625243,81832.3361882904,82963.6278004034,66674.9267466801
2853995669,5511,-2,0,64617.9775987618,49243.7884705540,73158.4839987848,75415.1658900517,66625.7814192123,78641.0656717501,76523.9350953455,81835.9621619436,82963.8224835526,66673.9898340247
2853995669,5511,-2,0,64610.4336267316,49198.2569490425,73155.7219316059,75414.7035175724,66623.9319292952,78625.8803861151,76518.6421472275,81831.4236110287,82960.9022363151,66682.2395324707
2853995669,5511,-2,0,64609.6062233476,49198.1717751648,73148.7741767200,75412.2091397237,66621.1333590259,78631.2341727171,76517.6565637848,81829.4402764465,82956.9599025444,66676.5207149639
2853995669,5511,-2,0,64625.7527570316,49221.7892746981,73157.6444277040,75426.4575127034,66635.6129182452,78647.0765139806,76534.0951221926,81841.0482592156,82965.9396627998,66676.7762365972
2853995669,5511,-2,0,64637.8231122800,49282.5790880255,73158.7638558117,75432.9672305037,66642.2808161042,78625.9533922960,76536.6381708286,81841.8026564186,82968.2758605898,66681.5338060550
2853995669,5511,-2,0,64625.7284216380,49293.3474997138,73148.9931952629,75419.4854224239,66631.9869445920,78622.6072756697,76525.2127035119,81834.4411998407,82958.6755477965,66679.1854405682
2853995669,5511,-2,0,64608.8883292350,49192.3434483866,73151.3415607497,75411.1140470097,66628.0689462150,78642.0390874959,76528.7048325001,81837.7873164670,82962.5327076893,66678.5162172429
2854017773,5512,-2,0,64609.0951800810,49143.7456672758,73156.0139563297,75418.1956465606,66634.4813224407,78630.3824339395,76535.0320348480,81843.4087923992,82969.7603196022,66683.3224574879
2854017773,5512,-2,0,64621.1411999357,49228.8222034618,73147.0463637712,75424.4741781213,66635.9657814531,78617.4116691263,76532.9878617817,81836.0351681246,82962.4962045989,66682.2395324707
2854017773,5512,-2,0,64630.5468295799,49282.7007649938,73144.0409426559,75421.5904339742,66635.6737567293,78633.1688365120,76526.3808024069,81834.7453922613,82959.9288205692,66673.8194862692
2854017773,5512,-2,0,64629.6342523182,49245.0539110236,73148.8715182946,75418.9500437636,66635.2235519469,78633.4730289326,76523.1076919615,81839.5881355968,82964.3821976064,66676.1435163624
2854017773,5512,-2,0,64617.4178847079,49206.8716783932,73145.4523954874,75413.4867478901,66628.0567785181,78619.5166806767,76517.9485885086,81834.3925290535,82959.3204357281,66681.6798184169
2854017773,5512,-2,0,64605.6760572738,49178.3992678275,73140.8286706947,75406.3564775519,66619.1135213533,78625.7343737532,76513.5803853491,81827.2744264120,82956.0108221922,66675.8393239418
2854017773,5512,-2,0,64615.7874133336,49185.9432398577,73149.4799031358,75414.9712069025,66626.1707855106,78633.0106564533,76524.2879585533,81834.5263737185,82961.3646087943,66674.6590573500
2854017773,5512,-2,0,64629.5490784404,49268.9512675838,73147.8250963679,75423.0505575930,66629.8454299511,78616.8641227693,76526.1131130768,81830.1338351654,82960.5372054104,66676.3503672084
2854055275,5513,-2,0,64623.6112423908,49305.5760350209,73140.9503476629,75419.6436024825,66626.2316239947,78628.1070746336,76524.3853001279,81825.8143027933,82957.3492688428,66671.7023070220
2854055275,5513,-2,0,64613.7797433579,49210.8383475575,73149.0418660502,75419.9112918126,66629.5777406210,78647.6483957313,76534.2533022513,81837.8846580416,82964.8080669952,66671.4832884792
2854055275,5513,-2,0,64616.8825060477,49154.0030356975,73154.9675344029,75426.1289848892,66636.5985016879,78630.4432724237,76536.0662890779,81843.5791401548,82970.2713628687,66678.6257265143
2854055275,5513,-2,0,64621.1777030262,49218.4188226781,73144.4911474384,75424.4741781213,66631.9504415015,78615.8663716298,76525.2370389055,81834.8062307454,82959.1865910630,66674.3061941421
2854055275,5513,-2,0,64626.8721851393,49271.4578131294,73140.8165029979,75419.7531117539,66629.8210945575,78630.8569741156,76524.3001262501,81830.1825059527,82955.6701266812,66662.9293976127
2854055275,5513,-2,0,64630.9118604846,49262.4293820867,73149.3095553803,75425.7639539845,66631.2568827826,78635.8944006003,76532.2943030628,81836.2906897578,82963.3722787701,66667.0542468357
2854055275,5513,-2,0,64619.1578653536,49236.9867280300,73145.9756064508,75423.5250977691,66625.2947113393,78625.2598335771,76531.6737505249,81830.3285183146,82963.1410925305,66674.0993432962
2854055275,5513,-2,0,64610.2267758856,49188.9973317603,73147.3383884949,75422.5760174169,66623.6520722682,78642.8664908799,76538.3903191711,81832.4213621681,82964.5890484524,66674.8780758928
2854073783,5514,-2,0,64618.9996852949,49174.7002879933,73154.6876773760,75431.9451439705,66632.8630187632,78645.2026886699,76549.0005508007,81842.0825134456,82976.2091989183,66680.6455641869
2854073783,5514,-2,0,64630.5346618831,49262.2346989376,73149.7597601627,75434.9749004795,66633.3375589393,78619.1151466815,76544.1213043747,81837.4466209560,82971.7193187907,66685.4274690383
2854073783,5514,-2,0,64619.0848591727,49302.9599802040,73135.9859273591,75418.2686527415,66618.6389811772,78615.6595207838,76525.6750759912,81825.3032595267,82959.0162433075,66672.2620210759
2854073783,5514,-2,0,64604.4957906820,49211.8726017874,73137.8475849731,75412.6836798998,66611.4357046580,78632.4022716122,76524.6529894580,81824.7557131697,82957.6412935665,66664.3286827473
2854073783,5514,-2,0,64604.3132752296,49153.2364707977,73140.6704906360,75417.9036218369,66612.0562571960,78619.2611590434,76527.6462428765,81828.0044882214,82961.8026458800,66672.8217351297
2854073783,5514,-2,0,64611.7842410789,49201.9194257862,73134.4162944690,75418.9500437636,66611.2410215088,78614.8077820062,76524.5434801866,81821.2635841815,82957.1302503000,66671.4954561761
2854073783,5514,-2,0,64624.5359873493,49254.6298884232,73141.1693662057,75429.3047537600,66622.1067747717,78640.3234422439,76541.4200756800,81830.6570461288,82963.8103158557,66667.8329794323
2854073783,5514,-2,0,64632.5544995557,49272.8936013545,73149.6137478008,75438.4305263772,66629.9549392225,78635.2738480624,76548.3434951723,81836.9355776895,82970.6363937734,66675.4256222499
2854122611,5515,-2,0,64623.7329193590,49264.3762135784,73145.8660971794,75430.7040388946,66625.3190467330,78626.4522678657,76537.6845927554,81832.3970267745,82969.2614440324,66675.9975040005
2854122611,5515,-2,0,64613.6337309960,49196.1762728858,73147.0341960744,75424.1456503070,66622.2892902241,78642.1972675546,76535.8229351415,81837.5317948338,82972.1573558763,66669.1105875988
2854122611,5515,-2,0,64618.9023437203,49160.5979273755,73151.7674301385,75427.9298040190,66628.6164925720,78633.6677120817,76537.6115865745,81839.9409988047,82974.5178890599,66671.8848224744
2854122611,5515,-2,0,64627.2007129536,49248.0228290484,73144.6858305876,75427.0780652414,66629.8210945575,78611.9727086464,76534.1559606767,81832.1050020507,82964.8445700857,66674.4400388072
2854122611,5515,-2,0,64622.4553111926,49304.4809423068,73135.5843933640,75417.5872617195,66621.0968559354,78617.7158615469,76527.3785535464,81826.3131783630,82956.6313747302,66664.8640614075
2854122611,5515,-2,0,64613.6458986928,49229.5766006648,73142.4834774626,75415.4335793818,66619.2108629279,78636.8678163462,76530.8585148377,81834.4411998407,82963.4087818606,66663.8663102681
2854122611,5515,-2,0,64611.1028500568,49168.9693027897,73146.2919665682,75421.5782662774,66620.8535019990,78620.2710778797,76534.2898053418,81836.5462113911,82968.5070468294,66675.3039452816
2854122611,5515,-2,0,64608.2799443939,49187.4033634765,73133.7470711437,75416.6138459736,66612.8714928831,78608.0303748758,76523.8012506804,81823.9648128762,82956.9720702413,66669.5972954717
2854173925,5516,1,0,64615.4223824290,49218.3214811036,73131.8124073489,75414.5940083010,66613.0418406386,78621.0498104763,76521.7449099173,81820.7282055213,82954.7210463290,66661.2989262384
2854173925,5516,1,0,64624.8766828604,49257.2824463306,73135.4140456085,75418.5363420717,66614.8913305557,78612.2038948861,76522.4141332426,81822.7602108907,82958.3835230727,66666.9934083516
2854173925,5516,1,0,64614.8139975878,49269.6691616964,73130.8389916030,75413.6084248584,66607.1526753763,78612.9704597859,76515.3568690853,81816.6763624793,82954.0761583974,66667.2124268944
2854173925,5516,1,0,64606.5521314450,49193.7183981276,73137.4217155842,75413.7301018266,66606.9336568335,78638.0115798475,76524.9328464850,81824.7557131697,82961.3646087943,66665.4116077646
2854173925,5516,1,0,64613.1956939104,49151.5451609393,73148.6403320550,75427.0658975445,66619.1500244437,78632.4752777931,76538.1713006283,81833.6868026377,82969.6751457244,66674.6712250468
2854173925,5516,1,0,64622.8811805814,49238.7145409788,73141.0111861470,75425.3380845957,66619.7462415881,78610.4517465436,76529.8485960014,81829.0509101482,82964.8567377825,66677.7618200399
2854173925,5516,1,0,64625.3390553397,49306.2330906493,73136.7159891685,75416.7476906387,66617.5317207663,78628.2530869955,76524.4948093993,81823.8553036048,82959.1257525789,66670.3516926747
2854173925,5516,1,0,64622.9663544592,49256.2725274943,73145.0751968859,75420.8482044680,66622.5204764637,78645.2756948508,76536.8206862810,81835.8404849754,82969.7481519053,66669.2687676575
2854191593,5517,1,0,64620.6058212755,49206.0564427060,73151.8161009258,75426.5061834907,66625.7084130313,78628.9101426240,76541.6634296165,81839.6611417778,82975.7589941359,66677.4089568320
2854191593,5517,1,0,64615.7995810305,49200.6661530135,73145.1360353700,75420.7995336807,66621.6200668988,78627.4621867020,76531.5885766471,81833.3582748235,82970.3930398370,66671.9334932617
2854191593,5517,1,0,64623.6112423908,49211.9699433620,73147.5574070378,75426.1776556765,66625.5989037599,78639.8245666741,76538.6336731076,81836.5583790879,82973.4592994363,66671.0939221809
2854191593,5517,1,0,64633.9659523871,49269.6569939996,73149.4190646517,75434.4151864256,66633.1915465774,78624.7487903105,76540.0694613327,81836.5218759975,82971.4516294606,66678.2363602160
2854191593,5517,1,0,64628.2593025772,49303.2520049277,73143.2622100593,75426.0073079209,66627.0346919850,78620.3562517574,76528.5223170477,81829.0022393609,82963.5547942225,66675.6568084895
2854191593,5517,1,0,64616.3227919939,49222.6775165662,73144.1139488369,75417.5750940226,66622.9706812462,78638.0359152412,76525.6020698102,81830.1338351654,82964.6985577238,66666.1660049676
2854191593,5517,1,0,64621.0681937548,49169.1396505452,73152.7895166716,75427.9663071094,66629.3222189877,78636.1255868400,76535.6039165987,81838.1645150686,82973.2037778031,66672.4202011346
2854191593,5517,1,0,64632.2259717414,49250.1278405987,73148.7620090232,75433.4782737702,66633.4714036044,78620.9889719922,76535.0320348480,81833.8206473028,82970.0401766291,66675.0970944356
2854212742,5518,1,0,64632.4084871938,49316.2714405282,73145.1847061573,75424.8270413291,66629.5777406210,78633.8015567468,76530.8950179282,81830.2068413464,82967.9229973819,66666.2755142390
2854212742,5518,1,0,64628.0524517312,49283.8688638888,73152.8746905494,75426.0438110114,66632.5588263426,78639.9584113392,76537.1857171857,81837.5804656211,82974.5908952409,66666.3363527231
2854212742,5518,1,0,64616.1281088447,49241.3792665830,73146.8395129252,75417.5264232354,66626.3654686598,78618.6649418990,76529.2402111603,81833.0419147061,82969.5778041498,66668.5995443322
2854212742,5518,1,0,64605.5178772151,49218.3214811036,73138.6993237507,75409.1063770339,66619.4907199548,78623.6171945060,76522.0856054284,81825.3397626172,82964.5403776651,66665.5089493392
2854212742,5518,1,0,64615.3372085512,49222.3368210551,73145.3307185192,75414.5940083010,66629.3587220782,78635.2373449719,76529.7390867300,81829.9513197131,82970.3930398370,66668.5508735449
2854212742,5518,1,0,64629.2205506262,49298.2510815335,73145.4402277906,75421.7486140329,66633.3375589393,78620.2224070924,76530.5908255076,81830.8882323684,82970.0645120227,66678.9177512380
2854212742,5518,1,0,64626.6775019902,49344.6830126098,73137.7624110953,75419.3272423652,66628.9085172958,78619.8817115813,76528.9725218302,81823.6362850620,82961.9243228482,66676.3625349052
2854212742,5518,1,0,64615.9942641796,49255.5911364722,73141.2302046898,75416.0662996166,66626.0491085424,78638.8146478378,76532.9148556008,81827.1284140502,82962.1311736942,66669.1957614765
2854232085,5519,1,0,64615.9212579987,49181.0639934317,73146.4014758396,75418.3173235288,66627.2658782247,78628.6546209907,76532.4281477279,81831.6547972683,82965.9761658902,66671.3737792078
2854232085,5519,1,0,64621.1168645421,49235.7942937413,73139.3685470759,75415.7986102865,66626.9860211977,78611.3886591989,76520.8931711397,81822.1883291400,82960.6223792881,66671.7266424157
2854232085,5519,1,0,64625.3268876428,49291.5588482809,73136.7524922590,75411.6980964572,66625.8787607868,78626.7686279831,76517.4375452420,81820.3510069198,82957.7142997475,66663.2214223364
2854232085,5519,1,0,64624.7550058922,49278.7949343136,73144.0531103528,75413.8274434012,66628.7503372371,78630.1390800031,76523.3997166853,81826.3010106662,82963.2749371955,66667.5044516181
2854232085,5519,1,0,64614.0596003848,49254.2648575185,73142.4713097658,75413.2677293473,66623.8467554174,78622.4734310046,76526.8188394925,81823.9161420889,82963.9806636113,66676.1313486656
2854232085,5519,1,0,64604.9703308581,49211.9456079683,73143.8949302941,75412.2334751174,66624.0901093539,78638.1332568158,76531.8806013709,81828.1748359769,82966.5602153377,66679.8059931061
2854232085,5519,1,0,64611.6990672011,49188.5714623715,73155.4420745790,75417.5020878417,66631.9626091983,78644.4726268605,76539.7531012153,81837.6656394988,82975.2966216566,66681.2539490280
2854232085,5519,1,0,64625.7405893348,49270.8980990755,73154.5416650141,75425.5692708353,66638.0707930034,78626.8294664672,76539.8747781835,81836.2785220610,82975.4913048058,66689.1386165693
2854291962,5520,1,0,64625.5094030952,49333.0871975376,73145.6105755461,75416.4191628245,66631.9382738047,78624.7974610978,76526.3199639228,81827.1649171406,82965.9761658902,66683.3224574879
2854291962,5520,1,0,64613.5242217246,49254.2040190344,73148.5551581772,75409.2037186085,66627.2293751342,78640.5667961803,76521.8787545824,81828.3573514293,82966.0613397680,66677.3602860447
2854291962,5520,1,0,64611.1393531473,49179.9445653240,73151.3537284465,75413.1338846823,66627.6065737357,78628.0462361495,76523.5335613503,81829.4889472338,82968.6043884040,66683.5049729403
2854291962,5520,1,0,64616.2132827224,49217.3237299641,73144.6736628907,75417.0275476656,66625.6840776377,78617.9470477865,76522.1221085188,81822.2856707146,82960.3668576549,66683.7726622704
2854291962,5520,1,0,64626.0204463617,49267.8440071729,73145.9026002698,75421.1645645854,66629.7480883765,78639.1188402584,76532.6106631802,81826.6417061772,82961.0239132833,66675.5594669149
2854291962,5520,1,0,64631.8244377463,49284.0270439475,73154.9066959188,75427.6499469920,66637.9856191257,78639.8367343710,76541.9676220371,81834.6237152931,82969.1762701547,66678.6500619079
2854291962,5520,1,0,64623.2583791829,49279.7683500594,73153.0572060017,75422.7341974756,66633.8607699027,78630.7596325411,76535.7864320510,81831.2775986668,82968.3853698612,66684.5027240798
2854291962,5520,1,0,64612.3804582232,49217.6887608688,73154.2861433808,75417.5020878417,66631.3055535699,78647.9160850614,76534.8738547893,81835.2077647406,82969.7603196022,66681.7163215073
2854297975,5521,1,0,64620.6423243660,49177.2920074166,73164.0811393233,75426.7252020335,66639.9811214046,78650.9580092671,76544.9973785460,81844.8445806244,82980.1271972953,66682.8965880991
2854297975,5521,1,0,64640.7068564270,49265.5808155639,73159.8954516162,75438.2966817121,66646.8193670191,78624.9799765502,76548.1488120231,81842.1555196265,82978.0221857450,66689.7713368041
2854297975,5521,1,0,64637.7014353118,49332.7708374202,73144.6736628907,75427.2727483905,66633.2402173647,78616.3409118059,76535.9081090192,81826.4956938154,82962.7030554449,66676.4842118735
2854297975,5521,1,0,64621.0073552707,49257.4406263893,73140.8530060883,75413.3042324378,66623.0315197303,78634.2274261356,76529.6417451554,81824.1229929349,82957.0450764222,66664.1583349918
2854297975,5521,1,0,64614.1812773530,49182.9986572266,73146.2919665682,75415.7986102865,66626.0491085424,78631.0881603553,76528.5588201382,81827.5056126517,82962.4718692052,66673.1380952472
2854297975,5521,1,0,64615.4832209131,49200.1916128374,73144.3329673797,75412.2213074206,66626.0126054519,78625.4058459390,76523.7404121963,81824.0621544508,82960.9144040119,66671.8361516871
2854297975,5521,1,0,64626.3003033887,49238.2886715900,73149.3217230771,75415.9202872547,66630.9161872715,78643.0490063322,76527.9991060843,81831.7034680556,82964.4795391810,66666.1538372708
2854297975,5521,1,0,64640.0984715859,49279.0991267342,73158.1068001832,75425.8734632559,66641.1613879965,78638.2792691776,76533.4137311705,81837.7508133766,82969.9915058418,66673.8803247534
2854329127,5522,1,0,64633.2115551841,49297.3385042717,73153.0085352144,75423.9387994610,66635.9171106658,78626.4401001689,76529.4470620063,81831.5696233905,82966.6332215187,66677.8956647049
2854329127,5522,1,0,64620.7883367279,49227.0457197256,73150.3681450039,75418.4024974066,66630.1374546749,78639.9097405519,76533.9369421339,81830.9977416398,82963.3966141638,66672.3471949537
2854329127,5522,1,0,64624.2561303224,49166.5357634251,73154.9797020998,75424.7540351482,66635.3330612183,78635.0304941259,76539.8382750930,81837.7386456798,82966.4263706727,66675.9001624260
2854329127,5522,1,0,64634.6108403187,49243.4964458302,73146.0121095412,75427.6256115984,66640.1271337665,78613.9560432286,76535.4214011463,81830.7178846129,82960.1356714152,66677.9200000986
2854329127,5522,1,0,64633.2602259714,49322.4526305143,73139.7700810711,75424.0969795197,66639.2023888080,78629.0074841985,76538.5971700171,81828.3816868229,82955.8769775272,66671.8483193839
2854329127,5522,1,0,64625.7892601221,49275.6191654428,73149.6624185881,75428.7085366156,66644.5440077132,78645.9692535697,76555.5224362978,81840.9630853378,82965.1730978999,66673.4666230614
2854329127,5522,1,0,64620.1921195835,49213.3692284966,73150.0396171896,75425.8734632559,66642.6580147057,78622.6072756697,76544.7783600032,81840.4155389808,82964.5160422715,66678.3823725778
2854329127,5522,1,0,64614.1934450498,49204.1826173953,73139.2225347140,75415.1050515676,66633.8364345090,78616.3409118059,76525.6629082943,81830.7057169161,82956.9233994540,66670.6072143080
2854355254,5523,1,0,64623.5382362099,49217.6522577783,73143.7489179322,75417.0032122720,66639.4944135317,78635.2251772751,76525.9671007149,81835.1225908628,82961.3646087943,66664.8032229234
2854355254,5523,1,0,64638.5045033021,49272.4312288752,73148.1536241821,75423.7562840087,66645.7486096987,78623.4346790536,76532.5133216056,81839.4177878413,82963.8833220367,66673.3814491836
2854355254,5523,1,0,64629.8654385578,49310.3457721755,73137.6772372175,75416.2853181594,66635.6615890325,78611.9848763433,76528.4736462604,81829.5132826274,82956.8382255762,66672.5053750123
2854355254,5523,1,0,64610.1172666142,49234.8695487828,73134.4893006499,75407.3785640850,66624.2969601999,78628.6911240811,76532.5863277866,81829.2334256005,82955.2442572924,66667.4071100435
2854355254,5523,1,0,64608.3651182716,49160.8291136152,73141.6439063818,75412.0022888777,66626.7791703517,78625.7708768436,76536.0784567748,81832.7863930728,82962.1433413910,66675.9975040005
2854355254,5523,1,0,64615.4832209131,49225.1718944149,73134.6596484054,75412.7931891712,66626.7426672613,78608.1155487536,76527.0865288226,81824.0134836635,82957.4344427205,66680.9984273948
2854355254,5523,1,0,64619.3403808059,49300.2344161156,73129.0503401701,75408.8265200069,66621.7295761702,78617.3021598549,76525.0058526659,81818.8787156042,82951.0585695853,66672.3593626505
2854355254,5523,1,0,64614.9600099497,49270.0098572074,73132.4937983710,75408.2181351658,66620.4032972165,78622.7411203347,76529.9094344855,81821.8232982354,82953.2487550134,66666.8473959897
2854415683,5524,1,0,64604.6296353470,49220.7550204682,73129.3301971970,75402.3411376003,66615.5848892746,78605.3169784843,76520.5889787192,81817.4794304696,82950.0973215363,66673.2962753058
2854415683,5524,1,0,64593.1068264557,49194.0469259418,73122.5284546730,75390.9035025867,66608.7709790538,78607.2029714918,76510.9278274417,81809.9719615298,82945.3762551690,66671.8726547776
2854415683,5524,1,0,64597.1951725882,49186.0162460387,73126.4099499595,75392.2176138436,66613.1878530005,78621.4026736842,76513.4222052905,81814.8998787431,82947.7002852622,66670.0840033446
2854415683,5524,1,0,64614.3516251085,49253.8633235234,73128.3932845416,75405.3830618061,66623.1410290017,78612.3499072479,76522.0125992474,81820.2780007388,82952.4943578104,66681.1809428471
2854415683,5524,1,0,64614.1569419594,49312.2317651830,73120.8371448146,75402.3168022067,66617.3978761013,78606.0592079905,76517.3767067579,81812.2959916230,82945.5831060150,66681.2296136344
2854415683,5524,1,0,64599.8842335861,49236.8407156681,73122.2851007365,75393.9697621861,66611.4113692644,78624.1404054694,76516.8656634913,81815.9219652762,82948.0288130764,66672.8825736139
2854415683,5524,1,0,64596.4042722947,49152.2873904455,73130.5469668793,75397.0360217855,66614.9156659494,78616.2314025345,76520.2604509049,81822.2613353210,82953.3217611944,66674.5495480786
2854415683,5524,1,0,64600.6873015764,49201.6639041530,73123.8303982330,75396.3302953698,66616.3271187808,78597.7851741509,76514.1157640094,81812.9530472514,82947.6272790812,66676.0583424847
2854429156,5525,1,0,64605.8829081198,49269.9611864201,73120.6546293622,75393.8115821274,66615.2076906731,78613.6761862016,76511.0373367132,81810.1058061949,82943.2712436186,66669.2444322638
2854429156,5525,1,0,64612.5386382819,49267.1747838477,73130.1941036714,75402.8765162605,66623.7372461460,78626.0629015674,76526.4051378005,81820.5335223721,82952.3970162358,66673.3449460931
2854429156,5525,1,0,64605.4570387310,49237.8749698980,73128.4297876321,75397.6809097171,66621.2550359941,78609.5635046755,76520.7471587779,81818.9517217851,82951.9589791502,66678.5040495461
2854429156,5525,1,0,64591.1721626608,49189.8003997506,73122.1269206778,75386.1581008258,66610.8151521200,78610.7924420546,76509.1635114024,81811.3955820581,82944.2811624549,66669.9379909827
2854429156,5525,1,0,64595.7472166663,49157.6046739571,73126.6411361991,75392.1932784500,66616.2662802967,78618.0930601484,76517.0116758532,81817.7349521028,82948.9535580349,66666.9934083516
2854429156,5525,1,0,64614.5463082577,49228.1408124397,73126.1300929326,75402.9130193510,66622.2649548304,78599.9266887917,76517.4375452420,81816.6155239951,82949.3550920301,66671.3981146015
2854429156,5525,1,0,64615.0938546147,49300.5264408394,73116.5054447456,75398.3988038297,66618.7119873581,78599.5008194029,76506.9003197933,81809.0715519649,82938.1973140435,66664.4138566251
2854429156,5525,1,0,64606.2479390245,49239.7122921183,73120.8371448146,75395.9652644651,66616.6434788982,78626.1967462325,76511.8282370066,81813.1598980974,82944.0864793058,66658.5490267564
2854459105,5526,1,0,64606.1019266626,49166.9372974203,73129.3545325906,75405.6385834393,66623.4695568159,78616.3409118059,76518.3501225037,81823.1130740986,82950.4015139569,66666.6162097500
2854459105,5526,1,0,64607.5742179782,49203.7445803097,73120.7641386336,75404.0202797619,66623.0558551239,78600.6324152075,76512.7043111779,81815.5082635842,82943.4537590710,66666.3606881168
2854459105,5526,1,0,64616.0794380574,49263.5488101944,73121.3725234748,75404.8720185395,66625.3555498234,78617.3264952485,76516.7561542199,81817.9418029488,82942.4316725378,66659.3520947467
2854459105,5526,1,0,64624.0249440828,49279.4519899420,73129.4883772557,75410.6030037431,66634.0554530519,78620.6361087844,76525.9671007149,81828.0044882214,82948.4668501620,66662.1993358033
2854459105,5526,1,0,64616.5296428398,49273.7331724352,73128.0160859401,75408.7291784324,66632.2789693157,78611.6076777417,76523.5457290471,81824.4515207491,82948.5763594334,66668.8185628750
2854459105,5526,1,0,64599.6773827401,49214.3061411520,73126.3369437785,75398.0094375313,66625.4772267917,78621.8407107698,76516.6101418581,81819.8521313500,82945.7656214673,66668.2101780339
2854459105,5526,1,0,64600.5047861240,49158.5415866125,73134.3311205912,75400.2847968372,66632.4371493744,78630.7718002379,76517.4375452420,81824.2446699031,82950.7057063774,66669.7798109240
2854459105,5526,1,0,64616.7364936858,49231.6329414279,73136.4726352321,75407.5732472342,66640.5773385490,78612.0457148274,76516.3059494375,81822.6993724066,82951.2289173408,66677.5549691939
2854488267,5527,1,0,64621.9321002292,49320.5788052036,73130.8754946935,75404.7868446617,66638.1924699717,78612.7879443336,76513.6047207428,81816.2748284841,82946.0698138879,66670.3273572810
2854488267,5527,1,0,64614.0352649911,49268.4888951046,73134.3189528944,75404.1784598206,66634.1284592328,78633.4973643262,76521.5867298586,81821.1662426069,82949.4767689983,66661.2502554511
2854488267,5527,1,0,64611.0541792695,49192.5016284453,73138.8696715062,75411.4060717334,66635.5277443674,78621.6825307111,76529.8242606078,81827.7976373754,82955.6336235907,66666.2876819358
2854488267,5527,1,0,64610.3362851570,49204.4259713318,73131.9097489235,75407.8287688675,66631.7070875650,78608.3223995996,76521.1608604698,81818.6962001519,82949.3915951206,66666.8108928992
2854488267,5527,1,0,64618.0871080332,49242.1214960892,73131.0701778427,75405.4682356838,66633.5930805726,78622.8871326966,76516.4397941025,81817.3820888950,82948.0409807732,66662.3818512557
2854488267,5527,1,0,64630.1087924942,49278.0283694137,73138.5168082983,75410.8341899827,66642.3051514978,78622.3882571269,76519.7494076384,81822.0423167782,82955.4632758352,66668.2466811243
2854488267,5527,1,0,64628.8068489342,49302.4246015437,73137.4460509779,75414.0342942472,66641.6724312630,78618.1052278452,76522.8765057219,81821.1419072133,82954.8670586909,66672.8704059170
2854488267,5527,1,0,64616.4688043557,49242.9245640796,73137.8840880635,75411.0532085255,66638.0221222161,78629.6402044333,76531.3452227106,81825.8508058837,82956.8017224857,66666.1660049676
2854521754,5528,1,0,64613.4512155436,49170.7457865259,73143.4933962989,75412.9878723204,66639.6890966809,78630.7961356315,76536.0541213811,81831.9954927793,82962.1676767847,66665.9226510311
2854521754,5528,1,0,64622.1876218625,49233.6649467973,73137.9935973349,75412.0144565746,66641.8427790185,78605.0979599415,76522.9373442060,81826.3496814535,82955.0860772337,66671.8239839903
2854521754,5528,1,0,64621.2507092071,49315.4805402348,73126.5681300182,75400.2604614436,66635.7589306071,78610.0988833357,76504.1990910986,81814.6200217162,82944.6461933596,66664.2556765664
2854521754,5528,1,0,64618.6589897839,49277.5051584504,73135.1706916720,75401.2217094926,66636.4038185387,78632.4387747026,76510.9156597449,81821.2635841815,82950.1703277172,66658.3300082136
2854521754,5528,1,0,64612.1979427709,49213.4909054649,73143.2257069688,75406.0036143440,66640.3339846125,78623.1183189362,76517.0116758532,81826.8972278105,82956.5583685493,66667.8938179165
2854521754,5528,1,0,64606.0775912689,49212.6756697777,73142.9580176387,75405.0788693855,66642.4633315565,78621.9867231317,76518.0702654768,81827.0067370819,82957.0815795127,66673.8073185724
2854521754,5528,1,0,64613.8162464483,49234.4315116971,73150.0396171896,75409.2402216989,66652.4895137386,78644.2536083177,76530.2014592093,81835.8039818849,82963.6034650098,66675.8758270323
2854521754,5528,1,0,64629.9262770419,49288.3830794101,73158.6300111466,75420.6900244093,66663.2214223364,78634.7384694022,76537.6237542713,81843.3479539151,82968.4218729516,66682.2638678644
2854550210,5529,1,0,64626.4341480537,49332.9776882661,73150.7210082117,75413.5475863742,66657.7337910693,78621.9015492539,76528.5223170477,81835.0009138946,82960.9144040119,66678.0781801573
2854550210,5529,1,0,64609.4115401984,49266.6637405811,73151.4023992338,75402.0369451797,66651.0415578167,78645.4217072127,76524.8233372135,81838.7363968192,82960.9995778897,66671.0574190904
2854550210,5529,1,0,64608.4016213621,49183.8747313978,73161.3069044477,75407.5489118405,66659.5954486832,78647.2590294330,76529.9702729696,81849.4561377202,82971.4272940669,66674.8172374087
2854550210,5529,1,0,64620.8978459993,49240.2355030817,73158.0946324864,75413.0608785013,66665.6914647915,78626.3670939880,76526.2591254386,81846.3533750304,82969.0789285801,66682.5072218008
2854550210,5529,1,0,64627.3467253154,49326.7234920992,73150.1977972483,75410.9315315573,66665.7766386693,78629.3360120128,76521.3433759222,81838.6147198510,82960.1721745057,66671.8969901712
2854550210,5529,1,0,64629.0015320834,49307.9122328109,73153.7385970238,75412.9026984426,66665.7158001851,78640.7736470263,76527.1595350035,81844.7837421403,82962.6300492639,66665.7279678820
2854550210,5529,1,0,64627.3102222250,49264.9724307227,73157.0117074692,75417.1492246338,66666.8595636865,78630.1512476999,76531.7710920994,81846.3168719399,82963.2140987114,66672.9190767043
2854550210,5529,1,0,64620.4233058232,49243.8006382508,73150.8183497863,75412.2456428142,66660.0578211625,78626.7077894990,76527.7314167542,81840.7684021887,82958.7120508869,66671.1912637555
2854590410,5530,1,0,64621.2263738135,49230.5500164106,73151.2928899624,75411.7711026381,66659.8874734070,78635.5172019988,76529.9581052728,81840.2086881348,82958.8945663393,66666.5553712659
2854590410,5530,1,0,64632.0191208954,49280.8147719862,73151.3902315370,75418.1713111670,66662.9659007032,78622.7046172443,76535.8229351415,81841.2064392743,82962.2650183592,66673.7099769978
2854590410,5530,1,0,64625.1200367968,49338.8181827412,73138.0057650317,75410.0432896892,66652.3313336799,78611.4373299862,76528.1207830526,81829.7323011703,82952.1536622994,66670.4490342493
2854590410,5530,1,0,64608.5476337240,49272.2608811197,73135.8642503909,75401.8179266369,66643.8261136007,78631.7695513774,76524.4096355216,81830.0121581972,82949.5741105729,66662.6373728889
2854590410,5530,1,0,64607.3795348290,49183.5948743709,73147.0098606807,75413.0608785013,66652.2948305895,78634.9209848545,76536.3218107112,81841.0725946092,82957.2275918745,66671.7388101125
2854590410,5530,1,0,64614.0109295975,49226.7415273050,73143.3230485434,75414.9833745994,66657.1497416218,78611.3278207148,76531.6007443439,81838.1401796749,82954.8305556004,66676.3503672084
2854590410,5530,1,0,64617.8680894904,49304.8824763020,73137.1053554668,75410.7611838018,66656.1763258760,78622.0718970095,76526.2712931355,81832.2145113221,82949.5619428761,66669.4877862003
2854590410,5530,1,0,64617.9045925808,49303.8238866784,73144.2477935019,75409.7025941782,66656.5048536902,78630.3459308491,76535.0563702416,81838.7972353034,82954.8792263877,66665.0465768599
2854641209,5531,1,0,64609.6062233476,49273.6236631638,73141.7290802596,75407.7192595961,66649.5449311075,78613.7856954731,76534.1316252831,81834.3073551757,82954.0518230038,66666.1903403613
2854641209,5531,1,0,64597.8035574293,49232.4603448118,73134.9273377355,75401.8057589401,66637.5840851305,78614.5035895856,76528.2789631113,81826.5565322995,82947.0675650274,66660.3985166735
2854641209,5531,1,0,64602.4272822221,49193.8157397022,73138.6871560538,75405.9671112536,66640.0176244951,78631.6965451964,76528.0356091748,81831.0342447303,82950.4136816537,66661.6152863558
2854641209,5531,1,0,64620.2407903708,49250.1765113860,73141.6804094723,75415.8594487706,66648.8878754790,78616.6451042264,76527.4272243336,81832.8107284665,82953.4191027690,66670.6680527921
2854641209,5531,1,0,64623.1610376083,49329.4733915811,73137.4825540684,75415.3970762913,66646.4786715081,78615.2093160013,76526.2226223482,81827.8949789500,82948.1991608319,66670.0718356478
2854641209,5531,1,0,64613.1713585167,49272.6867505085,73141.6804094723,75409.2037186085,66643.4732503928,78630.8813095093,76529.5687389745,81833.1635916743,82951.6061159423,66664.2070057791
2854641209,5531,1,0,64605.6273864865,49174.6394495092,73143.8462595068,75407.7070918992,66640.1879722506,78619.8573761877,76533.4867373515,81835.0009138946,82953.3582642848,66664.5355335933
2854641209,5531,1,0,64602.8409839140,49190.7008093155,73130.5226314856,75401.8665974242,66633.5930805726,78594.2443743754,76522.9251765092,81822.6628693161,82943.2104051345,66661.3110939352
2854646214,5532,1,0,64604.8243184962,49244.9687371458,73117.6613759438,75392.6921540197,66625.3312144298,78599.6103286743,76513.5682176523,81810.7506941265,82929.6555908738,66647.0748886524
2854646214,5532,1,0,64609.1681862620,49263.1837792897,73123.4288642379,75395.4055504112,66626.0612762392,78606.1078787778,76516.3546202248,81813.6222705767,82932.8435274414,66648.6810246330
2854646214,5532,1,0,64603.4615364520,49261.2369477981,73122.4432807952,75393.7872467338,66620.5493095784,78592.4557229424,76512.9720005080,81806.9300373241,82930.5681681355,66658.6828714215
2854646214,5532,1,0,64586.6336117459,49208.5873236452,73114.9236441586,75385.0873435054,66607.6758863397,78596.2398766544,76508.3604434121,81802.4766602869,82920.4933151661,66653.0248923988
2854646214,5532,1,0,64591.9995660448,49153.1999677072,73123.4045288442,75391.5240551247,66616.8016589569,78615.7933654488,76517.1941913056,81812.4785070753,82928.3293119201,66656.5048536902
2854646214,5532,1,0,64608.0244227606,49210.1326211417,73121.9200698318,75401.1608710085,66628.9206849926,78596.2398766544,76518.6664826211,81814.4253385670,82932.6853473827,66664.9005644980
2854646214,5532,1,0,64611.5530548393,49300.6602855044,73112.5874463686,75397.5714004457,66625.5502329726,78593.2587909327,76512.3514479700,81808.8281980285,82925.6037478317,66662.9293976127
2854646214,5532,1,0,64603.8265673567,49259.7889918762,73115.8970599045,75389.3582050902,66620.9143404831,78614.6252665538,76512.3514479700,81814.5470155352,82929.3757338468,66657.6607848884
2854676917,5533,1,0,64596.7693031994,49174.7002879933,73125.4730373041,75393.3613773450,66622.8490042779,78607.8843625139,76517.5592222102,81820.4240131007,82938.3433264053,66664.8640614075
2854676917,5533,1,0,64592.5714477955,49176.3429270644,73117.5883697629,75389.2365281220,66620.0991047959,78594.7554176420,76509.8205670309,81810.9697126693,82931.7727701210,66664.7423844393
2854676917,5533,1,0,64597.5358680992,49213.5882470394,73114.2544208334,75388.2752800730,66619.1378567469,78607.8478594234,76511.0373367132,81809.4974213537,82932.3081487812,66656.3953444188
2854676917,5533,1,0,64608.8274907509,49242.1579991797,73120.9953248733,75393.9454267925,66626.3654686598,78612.8001120304,76518.7394888021,81817.3334181077,82941.0445551000,66661.5422801749
2854676917,5533,1,0,64607.1605162862,49266.0675234368,73121.4211942621,75393.4100481323,66623.6520722682,78603.0416191784,76518.0459300832,81814.3766677797,82940.7038595890,66669.5851277748
2854676917,5533,1,0,64591.2816719322,49214.0992903060,73121.0318279637,75386.6934794860,66619.3325398961,78622.1814062809,76522.1221085188,81816.6885301761,82938.2216494371,66664.3895212315
2854676917,5533,1,0,64595.6742104853,49144.8529276866,73133.7835742342,75399.7372504802,66632.0842861665,78633.8623952309,76538.4876607457,81830.6327107352,82948.6858687048,66668.2345134275
2854676917,5533,1,0,64615.4953886099,49201.8829226958,73138.0057650317,75414.8130268438,66644.7143554688,78616.5112595614,76542.5516714846,81837.3249439878,82951.9589791502,66676.8492427781
2854706538,5534,1,0,64621.7130816864,49303.2155018372,73131.1796871141,75409.7025941782,66645.0793863734,78617.6793584564,76532.0144460359,81830.9734062462,82945.4127582595,66670.7410589730
2854706538,5534,1,0,64616.8946737445,49279.3546483674,73137.3973801906,75406.6485022756,66642.9743748231,78635.8092267226,76534.6305008528,81837.0329192640,82948.3938439811,66664.8883968012
2854706538,5534,1,0,64610.1416020078,49207.4435601439,73140.6948260296,75407.9017750484,66642.4389961629,78622.8627973030,76531.6494151312,81838.2983597336,82950.6448678933,66667.9424887037
2854706538,5534,1,0,64607.3308640417,49193.5480503721,73130.9485008745,75401.3312187640,66632.8386833696,78609.2471445581,76520.8323326556,81827.7246311945,82941.0445551000,66665.1195830408
2854706538,5534,1,0,64615.6900717591,49210.4489812591,73132.1287674663,75401.5989080941,66633.2645527584,78629.7862167952,76521.4042144063,81828.3086806420,82943.8674607630,66661.4327709035
2854706538,5534,1,0,64633.4792445142,49261.9426742138,73143.1040300006,75416.8571999101,66649.1555648091,78637.0381641017,76536.0054505938,81840.8657437633,82955.2199218988,66671.5076238729
2854706538,5534,1,0,64633.6860953602,49315.9064096236,73140.6096521519,75418.9013729763,66646.5881807795,78619.5896868576,76536.2001337430,81834.3681936598,82954.9887356591,66677.7739877367
2854706538,5534,1,0,64617.2718723460,49262.3198728153,73138.1274420000,75411.2478916747,66637.7422651892,78630.7596325411,76535.0685379385,81834.5628768090,82951.7034575169,66667.4679485277
2854768957,5535,1,0,64611.5165517488,49167.9958870439,73144.1747873210,75413.1338846823,66640.5408354585,78634.5924570403,76539.6679273375,81839.6003032937,82959.7341374201,66663.2944285174
2854768957,5535,1,0,64615.7022394559,49205.2412070189,73139.8917580393,75415.4092439882,66642.4754992533,78611.6685162259,76532.2699676692,81833.9423242710,82955.8404744367,66666.2268434517
2854768957,5535,1,0,64617.0893568937,49297.9468891129,73129.6830604049,75407.7314272929,66635.1748811596,78614.4792541920,76524.0081015264,81825.6561227346,82947.7611237463,66660.7270444878
2854768957,5535,1,0,64616.7608290795,49293.8220398899,73137.2026970414,75409.1672155180,66635.3208935214,78634.1057491674,76530.9801918060,81831.7399711460,82953.0175687738,66658.4760205755
2854768957,5535,1,0,64613.0010107612,49244.5550354538,73142.1062788611,75413.1460523791,66636.1726322990,78622.4125925205,76534.8008486084,81832.9567408283,82958.3956907695,66666.6283774469
2854768957,5535,1,0,64606.4912929609,49218.0781271671,73136.2779520829,75409.0577062466,66628.8111757212,78615.4161668473,76527.8044229352,81826.7025446614,82954.7818848131,66668.5022027576
2854768957,5535,1,0,64609.8009064968,49204.5354806032,73140.6339875455,75408.2181351658,66632.2789693157,78635.0913326100,76529.1063664952,81829.4402764465,82956.5096977620,66666.5797066596
2854768957,5535,1,0,64625.1687075841,49251.4054487651,73144.8926814335,75416.3461566435,66639.0077056588,78626.0385661738,76532.9635263881,81831.4236110287,82959.8923174788,66673.1259275503
2854775104,5536,1,0,64621.3602184785,49318.4494582596,73133.7105680533,75411.3087301588,66632.5709940395,78608.9672875312,76523.7525798931,81819.3775911739,82952.3361777517,66669.4512831098
2854775104,5536,1,0,64603.8387350535,49267.6979948111,73128.1864336956,75402.9616901383,66624.4308048649,78626.5252740467,76520.1874447240,81816.7615363570,82949.8174645094,66659.8753057101
2854775104,5536,1,0,64599.0811655957,49168.6894457628,73136.3874613543,75409.6417556941,66627.1076981660,78631.0394895680,76530.7855086568,81824.3906822650,82957.0450764222,66665.6549617010
2854775104,5536,1,0,64606.7711499878,49197.3078686903,73135.4018779116,75417.6481002036,66631.0743673302,78609.3566538295,76536.7963508873,81821.3730934529,82953.3217611944,66674.8780758928
2854775104,5536,1,0,64609.1925216556,49281.9828708812,73128.4297876321,75410.5908360463,66627.3267167088,78610.1232187293,76531.0288625932,81812.0283022929,82945.2302428071,66667.1880915007
2854775104,5536,1,0,64612.9036691866,49289.2834889750,73133.0170093343,75405.8454342853,66628.2392939705,78620.3440840606,76526.2347900450,81814.6321894130,82947.5542729003,66667.1515884103
2854775104,5536,1,0,64611.8694149567,49262.7457422041,73134.3919590753,75405.4439002902,66627.6674122198,78611.2304791402,76524.4461386120,81814.7295309876,82947.3717574480,66671.3129407237
2854775104,5536,1,0,64605.1893494009,49228.4328371634,73127.3955334021,75404.7138384808,66622.8003334906,78609.4904984945,76521.7570776142,81810.6533525519,82941.7867846062,66669.1105875988
2854804119,5537,1,0,64606.1871005403,49189.7030581760,73129.6830604049,75406.8066823343,66623.8832585079,78622.3152509459,76524.0689400105,81814.5713509289,82942.1031447236,66662.9537330063
2854804119,5537,1,0,64616.5904813240,49236.4026785825,73132.4816306741,75415.9446226484,66633.2645527584,78609.3323184358,76532.3429738501,81818.8300448169,82947.0067265433,66668.0276625815
2854804119,5537,1,0,64613.7919110547,49321.4792147685,73124.4022799837,75410.3839852003,66627.6309091293,78598.5882421412,76527.7800875415,81808.7673595443,82939.1950651829,66666.4945327818
2854804119,5537,1,0,64599.8720658892,49279.9630332086,73125.9840805707,75400.2969645341,66618.9796766882,78621.9745554349,76521.4285497999,81808.6091794856,82938.4771710704,66660.6175352163
2854804119,5537,1,0,64596.5867877470,49181.6115397887,73135.7182380290,75405.0545339918,66623.3478798477,78625.6248644818,76524.4826417025,81816.2748284841,82948.7710425826,66667.0055760484
2854804119,5537,1,0,64602.8044808236,49193.3168641324,73135.5843933640,75408.5831660705,66624.4794756522,78603.0659545720,76519.3600413400,81810.6290171583,82944.1594854867,66672.4810396187
2854804119,5537,1,0,64607.8662427019,49255.7006457436,73127.6510550354,75402.4993176590,66620.7439927276,78605.7306801763,76513.7750684983,81802.9512004630,82935.7637746789,66661.7491310209
2854804119,5537,1,0,64613.0496815485,49272.6502474180,73126.9453286197,75402.8035100796,66620.4398003070,78610.0988833357,76516.0869308947,81807.7574407080,82934.0481294268,66653.8279603891
2854835137,5538,1,0,64611.0420115727,49270.2653788407,73121.5307035335,75402.5723238400,66617.2518637394,78590.4480529666,76516.7561542199,81805.7497707322,82928.8038520961,66653.4507617876
2854835137,5538,1,0,64596.0027382995,49229.4427559997,73109.7402053121,75395.2230349589,66606.0819180559,78590.0465189715,76512.4852926351,81798.5343265162,82919.4468932393,66647.1965656206
2854835137,5538,1,0,64596.0635767837,49171.6096930003,73111.5531921387,75398.3623007392,66607.6880540365,78606.3755681079,76519.8224138193,81802.5983372551,82922.4888174450,66645.8702866669
2854835137,5538,1,0,64611.4070424774,49218.8568597638,73114.1814146524,75411.3939040366,66617.0085098029,78593.5386479597,76525.5899021134,81806.5163356321,82925.4334000762,66658.3056728200
2854835137,5538,1,0,64617.8315863999,49321.8929164604,73109.7767084025,75411.7345995476,66618.6998196613,78590.9104254459,76522.1464439125,81800.3108102524,82921.1382030977,66661.2137523607
2854835137,5538,1,0,64606.4304544768,49297.0464795480,73112.8186326083,75402.0734482702,66614.2586103209,78611.3399884116,76521.5380590713,81802.2089709568,82923.7664256115,66651.3822533277
2854835137,5538,1,0,64599.1420040799,49207.2245416010,73124.9376586439,75406.1252913123,66618.9310059009,78611.9727086464,76532.1361230041,81813.0017180387,82933.4032414952,66656.5291890838
2854835137,5538,1,0,64597.0978310136,49198.7679923091,73120.1070830052,75402.9981932288,66617.3005345267,78593.1979524486,76523.1441950520,81807.5505898620,82932.8556951382,66658.1718281549
2854879156,5539,1,0,64600.7481400605,49233.0322265625,73113.6947067795,75400.6011569546,66613.7353993575,78603.7351778973,76516.3059494375,81806.1756401210,82928.8890259739,66650.8347069707
2854879156,5539,1,0,64614.8991714656,49262.7944129914,73119.9123998560,75408.5588306768,66621.0846882386,78608.7117658979,76523.6674060154,81813.9142953004,82933.5614215539,66652.8180415528
2854879156,5539,1,0,64614.8261652846,49288.1762285641,73117.1138295868,75409.2280540021,66620.7196573339,78593.3804679010,76522.7791641473,81810.6898556424,82932.3203164780,66654.4728483208
2854879156,5539,1,0,64600.0545813416,49247.0250779089,73112.7821295178,75403.2050440748,66612.9688344577,78602.7860975451,76524.7624987294,81809.6312660188,82929.2175537881,66651.6377749610
2854879156,5539,1,0,64596.5381169598,49165.2946583492,73120.9101509955,75409.5930849068,66618.3226210598,78617.3386629453,76539.5827534598,81818.7570386360,82938.4650033736,66654.6675314699
2854879156,5539,1,0,64608.0000873670,49201.8707549989,73123.5992119934,75418.4268328003,66625.1852020679,78600.2430489091,76546.9807131281,81819.8156282596,82940.9350458286,66665.9469864248
2854879156,5539,1,0,64614.4733020768,49305.4300226590,73114.0110668969,75408.9847000656,66620.5006387911,78590.1438605461,76531.3938934979,81806.6988510844,82932.0647948447,66661.9559818669
2854879156,5539,1,0,64606.0654235721,49290.5367617477,73113.8285514446,75396.1356122206,66614.3559518955,78606.3147296238,76520.3456247827,81805.2630628593,82928.9376967612,66652.0028058657
2854893885,5540,1,0,64598.5457869355,49209.0861992150,73119.8028905846,75397.6687420203,66615.7430693333,78603.9298610465,76518.3987932910,81809.8502845616,82931.7971055146,66656.6265306584
2854893885,5540,1,0,64589.6390328611,49190.3357784108,73114.7411287063,75396.0626060397,66614.4776288637,78594.1835358913,76513.8115715888,81805.7984415195,82928.3658150105,66656.0668166046
2854893885,5540,1,0,64590.0770699468,49209.0861992150,73115.5441966966,75393.8845883084,66620.3059556419,78610.7316035705,76518.5204702593,81809.4122474759,82928.2076349518,66650.6643592152
2854893885,5540,1,0,64601.6242142317,49250.6753869558,73126.1179252357,75402.7913423828,66631.9139384110,78616.5112595614,76529.3862235221,81821.4095965434,82935.9827932217,66653.7427865114
2854893885,5540,1,0,64606.4669575673,49308.6057915298,73125.9597451770,75404.8963539331,66635.2722227341,78603.5769978386,76528.7900063778,81822.5898631352,82938.0999724689,66657.9041388248
2854893885,5540,1,0,64597.9374020944,49268.2698765617,73124.1467583504,75399.4208903628,66628.9936911735,78614.8807881871,76529.8607636982,81819.8886344405,82936.4329980041,66651.8811288975
2854893885,5540,1,0,64593.2650065144,49165.7935339189,73129.0260047764,75398.3379653456,66627.5335675548,78619.5045129798,76530.7611732631,81822.1153229591,82941.0323874032,66653.2074078512
2854893885,5540,1,0,64597.0856633168,49185.8337305863,73126.8723224388,75400.5038153801,66628.1297846991,78597.1646216129,76529.2280434634,81819.6331128072,82941.1297289778,66663.5499501507
2854929080,5541,1,0,64598.3876068768,49279.9630332086,73115.5441966966,75394.8093332669,66621.4132160528,78595.1812870308,76521.1243573794,81806.9300373241,82931.4320746099,66658.2204989422
2854929080,5541,1,0,64597.8035574293,49281.7030138543,73115.5320289998,75391.5240551247,66616.4122926586,78611.6441808322,76518.4839671688,81810.0571354076,82931.2982299448,66649.4110864424
2854929080,5541,1,0,64593.0338202747,49223.6874354025,73119.9245675529,75391.7795767580,66614.9521690398,78604.7450967336,76518.5204702593,81812.0769730802,82936.8710350898,66656.0303135141
2854929080,5541,1,0,64589.3105050469,49197.7702411696,73116.5054447456,75391.9985953008,66614.1247656559,78601.7396756183,76516.7561542199,81809.7164398965,82933.4032414952,66661.7978018082
2854929080,5541,1,0,64593.2893419080,49189.6908904792,73119.1945057435,75392.8259986848,66617.5682238568,78620.5022641193,76520.5889787192,81815.1919034669,82937.1508921167,66657.5026048297
2854929080,5541,1,0,64611.5895579297,49236.6095294284,73128.4784584194,75404.7016707840,66631.9626091983,78616.3044087154,76529.9094344855,81822.9427263431,82945.2424105039,66666.2876819358
2854929080,5541,1,0,64617.4422201016,49317.9140795993,73124.2684353186,75405.4682356838,66633.8851052963,78603.0294514816,76527.2325411845,81818.8422125137,82943.7579514915,66667.4557808308
2854929080,5541,1,0,64603.4493687552,49286.9716265786,73121.1170018415,75398.6299900693,66627.6187414325,78616.8276196788,76526.3442993164,81819.6087774136,82941.7259461221,66657.5756110106
2854959040,5542,1,0,64596.6841293216,49180.4921116810,73127.6023842481,75403.3145533462,66629.7602560734,78626.7807956800,76535.1415441194,81827.7367988913,82947.9314715018,66654.6066929858
2854959040,5542,1,0,64605.0068339485,49191.1266787043,73128.3081106639,75413.2677293473,66634.2988069883,78608.2858965091,76537.0275371270,81825.9968182456,82949.5132720888,66663.6837948157
2854959040,5542,1,0,64611.6503964138,49279.5980023039,73121.2995172939,75415.5065855627,66633.6904221472,78614.2845710428,76544.2429813430,81819.8277959564,82942.4925110220,66662.5521990112
2854959040,5542,1,0,64615.0451838274,49297.5453551177,73126.5559623214,75419.2664038810,66635.9049429689,78626.7686279831,76556.5566905278,81826.9337309010,82946.7268695163,66660.8973922433
2854959040,5542,1,0,64608.5232983304,49258.9007500081,73125.9962482675,75409.9581158115,66629.4317282591,78605.0006183669,76541.6390942228,81820.4848515848,82945.3397520785,66663.9636518426
2854959040,5542,1,0,64587.4488474330,49211.5684093668,73113.4756882367,75389.6867329045,66610.7299782423,78592.1150274314,76515.1621859361,81804.6668457150,82933.3424030111,66656.1154873919
2854959040,5542,1,0,64581.5110113834,49163.5303423099,73112.6239494591,75383.2865243756,66607.1648430732,78610.4152434531,76512.0715909431,81802.0264555044,82932.2351426002,66651.2970794500
2854959040,5542,1,0,64597.9252343976,49203.3917171018,73117.5640343692,75395.5150596827,66618.5416396026,78602.2385511881,76517.6443960880,81807.2098943510,82936.4816687914,66656.5778598711
2854992584,5543,1,0,64604.0212505059,49301.8648874899,73111.4436828673,75400.3943061086,66621.4862222338,78595.7653364783,76520.2847862986,81804.9953735292,82931.5415838813,66652.7815384624
2854992584,5543,1,0,64596.6597939280,49287.6530176007,73114.1935823493,75399.6642442993,66622.4961410701,78621.3783382906,76531.0288625932,81809.7651106838,82934.3766572411,66645.5174234591
2854992584,5543,1,0,64594.7007947395,49189.0338348507,73127.3590303117,75406.1617944027,66626.7670026549,78625.4301813326,76538.8526916504,81822.9062232526,82944.9990565675,66651.7107811419
2854992584,5543,1,0,64599.0689978989,49183.7652221264,73124.2806030155,75406.2591359773,66626.2437916915,78599.3061362537,76527.2203734877,81818.2338276726,82939.1098913052,66654.8743823159
2854992584,5543,1,0,64600.4561153367,49246.9277363343,73114.4004331952,75396.0382706460,66621.9607624099,78603.0902899657,76513.1423482635,81806.4920002384,82930.4586588641,66648.9365462663
2854992584,5543,1,0,64604.2402690487,49270.0220249042,73120.7033001495,75396.9386802109,66624.6741588014,78617.6915261532,76517.5348868166,81811.7971160532,82936.9197058771,66649.5692665011
2854992584,5543,1,0,64601.2470156302,49269.0729445521,73124.1345906536,75399.1897041232,66626.2924624788,78607.7748532425,76520.6254818096,81812.7583641023,82943.1130635599,66660.6418706100
2854992584,5543,1,0,64589.0549834136,49234.4801824844,73121.3603557780,75394.9675133256,66620.8535019990,78610.6829327832,76521.2703697413,81812.2108177452,82937.9174570165,66664.2435088696
2855012092,5544,1,0,64585.9400530270,49169.6263584182,73128.7583154463,75399.7007473897,66626.3289655693,78629.7740490984,76531.5520735566,81821.2270810910,82945.1694043230,66663.9758195395
2855012092,5544,1,0,64601.8432327746,49201.5422271847,73136.0467658433,75412.3064812983,66636.3186446609,78622.8506296061,76542.7463546337,81828.5276991848,82954.7332140258,66674.2453556580
2855012092,5544,1,0,64606.9293300465,49305.2840102971,73128.9286632018,75410.3231467162,66636.4646570228,78606.1808849587,76538.3659837775,81819.5844420199,82948.4790178588,66674.0506725089
2855012092,5544,1,0,64592.6201185828,49288.9549611607,73121.9687406191,75391.9985953008,66622.3014579209,78614.4305834047,76523.9959338296,81808.0738008254,82940.9715489191,66660.4471874608
2855012092,5544,1,0,64584.0905631099,49189.9585798093,73127.4928749767,75389.8935837505,66618.6876519645,78613.1773106319,76518.2771163228,81810.4708370996,82943.5876037360,66661.9803172605
2855012092,5544,1,0,64582.1437316182,49171.6826991812,73120.9831571765,75390.1977761710,66613.1878530005,78592.7964184535,76511.3415291337,81804.8980319546,82937.1022213294,66666.2633465422
2855012092,5544,1,0,64585.3925066699,49212.8216821396,73114.0232345937,75387.2896966303,66614.0882625654,78601.0461168994,76509.3338591579,81799.1427113574,82928.5726658565,66657.4782694360
2855012092,5544,1,0,64593.4840250572,49244.2630107301,73119.6690459196,75393.3492096482,66621.2307006005,78612.9339566954,76516.8291604009,81805.2995659498,82931.6632608495,66655.5192702475
2855067911,5545,1,0,64595.1144964315,49274.0738679463,73119.3161827117,75395.5880658636,66624.9540158283,78597.1524539161,76517.4618806357,81806.0539631528,82934.4983342093,66660.7878829719
2855067911,5545,1,0,64580.3185770948,49241.6347882163,73113.0741542415,75383.7488968549,66616.0715971475,78601.4598185914,76511.6213861607,81799.9457793477,82928.4023181010,66657.5877787074
2855067911,5545,1,0,64572.7746050645,49156.9597860255,73120.0462445211,75382.2401024488,66618.4564657248,78613.5180061429,76515.7097322932,81804.6911811086,82932.1134656320,66654.5701898953
2855067911,5545,1,0,64582.1437316182,49179.8472237494,73123.9764105949,75392.4122969928,66625.4042206107,78599.3791424347,76521.8544191887,81806.7353541749,82935.8246131630,66664.6693782584
2855067911,5545,1,0,64590.4786039419,49288.2127316545,73116.1890846282,75390.1369376869,66624.2847925030,78588.6107307464,76512.3149448796,81797.2567183498,82929.3270630595,66665.5211170360
2855067911,5545,1,0,64587.5583567044,49292.7634502663,73117.2598419486,75386.1702685226,66620.7439927276,78608.0060394821,76509.3581945516,81799.8241023795,82929.1567153040,66662.9537330063
2855067911,5545,1,0,64582.5330979165,49212.2619680857,73122.6501316412,75387.4113735986,66621.8512531384,78606.2295557460,76512.1080940336,81805.2387274657,82934.8755328108,66667.5287870118
2855067911,5545,1,0,64579.4303352267,49188.4862884937,73116.2134200219,75387.0950134812,66616.8990005315,78589.2921217685,76508.7984804977,81800.1647978905,82931.7240993336,66670.5950466112
2855079241,5546,1,0,64587.3758412521,49207.8085910485,73112.3562601290,75391.9620922103,66620.8900050894,78602.2872219754,76517.9972592959,81801.9412816267,82929.4000692405,66661.8343048986
2855079241,5546,1,0,64605.7855665452,49245.4189419283,73120.8736479050,75404.8963539331,66633.7512606313,78608.1763872377,76531.1992103488,81812.8070348896,82935.1432221409,66661.6761248399
2855079241,5546,1,0,64611.8450795630,49303.3006757150,73119.8637290687,75405.6994219234,66638.4236562113,78597.4444786398,76529.5687389745,81811.5294267231,82936.5668426692,66664.3043473537
2855079241,5546,1,0,64599.0446625053,49276.8967736092,73117.0408234058,75394.8458363574,66631.2690504794,78607.8356917266,76520.8566680493,81808.8768688157,82933.7926077936,66660.4471874608
2855079241,5546,1,0,64590.0405668563,49175.4790205900,73125.4365342137,75392.8381663816,66631.9017707142,78619.7235315226,76523.4848905630,81813.7926183322,82941.5799337602,66662.7833852508
2855079241,5546,1,0,64597.6453773706,49179.8715591431,73126.4829561404,75398.7029962503,66639.7621028618,78597.1159508256,76524.3244616438,81813.7804506354,82939.4019160289,66668.1371718529
2855079241,5546,1,0,64604.9094923739,49279.8900270276,73118.1845869072,75398.4109715265,66639.8351090428,78597.0672800383,76524.8598403040,81808.0981362191,82934.4861665125,66662.4305220430
2855079241,5546,1,0,64607.6958949464,49295.7202005943,73120.9466540860,75399.7737535707,66640.0784629792,78620.3562517574,76534.0829544958,81814.3036615988,82942.6385233838,66657.8311326439
2855116711,5547,1,0,64601.9162389555,49234.6992010272,73124.9133232503,75399.1288656391,66638.2411407590,78613.7856954731,76535.4579042368,81820.2536653452,82947.4325959321,66662.5278636175
2855116711,5547,1,0,64588.3249216043,49198.9626754583,73114.4856070730,75385.7930699211,66626.2316239947,78593.7333311088,76513.7142300142,81809.0715519649,82937.6862707769,66661.1894169670
2855116711,5547,1,0,64583.6890291147,49184.5196193294,73110.1174039136,75378.9183212162,66622.2284517400,78604.9519475796,76509.6988900626,81808.6578502729,82934.3888249379,66654.3390036557
2855116711,5547,1,0,64598.2172591213,49216.0217864040,73119.8150582815,75390.2464469583,66634.0067822646,78608.5414181424,76518.8246626798,81816.9927225966,82939.1828974861,66658.7923806929
2855116711,5547,1,0,64606.9901685307,49294.0167230391,73118.2940961786,75393.4830543132,66638.1924699717,78596.9334353733,76521.0026804111,81815.7637852175,82938.6110157354,66663.0754099746
2855116711,5547,1,0,64596.7814708962,49279.9995362991,73117.4910281883,75388.7984910364,66633.7999314186,78611.0966344752,76522.7669964505,81817.0778964744,82939.9616300828,66659.1209085071
2855116711,5547,1,0,64593.1311618493,49177.9490630450,73129.2450233192,75398.7394993407,66639.9446183142,78627.5838636703,76543.1478886289,81831.4722818159,82949.2212473650,66666.0078249089
2855116711,5547,1,0,64597.8643959134,49173.5930275824,73128.1377629083,75404.9571924172,66644.7386908624,78605.1101276383,76544.8513661841,81830.1460028622,82948.4668501620,66675.0362559515
2855148824,5548,1,0,64601.3078541143,49260.0445135094,73114.3517624080,75397.5227296584,66638.3993208176,78595.0231069721,76531.9049367645,81820.0954852865,82935.3257375932,66666.6162097500
2855148824,5548,1,0,64599.6773827401,49276.1302087094,73112.4049309163,75385.2576912609,66631.0865350271,78606.2052203523,76519.8224138193,81814.9485495304,82931.7240993336,66653.4507617876
2855148824,5548,1,0,64596.6597939280,49242.5838685685,73117.7952206089,75384.5154617547,66631.8409322301,78600.5594090265,76513.7263977110,81818.3190015503,82933.5614215539,66655.9816427268
2855148824,5548,1,0,64586.6092763522,49213.0772037729,73113.6217005986,75379.3441906050,66624.1144447475,78594.8770946102,76509.2365175834,81812.6366871340,82929.7407647515,66657.4904371328
2855148824,5548,1,0,64586.7674564109,49180.2122546541,73117.0286557090,75383.9557477008,66626.9008473200,78611.1209698688,76516.0747631978,81816.1774869095,82933.2450614365,66656.0911519982
2855148824,5548,1,0,64601.5512080508,49210.9113537384,73125.2296833677,75396.8048355459,66637.6692590083,78609.1498029835,76526.1131130768,81822.4681861670,82940.4970087430,66663.9514841458
2855148824,5548,1,0,64608.0730935479,49307.1091648206,73119.3161827117,75398.4353069202,66637.9126129447,78595.8870134465,76524.1541138883,81816.4816793301,82935.3865760774,66667.7964763419
2855148824,5548,1,0,64598.5579546324,49305.1501656321,73116.2134200219,75389.4555466648,66630.0036100098,78612.1308887051,76521.0635188953,81814.5713509289,82932.8070243509,66662.1506650160
2855182643,5549,1,0,64589.7120390421,49200.3984636834,73125.0106648248,75391.7674090612,66630.8918518779,78618.1660663293,76527.0135226417,81822.9183909494,82939.9981331733,66664.7180490457
2855182643,5549,1,0,64587.7530398536,49179.7012113875,73121.3725234748,75393.9332590957,66630.2956347336,78595.5706533291,76525.5655667197,81818.8300448169,82936.8953704834,66674.3183618390
2855182643,5549,1,0,64587.7773752472,49240.4545216245,73107.8907153950,75385.8660761021,66622.8490042779,78593.0519400867,76518.9341719512,81806.8570311431,82925.0562014747,66667.9789917942
2855182643,5549,1,0,64593.0824910620,49261.7236556710,73109.5576898597,75381.9237423314,66620.7683281212,78604.3070596480,76513.5682176523,81805.1900566784,82923.5109039782,66659.4007655340
2855182643,5549,1,0,64592.5714477955,49254.2405221249,73109.9835592485,75383.1161766201,66620.6344834561,78593.2709586296,76511.3658645274,81803.9124485120,82921.9169356944,66662.0411557446
2855182643,5549,1,0,64580.8782911486,49222.9573735931,73103.7293630815,75377.1661728737,66611.7398970786,78592.4192198520,76506.4744504046,81798.5221588194,82917.1471985398,66658.0501511867
2855182643,5549,1,0,64579.3086582585,49161.1333060357,73109.9470561581,75381.8507361505,66613.3338653624,78613.8952047445,76516.4762971930,81803.9611192993,82924.6911705700,66652.2461598022
2855182643,5549,1,0,64595.8202228472,49179.3726835733,73119.2310088340,75392.7043217165,66624.4551402585,78605.1466307288,76523.7039091058,81812.1378115643,82930.1909695340,66656.9672261695
2855224166,5550,1,0,64610.1659374014,49288.0423838990,73116.1525815378,75396.5736493062,66630.1252869780,78596.2398766544,76521.6354006459,81810.2761539504,82928.8281874898,66661.3962678130
2855224166,5550,1,0,64608.4137890589,49300.9036394409,73116.2255877187,75395.4907242890,66629.5047344401,78618.3850848721,76526.6606594338,81813.8169537259,82930.5925035291,66658.0014803994
2855224166,5550,1,0,64602.3177729506,49207.0176907551,73128.2716075734,75398.7516670375,66637.4015696782,78626.8538018609,76534.6791716401,81826.2888429694,82941.7381138189,66664.0123226299
2855224166,5550,1,0,64599.4096934100,49183.1446695884,73130.3766191238,75398.1797852869,66641.7576051408,78612.6540996685,76533.2433834150,81826.1793336980,82944.9868888707,66675.2187714039
2855224166,5550,1,0,64602.0622513174,49231.2314074327,73129.4397064684,75398.4718100106,66643.2298964564,78620.7212826621,76535.9081090192,81825.1450794680,82943.4780944646,66674.6468896532
2855224166,5550,1,0,64614.8505006783,49268.9634352807,73137.9084234572,75404.2879690920,66651.6256072642,78630.7961356315,76542.1988082767,81835.0860877724,82949.7931291157,66674.2088525676
2855224166,5550,1,0,64616.0185995733,49292.4835932394,73135.8155796036,75401.9761066956,66650.8590423643,78613.8100308667,76537.5020773030,81833.1879270680,82946.6903664259,66675.9244978196
2855224166,5550,1,0,64601.2226802366,49261.5898110059,73127.8579058814,75390.0030930219,66641.9644559868,78614.8077820062,76526.8553425830,81825.2059179521,82940.8863750413,66667.8329794323
2855242927,5551,1,0,64594.1775837761,49175.8805545851,73133.8565804151,75390.1369376869,66640.8450278791,78635.4563635147,76528.8143417715,81829.5497857179,82946.0576461911,66664.4381920187
2855242927,5551,1,0,64607.4403733131,49183.8868990946,73140.3419628218,75403.1685409843,66648.6810246330,78617.8010354246,76533.0608679627,81831.8859835079,82952.8837241087,66674.4157034136
2855242927,5551,1,0,64613.4998863309,49293.2866612297,73129.6343896176,75400.3334676245,66644.3249891704,78599.6589994616,76524.6043186707,81822.1761614432,82942.2248216919,66676.5450503576
2855242927,5551,1,0,64604.9459954644,49313.7040564986,73124.1954291377,75394.7606624796,66639.2510595952,78619.2489913466,76524.9450141818,81819.8277959564,82937.0657182389,66668.4535319703
2855242927,5551,1,0,64602.2447667697,49237.2179142696,73133.7105680533,75403.7647581286,66646.9410439873,78629.0683226827,76542.8680316020,81831.4722818159,82948.1139869542,66673.9776663279
2855242927,5551,1,0,64599.4705318941,49204.2434558794,73130.8754946935,75405.0545339918,66647.6954411904,78613.2624845097,76541.4200756800,81831.2654309700,82947.7124529590,66678.0781801573
2855242927,5551,1,0,64601.3686925985,49214.7806813281,73127.6510550354,75401.5015665195,66645.8824543638,78617.0831413121,76534.7278424274,81827.5177803485,82945.6317768023,66672.6513873742
2855242927,5551,1,0,64611.7842410789,49237.3517589346,73134.0999343516,75403.2780502557,66651.8446258070,78627.8028822131,76533.9977806180,81831.2167601827,82946.8972172719,66669.0619168115
2855270356,5552,1,0,64615.5197240035,49285.2316459329,73133.5888910850,75404.1176213365,66651.6377749610,78611.1939760498,76529.6295774586,81827.6151219231,82944.4271748168,66672.2376856823
2855270356,5552,1,0,64601.9405743491,49270.3627204153,73127.1765148593,75395.8070844064,66640.9545371505,78616.1827317472,76524.3974678247,81820.0833175897,82937.6862707769,66664.1948380823
2855270356,5552,1,0,64592.2307522844,49175.8075484042,73131.9827551044,75392.5096385674,66639.9446183142,78629.0683226827,76529.9824406665,81826.9337309010,82942.3099955696,66660.5323613386
2855270356,5552,1,0,64599.6530473464,49171.2568297924,73133.8687481120,75400.4916476832,66645.7364420019,78614.5522603729,76530.7003347790,81826.7147123582,82943.2834113155,66669.2565999606
2855270356,5552,1,0,64609.2046893524,49277.3104753012,73125.0836710058,75399.4573934533,66645.1402248576,78605.0371214574,76528.2789631113,81819.6087774136,82936.6398488501,66670.6558850953
2855270356,5552,1,0,64610.4336267316,49310.5526230215,73125.5947142723,75397.3037111156,66648.0239690046,78627.1214911910,76535.1050410289,81824.5853654142,82938.0147985911,66661.1894169670
2855270356,5552,1,0,64606.4304544768,49253.9606650980,73134.4771329531,75401.3312187640,66650.9320485453,78626.9024726482,76542.0649636117,81833.3582748235,82947.9679745923,66667.3949423467
2855270356,5552,1,0,64595.1509995219,49215.2552215042,73131.2161902045,75396.5979846999,66645.9919636352,78610.8167774483,76533.6327497133,81827.1405817470,82943.3929205868,66666.7987252024
2855298654,5553,1,0,64590.8192994530,49201.9194257862,73129.7195634953,75395.3933827144,66644.5440077132,78624.1647408630,76537.1370463984,81828.5763699721,82941.5799337602,66659.8753057101
2855298654,5553,1,0,64602.5854622808,49223.4319137692,73133.4550464200,75403.2780502557,66650.3845021882,78621.6703630143,76540.3979891469,81834.7453922613,82947.6029436876,66659.7049579546
2855298654,5553,1,0,64612.2709489518,49296.9978087607,73125.6677204533,75403.1563732875,66650.1289805550,78600.1943781218,76530.3109684807,81826.7390477518,82942.7723680489,66660.5445290354
2855298654,5553,1,0,64600.1397552193,49289.4781721241,73113.7798806573,75391.5727259120,66635.0167011009,78603.3093085085,76519.2505320686,81816.6641947824,82931.4929130940,66650.6156884279
2855298654,5553,1,0,64590.7584609688,49185.1158364738,73119.0484933816,75391.8039121516,66633.1428757901,78619.4436744957,76527.7557521479,81820.6551993404,82934.5348372998,66646.2839883589
2855298654,5553,1,0,64593.6178697222,49164.9782982318,73121.0926664479,75396.5614816094,66633.3618943329,78602.8469360292,76524.9450141818,81817.8322936774,82935.1553898377,66652.4165075577
2855298654,5553,1,0,64600.5534569113,49253.4252864378,73113.0133157574,75390.3072854424,66631.1352058144,78598.1137019651,76518.4961348656,81808.8647011189,82928.5726658565,66651.4309241150
2855298654,5553,1,0,64607.3308640417,49290.9504634397,73118.0994130294,75391.9255891199,66635.7589306071,78620.5509349066,76525.2248712087,81814.6078540193,82931.5050807908,66647.6589380999
2855354101,5554,1,0,64607.0510070148,49260.2270289618,73124.4631184678,75397.4497234775,66641.1248849060,78616.3895825932,76530.7855086568,81820.7038701276,82938.3068233149,66652.3921721640
2855354101,5554,1,0,64596.6354585343,49226.1574778575,73119.1458349562,75393.1910295895,66636.2821415705,78604.3922335257,76524.1541138883,81816.1531515159,82931.9552855733,66652.8545446433
2855354101,5554,1,0,64591.9873983480,49187.3546926892,73118.6104562960,75390.1491053837,66636.6350047783,78620.3927548479,76526.3321316196,81817.7714551933,82933.2207260429,66648.2916583347
2855354101,5554,1,0,64607.0753424084,49201.7490780307,73128.7096446590,75404.1419567301,66648.4255029997,78621.2444936255,76541.2618956213,81828.3573514293,82940.7160272858,66657.1619093186
2855354101,5554,1,0,64616.7973321699,49292.7269471759,73125.4487019105,75407.0013654835,66647.4520872539,78599.9631918822,76535.8959413224,81819.8642990469,82934.9728743854,66664.4625274124
2855354101,5554,1,0,64606.9414977434,49300.5872793235,73118.8538102324,75394.6389855114,66635.7589306071,78612.8001120304,76527.7557521479,81812.8435379800,82928.9133613676,66659.3155916563
2855354101,5554,1,0,64601.3565249016,49195.5922234383,73127.3103595244,75398.7638347344,66635.6980921230,78626.1237400515,76537.7210958459,81819.7304543818,82936.9562089675,66657.1497416218
2855354101,5554,1,0,64598.2902653023,49159.0526298790,73126.4829561404,75400.8810139816,66633.4957389980,78604.8667737018,76536.2488045303,81815.2040711637,82934.2793156665,66661.2137523607
2855390759,5555,1,0,64596.3312661138,49220.3413187762,73116.5176124424,75390.5749747725,66626.7426672613,78601.2042969581,76520.4916371446,81803.5352499105,82924.5451582081,66657.1497416218
2855390759,5555,1,0,64601.5877111413,49253.4861249219,73120.2895984575,75387.9954230461,66627.5700706452,78616.7789488915,76518.7394888021,81804.9710381356,82924.1436242130,66651.3214148436
2855390759,5555,1,0,64603.1573440314,49249.1544248529,73125.3148572454,75392.3392908119,66630.7093364255,78610.8654482355,76523.1076919615,81810.4708370996,82927.6235855043,66657.7216233725
2855390759,5555,1,0,64591.0383179958,49225.3665775640,73121.5915420176,75388.6524786745,66627.3632197992,78605.2926430906,76519.6642337606,81806.1391370306,82924.6059966922,66658.4760205755
2855390759,5555,1,0,64584.2609108654,49164.3334103002,73122.4797838857,75387.7642368064,66627.6795799166,78621.7677045889,76524.5191447930,81810.3856632218,82929.2905599691,66654.8865500127
2855390759,5555,1,0,64596.2704276296,49169.1031474548,73129.0990109574,75399.2870456978,66637.7787682797,78617.6428553659,76536.5043261636,81817.5524366505,82933.5249184634,66663.2700931237
2855390759,5555,1,0,64607.5012117972,49272.2730488165,73122.8083116999,75402.7183362018,66636.5376632037,78601.0704522931,76537.3317295475,81811.7849483564,82929.0958768199,66667.7964763419
2855390759,5555,1,0,64606.7346468974,49302.1082414263,73118.2332576945,75396.7439970618,66630.2834670367,78613.4571676588,76534.2046314640,81808.0372977350,82927.7087593821,66660.6662060036
2855399261,5556,1,0,64598.5092838451,49209.5485716942,73125.4487019105,75393.3857127386,66627.2172074374,78623.3860082663,76530.1527884220,81815.5082635842,82935.2527314123,66658.3786790009
2855399261,5556,1,0,64596.0514090868,49169.9548862324,73124.0980875631,75396.3302953698,66624.6254880141,78605.8401894477,76525.7724175657,81811.9796315056,82934.7538558426,66662.4913605271
2855399261,5556,1,0,64597.3411849501,49214.2696380615,73116.3229292933,75393.7750790370,66622.8125011875,78603.4188177799,76521.4042144063,81806.7840249622,82928.8646905803,66658.4030143946
2855399261,5556,1,0,64602.0622513174,49249.6167973322,73116.4567739583,75395.7462459223,66623.7980846301,78613.4449999620,76527.7557521479,81809.0837196617,82928.4023181010,66653.8157926923
2855399261,5556,1,0,64608.0244227606,49279.5858346071,73118.4887793278,75405.0667016887,66628.2636293641,78603.5404947481,76538.7918531663,81809.9354584393,82930.6533420132,66662.1506650160
2855399261,5556,1,0,64599.6165442560,49269.4258077599,73114.5342778603,75403.1685409843,66620.1721109769,78599.8050118235,76536.2974753176,81806.6136772067,82929.5339139055,66662.4548574366
2855399261,5556,1,0,64586.2685808412,49185.0306625960,73114.4734393762,75394.4321346654,66610.7908167264,78608.5657535360,76532.4889862120,81803.8516100279,82926.8935236949,66653.6089418463
2855399261,5556,1,0,64591.6832059274,49172.5466056557,73116.4811093520,75398.3866361329,66612.5307973721,78599.3426393442,76531.5399058598,81804.0097900866,82926.4311512157,66658.4030143946
2855424141,5557,1,0,64598.3632714832,49274.4267311541,73107.6960322458,75394.1522776385,66610.9733321787,78586.1528559881,76517.6565637848,81792.2922980461,82920.8096752835,66655.7139533967
2855424141,5557,1,0,64595.1023287346,49309.6278780629,73106.9294673460,75385.9877530703,66609.0021652934,78605.9862018095,76510.5992996275,81790.2359572830,82918.7168314299,66647.7562796745
2855424141,5557,1,0,64589.3591758342,49230.5500164106,73118.8659779293,75389.1878573347,66612.2387726483,78617.9105446960,76516.5614710708,81798.1936310052,82929.7407647515,66650.4088375819
2855424141,5557,1,0,64588.3492569979,49188.8878224889,73120.5086170004,75396.9386802109,66614.8304920716,78604.4652397067,76521.9030899760,81801.6979276902,82933.6344277349,66659.1452439008
2855424141,5557,1,0,64590.1865792182,49206.7134983345,73117.9899037580,75397.9972698345,66617.5317207663,78608.0912133599,76524.5799832771,81800.9191950935,82932.0769625415,66658.5976975437
2855424141,5557,1,0,64598.6187931165,49231.9736369389,73122.1877591619,75402.3289699035,66623.7250784492,78617.1561474930,76530.6029932044,81807.7452730112,82935.9706255249,66656.1884935728
2855424141,5557,1,0,64604.3254429264,49278.2717233502,73121.1656726288,75403.6187457667,66625.3555498234,78603.4796562640,76530.2501299966,81807.5384221652,82938.5501772513,66661.4327709035
2855424141,5557,1,0,64589.5173558929,49269.8273417551,73110.2269131850,75390.6844840439,66613.2730268783,78598.4178943857,76522.2072823966,81797.0985382911,82926.4554866093,66653.3899233035
2855474971,5558,1,0,64578.6150995396,49172.8751334699,73114.5099424667,75388.6889817650,66611.8250709563,78619.2733267402,76530.5786578108,81803.9124485120,82932.0282917542,66647.3182425889
2855474971,5558,1,0,64588.0328968805,49151.0219499759,73122.7353055190,75399.0801948518,66620.4398003070,78607.1664684014,76535.6282519923,81810.9697126693,82938.0147985911,66652.7206999783
2855474971,5558,1,0,64602.1109221047,49253.8754912202,73116.2255877187,75402.2924668130,66625.6840776377,78599.6346640680,76529.3618881285,81806.8083603558,82933.7439370063,66655.7991272745
2855474971,5558,1,0,64607.1483485894,49301.7918813089,73116.6636248043,75399.5669027247,66627.0955304691,78616.8762904661,76528.4858139572,81810.5803463710,82935.5690915297,66651.9176319879
2855474971,5558,1,0,64605.1650140072,49246.6600470042,73124.5482923456,75402.4263114781,66631.8652676237,78618.4094202658,76533.3772280801,81816.9197164157,82940.8255365572,66656.9307230790
2855474971,5558,1,0,64593.6787082064,49204.9370145983,73116.6149540170,75396.7439970618,66628.5191509974,78596.2398766544,76524.9085110913,81809.8989553489,82935.0215451727,66656.4926859934
2855474971,5558,1,0,64589.4078466215,49194.8013231448,73114.5464455571,75395.9287613746,66626.9251827136,78613.8465339572,76525.0788588468,81809.1688935395,82932.7948566541,66652.2096567117
2855474971,5558,1,0,64602.9991639727,49215.8757740422,73125.1323417931,75406.4416514296,66640.0541275856,78627.8880560908,76537.6237542713,81819.8886344405,82943.2469082250,66655.6531149126
2855494178,5559,1,0,64609.5697202571,49285.9982108328,73126.9209932261,75406.7580115470,66643.0960517913,78606.8501082840,76534.6183331560,81818.1121507044,82942.7236972616,66662.6495405858
2855494178,5559,1,0,64594.2019191697,49292.8242887504,73117.1259972836,75392.7773278975,66629.6264114083,78608.8334428661,76523.7282444995,81809.6556014124,82934.2671479696,66653.8401280860
2855494178,5559,1,0,64584.1514015940,49191.4430388217,73120.4842816067,75388.6768140682,66625.2095374616,78625.6857029659,76527.7070813606,81813.6952767576,82938.5258418577,66647.9387951268
2855494178,5559,1,0,64592.7296278542,49156.1932211256,73126.1787637199,75400.4794799864,66632.5466586458,78610.8776159324,76532.4281477279,81816.4695116333,82943.5389329487,66658.6220329374
2855494178,5559,1,0,64603.2546856060,49240.2355030817,73114.3760978016,75402.4263114781,66629.3465543814,78594.7310822483,76525.7480821721,81805.2630628593,82935.6664331043,66656.1884935728
2855494178,5559,1,0,64608.4746275431,49287.6286822070,73111.4801859577,75403.8134289159,66630.1374546749,78610.9506221133,76534.3628115227,81805.1170504975,82932.8070243509,66648.5593476648
2855494178,5559,1,0,64608.5963045113,49259.9471719349,73116.8583079535,75405.2857202315,66631.9626091983,78608.6874305042,76538.3294806870,81808.9498749967,82935.6907684979,66653.1100662766
2855494178,5559,1,0,64596.4286076883,49226.9727135447,73112.8794710924,75395.7705813159,66623.5303953000,78593.7576665025,76524.8841756977,81802.5253310742,82928.1102933772,66654.5823575922
2855522744,5560,1,0,64584.0418923226,49188.8148163079,73107.8420446077,75383.1891828010,66617.0571805902,78607.8356917266,76513.3613668063,81797.5244076799,82923.1458730735,66647.6467704031
2855522744,5560,1,0,64595.8932290281,49196.4439622159,73117.5031958851,75392.9355079562,66625.8422576964,78613.7491923826,76519.7372399415,81807.7574407080,82930.3978203799,66652.0271412593
2855522744,5560,1,0,64610.0807635237,49288.0788869895,73115.2765073665,75400.6254923483,66630.9283549684,78593.7698341993,76520.3699601764,81805.1535535879,82928.5604981597,66657.9649773089
2855522744,5560,1,0,64604.3011075328,49314.4462860048,73108.8519634440,75393.0571849244,66622.6908242192,78600.6445829043,76519.2383643718,81797.8164324037,82921.3815570342,66647.9874659141
2855522744,5560,1,0,64590.0649022499,49209.2322115768,73113.4026820558,75391.6092290025,66617.4952176758,78614.3332418301,76529.4348943094,81801.1260459395,82924.3504750589,66642.9865425199
2855522744,5560,1,0,64589.1644926850,49159.4663315710,73117.5762020660,75397.2307049347,66619.8314154658,78599.0384469236,76529.2523788571,81802.0751262917,82927.6114178075,66655.0447300714
2855522744,5560,1,0,64594.9441486759,49222.5315042043,73110.2390808818,75396.5858170031,66621.0603528450,78595.3638024831,76520.0657677558,81795.9182716993,82921.8439295134,66656.6752014457
2855522744,5560,1,0,64602.5246237966,49268.2212057744,73112.4170986131,75399.2262072137,66626.1951209042,78614.2602356491,76524.7138279421,81800.6393380666,82922.7565067751,66651.6256072642
2855550278,5561,1,0,64605.5300449119,49268.8417583124,73120.6667970591,75404.8841862363,66631.2812181762,78608.9429521375,76532.4646508184,81805.0805474070,82928.6578397343,66655.4584317634
2855550278,5561,1,0,64592.3159261622,49245.2485941727,73115.5441966966,75396.2694568857,66623.1045259112,78597.5539879112,76525.6872436880,81797.6582523450,82924.0219472447,66653.1830724575
2855550278,5561,1,0,64580.5740987281,49180.8814779794,73114.1935823493,75389.0175095792,66616.9355036220,78611.0966344752,76525.8575914435,81798.5221588194,82923.0972022862,66646.5151745985
2855550278,5561,1,0,64593.3988511794,49168.2149055867,73119.8272259783,75399.9441013262,66625.8300899996,78606.9352821617,76531.4547319820,81804.1801378421,82928.3536473137,66650.2749929168
2855550278,5561,1,0,64605.1285109167,49264.4492197593,73111.8452168624,75400.4064738055,66624.2117863221,78585.8608312644,76521.4772205872,81797.3905630149,82921.7222525452,66655.1420716460
2855550278,5561,1,0,64595.9297321186,49305.0284886638,73102.6951088516,75386.9733365130,66612.9810021545,78596.2885474417,76512.7773173588,81790.5888204909,82913.8984234880,66645.8946220606
2855550278,5561,1,0,64585.3560035795,49223.1763921359,73112.1250738894,75387.6912306255,66614.3681195923,78614.5157572824,76518.7394888021,81798.3031402766,82922.5253205355,66641.0518787250
2855550278,5561,1,0,64581.2311543565,49177.9368953482,73116.3229292933,75393.3735450418,66618.7606581454,78598.2597143270,76523.9107599518,81802.0264555044,82925.6524186190,66646.8193670191
2855587664,5562,1,0,64582.8737934276,49220.7306850745,73109.5820252534,75392.3636262055,66619.8192477690,78596.7022491336,76519.5547244892,81796.2224641199,82919.3373839679,66645.6877712146
2855587664,5562,1,0,64592.3159261622,49258.0490112305,73112.8429680019,75395.5880658636,66623.7980846301,78613.4449999620,76527.9504352970,81801.6979276902,82923.8150963987,66643.8139459039
2855587664,5562,1,0,64600.6142953954,49283.1509697762,73118.5982885992,75406.9040239089,66630.5633240637,78606.7892697999,76539.9356166676,81808.4144963365,82928.8768582771,66651.6377749610
2855587664,5562,1,0,64591.2816719322,49273.4654831051,73114.3395947111,75400.1509521722,66624.1022770507,78600.9731107185,76534.3141407354,81802.4644925901,82925.1292076556,66651.1023963008
2855587664,5562,1,0,64583.7376999020,49194.4849630274,73118.1115807262,75394.8580040542,66624.8323388601,78619.6991961290,76532.6836693612,81808.5361733047,82930.1666341403,66646.5881807795
2855587664,5562,1,0,64589.7485421325,49165.1973167746,73124.4874538615,75399.4330580596,66632.0721184697,78608.2250580250,76532.9635263881,81813.0260534324,82934.2063094855,66651.0050547262
2855587664,5562,1,0,64598.2415945150,49260.1661904777,73114.1814146524,75399.0923625486,66632.8508510664,78586.2745329564,76530.6638316886,81804.7398518959,82926.0904557046,66652.5381845259
2855587664,5562,1,0,64594.7129624363,49304.8703086052,73105.2989959717,75390.6479809535,66624.1631155348,78596.8969322828,76522.0369346411,81798.2423017925,82917.3905524762,66643.6801012388
2855611606,5563,1,0,64590.0649022499,49228.1164770460,73110.9204719039,75392.8016632911,66622.9828489430,78607.8356917266,76526.8188394925,81802.6591757392,82920.2864643201,66645.6634358209
2855611606,5563,1,0,64586.0495622984,49179.2388389083,73112.6604525496,75397.4375557807,66623.6642399651,78596.4832305908,76528.9238510429,81803.2432251867,82922.8416806529,66656.9550584726
