steady_timestamp,sequence,battery,flags,EEG-ch1,EEG-ch2,EEG-ch3,EEG-ch4,EEG-ch5,EEG-ch6,EEG-ch7,EEG-ch8,EEG-ch9,EEG-ch10
8150764361,20582,-2,0,46437.3457014329,63124.9160247090,40060.6086597368,57815.6875283802,71779.7379363836,51601.7542701751,43207.5887598416,63913.5044558039,31077.5509585666,22146.2911427717
8150764361,20582,-2,0,46431.7485608943,63113.6974082383,40049.9254219263,57805.8803647409,71775.8564410970,51591.8375972644,43200.0447878114,63906.7027132799,31068.1574966193,22146.5588321018
8150764361,20582,-2,0,46437.2970306456,63111.1908626928,40038.5364577000,57802.8627759288,71780.9060352786,51595.0985400129,43195.1412059918,63908.6982155588,31054.3593284221,22154.8572013350
8150764361,20582,-2,0,46434.9608328556,63115.7780843950,40040.4224507076,57811.2828221303,71774.8708576544,51587.4085556208,43202.8190226870,63909.3674388841,31060.2606613812,22144.0401188594
8150764361,20582,-2,0,46422.0874096169,63111.0083472404,40039.1935133285,57811.4531698858,71762.0826082935,51572.6491393746,43208.3674924383,63899.6089460321,31055.3449118648,22126.2144430138
8150764361,20582,-2,0,46421.5033601694,63102.4909594643,40024.4340970822,57796.7059213364,71756.6071447232,51573.9267475410,43194.5693242411,63891.0915582560,31034.5746533880,22127.6745666326
8150764361,20582,-2,0,46425.2023400036,63099.6558861046,40025.8333822169,57791.2304577660,71761.7540804793,51581.9452597473,43189.7265809055,63894.4863456696,31038.7360057014,22130.3879630241
8150764361,20582,-2,0,46419.5808640714,63095.8473969990,40032.5377831663,57792.7514198689,71756.8383309628,51580.0105959525,43195.5549076837,63894.0483085840,31049.7964421135,22131.1666956208
8150803824,20583,-2,0,46419.6903733428,63093.0001559425,40025.8942207010,57791.3399670375,71755.5607227964,51581.9574274442,43194.5206534538,63892.1379801828,31041.5467436675,22135.5957372643
8150803824,20583,-2,0,46431.5173746547,63099.2543521094,40030.3597654350,57800.7820997721,71762.0461052030,51591.1683739391,43198.9983658846,63900.6066971716,31046.8640271792,22136.5691530102
8150803824,20583,-2,0,46424.1194149863,63100.2034324616,40043.1236794023,57803.8970301587,71758.6878208799,51587.4572264081,43204.0479600661,63901.2637528000,31063.3634240711,22132.5294776649
8150803824,20583,-2,0,46412.7912892442,63090.6761258493,40037.2953526241,57790.1231973552,71753.1515188254,51580.1809437080,43194.1799579427,63894.3646687014,31055.2962410775,22139.7084187905
8150803824,20583,-2,0,46418.0964050590,63091.9902371061,40031.4061873618,57784.0393489437,71750.3164454657,51575.0948464360,43182.0365965134,63898.1001516261,31040.0501169583,22150.3308181169
8150803824,20583,-2,0,46425.6403770892,63100.1790970680,40040.2155998616,57795.5621578350,71758.0551006451,51578.8668324511,43194.3503056983,63907.7613029035,31047.1317165093,22155.2709030270
8150803824,20583,-2,0,46418.8751376557,63103.7198968435,40044.4621260528,57803.1913037430,71758.2132807038,51578.2949507005,43204.4738294550,63901.3610943746,31054.7365270236,22145.8774410797
8150803824,20583,-2,0,46417.1108216163,63100.7023080314,40036.6991354798,57796.7667598205,71761.0726894572,51586.9461831416,43199.3147260020,63896.4210094645,31048.4214923725,22143.2492185659
8150832150,20584,-2,0,46410.9174639335,63097.7090546129,40035.8108936117,57789.6851602695,71757.7144051340,51587.4085556208,43192.1479525733,63894.3768363982,31052.2908199622,22132.5173099681
8150832150,20584,-2,0,46401.5483373798,63093.0488267297,40038.7311408492,57784.7694107531,71751.3020289084,51580.1444406175,43190.7364997418,63888.8892051311,31055.7951166472,22124.6204747300
8150832150,20584,-2,0,46407.3158256739,63094.8009750722,40035.0808318023,57784.8910877213,71756.0352629725,51581.9209243537,43191.0406921624,63889.1325590675,31043.9316122448,22130.9355093811
8150832150,20584,-2,0,46418.4371005700,63103.7077291466,40037.9889113430,57795.8906856492,71762.3989684109,51590.8033430344,43196.6500003978,63896.9442204279,31049.1515541819,22135.3767187215
8150832150,20584,-2,0,46412.2802459776,63104.6933125893,40046.0804297303,57799.1151253073,71753.2731957937,51586.0336058798,43204.1818047312,63899.3899274893,31059.7861212051,22132.2131175475
8150832150,20584,-2,0,46413.2658294203,63101.8947423200,40043.6712257593,57793.3719724069,71758.3592930656,51589.9637719537,43195.8956031948,63897.9784746578,31055.5760981044,22143.2370508691
8150832150,20584,-2,0,46427.8792333046,63107.1511873475,40042.1137605660,57794.1263696099,71772.3034736247,51590.2922997679,43191.9897725146,63902.9185595679,31052.6436831701,22154.5165058240
8150832150,20584,-2,0,46426.8936498620,63112.1034399545,40048.8059938186,57802.8262728383,71762.9343470711,51581.0691855761,43200.2516386574,63903.0037334457,31062.3048344475,22149.2113900092
8150866942,20585,-2,0,46420.7489629664,63109.7672421645,40041.7487296613,57801.9867017575,71755.7554059455,51573.2575242158,43201.4684083397,63895.5814383837,31056.1236444614,22144.3929820673
8150866942,20585,-2,0,46423.8273902626,63108.9033356900,40029.7757159875,57797.2169646029,71760.3182922541,51578.1732737322,43194.3138026078,63891.7972846718,31044.3939847241,22146.0721242289
8150866942,20585,-2,0,46424.0950795927,63109.8037452549,40036.4922846338,57797.2534676934,71760.2696214669,51585.9119289116,43193.6932500698,63894.8513765743,31053.4224157667,22144.6363360038
8150866942,20585,-2,0,46416.9283061640,63105.7397345161,40040.5441276758,57795.9393564365,71753.9424191189,51583.8312527549,43196.0781186471,63893.9022962221,31061.4895987603,22141.6065794948
8150866942,20585,-2,0,46421.6858756218,63108.3436216362,40038.1592590985,57795.9758595270,71760.7806647334,51587.3477171367,43196.3093048868,63898.1609901102,31053.8726205492,22145.6097517496
8150866942,20585,-2,0,46421.8197202868,63112.1034399545,40042.8681577690,57802.1813849067,71757.8482497991,51586.1066120608,43202.1254639681,63900.9960634699,31054.8703716887,22138.8201769224
8150866942,20585,-2,0,46412.9616369997,63106.1656039049,40040.7996493091,57799.2489699724,71742.4439456212,51575.2651941915,43204.8388603596,63896.3358355867,31052.9965463779,22133.4542226235
8150866942,20585,-2,0,46413.6430280218,63097.7577254002,40031.4061873618,57787.5679810223,71751.2898612115,51575.5085481280,43193.7054177667,63893.5372653175,31040.7923464645,22139.9274373333
8150917102,20586,-2,0,46421.0774907806,63100.0087493125,40034.0465775724,57789.4174709394,71762.8005024060,51580.0957698303,43188.9600160057,63895.7031153519,31043.1285442545,22144.1861312213
8150917102,20586,-2,0,46406.8412854978,63099.1813459285,40038.2687683699,57794.0411957321,71754.7211517156,51569.2786873547,43198.2561363784,63892.7098619335,31054.5905146617,22133.2352040807
8150917102,20586,-2,0,46393.9921976527,63094.6671304072,40031.4305227554,57790.9506007391,71743.6607153035,51566.2610985426,43199.4485706671,63881.0410406803,31047.7522690472,22131.5317265255
8150917102,20586,-2,0,46397.5695005187,63094.2534287152,40023.2538304904,57784.9154231149,71745.5223729174,51569.9479106799,43191.8559278496,63880.4569912328,31040.4273155598,22138.7958415288
8150917102,20586,-2,0,46396.5839170760,63092.7446343092,40027.8167167990,57782.6522315059,71742.5656225895,51570.2521031005,43189.3007115167,63883.8396109496,31049.5044173897,22135.4618925993
8150917102,20586,-2,0,46392.4103970658,63083.8378802348,40020.3579186466,57773.2709372554,71730.5926089157,51567.6725513740,43182.3894597213,63882.1969718785,31046.6450086364,22131.9454282174
8150917102,20586,-2,0,46411.3920041095,63090.5422811842,40018.0582239470,57779.3547856669,71751.4115381797,51587.5910710732,43182.6206459609,63897.2605805453,31039.2713843617,22144.7701806688
8150917102,20586,-2,0,46419.8363857047,63105.0218404035,40035.0199933182,57796.4625673999,71762.2042852617,51595.7312602477,43198.1222917134,63910.7423886251,31058.9587178212,22147.4714093635
8150920214,20587,-2,0,46404.8701186124,63105.0705111908,40045.9465850652,57799.3219761533,71754.9401702584,51590.3044674647,43207.1507227560,63905.0357388151,31069.7027941158,22138.6254937732
8150920214,20587,-2,0,46396.0850415063,63094.9469874341,40039.5342088395,57786.5945652765,71750.2921100720,51582.8578370091,43195.9807770725,63893.3425821683,31055.6734396790,22142.1297904582
8150920214,20587,-2,0,46400.8791140545,63090.6517904556,40037.2101787463,57782.5670576281,71753.9910899062,51584.2327867501,43186.6846566998,63895.3502521441,31050.4169946515,22149.4912470361
8150920214,20587,-2,0,46395.4036504842,63087.1596614674,40038.0984206144,57787.9695150175,71747.7612291329,51574.0240891156,43190.2741272626,63895.8369600170,31058.0583082563,22147.3132293048
8150920214,20587,-2,0,46391.8020122246,63082.0735641955,40025.5170220995,57788.8455891887,71742.0302439293,51568.9623272373,43191.6855800940,63891.6026015226,31050.3074853801,22141.7890949472
8150920214,20587,-2,0,46401.6456789544,63087.3421769198,40017.4985098932,57789.8311726314,71752.5187985906,51581.2151979380,43191.0528598592,63896.2384940121,31044.2114692718,22147.0698753684
8150920214,20587,-2,0,46407.2063164025,63096.5044526275,40034.5697885357,57795.6716671064,71750.3529485562,51589.3797225062,43198.2804717721,63907.4084396956,31055.0650548378,22155.0032136969
8150920214,20587,-2,0,46400.2098907293,63097.8672346716,40037.7820604970,57789.7946695409,71756.9965110215,51582.9308431900,43193.8392624317,63906.6540424926,31053.0817202557,22158.4588395946
8150964337,20588,-2,0,46404.3347399522,63097.2710175273,40029.4958589606,57788.1520304698,71764.6256569295,51581.3490426030,43188.4124696487,63902.6143671474,31042.8486872276,22159.5295969150
8150964337,20588,-2,0,46406.4032484121,63102.5152948580,40034.3020992056,57797.1926292093,71764.3944706898,51582.8821724027,43196.5769942169,63904.8532233628,31055.1015579283,22148.3353158379
8150964337,20588,-2,0,46397.6911774869,63100.8848234837,40036.9546571130,57800.7455966816,71754.8549963806,51580.5703100063,43205.9704561642,63899.7549583940,31064.3733429074,22139.6962510936
8150964337,20588,-2,0,46398.6645932327,63094.6062919231,40024.0568984807,57793.5423201624,71757.5805604690,51579.5725588669,43197.0637020898,63898.8423811323,31053.1060556493,22144.6241683069
8150964337,20588,-2,0,46406.5614284708,63099.0353335666,40026.3930962707,57794.5522389987,71761.4985588460,51585.6442395815,43192.4764803875,63907.6517936321,31055.4787565298,22151.6205939801
8150964337,20588,-2,0,46408.7516138990,63102.2597732247,40032.0632429902,57797.4724862362,71759.0771871782,51584.3787991119,43196.3579756741,63914.8429024544,31058.5936869165,22153.4214131099
8150964337,20588,-2,0,46405.6366835123,63107.9299199442,40032.1970876553,57799.9911994786,71768.4341460350,51585.2548732832,43195.6522492583,63913.7113066499,31055.4300857425,22144.5268267324
8150964337,20588,-2,0,46401.6213435607,63113.3567127272,40031.6130382078,57801.2688076450,71772.1452935660,51583.2715387010,43197.6599192341,63910.2556807522,31056.3791660947,22129.1590256450
8150986783,20589,-2,0,46391.9966953738,63108.6843171472,40034.8861486531,57801.3296461291,71759.8072489876,51576.2507776342,43202.0281223935,63901.0812373477,31063.9474735186,22114.2170939464
8150986783,20589,-2,0,46386.9592688891,63099.1813459285,40026.3565931803,57791.6198240644,71751.7400659940,51567.8915699168,43195.8347647107,63887.8914539916,31051.2687334291,22117.1860119712
8150986783,20589,-2,0,46398.5429162645,63100.1912647648,40018.1920686121,57786.4242175210,71762.6179869537,51571.1403449686,43186.0519364650,63890.9942166815,31035.1952059260,22134.5371476407
8150986783,20589,-2,0,46396.8637741030,63104.3891201687,40025.2615004662,57791.2182900692,71753.1150157350,51569.4368674134,43190.4079719276,63893.1478990191,31038.3709747968,22136.2406251959
8150986783,20589,-2,0,46395.0142841859,63105.0948465845,40028.1574123101,57794.4914005146,71745.9482423062,51577.1511871991,43198.5481611022,63890.8603720164,31038.4683163713,22141.6430825853
8150986783,20589,-2,0,46410.0170543686,63110.5338070643,40027.8532198895,57794.5522389987,71758.3592930656,51588.3454682762,43197.2218821485,63894.1213147650,31033.7350823072,22155.2587353302
8150986783,20589,-2,0,46418.1815789367,63115.6442397299,40041.4567049375,57799.4558208184,71769.0303631794,51592.4338144087,43197.3922299040,63898.6111948926,31049.6747651453,22157.5827654234
8150986783,20589,-2,0,46405.9530436297,63109.4995528344,40049.5847264153,57796.9979460601,71759.2718703274,51575.4355419471,43197.4043976008,63889.4854222754,31063.9718089122,22143.5047401992
8151037061,20590,-2,0,46407.8025335468,63101.6635560804,40034.6671301103,57791.7293333358,71747.0555027171,51562.0997462291,43189.2642084263,63881.4669100691,31047.7279336536,22144.1739635245
8151037061,20590,-2,0,46425.6525447860,63108.2949508489,40030.6274547651,57800.2832242023,71755.9014183074,51572.2719407731,43191.2232076148,63887.1127213949,31041.9726130563,22149.9657872122
8151037061,20590,-2,0,46415.2978347897,63112.5901478274,40041.7487296613,57805.0164582664,71752.1294322923,51578.9763417225,43201.6874268825,63888.6701865883,31058.1069790436,22150.6228428407
8151037061,20590,-2,0,46400.3924061816,63103.6225552689,40035.0199933182,57793.9681895512,71746.3619439982,51574.3526169298,43195.3237214441,63881.9171148515,31055.1015579283,22150.7688552025
8151037061,20590,-2,0,46401.6213435607,63099.6072153173,40023.7283706665,57785.9861804354,71740.8499773374,51569.2178488705,43185.0298499319,63887.8184478107,31041.8509360881,22156.0496356237
8151037061,20590,-2,0,46399.0052887438,63101.1768482075,40029.6297036256,57792.8730968371,71754.0884314808,51575.3747034629,43193.3160514683,63896.5548541295,31049.2002249692,22149.2965638869
8151037061,20590,-2,0,46389.3076343759,63100.4954571854,40035.0199933182,57797.1074553315,71747.3110243504,51575.8979144263,43204.7658541787,63891.4079183734,31054.7730301141,22133.4420549267
8151037061,20590,-2,0,46390.2445470313,63095.3728568229,40029.1794988432,57791.5833209739,71748.8684895438,51574.2552753552,43199.2173844274,63886.0662994682,31045.5134128318,22128.9035040117
8151043238,20591,-2,0,46386.2900455638,63093.5233669058,40031.5156966332,57788.2980428317,71742.6386287704,51574.3039461425,43193.7297531603,63886.0541317713,31047.8374429250,22124.4866300650
8151043238,20591,-2,0,46385.5356483608,63087.3665123134,40033.5111989122,57788.8942599760,71738.7327980902,51570.6414693988,43194.7031689061,63881.1383822549,31050.2223115023,22121.3716996783
8151043238,20591,-2,0,46397.8858606361,63086.5512766263,40023.6675321824,57790.7315821963,71742.3466040467,51569.1205072960,43190.3471334435,63878.4736566506,31033.7959207913,22132.4808068776
8151043238,20591,-2,0,46409.3356633465,63095.3850245197,40025.9063883978,57799.0421191264,71747.5057074996,51574.7419832282,43193.7419208571,63883.9612879178,31033.8324238818,22137.8345934797
8151043238,20591,-2,0,46404.2495660745,63099.4612029554,40032.6472924377,57801.9258632734,71739.1586674790,51570.5076247338,43201.3710667651,63883.7787724655,31044.7955187193,22132.0062667015
8151043238,20591,-2,0,46402.5704239129,63091.7347154729,40022.5724394683,57790.6220729249,71737.2483390779,51568.1349238533,43193.1092006223,63881.3817361913,31036.8743480875,22136.2406251959
8151043238,20591,-2,0,46413.3388356012,63094.4724472580,40019.0438073897,57790.0988619615,71751.8739106590,51581.0935209697,43187.4633892965,63891.8702908527,31037.3002174763,22149.2600607965
8151043238,20591,-2,0,46409.9562158844,63100.2642709458,40030.7734671270,57798.8352682804,71755.6945674614,51580.4121299477,43196.9298574247,63899.2682505211,31055.8072843440,22150.0631287868
8151083335,20592,-2,0,46395.9633645381,63095.3241860356,40024.4584324759,57797.3143061775,71745.2425158905,51572.5031270127,43199.0835397624,63890.5805149895,31053.6049312191,22147.8121048745
8151083335,20592,-2,0,46395.9998676285,63097.6482161288,40019.7008630181,57793.2381277418,71756.7044862977,51578.7694908766,43195.8469324075,63891.2740737084,31045.4039035604,22151.4137431341
8151083335,20592,-2,0,46389.4536467378,63101.4810406280,40026.4052639676,57791.5954886707,71749.4160359008,51570.5319601274,43192.0019402114,63892.5030110875,31050.8063609498,22140.1342881793
8151083335,20592,-2,0,46384.3675494658,63096.0664155418,40023.3390043682,57785.4629694720,71746.8486518711,51563.5233667574,43191.6855800940,63891.5539307353,31048.4214923725,22142.7503429962
8151083335,20592,-2,0,46395.0872903668,63098.3904456350,40016.9996343234,57787.7261610810,71752.9811710699,51566.5044524790,43189.9942702356,63896.8347111565,31040.5124894376,22155.4047476921
8151083335,20592,-2,0,46406.3667453217,63107.1268519539,40027.0744872928,57803.1791360462,71770.0889528030,51580.7528254587,43201.4440729460,63907.4327750893,31051.5242550624,22160.9288820497
8151083335,20592,-2,0,46394.5397440098,63105.4112067019,40037.6238804383,57810.4919218368,71760.9631801858,51571.7000590224,43215.8992967717,63899.3777597925,31068.0966581352,22147.1428815493
8151083335,20592,-2,0,46380.0723524873,63091.6008708078,40024.4462647791,57792.4958982356,71751.3506996956,51565.4823659459,43205.5567544722,63885.5917592921,31055.8316197377,22143.4560694119
8151113156,20593,-2,0,46377.9795086337,63083.5215201174,40012.8261143132,57777.0794263610,71751.4967120575,51564.8496457111,43187.8405878980,63886.1879764364,31042.9338611054,22144.6120006101
8151113156,20593,-2,0,46373.4652931124,63079.9077141610,40017.0118020202,57778.5395499797,71747.8950737979,51559.1794989916,43188.0717741376,63886.9788767299,31049.1150510914,22138.0779474162
8151113156,20593,-2,0,46372.2241880365,63077.1821500726,40016.1965663331,57783.7351565231,71742.2735978657,51555.0911528591,43192.2452941479,63883.3772384703,31044.3939847241,22131.7264096746
8151113156,20593,-2,0,46383.4184691136,63081.3069992956,40015.0649705286,57787.2394532081,71751.2290227274,51567.2466819852,43192.1844556638,63887.1857275759,31037.1177020240,22131.6655711905
8151113156,20593,-2,0,46389.2711312854,63090.7004612429,40026.1132392438,57793.3476370132,71748.3087754899,51580.0349313461,43197.5260745691,63900.4241817192,31051.9866275416,22139.8665988492
8151113156,20593,-2,0,46392.2278816134,63092.9271497615,40032.5499508631,57793.0921153800,71759.6125658384,51581.4463841776,43199.7892661781,63906.7757194608,31062.4751822030,22147.6052540286
8151113156,20593,-2,0,46390.8772672661,63090.9924859667,40027.2813381388,57788.6995768269,71768.0934505240,51575.8614113359,43192.0992817860,63903.0402365362,31052.9965463779,22150.5498366597
8151113156,20593,-2,0,46391.8506830119,63095.3971922166,40032.1362491712,57799.3341438501,71767.3390533210,51570.8361525480,43199.8501046622,63905.8509745023,31058.8127054593,22148.6151728649
8151161181,20594,-2,0,46376.4707142277,63091.2601752968,40034.1074160565,57801.2809753418,71752.2997800478,51555.0303143750,43206.7613564577,63892.1379801828,31060.4553445304,22130.2297829654
8151161181,20594,-2,0,46370.6058843590,63081.8180425622,40018.5570995168,57789.0281046411,71745.6683852793,51549.8590432252,43195.9564416789,63882.2456426658,31040.9261911296,22123.9269160111
8151161181,20594,-2,0,46378.5878934749,63081.0149745719,40010.8062766405,57786.0713543131,71753.0541772508,51562.5256156179,43188.8140036438,63884.3749896098,31037.9329377111,22126.7254862804
8151161181,20594,-2,0,46372.8447405745,63079.3845031976,40014.2132317510,57787.9451796239,71746.2159316364,51562.4404417402,43189.6414070278,63883.6449278004,31048.7378524899,22123.5010466223
8151161181,20594,-2,0,46366.1525073218,63075.8072003316,40008.0563771586,57782.2263621171,71737.7593823444,51556.3200902382,43187.5120600838,63875.2613846894,31038.5169871586,22127.9057528722
8151161181,20594,-2,0,46371.7374801636,63076.2452374173,40002.4835720136,57783.3336225280,71734.4376011117,51561.0168212119,43183.8009125528,63877.1717130906,31023.6845647315,22139.4772325508
8151161181,20594,-2,0,46379.0989367415,63080.6377759703,40017.0483051107,57793.8951833703,71736.6156188430,51568.9379918436,43191.1623691307,63886.9545413362,31035.4628952561,22146.0964596225
8151161181,20594,-2,0,46372.8325728776,63074.7242753144,40022.4142594096,57790.2083712329,71743.0888335529,51564.0344100240,43187.6702401425,63882.0387918198,31040.5854956185,22143.4317340183
8151182214,20595,-2,0,46374.0736779536,63070.0275443407,40017.7175284360,57784.5625599071,71745.1573420128,51566.0055769093,43178.1672689238,63876.8918560637,31034.2582932706,22144.3564789768
8151182214,20595,-2,0,46370.6180520559,63074.6877722239,40023.3998428523,57790.0501911742,71743.3200197925,51564.8739811048,43186.1736134332,63876.7580113986,31044.3088108464,22133.1987009902
8151182214,20595,-2,0,46357.5986164553,63073.8482011431,40022.0127254145,57791.6684948517,71731.6511985393,51558.1695801553,43192.7928405049,63866.8656738816,31051.0740502799,22121.6272213116
8151182214,20595,-2,0,46357.6716226363,63069.4191594996,40005.9270302145,57782.1046851488,71729.0108083287,51554.9086374068,43183.2046954085,63862.3271229666,31036.7283357257,22125.6912320504
8151182214,20595,-2,0,46365.2886008474,63069.3704887123,40003.4083169722,57780.6567292269,71735.1189921338,51564.7644718333,43179.0676784886,63870.2361259015,31040.8045141613,22130.0472675131
8151182214,20595,-2,0,46359.8983111549,63067.6913465507,40008.5430850315,57781.2772817649,71719.7146879560,51558.3399279108,43179.7612372076,63871.8665972758,31050.5873424070,22129.4510503687
8151182214,20595,-2,0,46374.5725535233,63070.0275443407,40010.2343948899,57789.9893526901,71739.5723691710,51567.4778682249,43184.1416080638,63880.5665005042,31045.0145372621,22146.2911427717
8151182214,20595,-2,0,46385.3409652116,63079.7617017991,40015.9288770030,57800.1250441436,71754.0275929967,51577.1511871991,43190.7608351355,63887.0032121235,31049.4314112088,22154.6868535795
8151207186,20596,-2,0,46368.9632452879,63078.6422736914,40025.7482083391,57797.1196230284,71743.5512060321,51569.8992398926,43195.4940691996,63883.0852137465,31061.6842819095,22142.5799952407
8151207186,20596,-2,0,46353.5954442006,63066.6084215335,40019.5305152626,57782.0925174520,71728.9378021478,51558.3277602140,43185.8694210127,63869.7980888159,31051.2078949450,22134.3302967947
8151207186,20596,-2,0,46363.3539370526,63064.9171116751,40006.3528996033,57775.6436381359,71726.4069212086,51556.8067981111,43173.7260595834,63870.4064736570,31036.4728140924,22142.8355168740
8151207186,20596,-2,0,46373.9154978949,63068.7986069616,40006.5475827525,57785.7063234084,71726.4190889054,51555.8212146685,43181.4282116723,63879.8121033012,31039.0523658188,22148.7003467426
8151207186,20596,-2,0,46377.0669313720,63070.2952336708,40011.6093446309,57794.6130774828,71725.8350394579,51550.1875710395,43190.4201396245,63881.8806117611,31037.6287452906,22147.8364402682
8151207186,20596,-2,0,46382.6154011233,63073.3371578766,40012.4854188021,57795.9758595270,71737.1753328969,51559.7392130455,43192.0019402114,63881.2843946167,31033.9784362437,22152.5696743323
8151207186,20596,-2,0,46377.1886083403,63074.5052567716,40021.1244835464,57797.1317907252,71738.9274812394,51567.5752097994,43192.3913065098,63881.3208977072,31046.5598347586,22152.3263203959
8151207186,20596,-2,0,46360.7013791452,63066.9977878318,40025.7847114296,57792.2038735119,71728.2442434289,51561.3575167229,43192.4156419034,63873.3267208945,31058.5450161292,22148.6881790458
8151237006,20597,-2,0,46359.3507647978,63058.3587230875,40010.2100594962,57781.5814741855,71717.7313533738,51555.3223390987,43182.8274968069,63866.0017674071,31040.5733279217,22158.2033179613
8151237006,20597,-2,0,46369.3161084958,63065.8905274209,40007.9225324935,57788.1033596826,71730.4222611602,51569.0475011150,43183.5575586163,63873.6674164056,31038.2614655253,22163.1677382651
8151237006,20597,-2,0,46358.0366535409,63068.8594454457,40017.5593483773,57794.2115434877,71728.2685788225,51563.8518945716,43191.6490770036,63871.8909326694,31050.8185286466,22144.7701806688
8151237006,20597,-2,0,46348.9108809237,63059.8066790095,40006.9247813540,57782.0316789679,71712.8642746447,51550.1632356458,43181.6350625183,63863.1423586537,31040.5246571344,22136.5448176165
8151237006,20597,-2,0,46364.0718311651,63060.2325483983,39997.0932823211,57773.7089743410,71714.3730690507,51549.5791861983,43168.3357698908,63865.7827488643,31024.5849742964,22146.1938011971
8151237006,20597,-2,0,46372.2485234301,63065.0387886433,40003.6516709086,57780.4620460777,71726.0540580007,51548.8612920858,43174.6873076324,63873.2537147136,31032.0072693584,22146.0234534416
8151237006,20597,-2,0,46356.5156914381,63064.0532052007,40009.0906313885,57784.3557090611,71719.9945449829,51539.7233517717,43185.5773962889,63866.4398044928,31038.4926517650,22132.6754900268
8151237006,20597,-2,0,46348.6066885032,63056.1198668721,39998.1275365510,57776.1060106151,71716.9404530804,51542.2298973173,43180.6129759852,63857.2410256946,31027.5295569275,22126.6038093122
8151273085,20598,-2,0,46344.5061746738,63050.8512541478,39998.9671076318,57772.1271737540,71711.9516973829,51542.2055619236,43174.2857736372,63854.1017599143,31027.9554263163,22116.6262979173
8151273085,20598,-2,0,46336.2929793184,63044.0738470174,39998.0910334606,57769.9004852354,71702.6312416166,51532.5322429494,43170.9639924046,63848.8331471900,31028.4056310988,22113.0854981419
8151273085,20598,-2,0,46342.3768277298,63044.4510456189,39991.1432785747,57770.4115285020,71711.4893249037,51538.7499360259,43166.2672614309,63850.9259910435,31018.5741320658,22128.3194545642
8151273085,20598,-2,0,46353.2912517800,63057.0446118307,39994.1608673868,57783.0172624106,71722.1968981079,51553.0591474897,43175.9405804051,63865.1256932359,31025.3028684089,22138.0536120225
8151273085,20598,-2,0,46347.6576081510,63066.5962538367,40007.7521847380,57791.1087807978,71721.7831964159,51558.5832818473,43190.8338413164,63870.1144489333,31043.8586060639,22133.9896012837
8151273085,20598,-2,0,46347.7184466351,63066.3407322034,40005.6958439749,57784.8180815404,71707.1454571379,51552.5359365263,43182.3894597213,63865.8922581357,31037.6774160778,22139.4528971572
8151273085,20598,-2,0,46366.5540413170,63067.9468681840,40002.7390936469,57781.8491635156,71731.8823847789,51569.1570103864,43172.1807620869,63877.4394024207,31028.3082895242,22158.9455474675
8151273085,20598,-2,0,46369.6689717037,63079.7860371927,40024.2637493267,57796.0366980111,71745.9847453967,51577.0660133213,43183.0951861370,63887.3074045441,31052.0109629353,22157.1812314282
8151314973,20599,-2,0,46357.4404363966,63078.7274475691,40029.5688651415,57799.8938579040,71737.2361713810,51565.6162106110,43192.6468281430,63877.4880732080,31057.1822340850,22147.0698753684
8151314973,20599,-2,0,46358.2921751742,63079.6035217404,40021.2461605146,57796.4990704904,71736.6886250240,51565.9569061220,43191.9289340305,63872.4384790265,31049.3097342406,22148.4326574125
8151314973,20599,-2,0,46357.5134425776,63080.2484096720,40024.7017864123,57794.4792328178,71735.8247185496,51566.6504648409,43189.1790345485,63873.2172116231,31056.4521722756,22150.9148675644
8151314973,20599,-2,0,46349.2394087380,63071.9743758324,40023.6066936983,57783.3579579216,71726.5772689641,51554.3610910497,43180.5399698042,63866.1721151627,31055.4179180457,22153.3605746258
8151314973,20599,-2,0,46358.1096597219,63071.0861339643,40016.2087340299,57781.4963003077,71730.8481305490,51558.5589464536,43171.9130727568,63868.9098469478,31041.4980728803,22165.4309298742
8151314973,20599,-2,0,46374.2683611027,63080.9784714814,40021.9518869304,57795.7933440747,71742.2370947752,51572.3449469540,43180.3087835646,63886.2488149205,31044.0411215162,22176.8442294941
8151314973,20599,-2,0,46364.1205019524,63089.9217286463,40037.9402405557,57806.4887495820,71746.7634779934,51575.5207158248,43194.2772995173,63889.5584284564,31060.8568785256,22159.6756092769
8151314973,20599,-2,0,46354.5323568559,63084.9816437361,40029.1916665400,57796.8397660014,71736.4574387844,51573.6225551204,43190.5783196832,63879.0577060982,31054.3349930285,22143.3708955342
8151326776,20600,-2,0,46365.5197870871,63085.5778608805,40021.6963652971,57788.8090860983,71745.0113296509,51576.5306346611,43181.4403793691,63881.2722269199,31050.0397960500,22135.9851035626
8151326776,20600,-2,0,46360.2876774532,63085.5900285773,40027.9870645545,57789.4904771204,71740.9229835184,51563.9614038430,43183.9347572178,63881.4669100691,31062.7428715331,22122.5763016638
8151326776,20600,-2,0,46352.9870593594,63081.1366515401,40026.5756117231,57790.6099052281,71733.3181730040,51555.4075129765,43186.1371103428,63873.0103607772,31055.6491042853,22118.9868311010
8151326776,20600,-2,0,46365.2277623633,63084.6652836187,40020.0537262260,57796.5355735809,71742.3587717435,51566.7964772028,43187.2565384505,63879.8851094821,31048.2146415265,22129.9864290289
8151326776,20600,-2,0,46368.1966803881,63084.9694760393,40027.5855305594,57800.6847581975,71742.4682810149,51567.9037376137,43193.5715731016,63885.0198775414,31058.1434821340,22132.6389869363
8151326776,20600,-2,0,46356.7103745872,63076.2695728109,40027.3178412293,57791.2912962502,71735.6178677036,51562.6716279798,43189.0816929739,63879.3497308219,31058.6423577038,22132.2496206380
8151326776,20600,-2,0,46361.6382918005,63076.2209020236,40020.1023970133,57784.9762615991,71743.5268706385,51567.5265390122,43181.8297456675,63882.0631272134,31048.9933741232,22145.2933916322
8151326776,20600,-2,0,46369.6203009164,63088.5102758148,40027.5003566816,57799.2246345787,71754.4291269918,51573.8050705728,43191.9411017273,63889.3880807008,31059.3845872100,22149.9779549090
8151383325,20601,-2,0,46363.3661047494,63095.5918753657,40036.5287877242,57807.9975439881,71747.4570367123,51569.1326749928,43203.6342583742,63886.3339887983,31065.5657771960,22146.1816335003
8151383325,20601,-2,0,46364.8383960650,63093.3286837567,40030.2380884668,57801.4756584910,71739.4141891123,51563.2556774273,43197.3678945104,63878.3641473792,31048.7743555804,22152.2654819117
8151383325,20601,-2,0,46381.5568114997,63094.3507702898,40024.4097616886,57793.6761648275,71742.1032501102,51568.6337994230,43182.2677827531,63883.2677291989,31038.5169871586,22161.6224407686
8151383325,20601,-2,0,46378.3445395384,63092.7689697028,40032.9149817678,57796.2922196444,71748.9901665120,51570.7144755798,43183.9712603083,63886.6868520061,31052.9113725002,22155.8792878682
8151383325,20601,-2,0,46366.3228550774,63087.9383940641,40029.1551634495,57794.8077606320,71741.8598961737,51561.9537338672,43186.9523460299,63879.2888923378,31053.5684281286,22147.7634340873
8151383325,20601,-2,0,46372.7717343935,63087.0501521960,40022.9131349794,57797.8496848377,71737.1388298064,51564.9104841952,43191.9411017273,63881.5520839469,31048.3971569789,22151.0852153199
8151383325,20601,-2,0,46368.4156989309,63091.5278646269,40037.7212220129,57805.6370108044,71740.1077478312,51572.1745991985,43203.5125814059,63884.1559710670,31066.6608699101,22144.1374604340
8151383325,20601,-2,0,46352.4881837897,63084.2515819268,40040.0452521061,57795.3553069890,71733.5980300310,51570.1547615259,43199.7649307845,63873.5700748310,31067.8533041987,22139.2095432207
8151399375,20602,-2,0,46354.3620091004,63079.0559753834,40030.2502561636,57783.1876101661,71736.2870910288,51572.3692823477,43186.7819982744,63870.6619952903,31054.4079992094,22145.1230438767
8151399375,20602,-2,0,46359.5941187343,63084.5679420442,40035.0199933182,57793.3841401037,71740.1320832249,51574.3161138394,43191.1867045243,63877.3055577557,31062.8523808045,22145.1230438767
8151399375,20602,-2,0,46353.2060779022,63087.2204999516,40038.2322652795,57799.2976407597,71734.4984395959,51565.7500552760,43202.2471409363,63873.2902178041,31067.8533041987,22139.5867418222
8151399375,20602,-2,0,46355.0190647289,63086.4417673549,40021.9640546272,57793.0191091990,71720.6272652177,51554.5192711084,43192.6468281430,63867.0360216371,31048.8838648518,22142.3244736074
8151399375,20602,-2,0,46372.2363557333,63088.4737727243,40013.4953376384,57791.7536687294,71735.7638800655,51564.0100746303,43188.2056188027,63876.5146574622,31045.4404066509,22147.0455399747
8151399375,20602,-2,0,46368.7807298356,63093.3165160599,40024.1542400553,57796.8519336982,71743.0401627656,51565.8352291538,43193.4620638302,63881.4304069786,31060.8690462224,22134.3546321884
8151399375,20602,-2,0,46362.5508690623,63090.6152873652,40023.0104765540,57797.0101137570,71742.6994672545,51556.6729534461,43195.1777090822,63878.5344951348,31053.2885711017,22129.2076964323
8151399375,20602,-2,0,46367.7099725152,63092.6351250378,40023.2538304904,57800.9037767403,71748.5156263359,51565.8595645474,43199.2052167306,63882.0509595166,31047.1317165093,22131.5560619191
8151425450,20603,-2,0,46360.3850190278,63094.2777641089,40031.9537337188,57805.2111414156,71741.1176666675,51573.3548657903,43209.3409081841,63882.0266241229,31058.1434821340,22130.2784537527
8151425450,20603,-2,0,46357.5986164553,63089.2160022305,40028.1087415228,57802.4855773273,71741.9329023547,51570.4224508560,43210.3386593236,63881.4425746754,31055.1258933219,22138.1022828098
8151425450,20603,-2,0,46370.1800149702,63091.5035292332,40020.5404340989,57799.0177837327,71754.0397606935,51577.0416779277,43200.1664647796,63888.4755034391,31047.2047226902,22156.6215173744
8151425450,20603,-2,0,46378.1255209956,63101.7974007454,40031.1628334253,57809.8105308147,71755.0253441362,51576.2386099374,43206.7856918513,63895.9829723789,31061.4774310635,22156.2564864697
8151425450,20603,-2,0,46376.3003664722,63105.0583434940,40039.7045565950,57818.3522539844,71750.5232963117,51576.1656037564,43217.4932650555,63896.8225434596,31064.8843861739,22151.5840908897
8151425450,20603,-2,0,46380.7537435094,63106.7374856556,40036.6748000861,57817.7317014464,71758.6026470021,51575.7397343676,43213.5509312849,63895.2407428727,31056.4156691852,22152.5818420291
8151425450,20603,-2,0,46374.9862552153,63103.5738844816,40037.8550666779,57810.3702448685,71757.5927281658,51570.8361525480,43205.1430527802,63891.3714152830,31058.4598422514,22143.9671126785
8151425450,20603,-2,0,46360.3485159373,63091.1141629349,40038.7189731524,57797.0222814538,71736.5304449653,51554.5922772894,43196.9541928184,63882.0996303039,31055.8072843440,22137.8710965702
8151473334,20604,-2,0,46362.6360429400,63081.8667133495,40023.3633397618,57785.4142986847,71737.3700160461,51552.8644643405,43188.0596064408,63879.2645569441,31035.9374354322,22145.3907332068
8151473334,20604,-2,0,46370.1556795766,63088.5589466021,40024.6896187155,57795.7690086810,71750.4381224339,51559.3255113535,43193.5594054048,63881.5520839469,31041.6684206358,22141.5214056171
8151473334,20604,-2,0,46352.5490222738,63084.6044451346,40030.3110946477,57801.9867017575,71736.1289109701,51548.2772426383,43207.2237289369,63873.3267208945,31057.7784512294,22126.9201694296
8151473334,20604,-2,0,46339.1767234654,63067.0099555287,40014.8824550762,57787.1664470272,71718.4127443959,51539.0054576592,43198.2683040753,63858.1414352595,31046.3164808221,22120.7633148371
8151473334,20604,-2,0,46344.0194668009,63060.6705854839,40002.9459444929,57773.8671543997,71721.5520101763,51545.9775479387,43182.6693167482,63859.4677142132,31029.4642207224,22126.4577969503
8151473334,20604,-2,0,46342.7418586345,63060.7557593617,40010.2343948899,57776.5683830944,71722.2334011983,51545.5638462467,43180.1262681122,63863.3613771966,31035.8035907671,22118.7069740741
8151473334,20604,-2,0,46335.4412405407,63056.6917486228,40008.2632280045,57774.9500794170,71703.6533281497,51539.3948239575,43181.7080686992,63855.7809020759,31030.0239347762,22118.8408187391
8151473334,20604,-2,0,46348.0956452366,63064.5642484672,40005.6715085813,57781.8613312124,71720.9314576383,51552.7062842818,43185.0906884160,63859.5407203942,31023.6237262474,22127.8935851754
8151503465,20605,-2,0,46348.5580177159,63069.8936996757,40015.3083244650,57788.2493720444,71720.9801284256,51549.9198817094,43189.7630839960,63862.2419490888,31032.9806851042,22122.0287553067
8151503465,20605,-2,0,46335.9279484137,63063.4934911468,40015.5516784015,57786.5215590956,71713.2536409430,51539.0541284465,43191.9654371210,63854.5519646967,31039.4904029045,22111.9052315500
8151503465,20605,-2,0,46337.2663950642,63055.2072896104,39996.3023820276,57780.3525368063,71714.8111061363,51532.9946154286,43181.9879257262,63847.8475637473,31023.4777138855,22120.3861162356
8151503465,20605,-2,0,46345.3700811483,63061.7170074107,39994.0148550249,57788.8699245824,71722.2820719856,51537.4358247690,43187.1348614823,63854.7953186332,31023.9035832743,22129.2320318259
8151503465,20605,-2,0,46334.8936941837,63063.7733481737,40005.8053532463,57792.9461030181,71713.3753179112,51533.9315280840,43196.1024540408,63852.6294685987,31035.3168828942,22125.8859151996
8151503465,20605,-2,0,46329.5885783689,63058.5290708431,40001.4858208742,57783.4187964057,71711.0634555149,51532.5687460398,43189.9212640547,63847.0809988475,31028.3204572210,22133.0891917188
8151503465,20605,-2,0,46337.6922644530,63055.8643452388,39993.2726255187,57775.2056010502,71717.4271609533,51536.4624090232,43176.9991700288,63853.1526795621,31022.6381428047,22142.8476845708
8151503465,20605,-2,0,46334.5773340663,63054.2703769550,39997.9693564923,57778.1015128941,71718.5222536673,51541.1469723000,43178.9216661268,63855.5010450489,31036.2416278527,22133.8435889218
8151522341,20606,-2,0,46329.9292738799,63051.4109682016,39994.2947120518,57777.9798359259,71711.4163187227,51540.7332706080,43182.7666583228,63852.5442947210,31033.9906039405,22126.1049337424
8151522341,20606,-2,0,46342.2794861552,63059.2104618651,39996.4848974799,57782.2506975107,71724.3262450519,51551.5746884773,43184.8716698732,63858.2022737436,31027.1280229324,22127.3095357279
8151522341,20606,-2,0,46349.6044396426,63066.8274400763,40008.4335757601,57790.6220729249,71717.3906578628,51547.4133361638,43192.0992817860,63861.9377566683,31034.1731193928,22123.4888789255
8151522341,20606,-2,0,46342.0239645220,63066.8396077731,40011.7553569927,57786.3147082496,71721.2964885430,51537.3749862849,43190.1402825975,63861.2320302525,31036.5944910606,22125.2288595712
8151522341,20606,-2,0,46333.6890921982,63061.5466596551,39996.7647545069,57772.3096892064,71720.8827868510,51526.7647546553,43175.9040773147,63859.7110681497,31020.9955037336,22134.9021785454
8151522341,20606,-2,0,46333.7012598951,63066.9612847414,40000.9626099108,57778.1136805909,71733.0261482803,51538.6890975418,43180.6859821661,63869.3235486398,31030.9851828252,22138.9053508002
8151522341,20606,-2,0,46321.3267122261,63068.7621038712,40011.7796923864,57786.3512113401,71726.6137720546,51540.6480967303,43194.8735166617,63863.7750788885,31051.6337643338,22128.0517652341
8151522341,20606,-2,0,46318.7106574092,63058.6872509018,40001.1329576663,57781.4232941268,71718.0355457944,51539.6625132876,43190.9190151942,63852.4347854496,31046.3773193063,22123.7200651651
8151549958,20607,-2,0,46332.4966579096,63054.2217061677,39993.6011533329,57776.6292215785,71722.4402520443,51542.6679344029,43181.0023422835,63857.0828456359,31037.2272112954,22130.6313169606
8151549958,20607,-2,0,46337.4367428197,63052.0071853460,39999.5268216857,57779.5738042097,71721.6006809635,51538.1172157911,43182.1217703912,63859.9300866925,31045.0388726557,22126.1779399234
8151549958,20607,-2,0,46333.9324461347,63049.6223167687,39995.8886803356,57778.9167485812,71716.7336022344,51539.0419607496,43182.9005029879,63856.5839700662,31034.7693365372,22122.7466494193
8151549958,20607,-2,0,46339.8216113970,63057.7381705496,39996.0711957880,57782.5427222345,71727.5385170131,51546.5129265989,43182.8031614133,63861.0373471034,31025.7652408882,22127.1026848819
8151549958,20607,-2,0,46340.0284622430,63066.1095459638,40006.9734521413,57788.0060181080,71718.4979182737,51545.7585293959,43189.4102207882,63869.0680270065,31037.1542051145,22131.3492110731
8151549958,20607,-2,0,46337.3515689419,63066.5962538367,40017.8878761915,57782.9320885328,71723.3649970029,51550.7837881838,43188.7531651597,63868.3379651971,31046.4503254872,22135.4132218120
8151549958,20607,-2,0,46344.0803052850,63066.9856201350,40015.9897154871,57778.5030468893,71733.6101977278,51553.5945261499,43181.9027518484,63870.7958399554,31044.7833510224,22144.5146590355
8151549958,20607,-2,0,46348.7527008650,63069.8571965852,40012.7044373449,57785.5846464402,71736.8833081732,51549.3479999587,43186.5386443379,63873.2293793200,31052.4124969304,22141.7039210694
8151577724,20608,-2,0,46335.8062714454,63065.1604656116,40006.8031043858,57786.7892484257,71720.8827868510,51535.7445149106,43194.5449888474,63863.0936878665,31052.7166893510,22129.9620936353
8151577724,20608,-2,0,46331.8882730684,63056.5579039577,39995.1707862231,57777.9433328354,71716.5875898725,51532.9337769445,43189.4832269691,63854.1504307016,31034.1244486056,22129.2807026132
8151577724,20608,-2,0,46334.3461478267,63052.0315207396,39991.2527878461,57771.2267641891,71720.1770604353,51538.3118989403,43178.2281074079,63853.2621888335,31027.3105383847,22129.3050380069
8151577724,20608,-2,0,46327.9824423883,63046.9940942549,39998.6750829081,57770.2168453528,71713.2414732462,51530.3542252181,43175.7458972560,63850.9138233467,31036.9838573589,22125.4235427203
8151577724,20608,-2,0,46326.4371448918,63041.2874444449,39992.6399052839,57766.3961885504,71708.5447422725,51521.4109680532,43172.4241160233,63845.6208752287,31026.8603336023,22124.4136238840
8151577724,20608,-2,0,46334.5408309758,63049.4398013163,39990.2672044034,57769.3894419689,71703.1422848831,51525.8156743031,43170.0757505365,63848.9304887645,31016.6759713615,22126.3239522852
8151577724,20608,-2,0,46335.3073958757,63056.1563699626,40000.0622003459,57777.3106126006,71713.1562993684,51540.0883826764,43180.9658391930,63856.3041130393,31025.6070608295,22125.5330519917
8151577724,20608,-2,0,46332.2898070636,63055.4141404564,40006.9247813540,57775.0717563852,71716.4537452074,51543.8360332979,43180.9536714962,63855.8052374695,31034.6719949626,22120.6781409594
8151634855,20609,-2,0,46333.7012598951,63051.8125021968,40001.6561686297,57765.2645927459,71723.6326863330,51547.8148701590,43173.3610286787,63857.0341748486,31030.7783319792,22125.7764059282
8151634855,20609,-2,0,46329.9292738799,63057.5434874004,40009.3826561123,57771.7743105462,71728.0373925829,51545.8072001832,43180.3209512614,63861.5727257636,31040.4516509535,22124.9733379379
8151634855,20609,-2,0,46324.2712948573,63061.4006472933,40015.7463615507,57780.0970151731,71720.3717435844,51541.9135371999,43193.1943745001,63857.3383672692,31048.4701631598,22122.1382645781
8151634855,20609,-2,0,46330.2699693910,63061.0356163886,40006.3894026938,57779.2817794859,71721.4425009048,51543.7751948138,43190.8460090133,63856.6569762471,31035.3047151974,22132.2617883348
8151634855,20609,-2,0,46340.0406299398,63065.0874594306,40006.0730425764,57779.5373011192,71725.1658161327,51548.0825594891,43187.3782154187,63864.1887805805,31036.6066587574,22139.6475803064
8151634855,20609,-2,0,46340.0527976366,63061.5101565647,40008.7499358775,57777.8581589576,71719.6538494719,51543.6048470583,43185.5408931985,63871.8300941853,31040.4638186503,22143.1518769914
8151634855,20609,-2,0,46348.5945208063,63066.6814277144,40006.0852102732,57779.6224749970,71736.2140848479,51548.8856274794,43186.1127749491,63878.5344951348,31040.3299739853,22151.9491217944
8151634855,20609,-2,0,46351.4052587724,63076.2939082046,40009.6381777455,57787.0812731494,71744.8896526827,51558.0357354903,43189.8604255706,63882.6106735705,31048.1172999519,22147.7999371777
8151650661,20610,-2,0,46332.7521795429,63075.5151756079,40019.3479998102,57788.1763658635,71729.2784976588,51557.0501520476,43199.8379369654,63873.7404225865,31064.6166968438,22133.6367380758
8151650661,20610,-2,0,46320.4019672676,63064.2357206530,40020.3579186466,57779.7928227525,71717.9382042198,51557.8653877347,43196.3823110677,63862.8990047173,31062.1953251761,22132.2861237285
8151650661,20610,-2,0,46331.0852050781,63060.4880700316,40017.1456466853,57773.4534527077,71729.9355532873,51561.8442245958,43184.1416080638,63866.0869412849,31049.1880572724,22148.8950298918
8151650661,20610,-2,0,46341.3912442872,63066.0973782669,40026.1132392438,57779.7076488747,71740.1320832249,51562.4647771338,43187.7675817171,63878.5831659221,31058.2164883150,22152.2168111245
8151650661,20610,-2,0,46336.4876624675,63069.9180350693,40030.8221379143,57785.5968141370,71730.6899504903,51548.1555656700,43196.8568512438,63879.4349046997,31059.8712950829,22141.9351073091
8151650661,20610,-2,0,46344.8225347912,63074.2375674415,40022.3290855319,57784.7450753594,71738.4894441538,51557.0379843508,43199.0713720656,63884.5575050621,31044.1627984845,22147.4957447572
8151650661,20610,-2,0,46351.3809233788,63088.5954496925,40035.4701981006,57794.0776988226,71755.6215612805,51575.2043557074,43204.1453016407,63895.9586369852,31058.4233391610,22144.3929820673
8151650661,20610,-2,0,46340.0771330303,63086.0645687534,40042.6126361357,57793.6396617370,71750.0487561356,51562.4647771338,43207.2845674210,63890.9698812878,31070.3111789570,22130.1689444813
8151677263,20611,-2,0,46338.2884815973,63077.8027026106,40026.1497423343,57784.5747276039,71745.4371990397,51550.3092480077,43197.8667700801,63881.3330654040,31054.5783469649,22130.4609692050
8151677263,20611,-2,0,46353.6806180783,63082.7792906112,40018.8977950278,57792.1065319373,71751.2046873338,51553.7648739054,43201.0060358604,63885.0685483287,31047.9834552869,22139.6962510936
8151677263,20611,-2,0,46349.4219241903,63087.0258168024,40025.1398234980,57799.3341438501,71744.6097956557,51554.7626250449,43211.9447953042,63884.7278528176,31057.7906189262,22137.1288670640
8151677263,20611,-2,0,46335.4047374503,63080.1875711879,40022.6089425588,57788.0668565921,71728.2199080352,51550.7716204870,43204.1087985503,63874.8111799069,31047.3142319616,22133.0405209315
8151677263,20611,-2,0,46347.1709002781,63076.7441129870,40018.5814349104,57780.0240089921,71727.9765540988,51561.3696844197,43188.4246373455,63878.8630229490,31035.0735289577,22146.1451304098
8151677263,20611,-2,0,46356.2845051984,63083.2538307873,40028.5711140020,57791.4981470962,71749.0510049961,51577.0903487150,43194.0217778840,63893.3304144715,31052.7288570478,22145.1352115735
8151677263,20611,-2,0,46343.3015726884,63087.6828724308,40037.4900357733,57800.7942674689,71752.8229910112,51575.8005728518,43205.9096176801,63891.9554647305,31071.2602593092,22135.6930788389
8151677263,20611,-2,0,46340.1258038176,63092.7933050965,40035.4458627070,57802.6437573860,71757.1303556865,51577.8690813117,43211.4945905218,63890.0086332388,31069.4959432698,22138.0536120225
8151707906,20612,-2,0,46341.4399150745,63094.2412610184,40035.8838997926,57801.5608323687,71748.0167507662,51579.4873849891,43214.2809930942,63891.2010675275,31069.4837755730,22146.4128197399
8151707906,20612,-2,0,46335.7332652645,63089.3255115019,40035.2268441642,57793.9073510671,71747.7125583456,51569.5098735943,43207.2967351179,63885.4944177175,31070.4936944093,22146.0477888352
8151707906,20612,-2,0,46339.4079097050,63080.9784714814,40023.7162029697,57786.4972237019,71749.2943589326,51570.7144755798,43194.8856843585,63882.1117980007,31056.8902093613,22151.2920661659
8151707906,20612,-2,0,46348.8013716523,63083.7405386602,40026.3079223930,57792.6662459912,71755.1713564980,51571.2255188463,43195.9929447694,63887.8792862948,31056.0871413710,22152.4723327577
8151707906,20612,-2,0,46334.7233464282,63083.1929923032,40033.2070064916,57796.0853687984,71742.7846411323,51560.1650824343,43206.4814994307,63882.9513690815,31063.3634240711,22147.1672169429
8151707906,20612,-2,0,46324.9891889698,63077.0969761949,40024.3002524172,57786.2173666750,71735.8125508527,51556.0280655145,43202.1984701491,63874.0324473103,31051.9136213607,22150.3916566010
8151707906,20612,-2,0,46331.3163913178,63073.2276486052,40013.2884867924,57776.4345384294,71736.8468050827,51562.1970878037,43187.4877246901,63874.7625091197,31039.5999121759,22157.5584300297
8151707906,20612,-2,0,46340.1014684239,63076.1600635395,40024.6652833219,57782.2263621171,71743.1496720370,51567.6847190709,43189.3372146072,63886.8571997617,31052.2421491749,22163.1312351746
8151751456,20613,0,0,46337.6435936657,63078.8369568405,40031.3088457872,57788.8699245824,71748.2357693090,51566.3706078140,43195.8956031948,63885.9689578936,31056.8658739676,22152.2776496086
8151751456,20613,0,0,46345.5525966006,63084.3610911982,40034.4116084771,57798.7014236153,71758.1524422197,51575.4477096439,43202.8920288680,63886.6138458252,31057.0727248136,22141.5214056171
8151751456,20613,0,0,46339.2375619495,63086.0524010565,40041.9069097200,57801.3783169164,71753.7234005761,51573.6468905141,43210.5455101696,63886.6260135220,31066.8312176656,22125.6668966568
8151751456,20613,0,0,46320.8765074437,63073.3858286639,40030.5666162810,57789.8311726314,71736.8224696890,51551.4530115090,43205.1187173866,63876.4659866749,31063.6432810980,22116.2977701031
8151751456,20613,0,0,46325.0135243635,63064.6129192545,40007.5696692856,57778.5273822829,71734.5836134736,51542.3150711950,43192.4399772971,63874.2514658531,31041.2303835501,22130.4853045987
8151751456,20613,0,0,46337.7652706339,63069.8450288884,40004.6494220481,57787.0326023621,71741.1663374548,51548.1312302764,43193.8757655222,63884.6548466367,31039.8554338092,22138.8080092256
8151751456,20613,0,0,46334.3461478267,63076.3790820823,40023.1078181285,57799.4193177279,71727.4046723481,51553.2416629420,43207.4305797829,63888.1104725344,31056.2088183392,22131.7264096746
8151751456,20613,0,0,46341.5007535586,63075.4178340333,40029.3620142955,57801.9745340607,71743.8432307559,51570.4467862497,43212.3950000867,63888.7918635565,31053.6657697032,22136.5691530102
8151781350,20614,0,0,46352.0014759168,63080.8324591195,40036.7113031766,57802.9844528970,71755.2808657694,51581.5072226617,43208.8298649176,63893.1235636255,31058.3259975864,22143.0180323263
8151781350,20614,0,0,46340.7828594460,63078.1068950312,40042.2962760183,57800.8916090435,71752.2146061701,51565.9204030315,43206.5910087021,63887.8427832043,31068.1331612257,22135.6444080516
8151781350,20614,0,0,46324.5511518842,63068.2023898173,40028.6197847893,57789.3566324553,71739.1951705695,51551.8302101106,43199.7284276940,63875.2127139021,31055.0772225347,22131.8359189460
8151781350,20614,0,0,46332.3871486382,63071.5485064436,40018.8369565437,57789.3322970617,71743.6242122131,51555.9793947272,43197.5625776595,63876.2348004352,31042.2646377801,22138.6741645605
8151781350,20614,0,0,46339.9311206684,63083.5701909047,40030.2624238604,57798.7500944026,71744.9991619541,51563.7423853002,43207.4184120861,63884.4479957907,31056.5251784566,22142.2758028201
8151781350,20614,0,0,46338.7995248639,63084.5801097410,40036.2854337878,57799.0786222168,71740.4484433423,51564.6306271683,43208.0633000177,63883.8396109496,31063.8744673376,22143.5899140770
8151781350,20614,0,0,46347.3412480336,63079.3723355008,40026.2227485152,57788.1520304698,71743.7093860908,51563.3651866987,43194.8370135712,63885.2632314779,31051.6702674242,22151.7057678579
8151781350,20614,0,0,46354.9095554574,63085.0546499171,40029.3741819924,57793.7491710084,71757.2885357452,51575.3382003725,43195.6887523488,63895.9099661979,31062.5481883839,22153.3849100195
8151806340,20615,0,0,46345.6499381752,63088.8388036290,40041.9920835977,57800.6604228038,71748.0289184630,51568.9744949341,43207.1142196655,63889.8139500896,31073.1827554072,22141.2293808933
8151806340,20615,0,0,46339.2984004336,63087.7437109149,40042.6734746198,57794.2967173654,71735.6908738845,51566.8086448996,43203.0623766235,63879.7512648171,31059.2994133322,22140.5236544776
8151806340,20615,0,0,46345.6864412657,63090.5909519715,40038.1957621890,57792.3012150865,71736.1289109701,51567.2710173789,43198.4143164371,63882.7323505387,31052.5463415955,22150.7080167184
8151806340,20615,0,0,46343.3502434757,63089.1673314432,40040.4711214949,57795.1362884462,71741.0568281834,51561.6373737499,43200.0447878114,63885.6160946857,31062.7185361395,22146.8021860382
8151806340,20615,0,0,46333.0928750539,63082.8644644889,40027.8897229800,57790.9871038296,71738.1122455523,51551.4895145995,43196.6013296105,63879.5930847584,31057.6689419579,22141.9472750059
8151806340,20615,0,0,46340.0649653335,63084.7504574965,40015.8437031252,57796.1583749793,71740.4119402518,51554.5801095925,43196.3336402804,63880.3839850518,31045.8662760397,22146.2911427717
8151806340,20615,0,0,46342.9365417837,63093.4016899376,40025.5535251899,57807.1944759977,71744.0379139050,51558.4981079695,43208.2214800764,63886.5043365538,31055.9046259186,22143.6264171675
8151806340,20615,0,0,46332.0586208240,63088.5589466021,40025.1276558011,57800.5144104420,71743.2591813084,51554.7382896512,43207.3819089956,63877.5854147826,31057.5350972929,22135.0360232105
8151832287,20616,0,0,46337.2663950642,63083.3511723619,40014.0307162986,57788.1155273794,71744.4881186875,51552.4264272549,43192.5251511748,63873.0103607772,31041.5589113644,22140.5844929617
8151832287,20616,0,0,46343.7396097740,63084.4097619855,40017.6566899519,57788.8942599760,71744.7314726240,51544.3470765645,43189.1303637612,63873.2780501073,31041.1695450660,22138.4429783209
8151832287,20616,0,0,46337.8991152990,63084.6166128314,40021.9883900208,57793.7978417957,71737.4186868334,51535.4038193996,43198.0857886229,63867.3888848449,31040.9261911296,22129.6457335179
8151832287,20616,0,0,46335.9644515041,63081.8058748653,40010.8306120342,57788.1885335603,71729.3028330525,51533.0797893064,43194.7153366030,63857.9954228976,31023.1978568585,22130.3149568432
8151832287,20616,0,0,46337.4610782133,63080.2727450657,40010.5750904009,57785.3777955942,71735.9342278210,51550.0780617681,43190.2741272626,63861.5118872795,31021.9445840858,22133.1500302029
8151832287,20616,0,0,46327.2767159725,63076.3425789918,40019.3723352039,57784.0271812469,71728.9134667541,51545.8437032737,43188.1569480154,63863.7385757981,31037.6895837747,22128.6723177721
8151832287,20616,0,0,46323.8819285589,63068.7864392648,40008.9689544203,57778.5395499797,71725.8958779420,51540.4047427938,43178.9460015204,63859.7475712401,31028.9045066685,22132.8215023887
8151832287,20616,0,0,46336.4268239834,63075.5881817888,40010.5750904009,57787.9330119270,71737.8688916158,51544.8216167405,43178.9946723077,63865.9530966198,31027.3592091720,22135.1333647850
8151863030,20617,0,0,46336.7553517976,63080.0780619165,40015.5881814920,57796.9006044855,71732.0770679281,51542.2055619236,43195.0438644172,63870.6376598967,31039.8797692028,22133.4907257139
8151863030,20617,0,0,46329.0410320119,63076.1478958427,40010.1127179216,57794.0776988226,71732.6732850724,51542.3880773760,43197.6599192341,63866.8778415784,31040.8288495550,22130.9598447748
8151863030,20617,0,0,46326.6439957378,63070.2952336708,39999.2347969619,57781.0947663125,71737.4673576207,51546.4885912053,43184.0320987924,63864.0549359155,31032.8955112264,22138.8931831033
8151863030,20617,0,0,46319.6719054582,63067.0829617096,40002.5930812851,57778.5152145861,71734.2064148721,51545.0162998897,43180.3939574423,63863.5803957394,31041.9361099659,22137.7615872988
8151863030,20617,0,0,46311.7142317360,63065.4403226385,40005.6836762781,57780.6445615301,71724.0950588123,51534.9657823140,43182.8153291101,63856.9855040613,31044.0776246067,22131.4343849509
8151863030,20617,0,0,46316.3987950128,63067.8981973967,39998.3465550938,57778.6247238575,71710.0657043754,51528.6629153597,43177.3155301461,63851.4005312196,31029.5493946001,22131.2518694985
8151863030,20617,0,0,46326.2302940458,63072.3515744339,39999.0887846000,57780.8149092856,71722.5740967094,51545.2231507357,43181.0631807676,63859.9057512988,31029.7805808398,22140.3898098126
8151863030,20617,0,0,46322.9328482068,63074.5052567716,40008.9689544203,57783.3336225280,71729.8868825000,51550.9419682425,43187.7067432329,63864.2496190646,31048.2998154043,22140.8765176855
8151894723,20618,0,0,46320.2194518152,63069.9058673725,40005.4159869480,57778.1866867719,71731.0428136981,51545.1379768579,43184.1051049733,63861.4632164922,31042.0456192373,22146.8751922192
8151894723,20618,0,0,46326.5953249505,63074.7972814953,40008.7864389679,57781.8004927283,71737.3456806524,51550.3457510982,43185.3948808366,63865.2960409914,31040.6950048899,22151.1460538040
8151894723,20618,0,0,46317.5425585142,63077.2551562536,40019.3966705975,57789.1619493062,71729.2541622652,51546.1722310879,43193.4255607397,63862.0594336365,31050.3561561674,22142.5069890597
8151894723,20618,0,0,46304.4501167327,63067.4601603111,40009.5408361710,57780.4620460777,71717.8895334325,51537.4601601627,43187.9866002599,63850.8529848626,31040.2569678043,22137.1288670640
8151894723,20618,0,0,46310.4001204791,63065.2456394893,39997.6529963749,57772.0906706636,71727.0274737466,51545.1379768579,43179.1406846696,63851.7047236402,31029.8535870207,22140.3168036316
8151894723,20618,0,0,46314.6588143672,63066.7544338954,40004.9657821655,57774.6215516027,71729.4731808080,51544.9067906183,43177.9604180778,63857.7277335675,31039.6607506600,22133.1013594156
8151894723,20618,0,0,46315.5105531448,63066.0852105701,40003.9436956324,57777.2376064197,71717.6096764056,51526.6187422934,43184.0320987924,63856.8759947899,31036.7040003320,22134.4276383693
8151894723,20618,0,0,46327.7999269359,63071.9622081356,39996.0346926975,57782.7374053836,71735.2285014052,51528.3100521518,43185.1028561128,63862.1811106047,31024.1712726044,22137.5912395433
8151923405,20619,0,0,46327.1185359138,63078.3137458772,39997.0446115338,57790.3057128075,71739.7183815329,51529.8553496483,43190.5783196832,63863.5317249521,31028.1744448591,22125.5087165981
8151923405,20619,0,0,46311.9089148852,63074.1523935637,39997.5069840131,57786.0591866163,71729.8503794095,51523.4308057258,43190.2254564753,63855.9147467409,31033.9419331532,22111.6618776136
8151923405,20619,0,0,46303.5618748646,63062.3983984328,39984.1955236888,57769.9248206291,71727.0883122307,51514.2685300181,43171.3533587029,63847.8962345346,31013.2690162510,22116.7723102792
8151923405,20619,0,0,46304.4257813391,63063.4813234500,39980.9832517275,57766.4205239441,71731.9188878694,51522.5182284641,43164.0527406091,63852.7268101733,31012.0522465687,22122.5397985733
8151923405,20619,0,0,46293.1463263842,63066.8274400763,39996.8985991719,57773.1979310745,71722.6714382840,51528.9914431739,43176.2326051289,63854.7466478459,31027.1036875387,22113.5478706211
8151923405,20619,0,0,46288.2427445646,63065.7931858464,39995.4993140373,57770.5818762575,71706.1477059984,51529.2104617167,43175.1740155053,63849.3806935470,31023.1613537681,22114.4604478829
8151923405,20619,0,0,46308.7574814080,63070.9279539056,39995.8765126388,57771.2267641891,71729.4488454143,51552.3534210739,43174.3709475150,63863.8602527663,31019.8030694449,22136.6543268879
8151923405,20619,0,0,46320.1951164216,63081.1244838433,40011.5606738436,57781.4354618236,71748.0897569471,51562.2579262878,43181.8540810611,63878.7413459808,31042.2159669928,22140.6209960522
8151979765,20620,0,0,46310.6069713251,63078.3259135740,40011.0009597897,57782.8104115646,71743.5512060321,51551.6598623550,43184.1659434575,63873.9594411293,31046.1461330666,22134.5493153375
8151979765,20620,0,0,46307.6867240876,63074.8094491922,40000.5245728252,57780.4012075936,71744.7558080176,51553.3390045166,43181.9027518484,63870.3334674761,31036.4606463956,22135.0116878168
8151979765,20620,0,0,46303.5618748646,63077.8392057011,40008.7377681806,57785.0979385673,71740.4362756455,51556.2105809668,43188.7775005534,63871.1973739505,31046.4016546999,22131.5195588286
8151979765,20620,0,0,46294.7646300616,63070.9644569961,40011.8040277800,57780.2673629286,71728.9256344509,51549.3479999587,43188.7653328565,63865.2230348105,31050.1493053214,22128.5993115911
8151979765,20620,0,0,46300.4347767811,63066.4989122621,40003.0432860675,57770.8373978908,71726.4434242991,51544.0428841439,43175.4782079259,63861.6092288541,31033.6985792167,22140.6088283554
8151979765,20620,0,0,46319.8179178201,63073.9942135050,40005.5985024003,57779.4277918478,71737.7472146476,51545.7585293959,43174.0545873976,63874.6651675451,31029.8170839302,22155.5385923571
8151979765,20620,0,0,46321.1563644706,63087.5611954626,40020.4674279180,57794.2602142750,71744.8166465017,51546.2452372688,43190.3714688372,63883.2798968957,31042.8000164403,22155.6237662349
8151979765,20620,0,0,46311.6898963424,63090.1285794922,40020.6621110671,57795.4526485636,71746.2280993332,51543.0694683980,43194.8491812680,63875.8941049242,31039.8310984155,22144.0401188594
8151989505,20621,0,0,46310.6313067188,63085.7117055455,40014.1888963573,57789.3931355458,71745.3885282524,51539.8085256495,43190.2497918689,63871.8422618821,31034.3312994515,22132.2982914253
8151989505,20621,0,0,46303.7565580138,63077.0483054076,40012.7531081322,57785.9740127385,71737.1509975033,51537.9347003388,43189.8482578738,63869.2505424589,31040.1961293202,22114.8863172717
8151989505,20621,0,0,46304.5352906105,63070.5385876073,40003.5421616372,57784.7450753594,71735.1798306179,51534.5885837125,43184.7986636923,63865.0770224486,31032.9685174074,22114.2292616432
8151989505,20621,0,0,46317.0801860349,63079.4940124690,40000.5732436124,57791.4738117025,71747.5300428932,51546.2452372688,43182.6814844451,63872.8400130216,31025.6192285263,22127.9665913563
8151989505,20621,0,0,46314.9265036973,63091.2723429936,40016.0870570617,57800.4535719578,71749.9027437737,51549.6643600761,43192.6346604462,63878.3763150761,31039.9284399901,22132.0671051857
8151989505,20621,0,0,46304.1945950994,63091.1871691158,40019.6521922308,57794.7955929352,71732.2474156836,51540.0762149796,43191.5274000353,63873.6552487088,31041.5467436675,22135.1455324819
8151989505,20621,0,0,46322.0811094291,63090.8708089984,40015.3934983428,57789.0402723379,71753.1515188254,51550.8567943647,43180.7833237407,63879.2158861569,31026.7873274213,22148.8463591045
8151989505,20621,0,0,46332.5331610001,63099.8505692538,40026.9771457182,57796.9979460601,71764.7229985040,51555.6143638225,43183.6427324941,63886.0054609841,31038.6751672173,22137.8954319639
8152019401,20622,0,0,46319.6840731550,63101.4080344471,40034.7158008976,57802.6680927796,71752.6648109525,51552.4994334358,43195.6522492583,63879.9824510567,31052.1691429940,22118.3297754726
8152019401,20622,0,0,46311.7142317360,63100.0939231902,40028.5954493957,57800.3562303833,71749.1118434802,51558.3399279108,43199.4850737575,63876.2226327384,31044.5034939955,22117.1860119712
8152019401,20622,0,0,46317.8710863284,63100.3129417330,40028.0844061291,57797.2169646029,71753.9910899062,51561.2966782388,43195.6035784710,63879.4957431838,31042.3984824452,22126.2996168916
8152019401,20622,0,0,46313.2960323230,63093.2435098789,40030.8464733079,57790.8045883773,71745.6562175825,51550.8567943647,43190.5783196832,63875.5169063227,31050.3439884705,22121.7975690671
8152019401,20622,0,0,46315.9729256240,63086.5999474136,40026.4417670580,57784.6477337848,71741.2880144231,51552.4264272549,43184.6526513304,63872.3898082392,31042.6418363816,22126.1171014392
8152019401,20622,0,0,46333.1415458412,63096.9424897131,40030.0312376208,57792.8852645340,71758.3349576720,51564.7401364397,43183.8130802496,63880.4934943233,31040.5733279217,22135.2672094501
8152019401,20622,0,0,46335.8671099295,63109.4508820471,40043.8659089085,57806.2210602519,71753.1515188254,51567.6360482836,43198.0857886229,63886.4434980697,31053.6536020064,22137.0801962767
8152019401,20622,0,0,46332.5696640905,63111.0083472404,40047.0173423856,57806.0993832837,71754.5508039601,51568.6946379072,43199.2538875179,63886.9302059426,31056.4278368820,22141.8255980377
8152048313,20623,0,0,46337.6679290593,63109.0493480519,40042.4544560770,57799.9790317817,71763.3115456726,51580.3512914635,43189.9212640547,63888.2443171995,31052.2664845686,22151.4867493151
8152048313,20623,0,0,46339.7607729129,63111.6410674752,40053.5878986700,57807.0119605454,71769.6995865046,51583.0646878551,43191.6369093067,63891.8581231559,31069.0822415779,22151.8031094325
8152048313,20623,0,0,46321.6065692531,63103.1966858801,40051.3733778482,57809.5915122719,71750.2921100720,51563.5842052415,43197.5869130532,63879.8486063916,31072.5987059597,22140.0734496952
8152048313,20623,0,0,46319.0513529202,63097.4291975860,40037.2223464432,57803.2886453176,71746.7148072061,51554.7504573481,43197.2097144517,63873.3753916818,31055.6734396790,22139.4042263699
8152048313,20623,0,0,46323.4682268670,63096.8816512290,40028.8266356353,57800.4414042610,71746.5201240569,51558.2669217299,43194.4111441824,63877.3663962398,31045.2943942890,22136.2892959832
8152048313,20623,0,0,46319.6110669741,63094.1074163533,40031.0533241539,57799.1881314883,71740.3876048582,51557.6342014951,43193.8392624317,63875.1640431148,31046.7180148173,22123.9025806175
8152048313,20623,0,0,46328.8706842564,63094.1317517470,40025.2736681630,57795.1606238399,71741.5922068436,51557.9262262189,43189.2277053358,63881.4182392818,31031.1190274903,22134.3059614011
8152048313,20623,0,0,46344.5791808548,63109.9497576168,40029.9703991367,57805.0651290537,71772.1087904756,51563.1461681559,43191.4665615512,63893.4885945302,31032.4696418376,22139.5015679445
8152075777,20624,0,0,46328.1406224470,63116.8731771091,40041.4445372407,57812.3657471475,71766.0736128514,51556.4539349033,43203.7681030392,63889.3029068231,31050.0641314436,22125.0098410284
8152075777,20624,0,0,46301.5298694952,63105.6302252447,40034.7644716849,57802.4490742368,71747.2866889568,51543.1911453663,43202.9528673521,63869.7007472413,31045.1605496240,22111.8565607628
8152075777,20624,0,0,46303.1238377790,63095.8108939086,40022.7184518302,57791.0114392232,71748.6738063946,51554.9086374068,43190.8946798005,63865.8192519548,31033.3700514025,22124.1946053412
8152075777,20624,0,0,46318.7228251060,63097.9402408526,40031.6860443887,57800.1128764468,71755.2930334663,51563.1218327622,43196.6013296105,63878.3033088951,31045.4647420445,22135.0968616946
8152075777,20624,0,0,46319.6110669741,63095.6283784562,40029.9947345303,57801.7798509115,71741.3245175135,51539.7355194686,43201.1520482223,63871.6597464298,31045.0997111398,22128.3559576547
8152075777,20624,0,0,46329.9292738799,63093.3286837567,40016.7319449933,57797.4846539330,71740.2294247995,51537.0707938643,43195.2872183536,63871.7935910949,31022.4191242619,22134.7439984867
8152075777,20624,0,0,46337.7896060276,63101.8825746232,40026.1740777279,57804.8461105109,71751.4967120575,51548.7517828144,43198.0371178356,63882.8783629006,31032.8103373487,22140.4749836903
8152075777,20624,0,0,46322.2392894879,63097.6117130383,40032.5621185600,57805.3449860807,71746.1307577586,51546.2087341784,43202.2349732395,63877.4028993302,31050.9402056149,22130.1446090876
8152110960,20625,0,0,46310.9476668362,63084.4462650759,40017.6566899519,57791.5468178834,71736.3966003002,51540.3439043097,43191.1258660402,63864.8093331185,31038.1884593444,22130.1811121781
8152110960,20625,0,0,46319.2460360694,63087.3178415261,40018.2894101866,57796.5477412777,71745.0721681350,51553.4606814848,43189.8847609642,63868.0094373829,31037.8964346207,22139.4894002477
8152110960,20625,0,0,46312.4199581517,63091.2236722063,40031.3940196650,57803.4589930731,71740.3024309804,51554.2150786879,43197.2827206326,63868.1797851384,31053.1182233462,22138.7836738319
8152110960,20625,0,0,46301.5663725857,63084.7869605870,40030.3475977382,57795.2214623240,71731.6633662361,51549.6765277729,43192.9023497763,63858.1536029563,31049.2245603628,22140.9008530791
8152110960,20625,0,0,46305.6790541118,63078.9464661120,40019.3966705975,57782.9685916233,71719.4469986259,51546.5372619926,43175.3200278672,63854.4059523349,31033.5160637644,22149.7346009726
8152110960,20625,0,0,46317.0315152476,63080.2727450657,40021.9518869304,57787.2029501177,71733.2208314295,51552.5237688295,43176.4394559749,63865.2230348105,31039.8919368996,22153.7986117114
8152110960,20625,0,0,46306.6037990704,63080.4430928212,40025.2615004662,57787.7626641715,71732.9166390089,51545.0041321929,43178.5566352221,63863.7264081012,31045.8297729492,22141.7282564631
8152110960,20625,0,0,46307.4920409384,63082.7792906112,40021.1488189400,57789.8798434187,71736.6034511462,51546.9509636846,43180.9901745867,63863.9940974314,31038.4561486745,22140.4628159935
8152151953,20626,0,0,46309.8890772126,63085.9550594820,40023.1564889158,57795.1971269303,71734.2307502657,51544.5660951073,43189.3493823040,63868.1676174416,31044.1262953940,22133.8679243155
8152151953,20626,0,0,46302.6736329966,63077.8878764884,40022.5237686810,57791.1817869788,71725.4700085532,51537.2411416199,43193.3282191651,63861.1590240716,31049.8207775071,22123.3793696541
8152151953,20626,0,0,46303.8538995884,63068.7621038712,40007.5331661952,57779.4277918478,71727.7818709496,51534.7589314680,43180.9658391930,63855.7930697727,31033.3578837057,22125.2410272680
8152151953,20626,0,0,46310.1324311490,63072.9721269719,40004.4182358085,57783.0415978042,71723.5475124552,51530.0013620102,43174.9063261752,63862.3271229666,31025.8017439787,22126.5916416153
8152151953,20626,0,0,46309.7674002443,63076.5737652315,40011.0009597897,57794.4548974241,71728.8647959668,51532.8120999763,43185.5043901080,63866.6709907324,31032.1411140234,22122.9291648716
8152151953,20626,0,0,46306.3726128307,63077.5350132805,40010.7941089437,57797.4968216299,71731.5416892679,51531.4493179321,43188.4124696487,63861.5483903699,31030.2916241063,22116.3586085872
8152151953,20626,0,0,46313.2351938389,63078.3745843613,40009.8936993788,57796.8275983046,71735.8855570337,51540.8914506667,43184.9325083573,63862.8138308395,31027.7972462576,22124.9124994538
8152151953,20626,0,0,46306.7376437354,63075.5760140920,40016.1600632426,57797.6915047790,71735.8977247305,51544.9797967992,43186.5751474284,63863.0571847760,31042.1916315992,22121.5298797370
8152173584,20627,0,0,46298.7069638323,63069.2488117441,40012.2298971688,57792.5567367198,71728.7431189986,51532.6052491303,43185.7234086508,63853.2743565303,31037.5314037160,22123.8174067397
8152173584,20627,0,0,46308.9643322540,63072.8991207909,40006.0487071828,57794.5279036051,71736.4087679971,51532.9946154286,43188.0596064408,63857.8372428389,31024.5119681154,22136.2649605896
8152173584,20627,0,0,46312.4807966358,63079.2628262294,40011.5850092372,57802.5585835082,71735.5448615226,51533.3961494238,43196.6621680946,63861.9377566683,31031.6422384537,22134.2086198265
8152173584,20627,0,0,46298.4271068053,63071.3903263849,40011.3781583912,57795.2701331113,71721.5155070858,51525.5358172762,43194.8613489648,63856.0485914060,31034.6233241753,22121.3108611942
8152173584,20627,0,0,46300.1062489669,63059.9161882809,39996.7525868100,57778.8802454908,71714.6894291681,51530.1960451594,43178.2281074079,63853.6272197382,31017.2721885058,22130.7286585351
8152173584,20627,0,0,46317.1166891254,63066.6205892303,40000.6097467029,57783.1267716820,71729.1446529938,51546.5372619926,43175.8189034369,63865.6367365024,31025.3637068930,22141.4362317393
8152173584,20627,0,0,46310.2297727236,63070.5872583946,40013.7751946653,57795.9028533461,71732.5759434978,51546.0262187260,43189.2155376390,63866.1721151627,31048.5066662503,22134.5493153375
8152173584,20627,0,0,46303.1846762631,63069.0906316854,40012.2298971688,57799.2489699724,71727.6358585877,51543.2519838504,43194.8856843585,63855.8660759536,31045.6229221032,22135.5227310834
8152219837,20628,0,0,46296.8453062184,63064.9901178560,40006.1703841510,57792.9947738054,71720.0553834670,51545.2353184325,43187.0010168172,63855.6470574108,31038.1276208603,22142.7503429962
8152219837,20628,0,0,46283.6676905591,63060.3298899729,40011.4146614817,57785.2561186260,71717.2689808946,51545.2231507357,43179.8585787821,63854.6493062713,31045.5255805286,22140.6088283554
8152219837,20628,0,0,46272.8019372962,63052.7980856394,40008.9324513298,57776.0451721310,71711.2946417545,51541.9987110776,43171.9374081504,63848.3951101043,31041.2425512470,22137.5790718465
8152219837,20628,0,0,46281.2463188914,63056.9229348624,40006.5962535398,57777.7851527767,71719.3861601418,51546.6589389608,43172.0955882091,63849.7092213612,31035.0370258673,22143.7724295293
8152219837,20628,0,0,46278.6667671649,63061.9360259535,40016.1478955458,57785.7914972862,71706.9872770792,51542.4610835569,43182.6084782641,63850.0255814786,31042.3254762642,22130.9963478652
8152219837,20628,0,0,46275.7586876242,63055.9130160261,40012.5705926799,57783.6864857358,71699.5528143204,51537.8981972483,43183.3385400735,63843.9052299767,31037.3488882636,22121.6393890084
8152219837,20628,0,0,46289.6907004865,63054.0756938059,39998.6264121208,57780.3647045032,71714.0202058429,51547.7905347653,43173.7625626738,63851.4248666132,31027.4078799593,22140.7305053236
8152219837,20628,0,0,46297.3320140913,63059.7458405253,40004.2113849625,57784.9275908118,71727.3073307735,51549.6765277729,43171.6818865171,63860.2099437194,31043.1650473450,22142.1297904582
8152245877,20629,0,0,46282.4144177864,63060.5975793030,40009.3218176281,57788.1033596826,71716.1860558773,51533.0797893064,43177.7657349286,63852.0940899385,31052.5828446860,22126.2752814979
8152245877,20629,0,0,46278.3625747443,63059.5268219825,40002.3983981359,57785.1101062641,71712.7791007669,51532.4835721621,43178.9825046109,63842.6762925976,31041.0600357946,22118.8043156487
8152245877,20629,0,0,46286.6974470680,63063.0676217580,40001.9360256566,57785.9253419512,71717.1716393200,51538.4822466958,43175.5512141068,63842.9683173213,31034.2582932706,22117.0278319125
8152245877,20629,0,0,46284.7627832732,63060.7800947553,40006.3407319065,57785.6454849243,71708.6907546344,51531.9360258051,43176.9383315446,63840.8754734678,31039.3930613299,22110.4207725376
8152245877,20629,0,0,46284.9331310287,63057.0811149211,39998.3222197002,57781.1312694030,71706.3545568444,51524.9639355255,43173.9694135198,63838.9773127634,31028.6854881257,22112.6352933594
8152245877,20629,0,0,46292.6961216017,63061.9116905598,39994.8422584088,57782.7982438677,71715.6993480044,51526.9594378045,43170.5381230158,63844.7813041479,31018.3551135230,22119.1936819470
8152245877,20629,0,0,46289.6298620024,63067.6670111571,40003.5786647277,57789.8068372378,71711.9882004734,51526.9229347140,43179.5422186647,63852.4469531464,31023.1978568585,22121.8219044607
8152245877,20629,0,0,46276.2210601035,63065.4281549417,40005.6350054908,57789.2836262744,71708.5934130598,51527.9206858535,43184.2146142448,63847.1053342411,31026.2762841548,22117.4780366950
8152272175,20630,0,0,46284.3004107939,63062.3375599486,39998.2127104288,57786.9352607875,71712.8277715542,51539.9788734050,43175.7580649528,63847.6407129013,31019.1946846038,22124.7421516983
8152272175,20630,0,0,46290.8587993815,63066.9004462572,40003.0067829770,57793.1042830768,71711.1364616958,51535.4524901869,43175.8554065274,63851.8750713957,31027.5538923212,22123.9999221921
8152272175,20630,0,0,46285.7118636254,63066.6692600176,40003.4448200627,57797.8375171409,71712.0977097448,51525.8278419999,43187.7554140202,63852.3131084813,31030.6931581015,22124.6569778205
8152272175,20630,0,0,46290.6397808387,63074.7242753144,40005.7688501558,57802.9722852002,71715.8575280631,51529.4294802595,43193.3525545588,63855.3428649902,31025.2176945312,22135.3280479342
8152272175,20630,0,0,46295.0566547854,63082.1344026796,40012.2542325625,57809.0317982180,71725.7985363675,51544.6269335914,43197.9762793515,63862.0594336365,31033.9419331532,22141.5944117980
8152272175,20630,0,0,46281.3193250723,63080.3579189434,40019.4210059912,57806.6347619439,71721.7710287191,51546.3912496307,43202.8676934743,63860.7453223796,31050.9280379180,22132.6754900268
8152272175,20630,0,0,46273.8118561325,63070.4777491232,40008.8351097552,57792.8730968371,71715.4194909775,51545.7950324864,43191.4178907639,63851.9237421830,31044.3209785432,22129.5605596401
8152272175,20630,0,0,46287.8655459630,63069.8085257979,40002.6052489819,57792.1917058151,71718.3275705182,51546.5129265989,43181.7810748802,63852.8363194447,31033.9297654564,22130.8868385938
8152299714,20631,0,0,46298.3541006244,63073.7751949622,40009.2731468409,57802.8141051415,71705.3446380081,51540.5507551557,43192.2574618447,63860.7088192892,31040.8775203423,22136.9950223990
8152299714,20631,0,0,46302.0165773681,63079.0803107770,40014.6147657461,57808.8736181593,71721.7953641127,51553.6918677245,43201.6265883984,63864.9796808740,31044.0654569099,22140.8765176855
8152299714,20631,0,0,46303.9877442534,63085.0303145234,40017.8757084947,57807.6568484770,71737.8932270095,51567.1371727138,43200.2516386574,63869.4573933049,31048.5553370376,22145.4637393877
8152299714,20631,0,0,46291.8930536114,63082.9374706699,40024.3489232045,57802.4734096304,71732.1500741090,51562.4282740433,43197.8302669896,63868.9463500383,31064.5923614502,22136.0094389563
8152299714,20631,0,0,46273.5928375897,63072.4854190990,40019.1289812674,57791.8996810913,71714.0688766301,51542.8382821584,43194.7396719966,63855.2211880220,31063.9474735186,22123.5375497128
8152299714,20631,0,0,46275.3571536291,63067.4236572206,40002.8486029183,57786.2660374623,71713.0589577938,51541.7066863539,43185.0055145382,63849.5145382120,31044.6008355701,22124.1459345539
8152299714,20631,0,0,46281.6235174929,63072.1082204975,40006.0243717891,57790.9871038296,71716.5145836915,51547.8270378558,43187.4025508124,63853.3351950144,31042.0699546309,22120.0089176341
8152299714,20631,0,0,46282.9984672339,63072.1082204975,40013.2519837019,57794.9902760843,71713.8498580873,51549.2019875968,43194.8126781775,63860.3437883845,31048.2633123138,22120.5564639912
8152342239,20632,0,0,46289.7150358801,63073.7630272654,40009.6625131392,57794.1628727004,71727.5263493163,51548.5570996652,43194.2407964269,63863.3370418029,31042.7513456530,22126.5916416153
8152342239,20632,0,0,46300.6902984144,63079.4210062881,40012.5584249830,57800.1615472341,71739.7062138361,51548.4232550001,43194.7518396934,63870.3334674761,31045.5134128318,22129.0616840704
8152342239,20632,0,0,46292.6109477240,63084.3489235013,40023.8865507252,57806.4279110979,71734.1334086912,51539.0297930528,43204.9848727215,63865.4542210501,31056.9632155422,22119.5222097612
8152342239,20632,0,0,46285.4563419921,63081.3678377797,40024.0934015712,57801.0741244958,71724.6182697756,51539.3826562607,43203.9019477043,63858.2631122277,31051.8406151798,22115.3243543573
8152342239,20632,0,0,46294.8741393330,63084.5436066505,40019.9442169546,57795.8298471651,71733.4763530627,51553.2173275484,43195.8956031948,63861.5483903699,31043.7247613989,22127.9909267500
8152342239,20632,0,0,46296.0057351376,63088.2790895752,40025.7603760359,57797.7401755663,71723.4866739711,51544.0915549312,43193.2187098937,63867.0116862434,31050.6360131943,22133.7462473472
8152342239,20632,0,0,46294.1805806141,63084.9086375552,40021.7207006907,57797.2291322998,71729.8382117127,51534.1627143236,43193.2187098937,63866.5736491578,31042.5931655943,22140.4506482967
8152342239,20632,0,0,46299.9845719987,63089.3498468956,40015.8802062157,57803.4833284668,71745.8995715190,51534.9657823140,43194.4476472728,63868.2284559257,31032.7494988646,22145.5854163559
8152359508,20633,0,0,46297.1129955485,63093.8032239328,40018.4475902453,57812.7429457490,71743.5147029417,51537.8738618546,43203.8654446138,63868.6299899209,31038.7481733983,22137.5669041496
8152359508,20633,0,0,46282.1953992435,63089.2403376242,40022.3655886223,57810.7596111669,71732.1500741090,51539.4678301384,43209.0610511572,63861.8282473969,31046.7910209982,22127.5528896644
8152359508,20633,0,0,46279.0196303728,63080.9906391782,40008.7256004838,57795.0146114780,71731.7728755075,51537.3141478008,43194.0461132777,63856.4866284916,31033.0658589820,22130.7164908383
8152359508,20633,0,0,46285.8578759873,63081.1853223274,40005.6593408844,57789.8920111155,71738.8666427553,51545.1379768579,43183.6914032814,63862.7043215681,31032.8468404391,22131.0328509557
8152359508,20633,0,0,46276.7807741573,63084.9573083425,40019.4331736880,57796.4017289158,71734.3280918403,51548.8126212985,43191.6490770036,63866.0017674071,31049.2245603628,22128.5384731070
8152359508,20633,0,0,46270.9402796823,63086.4052642644,40017.5958514677,57795.4161454731,71727.7940386464,51553.3876753039,43192.6346604462,63860.2464468099,31047.8496106218,22135.6079049611
8152359508,20633,0,0,46288.8632971025,63089.3498468956,40013.6656853939,57796.1948780698,71738.3555994887,51559.8852254073,43192.0384433019,63868.1797851384,31044.9658664748,22148.4934958966
8152359508,20633,0,0,46292.2459168193,63088.4737727243,40021.1123158496,57800.6360874102,71741.4705298754,51559.3863498376,43193.5959084952,63869.9441011778,31058.6788607942,22133.7219119536
8152388676,20634,0,0,46284.9087956351,63079.5061801658,40020.4430925243,57796.4382320063,71728.6214420304,51549.3114968682,43190.3471334435,63864.3226252456,31057.9974697722,22120.7268117467
8152388676,20634,0,0,46293.3653449270,63079.2141554421,40009.9180347725,57795.4769839573,71733.8048808770,51555.1154882528,43189.5318977564,63869.1532008843,31045.1118788367,22128.7453239530
8152388676,20634,0,0,46296.1760828931,63091.4913615364,40022.3777563192,57807.8758670198,71746.0577515777,51567.4413651344,43201.0060358604,63877.1473776970,31059.8226242956,22127.4920511802
8152388676,20634,0,0,46281.6478528865,63091.9050632284,40035.2268441642,57806.1845571614,71739.9130646821,51567.2101788948,43203.9262830979,63869.6520764540,31071.7834702726,22122.0652583972
8152388676,20634,0,0,46281.6478528865,63085.9672271788,40029.3863496892,57793.2137923482,71736.3966003002,51566.3827755108,43189.4345561818,63862.3636260571,31058.5815192197,22129.9742613321
8152388676,20634,0,0,46299.4491933385,63088.7414620544,40029.9947345303,57793.5788232529,71734.2794210530,51560.7247964881,43183.3507077703,63869.9441011778,31051.3782427005,22142.3488090010
8152388676,20634,0,0,46301.0066585318,63091.8928955316,40030.2624238604,57801.6946770338,71742.8941504037,51551.4408438122,43188.8626744311,63870.6863306840,31055.8681228281,22137.0558608831
8152388676,20634,0,0,46286.8069563394,63089.7392131939,40021.4408436638,57798.3242250138,71738.2947610046,51536.3772351454,43192.3913065098,63859.7719066338,31044.8928602939,22131.5073911318
8152453227,20635,0,0,46283.9597152829,63084.1420726553,40013.7386915749,57792.9947738054,71732.4420988328,51537.5696694341,43187.6702401425,63853.8462382810,31037.5800745033,22133.7584150441
8152453227,20635,0,0,46276.2210601035,63075.5030079111,40019.1289812674,57790.1353650520,71720.0675511639,51538.7621037227,43188.2664572868,63850.4757862611,31045.1362142303,22128.4898023197
8152453227,20635,0,0,46271.8528569440,63063.9558636261,40011.7310215991,57782.7009022932,71716.9526207772,51535.1117946758,43181.8905841516,63844.3919378496,31038.8576826697,22134.3181290979
8152453227,20635,0,0,46281.2949896787,63067.5209987952,40004.6737574418,57785.5238079561,71719.3131539608,51530.6219145482,43175.2713570799,63850.0864199627,31027.4443830498,22148.8706944981
8152453227,20635,0,0,46287.8168751757,63074.4565859843,40010.7941089437,57796.7180890332,71719.0089615403,51527.9085181567,43186.3074580983,63857.4235411470,31029.9144255048,22150.6836813248
8152453227,20635,0,0,46281.5505113119,63077.8513733979,40018.9708012087,57801.5243292783,71718.8021106943,51535.5619994583,43198.1101240166,63857.6303919929,31038.3101363126,22145.7922672019
8152453227,20635,0,0,46281.0273003485,63074.3957475002,40017.1943174726,57792.9095999276,71727.5750201036,51542.3637419823,43191.0163567688,63856.3892869170,31036.8013419066,22143.8941064976
8152453227,20635,0,0,46278.7519410427,63071.3538232944,40017.8757084947,57790.5855698344,71727.6358585877,51538.5309174831,43187.6459047488,63854.3451138508,31042.8486872276,22135.5348987802
8152459354,20636,0,0,46266.3408902833,63063.3596464818,40017.5836837709,57789.4296386363,71711.4649895100,51520.6687385470,43188.4246373455,63843.5036959815,31039.5025706013,22119.6195513358
8152459354,20636,0,0,46261.7901716715,63060.2933868824,40006.3772349970,57786.6189006702,71708.2648852456,51514.4267100768,43185.1515269001,63835.9597239513,31019.4623739339,22112.9151503864
8152459354,20636,0,0,46268.2268832908,63062.5322430978,40002.8120998279,57788.1885335603,71712.6939268891,51524.8787616477,43183.9834280051,63836.6411149734,31013.8530656985,22111.8687284596
8152459354,20636,0,0,46261.6806624001,63056.2415438403,40006.0487071828,57784.4652183325,71702.1080306532,51518.2230314856,43183.7157386750,63837.3955121764,31026.7873274213,22112.9273180832
8152459354,20636,0,0,46255.4508016267,63043.2951144207,39998.1032011574,57769.1217526388,71697.1922811367,51512.6867294312,43172.1077559059,63832.7596196869,31022.9545029221,22120.3374454483
8152459354,20636,0,0,46265.2579652660,63045.8746661472,39992.8467561299,57770.3506900179,71701.9863536850,51518.2230314856,43168.0924159544,63840.5591133504,31019.9734172005,22133.4663903203
8152459354,20636,0,0,46273.8970300103,63053.6741598107,40000.1108711332,57783.8203304009,71707.2793018029,51521.3988003564,43179.5908894520,63847.7380544759,31031.3137106394,22131.3613787699
8152459354,20636,0,0,46272.7532665089,63055.4263081532,40001.7778455979,57790.3057128075,71704.4320607464,51518.0891868205,43186.1249426460,63840.3522625044,31034.5138149039,22122.9900033557
8152485768,20637,0,0,46276.4765817368,63052.0436884364,39995.6818294896,57784.2705351833,71706.4032276317,51525.6088234571,43177.0478408160,63835.9597239513,31025.4975515581,22130.3027891463
8152485768,20637,0,0,46270.9281119855,63048.9287580498,40003.7611801801,57780.5472199555,71709.0071147518,51531.0599516338,43174.4439536959,63840.3522625044,31034.8058396276,22132.4564714840
8152485768,20637,0,0,46253.7351563747,63040.6303888165,40004.5155773831,57775.7896504977,71698.1900322762,51522.6399054323,43174.0180843071,63835.5095191688,31039.4417321172,22129.7552427893
8152485768,20637,0,0,46254.7572429078,63040.3748671832,39996.6309098418,57774.9622471138,71697.6668213128,51523.9905197797,43172.3876129329,63833.7087000390,31030.1456117444,22136.8611777339
8152485768,20637,0,0,46264.1993756424,63050.5227263336,40001.5709947519,57782.3358713885,71702.8502601594,51528.0301951249,43178.3376166793,63841.3135105534,31032.6156541995,22143.6872556516
8152485768,20637,0,0,46258.9672660085,63054.2338738646,40011.4754999658,57785.7549941957,71693.3594566375,51523.4308057258,43182.1339380880,63836.8479658194,31040.5489925281,22140.1342881793
8152485768,20637,0,0,46266.6815857943,63050.9729311160,39999.7580079253,57778.1258482877,71691.8384945346,51516.6412308986,43170.4529491380,63832.7109488996,31017.3208592931,22150.5741720534
8152485768,20637,0,0,46290.7979608974,63061.6683366234,40001.2546346345,57782.4697160535,71713.8255226937,51527.4704810710,43167.0824971180,63844.9394842066,31010.7503030087,22157.8869578439
8152514946,20638,0,0,46284.0327214638,63068.9324516267,40009.5895069582,57793.1894569545,71716.1008819996,51521.5934835056,43178.0577596523,63844.3432670623,31026.1546071865,22132.1279436698
8152514946,20638,0,0,46260.5734019892,63063.0067832739,40003.2866400040,57789.5634833013,71703.6411604529,51512.8692448835,43184.1172726702,63831.4941792173,31028.1866125560,22113.2436782006
8152514946,20638,0,0,46258.3345457738,63053.4429735711,39987.5051372246,57780.2186921413,71699.7353297727,51512.6745617343,43176.8531576669,63824.6559336028,31013.7192210335,22119.5708805485
8152514946,20638,0,0,46257.8478379008,63046.8845849835,39983.6966481190,57777.5539665371,71694.7830771658,51507.6736383401,43172.0955882091,63824.9966291138,31013.9504072731,22121.4325381624
8152514946,20638,0,0,46253.1997777145,63038.5132095693,39980.8615747593,57773.2952726490,71685.2801059471,51497.5622822802,43173.2028486200,63823.2688161650,31011.1761723975,22118.2324338980
8152514946,20638,0,0,46260.4638927178,63039.0364205327,39972.5388701324,57771.6404658811,71684.9880812233,51494.4108488031,43165.6102058025,63823.5000024046,30991.3671619697,22125.7642382314
8152514946,20638,0,0,46281.2219834977,63055.3411342754,39985.3636225838,57789.1011108220,71702.9597694308,51509.2432712303,43177.8144057159,63838.8191327047,30993.3018257646,22136.1554513182
8152514946,20638,0,0,46280.1998969646,63063.0554540612,40004.0653726006,57800.6239197134,71709.3113071724,51519.7804966789,43194.1434548523,63845.0611611749,31011.3465201530,22132.5294776649
8152572258,20639,0,0,46276.6347617955,63058.8697663541,40003.1771307326,57792.3620535706,71711.9516973829,51523.4429734226,43188.0839418344,63838.3324248318,31010.1175827739,22134.8413400613
8152572258,20639,0,0,46280.5405924756,63058.7237539922,40001.4736531773,57789.1741170030,71717.2203101073,51521.2041172072,43179.8950818726,63841.0944920106,31010.4947813754,22140.0126112110
8152572258,20639,0,0,46271.0254535601,63059.0401141096,40006.6570920239,57790.7072468027,71707.7660096759,51515.3636227322,43185.3948808366,63840.0845731743,31023.1005152840,22136.2649605896
8152572258,20639,0,0,46254.7937459983,63050.6079002113,40000.2933865855,57781.0460955252,71694.8804187404,51515.1567718862,43183.1316892275,63832.1147317552,31018.9878337578,22130.6434846574
8152572258,20639,0,0,46254.3313735190,63048.4907209641,39989.5371425940,57771.8351490303,71694.4180462611,51522.5303961609,43173.7503949770,63832.2729118139,31009.8863965342,22137.0801962767
8152572258,20639,0,0,46260.5247312019,63050.6444033018,39990.9364277287,57770.4845346829,71693.5054689994,51529.8553496483,43172.0955882091,63841.1553304947,31016.5177913028,22146.9481984001
8152572258,20639,0,0,46261.5468177350,63053.9175137472,39996.7769222037,57775.1690979598,71707.4131464680,51532.6539199176,43173.8112334611,63843.5158636783,31026.2032779738,22146.2303042876
8152572258,20639,0,0,46266.1462071341,63054.5989047692,39992.9684330981,57779.3304502732,71710.8566046689,51534.5277452283,43172.6553022630,63840.1332439616,31024.9013344138,22142.9815292358
8152608338,20640,0,0,46265.6229961707,63056.3632208086,39992.1531974110,57788.4927259809,71705.1499548589,51527.5556549488,43181.0631807676,63835.3391714133,31033.8810946691,22127.8692497817
8152608338,20640,0,0,46253.9298395239,63050.3888816685,39989.5249748972,57789.2106200934,71692.2035254393,51512.0053384091,43188.7653328565,63825.2521507471,31037.1055343272,22115.5312052033
8152608338,20640,0,0,46255.5724785949,63042.3460340685,39973.5852920592,57775.7044766200,71694.7344063785,51514.2198592308,43175.4903756227,63820.9447860718,31020.4357896797,22118.1715954139
8152608338,20640,0,0,46269.2368021271,63047.5903113992,39975.7389743968,57774.2686883949,71702.6434093134,51525.6939973349,43166.6444600324,63832.2485764203,31017.8927410437,22120.7024763530
8152608338,20640,0,0,46277.7663576000,63056.0346929944,39988.9652608434,57785.7063234084,71708.5204068789,51530.8896038783,43176.7193130018,63844.8178072384,31028.4177987956,22123.2333572922
8152608338,20640,0,0,46277.2553143334,63064.6372546482,39991.7029926285,57794.2358788813,71718.2788997309,51532.7269260985,43184.8229990859,63850.5001216547,31029.9387608985,22130.8503355034
8152608338,20640,0,0,46275.9046999861,63075.8680388158,39999.9770264681,57798.1782126519,71732.5029373169,51544.8946229215,43188.3394634677,63854.0165860365,31037.3002174763,22137.9806058416
8152608338,20640,0,0,46259.2957938228,63074.8216168890,40012.6922696481,57793.2016246514,71725.3726669787,51536.4137382359,43187.6945755361,63848.1517561679,31052.1083045099,22129.4753857624
8152615903,20641,0,0,46244.9865823590,63064.2965591371,40004.7710990164,57776.6292215785,71714.5190814126,51520.5835646692,43180.3331189582,63837.1521582399,31043.0920411641,22124.0485929793
8152615903,20641,0,0,46258.6995766784,63065.2213040957,39993.6254887265,57773.9523282775,71724.6912759566,51520.3888815201,43173.8355688548,63841.2405043725,31024.2564464821,22126.4456292535
8152615903,20641,0,0,46273.1669682009,63077.3281624345,40002.9824475834,57789.0524400347,71731.1644906664,51527.7381704011,43182.4868012959,63848.7479733122,31030.3646302873,22120.9093271990
8152615903,20641,0,0,46266.4138964642,63080.5769374862,40009.2609791440,57795.1362884462,71723.4623385774,51528.7480892374,43190.6391581673,63847.4825328426,31037.6044098969,22116.7236394919
8152615903,20641,0,0,46269.7721807873,63076.6467714124,40000.4515666442,57787.0082669685,71723.0364691886,51534.9171115267,43183.7279063718,63847.3973589649,31025.3272038026,22134.3181290979
8152615903,20641,0,0,46275.3571536291,63078.2285719994,40001.4614854805,57787.1299439367,71736.3966003002,51539.2244762020,43179.7612372076,63856.1337652837,31030.8391704634,22143.9549449817
8152615903,20641,0,0,46261.6076562191,63073.8725365368,40010.6359288850,57787.6288195065,71727.7210324655,51529.2226294135,43184.0442664892,63851.5587112783,31041.3520605184,22137.1775378513
8152615903,20641,0,0,46253.9420072207,63069.4556625901,40006.0365394859,57785.2682863228,71721.0044638192,51528.0301951249,43184.3362912130,63843.8322237957,31033.5403991580,22137.6034072401
8152643293,20642,0,0,46262.9582705665,63076.3304112950,40005.2699745861,57789.0524400347,71728.4389265780,51540.9157860604,43186.3804642792,63848.6262963440,31030.0482701699,22144.6120006101
8152643293,20642,0,0,46260.3908865368,63078.2650750899,40013.3858283670,57790.4638928662,71724.2410711741,51540.3804074002,43190.4201396245,63848.8209794931,31041.2303835501,22142.3366413042
8152643293,20642,0,0,46251.8248279735,63066.7787692890,40004.3208942339,57775.8139858914,71715.2734786156,51526.9594378045,43180.6008082883,63838.3567602254,31033.4552252803,22141.3875609520
8152643293,20642,0,0,46259.4783092751,63063.5908327214,39993.5646502424,57769.0487464578,71721.1383084843,51530.5854114577,43170.6476322872,63841.2040012820,31021.5673854843,22146.2911427717
8152643293,20642,0,0,46258.9550983117,63065.9635336019,39994.1852027804,57772.9789125316,71709.7980150453,51527.0567793790,43174.2249351531,63844.0999131258,31025.4732161644,22139.8787665460
8152643293,20642,0,0,46254.8302490888,63065.9270305114,39996.8985991719,57776.7265631531,71702.5339000420,51528.4925676042,43176.5611329431,63842.4937771452,31025.2055268343,22135.4740602961
8152643293,20642,0,0,46267.1926290609,63069.4191594996,39995.0247738612,57776.6170538817,71712.7547653733,51541.0009599381,43171.3290233093,63849.2225134883,31017.4182008677,22146.6075028891
8152643293,20642,0,0,46270.9402796823,63074.6877722239,40004.6859251386,57783.0781008947,71734.3524272340,51552.7671227659,43172.4971222043,63858.5673046483,31034.1852870897,22144.5633298228
8152695637,20643,0,0,46251.0825984673,63069.3339856218,40008.8959482393,57785.1344416578,71721.7831964159,51538.1293834879,43180.8806653153,63850.6339663198,31050.0154606563,22132.8336700855
8152695637,20643,0,0,46242.7963969309,63062.7147585502,39998.3708904875,57781.2286109776,71715.6263418235,51534.9536146171,43183.3872108608,63840.6199518345,31042.7270102594,22135.9607681690
8152695637,20643,0,0,46246.9820846380,63064.8684408878,39996.2902143308,57782.9685916233,71715.8940311536,51544.9676291024,43184.8960052668,63843.8078884021,31039.5025706013,22144.1374604340
8152695637,20643,0,0,46241.7743103977,63067.0707940128,40009.2366437504,57783.7229888263,71713.2171378525,51549.0559752349,43189.2398730326,63847.7015513854,31050.4778331356,22142.3853120915
8152695637,20643,0,0,46242.5408752976,63062.0455352249,40007.4114892269,57774.8892409328,71714.1418828111,51543.5926793614,43180.3696220487,63846.8741480015,31040.0744523520,22139.2947170985
8152695637,20643,0,0,46253.1754423208,63062.4349015232,40003.4813231531,57772.8937386539,71717.8530303421,51538.5430851799,43168.2019252258,63849.8917368136,31023.5507200664,22136.2041221055
8152695637,20643,0,0,46266.4017287674,63073.5683441162,40008.7742712711,57789.9650172965,71726.7354490228,51533.0189508223,43178.8121568554,63862.6556507808,31030.9365120379,22131.3735464668
8152695637,20643,0,0,46261.2912961017,63073.6778533876,40007.3871538333,57799.6991747548,71724.6791082597,51524.5867369240,43191.3692199766,63858.1049321690,31038.1762916476,22119.3275266120
8152718159,20644,0,0,46261.9240163365,63069.7111842233,39997.4948163162,57795.0146114780,71727.1856538053,51531.3763117512,43188.3516311646,63853.3595304081,31032.1776171139,22122.1139291845
8152718159,20644,0,0,46256.6189005217,63066.5232476557,39997.9328534019,57789.6729925727,71726.6502751451,51531.7656780495,43184.3119558193,63853.5542135573,31035.9131000385,22123.4280404414
8152718159,20644,0,0,46240.6427145932,63054.8787617962,39992.8102530394,57781.2286109776,71713.8863611778,51516.9819264097,43180.6738144693,63846.4726140063,31034.0879455151,22119.4978743676
8152718159,20644,0,0,46248.0528419584,63055.1099480358,39984.1955236888,57781.4597972172,71717.6583471929,51521.4961419310,43180.0167588408,63847.7867252632,31018.4037843103,22129.7430750925
8152718159,20644,0,0,46261.4129730700,63068.4579114506,39994.8179230152,57790.7194144995,71725.3118284945,51538.7256006322,43185.7720794381,63856.0850944964,31021.4943793033,22133.2717071711
8152718159,20644,0,0,46261.5346500382,63074.3592444097,40010.5020842200,57796.0123626175,71715.7358510949,51540.0883826764,43191.8315924559,63860.1977760226,31035.4263921656,22133.9652658900
8152718159,20644,0,0,46264.6374127280,63070.0153766439,40006.9004459604,57786.8865900003,71723.6570217266,51539.6868486813,43181.4282116723,63860.9156701351,31032.2019525075,22136.7881715530
8152718159,20644,0,0,46268.9204420097,63067.9712035777,40001.1451253631,57784.7694107531,71733.6710362119,51542.1690588331,43172.5579606884,63862.9720108982,31031.9099277838,22136.6664945847
8152750166,20645,0,0,46260.6464081701,63065.2091363989,40000.6827528839,57791.1331161915,71720.4569174622,51533.7003418444,43179.0798461855,63859.1635217926,31041.6075821517,22126.4577969503
8152750166,20645,0,0,46251.9100018512,63060.1352068237,39994.8057553184,57791.7658364263,71715.7966895790,51524.5624015303,43186.1979488269,63849.4536997279,31036.9960250558,22119.8629052722
8152750166,20645,0,0,46252.5913928733,63059.7945113126,39987.8580004325,57785.0492677800,71718.5465890610,51527.3731394964,43180.4426282296,63845.9737384366,31026.7021535436,22129.0008455863
8152750166,20645,0,0,46250.4377105357,63060.9626102076,39991.2892909365,57781.9465050901,71714.6894291681,51531.8143488368,43181.2578639168,63850.3541092928,31036.4971494860,22131.9089251270
8152750166,20645,0,0,46246.8725753665,63059.1496233810,39997.3244685607,57779.9144997207,71717.4514963469,51530.2325482498,43180.9415037994,63854.3937846381,31041.5589113644,22133.3325456552
8152750166,20645,0,0,46254.3678766095,63062.8729386088,39990.7539122763,57782.1290205425,71729.9963917714,51531.0356162402,43179.6395602393,63859.2608633672,31032.3114617789,22138.7715061351
8152750166,20645,0,0,46259.4539738815,63074.7121076176,39993.6133210297,57792.1917058151,71725.0563068613,51535.2213039472,43185.2001976874,63866.5128106737,31036.4971494860,22133.8679243155
8152750166,20645,0,0,46255.4508016267,63075.3326601555,39998.4438966684,57795.7325055905,71729.7287024413,51538.2753958498,43196.2971371899,63868.6421576177,31041.5467436675,22127.8084112976
8152771716,20646,0,0,46250.0970150246,63067.0099555287,39990.6322353081,57784.7937461467,71726.5285981768,51532.3375598002,43183.4723847386,63861.8039120032,31030.7053257983,22129.6579012147
8152771716,20646,0,0,46255.7306586537,63063.6395035087,39986.8480815962,57779.1601025177,71730.8481305490,51529.3686417754,43175.5268787132,63864.4077991233,31024.7309866582,22133.4055518362
8152771716,20646,0,0,46255.2196153871,63067.9225327904,39996.3632205117,57788.9429307633,71736.2140848479,51530.2447159467,43187.7310786266,63866.3424629182,31038.8455149729,22126.3969584662
8152771716,20646,0,0,46250.0483442373,63069.0176255044,39993.7836687852,57791.6928302453,71729.1203176001,51527.9450212471,43198.0249501388,63859.1148510053,31035.7549199798,22114.9228203621
8152771716,20646,0,0,46260.5125635051,63073.4710025416,39991.0216016064,57792.7514198689,71736.0194016987,51537.3019801040,43199.3998998798,63861.4145457049,31027.6147308053,22118.2324338980
8152771716,20646,0,0,46256.3755465853,63075.0893062191,39995.8886803356,57791.5711532771,71722.6957736776,51534.5277452283,43194.6910012093,63865.5637303215,31034.7815042340,22120.6903086562
8152771716,20646,0,0,46250.9974245895,63068.9689547171,39993.8566749662,57784.8789200245,71729.4610131112,51532.6295845240,43189.6657424214,63866.1234443754,31032.5183126249,22131.5803973127
8152771716,20646,0,0,46255.5238078077,63072.2907359498,39989.7074903496,57786.3633790369,71742.3831071371,51536.1703842994,43183.6062294036,63867.9729342925,31027.2740352942,22136.6543268879
8152818372,20647,0,0,46258.4683904388,63081.2826639020,39997.2757977734,57798.1173741678,71745.1816774064,51537.2046385294,43194.1434548523,63873.0225284740,31038.0181115889,22129.9742613321
8152818372,20647,0,0,46249.9753380564,63081.1123161464,40002.4957397105,57802.9236144129,71731.4200122997,51530.2203805530,43203.1597181981,63866.0504381944,31047.3263996584,22118.8286510423
8152818372,20647,0,0,46254.8545844824,63076.3790820823,39995.8035064579,57796.2922196444,71732.2352479868,51538.4092405149,43195.5427399869,63861.4267134017,31037.0081927526,22131.6290681000
8152818372,20647,0,0,46265.5378222929,63081.2461608115,40000.0378649522,57795.5499901382,71738.5502826379,51544.4687535327,43189.5927362405,63867.1942016958,31038.3223040095,22145.5732486591
8152818372,20647,0,0,46265.0511144200,63082.7184521271,40011.2564814230,57797.7158401727,71735.3988491608,51543.0573007012,43191.7342508813,63871.7084172171,31047.2290580839,22147.0820430652
8152818372,20647,0,0,46262.8487612951,63086.7337920786,40010.5872580977,57799.3949823342,71739.3776860219,51543.8238656011,43195.4940691996,63871.6232433393,31043.8221029734,22146.6805090700
8152818372,20647,0,0,46263.8465124346,63091.2115045095,40008.2023895204,57801.9380309702,71748.6008002137,51546.1843987847,43196.0537832535,63871.9274357599,31040.0744523520,22144.4173174609
8152818372,20647,0,0,46255.8645033187,63086.1010718438,40011.8161954768,57799.2733053660,71738.3555994887,51545.1014737675,43200.5801664716,63871.9761065472,31047.4359089298,22138.6376614700
8152837241,20648,0,0,46243.4169494688,63072.3515744339,40005.3429807670,57788.2493720444,71730.0207271650,51536.9491168961,43193.0361944414,63861.3172041303,31043.3962335846,22133.7584150441
8152837241,20648,0,0,46245.8991596207,63068.5674207220,39994.8057553184,57782.4453806599,71734.7904643196,51536.0365396344,43184.0686018829,63857.6060565993,31034.1609516960,22144.1009573436
8152837241,20648,0,0,46246.0816750731,63074.8459522826,39998.3343873970,57790.2448743234,71736.4574387844,51537.8373587642,43188.1326126217,63860.2342791131,31042.1429608119,22144.7701806688
8152837241,20648,0,0,46235.0455740546,63075.0528031286,40000.5732436124,57791.8023395167,71725.2996607977,51532.1185412574,43195.6157461679,63854.7223124523,31050.5021685292,22135.9486004722
8152837241,20648,0,0,46241.4214471899,63071.1104693580,39993.2239547314,57784.8302492372,71726.4920950864,51538.6282590577,43187.7310786266,63853.1648472589,31038.6629995205,22140.2316297539
8152837241,20648,0,0,46257.1177760915,63073.7751949622,39997.8963503114,57785.6698203180,71736.7859665986,51547.4741746479,43182.8274968069,63861.9742597587,31040.8166818582,22137.0801962767
8152837241,20648,0,0,46262.0700286984,63074.4322505906,40005.5619993099,57789.6243217854,71731.0914844854,51541.4755001142,43188.6314881915,63866.8656738816,31045.7324313746,22132.3226268189
8152837241,20648,0,0,46264.0898663710,63078.1068950312,40005.6715085813,57793.7005002211,71741.5800391468,51543.4223316059,43190.8095059228,63865.4785564437,31038.6629995205,22126.0440952583
8152863388,20649,0,0,46266.2192133150,63083.3511723619,40009.7598547138,57798.0808710774,71745.6197144920,51548.9951367508,43193.1335360160,63865.7097426834,31036.2902986400,22118.1350923234
8152863388,20649,0,0,46258.3832165611,63084.6287805283,40023.1929920063,57801.0741244958,71740.4849464327,51547.0483052591,43198.9983658846,63866.5006429769,31047.0830457220,22112.6231256626
8152863388,20649,0,0,46239.8518142997,63070.8671154215,40013.6413500003,57784.9154231149,71725.4821762501,51528.7845923279,43186.4534704602,63853.3473627113,31036.5944910606,22119.4492035803
8152863388,20649,0,0,46246.2276874349,63069.2488117441,40001.1329576663,57774.7797316614,71718.9602907530,51520.9120924835,43170.6597999840,63855.6713928045,31017.8684056501,22142.3731443947
8152863388,20649,0,0,46252.7009021447,63075.8802065126,40009.3218176281,57786.5337267924,71735.7638800655,51535.5619994583,43178.8729953395,63865.2473702041,31027.5417246243,22146.0356211384
8152863388,20649,0,0,46240.3385221726,63080.1023973101,40018.1920686121,57795.7568409842,71731.1523229695,51541.1956430873,43194.3503056983,63861.0130117097,31042.0577869341,22135.8999296849
8152863388,20649,0,0,46239.4016095173,63075.3448278524,40008.9567867235,57788.1276950762,71728.4754296685,51542.4975866474,43191.6734123972,63856.4744607948,31031.5813999696,22139.8057603651
8152863388,20649,0,0,46246.3250290095,63075.3691632460,40007.8981970999,57783.6499826454,71730.4344288570,51533.8706895999,43184.5796451494,63858.9931740371,31027.5173892307,22140.7548407172
8152894851,20650,0,0,46240.0464974489,63066.2677260225,40002.5687458914,57775.9234951628,71722.7322767681,51524.5380661367,43181.6593979119,63857.8007397485,31022.9301675284,22139.8057603651
8152894851,20650,0,0,46251.1677723450,63071.9500404388,40005.0266206496,57784.6355660880,71736.9319789604,51537.0707938643,43184.2754527289,63863.5438926489,31019.9369141100,22149.2478930997
8152894851,20650,0,0,46256.7162420963,63081.6720302003,40015.8437031252,57794.0411957321,71746.8486518711,51549.2993291714,43189.7995870865,63869.2870455493,31028.7219912162,22155.3439092079
8152894851,20650,0,0,46242.2245151802,63079.8955464641,40025.0911527107,57793.9681895512,71734.4619365054,51547.8270378558,43194.7518396934,63866.0869412849,31046.9370333601,22147.2888939112
8152894851,20650,0,0,46229.9473090858,63066.3650675970,40015.8437031252,57776.0816752215,71723.7543633012,51540.1978919478,43181.4160439755,63856.7299824281,31042.4836563229,22146.9116953097
8152894851,20650,0,0,46238.8418954634,63058.8089278700,40001.4614854805,57767.8928152596,71727.1369830180,51536.3650674486,43166.3646030055,63854.8439894205,31028.5516434606,22150.5863397502
8152894851,20650,0,0,46247.0672585157,63061.7170074107,40004.9536144687,57778.4057053147,71721.6980225381,51535.3308132187,43172.8621531089,63859.4920496069,31032.3844679599,22150.3429858137
8152894851,20650,0,0,46243.2344340165,63066.5354153526,40011.9135370514,57786.4120498242,71726.8936290815,51537.1559677421,43184.1659434575,63858.6889816165,31036.7405034225,22140.3168036316
8152930948,20651,0,0,46238.7688892825,63071.4024940817,40010.7697735501,57784.2096966992,71733.1113221580,51540.7697736985,43182.2556150563,63857.4113734501,31031.0216859157,22138.7471707415
8152930948,20651,0,0,46232.5511962059,63071.9500404388,40015.5395107047,57781.3989587331,71734.1212409944,51542.0230464713,43180.5399698042,63857.7155658707,31039.1740427871,22136.5934884038
8152930948,20651,0,0,46219.2884066689,63061.5588273520,40013.8968716336,57773.5264588887,71721.1626438779,51529.2104617167,43175.3686986545,63848.4072778012,31040.8045141613,22125.2531949648
8152930948,20651,0,0,46224.8733795107,63054.4407247105,39999.6119955634,57768.5620385849,71717.7800241611,51523.6011534813,43166.0969136754,63843.4428574974,31024.1469372107,22124.3771207936
8152930948,20651,0,0,46237.3817718447,63059.1617910779,39999.8310141062,57776.2885260675,71716.2712297551,51527.1662886505,43169.1631732748,63847.9084022314,31022.3947888682,22126.6281447058
8152930948,20651,0,0,46232.1253268171,63057.7138351559,40006.2068872415,57780.7419031047,71708.6177484535,51520.4253846105,43174.0059166103,63840.5591133504,31024.1834403012,22119.4005327930
8152930948,20651,0,0,46232.3443453600,63051.3988005048,39993.3334640028,57770.4236961988,71697.8736721588,51514.9742564339,43161.7773813032,63835.3635068070,31005.9318950668,22131.9940990047
8152930948,20651,0,0,46247.4809602077,63055.0004387644,39984.0373436301,57767.1505857535,71720.0188803766,51522.3357130118,43150.0233861723,63840.8511380741,30996.4897623322,22142.7990137835
8152971135,20652,0,0,46240.2655159917,63060.9626102076,39992.9440977045,57774.3781976663,71721.5155070858,51523.1509486989,43161.4123503986,63844.9029811162,31015.7025556156,22133.0648563251
8152971135,20652,0,0,46229.3145888510,63063.3961495722,39995.8765126388,57779.1601025177,71716.4172421170,51516.6777339891,43174.2614382436,63839.4396852427,31023.4533784918,22125.9710890774
8152971135,20652,0,0,46231.6386189442,63060.9261071172,39989.4884718067,57774.3173591822,71720.0067126797,51512.4068724042,43169.8810673873,63837.2616675113,31011.4681971212,22129.6335658211
8152971135,20652,0,0,46233.8774751596,63060.9504425108,39996.6309098418,57777.5417988402,71720.0797188607,51516.5682247177,43170.4042783507,63840.4739394726,31019.6692247799,22136.3014636800
8152971135,20652,0,0,46224.9707210853,63052.6277378839,39997.2271269861,57772.4678692651,71711.5379956910,51514.5605547419,43167.7638881401,63836.5316057020,31022.8571613475,22139.5867418222
8152971135,20652,0,0,46232.3808484504,63050.2915400939,39988.6489007260,57771.7256397589,71711.8908588988,51514.3050331086,43162.6656231713,63835.9718916481,31008.3289313409,22145.6827579305
8152971135,20652,0,0,46244.2808559433,63059.2347972588,39991.7273280222,57781.9465050901,71719.2523154767,51516.7264047764,43171.0004954950,63846.3874401286,31007.5867018347,22148.5421666839
8152971135,20652,0,0,46237.3209333605,63065.6958442718,40003.0797891580,57788.7847507046,71710.3090583118,51512.0418414995,43181.0145099803,63842.7371310817,31013.9504072731,22138.2847982622
8152989748,20653,0,0,46237.8441443239,63060.5854116061,39994.4893952010,57777.7608173831,71709.8101827421,51517.4564665857,43175.6120525909,63842.0922431501,31005.9927335509,22152.0221279753
8152989748,20653,0,0,46244.6580545448,63065.0509563402,39997.0202761401,57773.2587695586,71727.1491507148,51533.3718140302,43170.5137876221,63849.1495073074,31017.0288345693,22163.7882908031
8152989748,20653,0,0,46230.8720540444,63066.4137383843,40008.1050479458,57776.2398552802,71722.5862644062,51529.9526912229,43176.3177790067,63849.5753766962,31040.1961293202,22160.6246896291
8152989748,20653,0,0,46222.0261384541,63064.6980931323,40007.8981970999,57777.5417988402,71715.5290002489,51521.1432787231,43179.5665540584,63843.4306898006,31035.8279261608,22156.2808218633
8152989748,20653,0,0,46234.1329967929,63067.5331664920,40004.7954344100,57778.9897547622,71720.9436253351,51527.1662886505,43178.9338338236,63847.0809988475,31023.6723970346,22152.1681403372
8152989748,20653,0,0,46239.4016095173,63071.9378727419,40012.4975864989,57786.7770807289,71719.5200048068,51536.7787691406,43185.5165578048,63854.9291632983,31034.9275165959,22144.0644542531
8152989748,20653,0,0,46238.0144920794,63066.0487074796,40010.4047426454,57782.2506975107,71718.3154028213,51530.4759021863,43182.2921181467,63853.5907166477,31035.3898890751,22139.7205864873
8152989748,20653,0,0,46249.0992638851,63062.6295846724,40000.4759020379,57777.8338235640,71728.4754296685,51530.7314238196,43170.1244213238,63854.8561571173,31026.6169796658,22142.0446165805
8153042657,20654,0,0,46250.8635799245,63065.2699748830,40004.5034096863,57782.7374053836,71728.2077403384,51534.8197699521,43176.1595989480,63856.4379577043,31032.4574741408,22129.7552427893
8153042657,20654,0,0,46226.4430124008,63060.1595422173,40014.3470764160,57780.1821890508,71717.6583471929,51534.0045342649,43185.0663530224,63847.4703651458,31044.2114692718,22114.7281372130
8153042657,20654,0,0,46220.0063007815,63055.5479851214,40006.9004459604,57770.8982363749,71711.7570142338,51534.0532050522,43181.1118515549,63841.5933675803,31029.0383513336,22126.2022753170
8153042657,20654,0,0,46236.1528344655,63061.8751874694,40007.0829614127,57776.0330044342,71728.4389265780,51537.3993216786,43176.2934436130,63852.9701641098,31025.3150361057,22139.3920586731
8153042657,20654,0,0,46237.1019148177,63065.1482979147,40012.8504497068,57783.4431317994,71726.4677596927,51528.7359215406,43180.4547959265,63855.2455234157,31035.4385598624,22137.6034072401
8153042657,20654,0,0,46232.9892332916,63064.2478883498,40006.7057628112,57783.6013118581,71722.7079413744,51527.9936920344,43179.6517279362,63848.2125946520,31026.3979611230,22133.5880672885
8153042657,20654,0,0,46243.9401604322,63072.8991207909,40006.4137380875,57788.2372043476,71724.9467975898,51534.3573974728,43179.7977402980,63857.0220071518,31017.5033747454,22149.3208992806
8153042657,20654,0,0,46249.3304501248,63080.5891051831,40020.6012725830,57794.4670651210,71734.8999735910,51542.9599591266,43190.3349657467,63867.0603570307,31031.2893752458,22156.9378774918
8153056345,20655,0,0,46239.8761496934,63074.1037227764,40022.8644641921,57785.7671618926,71730.6047766125,51532.8607707636,43187.9744325630,63858.6889816165,31031.5205614854,22151.3164015596
8153056345,20655,0,0,46243.5629618307,63071.8040280769,40014.4687533842,57782.8469146550,71733.4641853659,51538.9446191751,43181.6472302151,63854.5519646967,31025.9477563405,22151.9612894912
8153056345,20655,0,0,46247.4322894204,63078.7031121755,40021.0149742750,57795.2214623240,71736.0194016987,51544.1767288089,43191.6612447004,63858.8714970689,31040.5976633154,22146.3519812558
8153056345,20655,0,0,46243.2587694101,63081.9640549240,40027.3056735324,57803.2886453176,71728.3172496098,51534.5034098347,43202.2349732395,63856.7543178217,31048.7621878835,22135.4618925993
8153056345,20655,0,0,46243.3561109847,63078.9829692024,40019.4210059912,57794.6739159669,71727.6358585877,51527.1176178632,43192.9145174732,63851.3396927355,31032.6521572900,22140.8643499886
8153056345,20655,0,0,46248.5882206186,63075.9167096030,40011.7066862054,57788.7117445237,71729.8017086222,51517.6876528254,43182.0609319071,63853.8219028874,31023.0396767998,22147.4835770603
8153056345,20655,0,0,46243.5507941339,63071.5606741404,40007.6548431634,57785.2439509292,71725.7133624897,51513.0274249422,43181.4038762787,63856.4501254011,31023.2343599490,22148.7246821363
8153056345,20655,0,0,46238.0753305636,63071.9378727419,40002.4714043168,57782.8712500487,71732.6976204661,51527.5921580393,43179.0676784886,63855.1360141442,31023.1613537681,22146.2303042876
8153083794,20656,0,0,46248.5152144376,63084.0203956871,40012.3150710466,57794.0168603385,71742.1884239880,51546.3182434498,43186.8671721522,63862.5948122967,31033.8324238818,22146.7170121605
8153083794,20656,0,0,46242.8329000213,63086.1740780248,40025.7847114296,57799.4436531215,71736.1410786670,51545.4421692785,43197.5260745691,63864.2496190646,31052.4611677177,22134.2572906138
8153083794,20656,0,0,46232.0766560299,63075.6611879698,40018.6666087882,57788.0546888953,71727.5141816195,51535.3673163091,43190.2862949594,63855.6957281981,31044.3453139368,22130.3879630241
8153083794,20656,0,0,46245.2421039923,63073.6900210844,40010.7697735501,57784.3678767579,71738.8179719680,51543.0329653076,43179.4448770902,63865.3690471723,31031.9220954806,22142.4096474852
8153083794,20656,0,0,46254.3313735190,63081.1974900242,40019.7495338054,57793.6031586465,71736.8468050827,51542.8017790679,43185.4435516239,63872.5844913883,31041.5467436675,22140.9860269569
8153083794,20656,0,0,46249.2696116407,63084.9816437361,40024.5071032632,57796.9249398792,71730.4100934633,51546.8536221100,43194.7275042998,63874.3001366404,31045.1118788367,22143.7602618325
8153083794,20656,0,0,46254.5260566682,63093.5842053900,40028.0113999482,57798.3242250138,71750.7179794608,51564.5941240778,43195.9929447694,63879.9702833599,31045.9879530079,22150.1726380582
8153083794,20656,0,0,46253.2606161986,63098.7433088429,40036.8329801448,57800.4414042610,71755.0983503171,51562.3431001656,43196.7351742756,63882.2699780594,31059.6887796306,22143.2857216564
8153132341,20657,0,0,46242.7355584467,63088.2060833942,40032.3674354108,57794.9172699034,71738.9031458458,51547.3890007702,43197.1002051802,63876.6850052177,31062.2804990538,22139.0635308589
8153132341,20657,0,0,46246.3371967063,63086.3809288708,40021.4530113606,57792.5080659325,71742.9184857973,51544.9311260120,43191.7464185782,63870.6863306840,31051.0618825831,22142.4339828788
8153132341,20657,0,0,46250.0361765405,63093.3286837567,40018.7396149691,57795.6960025001,71748.4426201550,51545.5030077626,43191.7950893654,63869.7615857254,31050.8671994339,22139.9396050301
8153132341,20657,0,0,46230.9572279221,63092.1605848617,40022.5724394683,57793.7978417957,71736.1532463638,51535.9878688471,43198.9253597037,63863.5195572553,31055.8681228281,22128.0274298404
8153132341,20657,0,0,46225.8589629533,63084.6531159219,40020.4187571307,57786.8987576971,71729.5340192921,51535.7080118202,43194.5328211506,63855.9147467409,31045.6715928905,22128.2221129896
8153132341,20657,0,0,46243.0519185641,63083.0956507286,40014.8216165921,57787.3732978732,71741.3123498167,51543.6778532392,43188.9113452184,63863.5925634362,31034.0636101214,22140.9860269569
8153132341,20657,0,0,46251.2772816165,63083.5945262983,40015.3204921619,57792.5080659325,71736.7129604176,51538.1902219720,43192.7806728081,63869.1897039747,31035.7792553735,22146.6318382827
8153132341,20657,0,0,46249.4642947898,63085.9793948756,40015.3326598587,57798.8717713709,71737.7350469508,51536.3894028422,43204.8753634501,63868.7029961018,31041.4128990025,22148.4691605030
8153161359,20658,0,0,46250.4498782325,63087.3543446166,40009.6260100487,57799.5044916057,71739.8400585011,51536.1825519963,43204.7171833914,63863.9332589472,31038.1276208603,22146.4736582240
8153161359,20658,0,0,46245.0595885399,63089.6297039225,40017.2673236535,57798.9569452486,71744.3177709320,51542.1082203490,43204.6441772105,63863.5682280425,31049.1150510914,22141.1320393188
8153161359,20658,0,0,46227.1974096038,63077.3403301313,40015.2961567682,57786.8500869098,71728.7552866954,51527.6408288266,43194.4719826665,63852.4104500559,31046.8153563919,22134.4884768534
8153161359,20658,0,0,46227.8057944450,63068.7012653870,40002.6052489819,57775.2542718375,71728.9256344509,51528.2857167582,43182.9491737752,63848.4681162853,31025.9964271278,22139.0756985557
8153161359,20658,0,0,46237.9293182017,63075.2474862778,40005.4646577353,57781.0460955252,71736.9806497477,51535.5254963678,43185.8694210127,63858.1779383500,31025.9234209469,22142.6773368153
8153161359,20658,0,0,46230.5800293206,63078.3259135740,40019.4331736880,57789.2106200934,71732.5637758010,51529.5876603182,43197.4043976008,63858.5429692547,31039.0280304252,22137.0193577926
8153161359,20658,0,0,46226.0536461025,63069.9423704630,40013.0207974623,57782.8590823519,71726.2000703626,51523.2239548798,43192.2331264511,63852.8971579288,31029.6467361747,22142.5556598470
8153161359,20658,0,0,46235.8364743481,63068.4822468442,40007.3993215301,57782.2872006012,71737.9175624031,51534.8562730426,43187.4147185092,63860.1977760226,31026.6169796658,22150.9757060485
8153178470,20659,0,0,46236.4205237956,63070.5994260914,40013.3128221861,57789.6973279664,71738.2095871269,51536.3650674486,43193.3282191651,63865.7462457739,31041.4250666993,22145.9382795638
8153178470,20659,0,0,46230.2880045969,63070.4412460327,40009.9423701661,57791.9483518786,71733.1599929453,51532.3132244066,43195.2750506568,63857.7642366580,31041.5102405771,22137.4208917878
8153178470,20659,0,0,46239.1704232776,63073.6900210844,40000.3785604633,57787.2637886018,71722.1482273206,51533.6881741476,43185.2488684747,63857.7764043548,31028.0040971036,22139.2947170985
8153178470,20659,0,0,46250.0240088437,63079.1168138675,40004.1505464784,57787.4098009636,71722.3915812570,51542.1325557427,43185.9545948904,63867.3158786640,31035.7062491925,22139.2582140080
8153178470,20659,0,0,46245.6193025938,63076.7319452902,40012.5705926799,57784.6964045721,71732.1379064122,51546.2452372688,43185.4922224112,63867.6565741751,31046.2313069444,22140.8765176855
8153178470,20659,0,0,46240.8617331360,63076.4642559601,40011.1348044548,57779.2939471827,71740.3389340709,51539.4191593512,43180.3209512614,63864.9431777835,31042.8730226212,22149.3695700679
8153178470,20659,0,0,46236.5422007639,63082.2925827383,40009.6260100487,57784.6233983912,71740.1199155281,51539.6746809844,43186.5508120348,63862.9598432014,31048.3849892820,22145.6705902337
