steady_timestamp,sequence,battery,flags,EEG-ch1,EEG-ch2,EEG-ch3,EEG-ch4,EEG-ch5,EEG-ch6,EEG-ch7,EEG-ch8,EEG-ch9,EEG-ch10
671194684,5974,-2,0,55520.4705412750,61723.6110523981,61486.7911691332,68347.6200289300,72779.0587087550,70319.9793485352,78949.1882583975,64086.4682661420,65658.1088262773,7512.8713971446
671194684,5974,-2,0,55712.8783311361,61971.4913720751,61882.9348745977,68207.2048075932,72391.9069312426,71013.9517691349,78959.2509436700,64355.6177198655,65763.8582793655,7549.3136491293
671194684,5974,-2,0,55313.6196952850,61667.7004854967,61948.7742821066,68200.6464190056,73253.9882511480,72717.2346411976,78473.3583064395,64128.6050002399,65321.7571830007,7273.9830054198
671194684,5974,-2,0,54852.5369918764,61202.8701314666,61558.3493941489,68387.9437762012,74241.8713885059,73107.0633120110,78151.7782471059,63697.9902096760,64930.5048916590,7060.9144663532
671194684,5974,-2,0,54944.5491152515,61201.8237095399,61244.4593192075,68573.3794757828,74089.1181225907,71788.3161626437,78409.1372026080,63641.3374132683,65100.5362870628,7186.9231346516
671194684,5974,-2,0,55436.2092407761,61636.3808338744,61396.0931570150,68398.5296724371,73051.6759560730,70471.8687079760,78895.4678769242,64006.3804856534,65593.7782131744,7480.2619696591
671194684,5974,-2,0,55688.9323037886,61946.2068980770,61819.6628511184,68260.8400151887,72514.5208121274,71007.4177159410,78969.5204797886,64330.4184197452,65760.2566411059,7560.8972965048
671194684,5974,-2,0,55328.4764531058,61675.5486499475,61931.3988110435,68217.1944866848,73300.8703870068,72738.9174769361,78489.3588277616,64138.4608346665,65324.3854055145,7285.0069387414
671227243,5975,-2,0,54858.0367908404,61197.1756493535,61554.7477558893,68372.8071613534,74321.5941380898,73257.2856969870,78137.9192404246,63698.9879608154,64907.4471061796,7036.4330603455
671227243,5975,-2,0,54916.5390771651,61164.3715387189,61245.0555363518,68644.6335083780,74292.9270443749,72131.4452130507,78356.8039385725,63620.7983410312,65062.5609052784,7142.0973395559
671227243,5975,-2,0,55372.0124723383,61561.8901939244,61350.5616355035,68603.0443206372,73357.1459848129,70776.0976316400,78829.4581216597,63945.6636785069,65538.1110002095,7430.1797295359
671227243,5975,-2,0,55673.5158319139,61909.0710873734,61730.6804842522,68458.2487284441,72670.4741823070,70942.6003949651,78983.5376665286,64287.9044870458,65771.4265867894,7555.2028143916
671227243,5975,-2,0,55401.1054354419,61732.1892786583,61911.7479806744,68332.7024326250,73266.8130035994,72646.8201796832,78561.6106114963,64182.5322325591,65406.7485453090,7325.9755739442
671227243,5975,-2,0,54888.0788342962,61230.8801695531,61583.3540111200,68335.4401644102,74378.2104314069,73486.0505649552,78131.8840628004,63732.8019902864,64932.7924186618,7037.5646561500
671227243,5975,-2,0,54844.3481319146,61100.3572857334,61199.0494746642,68568.7070802028,74519.4165530372,72442.7192331752,78270.3159495550,63568.6354247513,64994.2636230113,7088.1092687525
671227243,5975,-2,0,55298.0207079579,61481.2670347756,61253.2565640104,68578.7454300817,73585.8986850842,70949.8401745748,78759.5182003214,63874.3366397308,65470.3247612089,7392.1070061769
671262638,5976,-2,0,55667.4198158056,61873.4319033790,61648.9987354798,68500.7504934467,72805.9979895210,70964.0642121608,78981.1284625577,64255.9034444015,65756.1804626702,7547.8656932074
671262638,5976,-2,0,55450.8956508414,61751.2925626703,61882.3629928470,68404.5040115772,73287.7292744381,72591.7126807721,78608.3589026900,64202.7427769821,65449.2259749179,7333.1423473729
671262638,5976,-2,0,54929.6923574307,61270.3886811371,61609.6119008640,68369.7895725414,74378.6728038862,73536.0111281102,78159.1153682902,63776.6787050299,64975.2211774833,7043.7458461361
671262638,5976,-2,0,54808.5020970742,61084.6122860445,61225.2100228336,68606.8406420459,74643.1376943329,72717.1007965325,78220.9881066348,63567.0292887706,64966.1440756534,7061.2673295611
671262638,5976,-2,0,55210.6566447692,61411.2541072563,61221.2676890629,68700.5440752794,73829.1187768780,71209.5353278668,78683.6647783272,63817.8298556851,65405.4831048394,7350.8463462503
671262638,5976,-2,0,55644.2403533579,61854.6328117875,61589.2188409887,68589.7206926160,72906.5275006721,70832.2758878715,78994.9387984517,64233.4783791568,65778.5081863403,7571.5075281344
671262638,5976,-2,0,55540.4012286709,61849.6805591806,61908.9859134956,68449.6948375776,73157.3158998898,72349.3199923623,78713.0132630641,64291.1897651880,65578.9579584441,7426.9066190905
671262638,5976,-2,0,55024.6125603464,61377.6104255409,61711.3095109101,68355.3708518062,74280.3699812537,73570.4578778159,78227.5708306161,63887.1857275759,65070.9201129958,7113.9656245013
671302306,5977,-2,0,54839.9434256646,61121.2370534815,61281.6438006984,68557.9873393018,74692.9887482164,72854.0603919716,78239.5803473803,63610.7356557586,64987.9242529665,7079.1538438908
671302306,5977,-2,0,55222.1551182669,61414.1865221907,61223.9810854544,68643.8547757813,73904.2786401534,71270.1791288324,78707.5499671906,63828.9511305813,65427.9933439618,7362.5638382908
671302306,5977,-2,0,55677.9692089511,61868.3579738038,61584.8019670420,68556.1743524752,72919.8632963900,70746.2137682429,79051.6889364339,64249.0165279997,65841.0136449198,7603.5815769596
671302306,5977,-2,0,55628.5683598500,61903.7173007713,61916.7124009782,68488.8383182570,73018.2391252035,72062.4908751551,78815.9519781862,64333.8375425524,65681.0571024854,7497.9051300524
671302306,5977,-2,0,55139.3661090836,61456.8342995551,61753.5070834921,68437.3811283928,74046.8840469182,73348.2148953449,78323.6104616395,63956.2617424397,65163.3094349724,7183.8568750522
671302306,5977,-2,0,54899.6989847621,61154.3818596272,61345.6823890775,68628.4018008162,74583.9905200765,72926.3486787967,78254.1694158710,63650.7430429125,64998.4006399311,7102.3698094290
671302306,5977,-2,0,55209.2816950282,61375.3715693255,61228.6413133376,68704.3403966881,73951.6718192787,71371.8645711817,78675.3055706098,63799.4688011793,65365.1958606586,7337.3036996864
671302306,5977,-2,0,55672.2747268380,61832.7187898094,61519.5587766774,68489.8360693965,72878.9433319745,70513.9081004993,79070.9260651110,64206.5634337845,65805.8368334047,7586.3277828647
671308402,5978,-2,0,55687.3018324143,61947.4236677593,61895.5041054158,68357.6583788089,72770.8941841868,71706.2328798762,78903.6567368860,64365.4735542921,65734.4611238413,7509.2332557945
671308402,5978,-2,0,55182.3910850495,61512.8057049406,61810.3058922616,68305.8483257368,73817.1335955074,73221.5613391149,78370.3830882269,64007.7676030912,65203.8522007864,7185.0736447345
671308402,5978,-2,0,54867.3085758194,61143.9906465404,61380.9808775609,68524.7573592783,74491.3335087698,72943.6998144662,78231.1237980883,63646.0584796356,64977.6303814543,7071.5855364670
671308402,5978,-2,0,55141.7631453577,61325.1798199309,61225.7088984033,68637.6857534921,73945.6366416545,71433.3601109249,78628.5572794161,63765.3384115909,65334.9713017505,7308.0160534335
671308402,5978,-2,0,55635.1875869217,61797.1891150864,61519.3640935282,68474.7116222456,72900.1881306274,70508.8828417114,79055.2297362094,64184.2722132048,65818.5277411910,7595.3075431200
671308402,5978,-2,0,55735.1817194126,61973.2313527207,61901.1742521353,68391.5332467640,72664.6823586193,71435.4651224752,78966.3812140083,64388.9450414635,65816.4835681247,7572.7242978167
671308402,5978,-2,0,55286.1207004651,61605.1341884331,61877.1065478195,68362.7444760809,73584.3655552846,72981.5048484951,78458.5258840123,64091.8098850473,65309.9180139920,7279.0082642077
671308402,5978,-2,0,54909.9320177902,61200.8259584004,61474.4287891611,68543.1184137842,74386.0099250704,73031.7087655865,78230.1990531298,63705.1813184983,64991.8179159498,7122.0328074949
671352285,5979,-2,0,55092.5691471026,61284.9412465374,61231.2086973673,68655.9372987265,74018.5576487144,71575.4788098168,78561.5254376185,63729.3706997823,65251.3062183959,7290.3728930403
671352285,5979,-2,0,55595.3870506138,61736.4479725463,61438.5340835334,68395.4147420505,72906.2354759484,70343.9375435796,79030.5293116588,64122.8496796426,65764.8681982018,7573.6855458657
671352285,5979,-2,0,55781.3094580684,61994.4031451927,61865.4255588695,68229.7028790188,72456.7364199152,71073.5004773864,79028.4486355021,64407.4886114217,65876.0809471635,7603.2287137518
671352285,5979,-2,0,55368.0579708708,61675.7555007935,61928.7949239234,68236.2612676064,73300.0794867133,72707.0016081695,78532.3229652435,64164.2441842343,65404.2419997635,7316.3630934541
671352285,5979,-2,0,54965.1490259727,61252.9158684994,61547.0699391940,68483.8252271660,74149.8227620403,72857.6011917471,78271.8855824452,63760.8850345537,65058.9470993220,7130.3433444249
671352285,5979,-2,0,55120.7251975509,61313.4988309808,61298.0458560157,68599.3210054093,73842.5519141706,71468.5369224400,78578.3655300215,63763.1847292533,65288.0404951044,7299.3526532956
671352285,5979,-2,0,55617.7269419807,61755.8797843725,61485.8907595683,68298.6085461271,72761.1721944252,70166.5690269916,79054.7916991238,64140.4320015518,65781.1242411573,7608.0592893905
671352285,5979,-2,0,55868.1259749001,62059.8410187065,61891.4400946769,68082.7292690945,72149.4899074391,70551.2385943520,79138.3716086005,64457.9237147528,65961.5468496479,7696.1655820854
671394743,5980,-2,0,55541.5328244755,61828.0342265326,62025.3699336070,68178.5742169688,72808.6992182157,72171.9271403806,78701.2957710237,64301.5444751843,65579.2864862583,7455.5980481990
671394743,5980,-2,0,55095.1486988290,61381.0417160450,61699.7015281410,68492.2209379738,73763.4010463373,72673.5404419064,78366.3677482753,63891.6147692194,65186.9756052930,7236.1658036941
671394743,5980,-2,0,55136.4580295429,61335.0478220543,61372.1227942738,68587.7860288212,73653.9161103245,71391.3815568857,78577.8544867549,63791.3164443079,65313.0207766819,7331.4267021209
671394743,5980,-2,0,55606.5691639941,61742.0207776912,61477.0448439780,68121.7997435930,72569.6526464321,69899.5002494248,79057.8457910263,64120.8298419700,65793.7908135499,7616.8930372839
671394743,5980,-2,0,55907.8048342397,62085.9772314821,61883.4580855611,67769.6787652339,71834.5899136614,70140.2381310667,79186.5921911099,64469.2031697077,66010.3149785142,7719.1868644744
671394743,5980,-2,0,55615.3785764939,61887.0353884270,62056.1298711754,67924.4762042153,72443.2059410481,71816.4600453952,78757.2915118028,64344.3017618202,65634.0411219615,7480.0064480258
671394743,5980,-2,0,55138.4778672155,61417.4718003329,61735.0121843212,68364.5452952107,73461.8611836712,72476.6549396144,78379.6305378124,63920.1115151788,65206.8211188112,7231.9192775029
671394743,5980,-2,0,55133.6959623641,61325.1676522340,61391.4815999191,68567.8675091220,73501.5157076171,71406.8345318509,78545.9751210788,63789.4061159067,65294.8665730220,7309.2084877222
671431171,5981,-2,0,55557.3629980421,61684.6865902615,61449.5336814613,68162.3303417102,72560.2226813944,69943.0362686573,79005.8897255924,64080.0193868259,65742.7108222872,7597.7289147878
671431171,5981,-2,0,55893.4469519886,62050.7152460892,61815.3919895335,67707.1246358671,71727.1978215021,69838.7469391879,79203.6634697525,64434.2940475226,66002.7588387872,7744.9945494359
671431171,5981,-2,0,55683.6880264579,61933.3943133224,62048.2817067247,67785.7279573433,72140.1207808855,71436.4628736147,78830.2855250437,64383.2505593504,65690.0246950439,7532.3153766677
671431171,5981,-2,0,55170.8196053709,61446.5160926492,61789.0489259119,68207.4116584392,73233.4856820014,72430.2716793253,78369.9328834445,63953.0494704785,65194.2032172058,7234.9733694054
671431171,5981,-2,0,55064.1575750210,61264.9375529605,61395.7281261103,68472.3145859715,73470.2082236917,71495.5978801742,78447.1247520892,63735.7222375239,65183.1914515811,7241.3735779343
671431171,5981,-2,0,55485.8291084201,61612.4956450110,61403.9413214658,68078.4340721160,72559.2736010422,69916.4498510992,78929.4035833633,64001.7567608607,65652.5603565261,7519.3932826417
671431171,5981,-2,0,55892.5343747269,62036.4790408064,61788.7934042786,67605.0984980067,71660.3606628537,69695.7034953374,79201.4124458402,64404.1059917049,65997.9039277548,7717.6050638874
671431171,5981,-2,0,55739.2092270610,61974.6793086427,62067.9933755778,67715.5081789781,72003.3315332019,71266.5044843919,78874.6002768728,64410.1411693291,65742.4431329571,7559.8387068812
671437355,5982,-2,0,55223.0068570445,61494.8948552173,61834.9333106312,68179.7423158638,73130.9485008745,72437.0247510621,78394.4872956332,63993.2272053878,65225.0848317425,7264.6138788661
671437355,5982,-2,0,55026.2430317207,61236.4773100916,61410.8525732612,68573.7323389907,73576.6512354988,71853.1213159227,78369.0689769700,63713.7108739712,65109.6377242864,7216.5514764155
671437355,5982,-2,0,55342.2989566966,61474.1976029214,61321.5416785808,68381.7990893056,72921.9926433341,70432.8104011743,78767.4150355595,63879.8121033012,65470.1179103629,7425.2153092321
671437355,5982,-2,0,55744.7333614186,61876.2304736483,61619.1148720827,67938.0310184761,72048.0721544199,69983.4086867158,79070.6583757809,64247.3008827477,65836.8279572127,7616.3698263205
671437355,5982,-2,0,55654.2908709337,61880.8055276537,61933.2604686574,67859.9874110537,72280.0614620461,71519.1423735266,78786.2019594541,64311.1812910681,65661.0169058180,7484.9100298455
671437355,5982,-2,0,55104.8341855001,61389.0967313418,61763.6306072487,68049.2802705282,73544.5528512799,73074.0036797431,78228.1062092763,63887.6115969647,65097.4821951603,7157.3799667655
671437355,5982,-2,0,54804.5110925162,61032.8509037597,61292.3392062057,68446.8719319147,74274.6633314437,72765.2118697705,78104.8474404599,63514.2214845591,64874.3753062148,7035.6299923552
671437355,5982,-2,0,55062.5149359499,61210.6209543429,61114.0824477496,68643.6965957226,73807.9713197998,71435.9761657418,78465.4614712014,63611.4170467807,65178.2391989741,7226.2612984802
671477382,5983,-2,0,55457.1376793116,61603.4185431811,61371.5630802199,68618.1322646976,73038.8147005311,71004.8259965177,78772.3794558633,63962.4064293353,65537.0159074954,7433.7205293114
671477382,5983,-2,0,55404.1595273445,61630.2604823725,61669.7324908661,68470.5502699321,73272.5439888030,72460.2772196907,78530.7655000501,64037.8826527280,65377.1688743324,7311.7880394487
671477382,5983,-2,0,54885.0855808778,61159.7721493198,61520.5443601200,68205.8785286395,74547.1954048840,74133.4207067230,77977.6706732665,63638.7578615419,64812.8067602907,6950.9306547707
671477382,5983,-2,0,54527.5621451293,60752.3003181131,61057.5756637039,68233.4748650339,75474.9944553301,74189.4651182895,77783.1092010676,63236.9805124483,64521.2200736257,6778.6117323642
671477382,5983,-2,0,54708.9581693657,60854.8131638464,60833.3980174380,68651.4474185988,75247.2151708046,72970.0915488751,78098.2525487818,63271.2325790049,64789.9071548699,6957.6228880233
671477382,5983,-2,0,55144.0993431477,61272.4328542034,61053.9618577475,69057.0819275852,74426.1998276766,72166.4030060230,78492.4250873610,63634.6451800157,65241.2678685170,7225.8597644850
671477382,5983,-2,0,55221.9726028146,61427.7900072387,61415.9386705332,68930.3310297806,74368.0260691661,73283.1177173422,78384.4246103606,63823.7068532506,65236.0600942768,7191.3400085984
671477382,5983,-2,0,54745.9966384947,61030.4295320919,61367.4747340874,68346.1112345239,75469.6285010312,74960.1305319641,77859.7048525680,63502.7230110614,64716.1222413356,6873.3129167371
671504959,5984,-2,0,54391.4907915583,60634.1763173560,60939.0014581643,68127.4942257061,76354.6459294479,74999.9067328783,77679.7567842535,63119.3310518673,64424.6085608516,6712.8209956425
671504959,5984,-2,0,54608.0027888257,60755.2570684411,60714.1667562700,68539.8453033388,76045.2822377246,73662.3483242228,78051.5285929817,63177.3222949254,64712.0947336872,6900.3495390777
671504959,5984,-2,0,55072.7844720685,61188.7069323647,60928.7319220458,69024.5576739775,75107.4570050963,72686.3286912673,78478.6634222543,63556.8935973171,65179.6506518056,7176.0452136919
671504959,5984,-2,0,55212.7251532291,61400.8385587759,61306.6605853663,69004.1767817991,74815.4201136489,73467.1176286987,78441.4302699761,63797.4611312035,65243.5310601260,7187.7383703388
671504959,5984,-2,0,54820.1709183274,61089.3455201086,61352.8856655967,68476.5489444658,75693.0030793068,75076.7335706184,77960.4655499588,63558.7430872342,64799.2762814236,6912.5172359006
671504959,5984,-2,0,54420.4742453905,60671.2756249691,60998.4041540539,68148.3618257575,76621.6295331369,75409.6295879973,77686.0474835110,63165.5439644008,64463.6546999564,6732.2041366815
671504959,5984,-2,0,54540.1678790378,60705.9657286113,60738.3926406445,68432.5748881477,76482.5284230570,74196.0113391802,77965.0284362674,63142.9728867943,64673.4866316680,6882.9497326209
671504959,5984,-2,0,55021.1447667519,61135.4732587644,60898.8480586486,68972.4677638785,75525.7945895659,72978.4629242893,78444.5086972723,63503.5382467485,65161.4721127521,7169.3286450457
671546004,5985,-2,0,55260.2400093227,61426.5732375564,61304.5677415128,69083.4736619942,75058.8592239855,73567.1725996737,78507.4278575437,63813.9118573081,65320.7959349517,7222.7326664015
671546004,5985,-2,0,54899.8936679113,61153.3232700036,61408.5163754712,68567.9283476061,75871.1016577042,75264.7974927138,78024.8448338490,63622.5504893737,64895.6201048677,6942.3037577232
671546004,5985,-2,0,54452.7551450618,60699.7967063221,61045.7973331793,68171.2492634814,76861.2479866711,75713.0432759741,77694.6135420744,63199.1633107226,64511.2060591405,6712.2369461950
671546004,5985,-2,0,54529.5941504987,60691.9485418713,60749.5504186311,68408.2881652891,76795.9682932160,74574.6943997038,77932.6136919311,63136.6213490527,64664.8597346206,6838.2821175839
671546004,5985,-2,0,54988.8151962933,61096.8651567452,60880.6695195951,68933.3364508959,75894.3662940296,73338.9552780626,78407.4945635369,63476.1609288969,65129.1912130809,7145.6259716346
671546004,5985,-2,0,55294.6989267253,61438.3272326874,61279.3197706052,69133.8965976285,75297.3825848056,73595.5963394521,78558.6416934715,63822.1980588445,65359.6838939978,7273.8369930579
671546004,5985,-2,0,55046.7577685642,61267.1642414791,61461.3971858637,68721.9957247782,75898.6371556145,75183.9674827190,78162.4979880070,63721.7415538743,65016.3966635322,7055.8405367781
671546004,5985,-2,0,54574.8579826800,60802.7719245347,61153.6639655147,68264.7945166562,76923.7777806442,75911.7661004864,77772.6693171935,63298.6707353406,64566.9706136800,6792.9574469184
671553475,5986,-2,0,54538.3062214239,60689.5758409908,60789.8376628119,68395.7554375615,77030.1477862703,74905.9234426179,77918.6938467657,63139.8457887108,64626.0204463617,6838.2577821902
671553475,5986,-2,0,54974.2261278026,61059.2669735623,60841.2218464952,68918.5770346497,76121.4763552298,73473.1284709292,78397.4683813548,63436.2387156208,65099.2586788964,7128.2505005714
671553475,5986,-2,0,55334.2317737030,61449.2173213439,61247.7932681369,69180.1581809493,75375.8763970104,73532.6528437871,78609.0402937121,63824.3395734854,65399.7886227263,7292.7455939208
671553475,5986,-2,0,55108.6670099993,61313.7665203109,61475.2683602418,68775.5822615865,75879.2905176660,75129.4805363458,78222.4969010409,63763.9391264563,65085.8985477848,7088.0605979652
671553475,5986,-2,0,54613.5877616675,60839.7373874828,61197.4311709868,68280.1744854404,76929.9346352366,75981.3409909200,77793.9749543305,63342.4014377223,64618.2574557887,6811.7200354194
671553475,5986,-2,0,54542.2728905882,60699.2248245714,60843.3876965296,68368.9378337637,77148.1014392719,75159.5104121049,77901.5738973358,63169.5106335651,64646.5108478116,6842.9058423766
671553475,5986,-2,0,54949.0754984696,61042.2443657070,60869.7307601513,68885.6147439563,76370.8654693129,73787.5295891372,78373.8630495183,63436.0683678653,65095.5962021527,7119.5140942525
671553475,5986,-2,0,55342.1772797284,61454.1939093445,61232.4376347464,69220.2994127682,75558.0146507530,73532.6893468775,78654.3406289839,63822.2223942382,65433.9920184956,7310.7051144314
671594929,5987,-2,0,55209.9022475662,61410.5848839311,61516.0179769019,68914.7563778473,75857.7536942894,74994.4069339144,78352.9711140733,63844.5379502115,65207.5025098333,7157.0027681640
671594929,5987,-2,0,54705.0280032919,60939.5855076118,61300.9296001627,68372.9045029280,76935.2762541418,76127.5480359445,77871.5683569704,63433.0386113564,64696.0820446682,6860.3299842270
671594929,5987,-2,0,54527.8420021562,60698.5069304589,60886.7290326130,68340.7574479218,77326.4677069994,75446.1205107693,77873.8072131858,63164.6678902296,64616.2741212066,6836.4691307573
671594929,5987,-2,0,54901.6214808601,60996.1774655353,60839.5183689399,68838.2702356183,76574.6135526130,73939.0539176733,78335.7903261593,63385.1952274486,65042.6910563666,7110.8993649019
671594929,5987,-2,0,55357.2043853047,61459.0974911642,61216.3397718496,69244.1237631475,75660.1746332785,73516.8835087045,78681.1095619944,63819.2534762134,65448.4959131085,7354.5696614781
671594929,5987,-2,0,55294.3825666079,61482.5568106388,61544.2105304406,69005.0893590608,75830.2546994695,74861.5600200015,78440.9800651936,63898.2218285943,65277.6614497144,7233.0508733074
671594929,5987,-2,0,54809.5850220914,61041.5143038976,61372.4999928753,68474.4804360059,76844.6755835982,76036.1929681978,77972.8887684151,63523.8704681396,64787.0112430261,6924.4415787871
671594929,5987,-2,0,54598.7553392403,60777.4509474461,60980.2012796068,68404.8933778755,77318.4248593995,75573.2121040849,77937.7606276872,63249.6470848410,64661.3554379356,6867.1803975384
671659785,5988,-2,0,54920.3353985738,61024.3943544677,60899.1522510692,68857.8723952000,76712.9359300962,74151.5627426860,78359.1279686657,63424.0345157074,65031.1682474752,7122.4100060964
671659785,5988,-2,0,55380.5663632048,61476.5824714987,61202.4685974715,69295.9581516132,75742.3674253174,73423.0218954123,78742.7389464026,63832.9664705328,65461.8803796137,7377.4084284148
671659785,5988,-2,0,55401.9815096132,61577.8177090656,61555.9280224811,69140.8930233017,75689.2554286853,74575.3149522418,78575.7129721141,63981.2663594109,65393.0842217768,7296.4202383613
671659785,5988,-2,0,54925.2146449998,61156.3165234221,61465.7775567199,68573.4038111765,76693.5649567541,75991.3915084958,78066.0568229883,63638.1859797912,64887.3704064217,6987.6892668728
671659785,5988,-2,0,54632.2408408970,60813.3943238611,61051.8203431066,68403.5549312250,77321.6858021480,75694.1346751113,77943.0170727147,63292.3070299022,64682.4420565297,6880.6987087086
671659785,5988,-2,0,54913.0347804801,61008.1626469059,60906.3798629820,68840.3387440782,76772.6184830128,74221.1376331196,78348.1648738282,63415.7848172615,65049.5171342842,7108.9890365007
671659785,5988,-2,0,55389.1324217681,61467.4810342752,61193.2454832797,69314.6964047206,75772.0444378686,73393.0893612279,78759.8102250452,63822.5630897492,65499.7219167331,7381.5332776378
671659785,5988,-2,0,55458.3057782066,61613.4933961505,61562.0483739831,69210.5165845225,75612.0513923437,74377.0545002088,78637.5857104587,64002.4381518828,65461.9777211883,7352.2577990818
671667321,5989,-2,0,55005.9594811169,61233.7760813969,61517.8431314253,68651.1067230878,76524.8841756977,75813.2685947047,78139.0751716228,63698.5012529425,64966.7646281914,7066.0492344125
671667321,5989,-2,0,54655.0431047432,60846.4904592195,61119.4849051390,68399.2719019433,77253.2303398221,75801.3685872119,77938.6001987680,63329.1386481853,64684.5105649896,6911.8845156658
671667321,5989,-2,0,54840.5274751121,60942.5544256366,60908.8255700434,68745.6862304925,76900.1116103235,74468.1175432317,78265.6313862782,63364.8143352702,64955.4608378429,7067.9108920264
671667321,5989,-2,0,55303.2284821982,61367.9736096571,61113.6200752704,69237.3950268044,75896.8606718783,73393.3205474675,78700.3345229746,63736.8051625411,65420.2668564793,7336.8048241166
671667321,5989,-2,0,55461.2503608377,61591.7132188374,61514.8377103101,69242.2499378368,75553.4882675349,74190.1830124020,78672.9085343357,63992.0712741896,65495.8039183561,7364.6688498412
671667321,5989,-2,0,55045.5166634882,61255.5440910132,61555.1127867940,68684.5435539572,76444.2245134584,75815.2519292869,78162.9846958799,63733.7145675481,65033.0177373923,7081.6117186491
671667321,5989,-2,0,54634.5040325061,60820.9261281945,61148.3345143062,68349.3478418788,77315.0909104700,75982.8254499324,77889.9172437794,63318.7474350985,64670.9679184257,6888.1818422548
671667321,5989,-2,0,54772.8142422925,60869.1223753102,60869.9862817846,68646.9940415616,77060.0194819707,74690.6160473360,78180.6278562731,63305.7401671948,64863.3027021059,7018.0963412333
671704085,5990,-2,0,55243.3999169198,61292.4243800835,61048.3525495121,69155.8471226971,76103.1153007240,73596.2898981710,78633.5825382040,63668.3375325184,65319.2141343647,7294.4734068696
671704085,5990,-2,0,55461.9925903439,61565.6986830300,61450.7991219309,69240.3396094356,75669.6654368004,74158.4983298751,78680.1483139454,63960.3987593595,65470.2030842406,7363.3790739779
671704085,5990,-2,0,55132.2845095326,61322.0770572410,61565.3823229126,68772.1388033856,76414.4501593326,75723.1424643372,78243.2063210335,63789.2479358480,65099.4533620456,7126.5470230162
671704085,5990,-2,0,54713.8739188821,60898.6047047122,61236.1244468837,68404.7473655137,77348.1627104347,76174.1381470795,77930.3018295347,63396.0974838019,64734.2521096018,6920.1098787182
671704085,5990,-2,0,54774.5298875445,60879.5500914874,60933.6476715622,68627.4405527671,77277.1641994729,75023.1592015070,78157.9472693952,63329.6496914519,64872.5988224787,7027.3802939092
671704085,5990,-2,0,55236.4886651243,61289.6379775110,61044.4467188319,69157.6966126141,76310.1121590759,73678.3245101513,78643.1341802100,63671.1361027877,65339.2178279417,7315.4018454051
671704085,5990,-2,0,55534.7432496483,61637.0865602902,61456.4084301663,69338.7519413395,75680.3730100046,73992.2754235769,78779.9599309840,64028.1971660570,65560.1345314590,7428.3059042252
671704085,5990,-2,0,55244.0083017609,61442.4034111231,61635.4682566127,68886.3934765530,76325.4434570728,75625.2411756998,78358.7264346705,63908.5035324097,65201.7350215392,7194.7469637088
671738533,5991,-2,0,54788.3280557417,60994.3279756182,61316.6259290643,68464.5150923080,77313.6307868512,76202.3550360119,78001.3611789807,63494.5219834027,64786.7800567864,6955.2988579301
671738533,5991,-2,0,54802.1505593326,60926.1888734098,60978.8141621690,68643.7087634194,77309.6154468997,75126.1222520227,78185.6896181515,63376.8116843376,64885.4235749300,7036.3722218614
671738533,5991,-2,0,55243.0348860151,61304.2148783049,61066.1173868736,69169.2802599896,76401.0048543433,73786.4831672104,78661.8724333173,63685.5183204324,65348.5382837080,7326.7664742377
671738533,5991,-2,0,55573.4730286357,61659.1587623270,61445.1898136955,69416.8685549428,75673.1940688790,73805.6716251002,78850.2162124396,64035.9236535395,65617.5782281601,7467.0965216967
671738533,5991,-2,0,55355.3548953876,61524.1825014701,61659.0005822683,69022.4648301240,76116.1712394150,75310.8643928854,78475.3173056280,63973.8562320457,65320.9419473136,7261.2920976335
671738533,5991,-2,0,54866.5785140101,61057.2836389801,61395.3265921151,68518.8560263192,77132.6849673973,76176.5108479600,78041.9526155821,63560.0450307943,64853.2886876206,6994.9168787856
671738533,5991,-2,0,54783.1446168952,60901.7683058861,61025.0149070057,68592.4827597948,77334.2672006629,75294.6448530205,78134.8164777348,63366.9923530015,64846.3409327347,7030.8359198069
671738533,5991,-2,0,55189.8742185956,61236.3069623361,61026.9495708005,69104.6576221629,76472.1250422734,73809.2854310566,78604.4044012226,63622.3558062245,65278.0143129223,7300.6910999461
671812480,5992,-2,0,55569.6158687428,61633.2050650036,61398.2225039590,69409.8964646633,75638.9420023224,73661.8494486531,78857.4803274429,64006.0762932328,65607.6372198558,7460.9396671043
671812480,5992,-2,0,55387.5384534843,61538.1145143323,61651.1402501206,69045.1697523956,76007.4650359989,75185.8169726361,78503.8018838905,63979.5872172493,65347.5892033558,7260.2091726162
671812480,5992,-2,0,54879.0504032536,61060.2768923986,61404.8904018179,68516.5928347102,77062.6112013939,76178.4698471485,78044.1914717975,63561.4929867162,64861.6722307317,6971.5183977951
671812480,5992,-2,0,54744.9380488711,60861.9069310942,61025.5259502723,68539.3707631627,77378.6062878857,75471.7335125816,78089.6499871280,63341.5131958542,64819.7545151766,6984.1849701878
671812480,5992,-2,0,55107.2190540774,61155.0632506493,61000.6551779662,69017.7315960598,76658.1326236057,74073.7868245938,78527.1881971842,63563.8291845062,65217.6990397709,7258.2258380341
671812480,5992,-2,0,55520.5070443654,61568.1200546977,61329.8278801172,69374.2937837593,75778.5906587593,73638.0372659705,78830.9182452784,63947.7565223605,65568.6884223255,7466.7071553984
671812480,5992,-2,0,55448.4621114768,61574.7149463758,61633.8012821480,69116.4481203844,75941.8324793359,74982.1053924264,78572.8170602702,64012.6225141236,65388.6065093460,7338.2527800386
671812480,5992,-2,0,54955.5730485731,61129.7787766512,61475.0493416990,68563.0369334833,76997.3315079389,76239.2109896886,78082.5683875770,63638.8065323292,64891.6169326129,7031.6146524036
671824874,5993,-2,0,54732.4539919308,60852.3066183009,61063.1849719393,68483.1803392344,77495.8907175621,75720.4047325520,78040.4681565697,63346.5871254294,64769.9642997771,6955.6273857443
671824874,5993,-2,0,55062.6852837054,61104.0319301739,60959.3458472523,68951.5758284335,76821.0945871554,74200.6228962761,78475.1712932661,63523.4080956604,65169.4419541712,7199.3828561983
671824874,5993,-2,0,55521.7846525318,61560.1745486723,61289.9421699316,69375.4983857448,75847.0947918725,73594.5985883127,78841.9178432064,63941.3684815284,65600.4704464270,7451.9234037585
671824874,5993,-2,0,55519.5336286196,61640.5665215815,61650.7995546096,69193.0437718848,75883.1720129525,74819.3624474195,78650.4469660006,64068.0950439394,65501.3767235010,7362.1744719925
671824874,5993,-2,0,55063.3423393339,61235.3822173775,61545.8775049054,68658.9792229322,76868.4147600998,76097.4329863077,78177.2817396468,63727.7767314985,65011.4200755316,7075.2601809075
671824874,5993,-2,0,54817.1046587280,60937.2493098218,61156.1948464538,68536.7425406489,77426.7660319109,75762.3589511975,78091.8036694657,63423.5234724409,64824.7067677836,7003.8358005568
671824874,5993,-2,0,55107.3042279552,61131.9689620794,61022.2528398269,68968.3915854428,76881.7992266050,74337.9596903167,78487.4363316636,63551.9170093165,65154.9745626487,7228.2689684560
671824874,5993,-2,0,55579.7393924995,61577.7568705815,61286.0120038578,69428.8415686166,75862.6207730186,73439.6673046661,78893.1560145278,63949.2896521602,65600.7989742413,7483.6202539822
671829866,5994,-2,0,55649.7644877155,61730.5953103745,61666.1430203033,69322.8974323792,75664.5063333474,74433.1475825625,78775.3362061912,64141.8556220801,65605.5078729118,7439.9625577815
671829866,5994,-2,0,55180.8944583403,61350.2574430829,61643.3894272444,68750.1396075297,76609.3158239521,75935.0064014183,78263.6723870897,63838.8556357952,65146.5180133567,7141.4524516243
671829866,5994,-2,0,54836.2931166178,60976.0642626870,61234.9320125951,68525.7429427210,77322.6592178938,75799.2879110552,78088.7617452599,63473.2771847499,64877.7700936284,7011.2459279220
671829866,5994,-2,0,55064.2914196861,61109.7385799838,61016.0838175377,68916.6788739453,76856.4539141228,74333.0682761938,78454.6200533321,63537.3522762195,65136.0781294826,7205.8074001208
671829866,5994,-2,0,55549.0889642025,61558.4224003298,61252.6968499566,69405.5769322911,75826.2758626084,73364.4466029067,78879.2970078465,63929.9065111212,65569.1507948048,7475.3948909299
671829866,5994,-2,0,55681.3639963647,61757.1817279326,61643.6206134841,69368.9278294604,75548.1101455392,74214.4940706543,78814.8812208658,64153.8043003602,65600.8963158158,7465.2835348701
671829866,5994,-2,0,55262.5397040222,61415.0747640588,61652.8072245854,68824.1313719100,76411.3352289460,75715.0509459499,78321.3229346368,63880.2988111741,65144.1818155667,7162.7337533676
671829866,5994,-2,0,54876.8480501286,61004.4028285876,61262.2849950531,68523.5284218992,77218.1630375784,75858.7271100352,78075.9248251117,63488.3407934167,64826.7631085466,6979.5369100014
671871003,5995,-2,0,55016.6427189274,61052.3070509796,61007.1892311601,68823.5716578562,76951.8851603052,74572.6380589407,78364.5547614487,63481.4052062276,65045.9885022056,7127.5447741557
671871003,5995,-2,0,55485.4397421217,61471.3990326522,61175.7361675515,69334.5662536324,75938.1943379859,73361.3073371264,78821.1110816392,63837.3711767828,65518.1681451167,7402.3522069018
671871003,5995,-2,0,55723.3790534943,61758.4350007054,61586.7853016241,69442.4815567551,75451.6933159142,73938.0805019275,78881.0248207953,64138.2539838205,65664.9349041950,7454.0405830057
671871003,5995,-2,0,55364.0913017065,61480.8046622963,61670.6815712183,68930.2580235997,76228.9292858732,75559.3774327972,78405.1705334437,63927.6433195122,65215.2411650127,7178.4057468756
671871003,5995,-2,0,54927.3683273375,61037.1582684350,61283.3472782536,68542.1815011288,77126.5524481985,75852.5824231396,78087.6788202427,63501.5427444696,64827.9677105321,6961.3583709479
671871003,5995,-2,0,55030.9762657848,61064.0610461105,60998.2459739952,68805.6851435264,76914.3478156064,74554.2648367381,78349.8561836866,63469.0428262555,65027.3232552792,7097.0890290078
671871003,5995,-2,0,55511.2595947800,61500.1999710321,61167.7419907388,69338.2287303761,75898.7344971891,73293.4480919448,78830.3706989214,63838.1255739858,65515.7954442362,7399.1155995469
671871003,5995,-2,0,55796.8111038208,61828.6791144642,61584.6559546801,69497.3091986393,75307.3965992909,73640.8236685430,78944.1386642159,64172.1410194724,65705.7818624296,7501.7866253389
671880048,5996,-2,0,55513.6687987509,61622.5218271931,61732.1162724773,69056.4735427441,75928.5940251926,75186.1333327535,78527.9669297808,64032.1394998276,65323.7526852797,7259.1870860831
671880048,5996,-2,0,55061.1034831184,61168.7275741815,61403.5762905611,68635.9822759369,76879.5847057832,75761.4342062390,78167.3042282520,63616.0772746639,64890.0959705100,7018.8872415268
671880048,5996,-2,0,55058.7916207221,61082.5681129782,61052.5260695224,68795.2209242587,76868.8162940949,74656.3883161730,78336.3500402131,63485.8342478711,64969.0764905878,7083.9479164391
671880048,5996,-2,0,55510.1523343691,61467.3836927006,61124.8508594379,69326.4138967610,75891.4947175794,73198.9294230242,78820.3201813457,63799.4931365729,65451.4526634365,7367.9297925897
671880048,5996,-2,0,55859.3652331875,61847.1131751510,61529.5241203753,69565.3387915763,75125.4165256070,73293.3142472798,79010.0632456026,64173.3091183674,65742.2362821111,7500.0588123900
671880048,5996,-2,0,55613.0058756134,61695.4793373435,61742.4101439895,69143.3508980599,75650.0511095218,74912.0802972103,78609.1254675899,64092.9049777614,65412.8445614173,7275.1389366180
671880048,5996,-2,0,55125.1664068912,61230.4299647706,61449.2051536471,68679.7494814090,76671.3102392649,75650.1606187932,78205.7054794252,63670.8075749735,64948.7929399839,7014.7380569102
671880048,5996,-2,0,55086.2662801483,61118.3168062440,61089.5645386514,68812.5963953219,76763.5535488797,74642.7239926409,78346.3032162143,63517.9326320901,64986.3059492891,7071.0136547163
671914832,5997,-2,0,55501.4524311407,61465.9965752628,61129.4259134434,69314.2948707254,75873.5960355529,73238.1459098846,78804.0398029966,63798.9820933064,65424.1240163722,7346.1009444894
671914832,5997,-2,0,55865.0232122102,61842.9883259280,61494.8583521268,69586.0725469626,75066.7073884363,73097.0614652225,79027.4265489690,64163.9034887232,65731.6017150879,7506.6415363713
671914832,5997,-2,0,55698.0215733153,61759.5787642067,61744.9775280192,69241.0818389418,75417.4899201449,74572.5893881534,78696.6963816246,64143.9119628431,65475.2648461190,7325.9147354601
671914832,5997,-2,0,55200.2045931983,61294.8092486608,61509.7151099476,68728.6392872436,76467.8541806885,75599.6525092811,78246.7957915963,63733.8484122132,64977.6425491511,7044.0378708598
671914832,5997,-2,0,55047.9136997624,61078.7474561758,61104.6646504087,68737.0106626577,76776.1957858787,74824.3025323296,78281.0356904560,63486.3087880472,64906.8752244289,7034.7660858807
671914832,5997,-2,0,55419.4543222509,61376.5153328268,61057.3566451611,69231.7613831754,75955.6184798363,73276.4133163927,78738.0787185194,63708.8072921515,65326.1375538570,7289.6184958373
671914832,5997,-2,0,55831.3065243138,61790.9227512226,61403.8439798912,69574.8417627951,75028.9145221042,72921.1895753437,79027.6090644213,64101.1181731168,65681.2031148473,7474.9933569348
671914832,5997,-2,0,55705.8088992820,61752.0834629638,61695.5036727371,69261.4870665138,75279.7515921092,74398.7373359472,78719.4621423803,64126.8406842005,65463.6933664404,7311.2039900012
671953427,5998,-2,0,55187.7327039548,61274.3553503014,61488.6406590503,68703.7685149375,76352.7477687435,75551.0668958671,78227.0719550463,63719.4540268716,64965.8642186265,7006.8898924594
671953427,5998,-2,0,54987.7444389729,61015.1225694886,61077.3968418285,68666.6448719307,76769.7834096530,74947.3787856937,78216.6320711722,63452.7502802096,64872.2216238771,6977.2737183923
671953427,5998,-2,0,55313.9968938865,61269.0624021834,60998.5501664158,69123.9799247178,76089.9133496711,73506.0542585321,78638.3401076617,63640.0598051019,65252.9001866797,7241.0815532105
671953427,5998,-2,0,55749.5517693605,61699.0444725126,61305.8940204665,69517.7387616050,75148.8515096880,72907.6834318703,78979.4249850024,64034.3418529525,65643.0452176105,7480.2498019623
671953427,5998,-2,0,55726.9563563603,61761.0753909159,61637.5124296790,69306.8847433602,75192.7038890378,74156.2716413565,78764.7381422585,64141.0890571802,65518.4723375372,7384.9402327482
671953427,5998,-2,0,55226.1096197344,61318.1103880767,61512.2094877963,68723.9182208763,76240.6711133074,75547.7329469377,78245.6641957918,63771.1789060660,65004.8008484599,7076.3796090152
671953427,5998,-2,0,54941.6167003172,60988.5726550210,61092.5334566762,68582.7729377301,76849.2506376036,75181.7164588067,78147.8237456385,63442.7119303306,64827.9190397448,6986.4724971905
671953427,5998,-2,0,55233.0938777107,61197.6136864391,60951.6071920729,69033.8416266534,76245.1244903446,73647.6132433702,78571.0162411404,63586.7652930174,65207.4538390460,7221.8809276239
671965063,5999,-2,0,55708.8143203973,61658.7450606350,61256.1524758543,69497.5890556662,75226.4084092374,72882.6788148991,78974.7160863320,64007.9987893309,65661.7104645369,7488.3899911368
671965063,5999,-2,0,55740.1339720195,61766.8672146036,61618.3604748796,69352.3554263876,75152.1976263143,74017.6572391495,78815.1610778927,64156.8340568691,65575.8795311479,7432.6862750814
671965063,5999,-2,0,55262.4545301445,61344.6116317571,61520.2888384867,68780.0843094110,76135.4570388794,75422.3935019645,78297.1578887465,63804.4697245735,65045.2341050026,7121.7042796807
671965063,5999,-2,0,54939.4143471922,60974.0930958017,61095.7700640311,68575.2654687904,76796.0169640033,75236.7144484464,78136.3861106249,63439.8281861836,64786.9990753293,6989.4657506089
671965063,5999,-2,0,55159.8808459271,61112.2816286198,60909.6286380337,68952.4275672111,76334.1555279980,73831.6374901204,78494.1772357035,63519.6239419484,65096.0950777225,7183.0294716683
671965063,5999,-2,0,55629.2984216594,61556.1470410239,61150.2083396169,69437.8334965687,75300.4488444050,72812.9822474973,78925.6437650451,63912.0808352756,65573.1783024532,7455.3303588689
671965063,5999,-2,0,55766.3066878857,61763.4237564028,61553.1051168182,69418.4746909234,74995.0518218460,73672.0703139843,78877.8612196214,64150.8110469417,65622.2749591338,7468.8851731297
671965063,5999,-2,0,55340.8631684715,61414.3203668557,61575.5666851534,68868.3731175582,75907.2397172683,75271.9399307488,78376.6007813034,63879.9216125726,65145.1065605253,7185.0493093409
672021032,6000,-2,0,54939.9862289429,60986.5163142579,61160.5995527037,68562.8422503342,76733.1343068223,75326.1105170046,78130.8498085705,63468.3492675366,64812.6850833225,7005.3932657502
672021032,6000,-2,0,55109.4822456865,61062.4305747362,60896.7795501887,68906.4580086140,76362.6157708669,73884.1045988209,78457.9053314743,63484.6904843698,65055.5644796052,7161.3101328393
672021032,6000,-2,0,55598.3316332450,61508.9485450478,61104.4091287754,69430.6667231400,75307.8833071638,72768.4728125190,78921.7379343649,63875.7480925623,65538.9627389871,7436.1905717664
672021032,6000,-2,0,55775.3837897156,61749.1267126358,61505.6267638151,69447.8231756604,74902.4069782361,73459.2207934606,78907.6355737471,64140.2859891899,65637.4359093751,7465.6242303811
672021032,6000,-2,0,55382.7930517234,61442.5250880913,61565.8446953918,68907.9911384137,75703.0535968825,75020.3606312377,78415.2088833226,63903.9528137979,65206.8454542049,7190.0989035224
672021032,6000,-2,0,54961.4013753513,61014.4046753761,61206.2284157898,68571.0919487801,76576.5117133174,75311.7404670567,78127.4063503696,63507.2980650668,64862.4387956315,6994.6978602428
672021032,6000,-2,0,55061.8943834119,61030.7823952998,60926.2375441971,68847.0066419371,76390.2364426550,74058.4190235064,78393.6112214619,63472.8391476642,65036.6072079551,7132.4118528848
672021032,6000,-2,0,55541.5206567787,61453.9870584985,61066.4094115973,69371.7629028202,75365.4121777427,72721.8948690808,78879.5038586924,63828.2940749528,65502.9706917848,7432.0413871498
672031171,6001,-2,0,55822.2902609680,61779.0835822139,61476.8379931320,69512.7986766949,74754.1679278422,73110.3485901532,78988.7697761625,64160.6060428842,65690.6452475819,7525.9881743197
672031171,6001,-2,0,55493.2392357852,61534.4277021950,61608.8453359641,69014.7991811255,75439.6837991499,74769.5600643232,78524.1219375848,63988.2871204777,65275.0697302911,7254.9040568014
672031171,6001,-2,0,55010.5710382128,61048.5959034486,61238.6796632166,68583.6490119014,76405.3487221091,75232.4192514679,78154.3334634388,63541.5866347139,64847.9957395027,6998.8713802531
672031171,6001,-2,0,55049.0209601733,61004.5731763432,60907.0004155200,68804.7725662647,76280.9705251850,73971.3956558287,78379.5696993282,63451.8498706447,64991.3312080769,7101.1652074435
672031171,6001,-2,0,55523.7801548108,61429.7855095177,61045.1889483381,69335.2598123513,75249.1498345995,72576.9410968291,78879.7228772353,63808.5093999187,65502.5204870024,7414.1427051232
672031171,6001,-2,0,55852.2471305461,61800.8394241333,61466.1912584119,69539.9204729132,74519.6234038832,72710.9561096370,79046.2864790445,64174.7449065925,65774.4441756015,7557.7093599371
672031171,6001,-2,0,55605.9851145466,61641.7467881733,61658.0515019161,69133.0326911540,75009.6165549430,74215.2363001605,78647.8917496678,64078.6079339944,65439.1876250390,7343.5943989438
672031171,6001,-2,0,55132.2601741390,61177.2692973512,61355.1123541153,68693.7423327554,75958.2223669564,74901.0685315856,78253.3420124870,63660.6962189136,64971.0598251699,7089.3990446157
672066138,6002,-2,0,55100.1131191328,61064.0610461105,61002.4925001864,68833.6221754319,76011.0545065616,73848.4289117360,78407.1417003290,63513.3940811751,65010.4101566953,7143.2289353604
672066138,6002,-2,0,55538.2110432428,61439.8238593966,61048.7297481136,69220.8712945189,75014.3741244008,72262.5278109242,78901.9897624212,63810.4318960168,65480.8133158702,7434.1342310033
672066138,6002,-2,0,55928.1735587213,61862.1646161209,61456.4327655599,69405.5769322911,74102.6120983673,72106.9759747398,79150.3567899711,64218.9258137566,65820.9004420715,7612.5004987308
672066138,6002,-2,0,55744.2101504552,61774.5571989957,61736.6791587859,69108.3200989066,74468.9814497061,73668.9067128104,78796.2038062426,64199.3479895685,65557.3116257961,7426.5902589731
672066138,6002,-2,0,55243.7406124308,61301.1364510087,61480.5978114503,68729.8925600163,75484.8137866662,74533.8961122565,78353.1171264352,63779.0027351231,65083.5866853885,7154.5205580121
672066138,6002,-2,0,55151.0836011241,61138.8072076939,61095.1008407058,68851.7277083044,75628.8549816562,73550.0648179407,78449.3392729110,63586.4245975064,65085.9715539658,7185.7063649693
672066138,6002,-2,0,55572.2319235598,61487.5577340330,61113.4862306053,69135.5392366996,74696.9310819871,71978.3390839276,78937.4951017506,63864.6633207566,65547.5774683377,7482.0627887889
672066138,6002,-2,0,55991.5794268656,61917.8318290859,61486.0002688397,69239.1106720564,73705.6653249125,71528.5845062612,79236.0782140888,64269.4460909654,65918.9477430707,7690.8117954833
672102312,6003,-2,0,55895.8683236564,61907.9029884784,61787.1994359948,69065.5263091803,73814.2498513604,72813.0917567687,78962.8039111423,64315.2939725943,65735.6657258268,7551.3578221956
672102312,6003,-2,0,55424.5404195229,61476.4364591369,61618.7863442684,68808.5080491893,74733.4220047591,73836.4924011527,78507.6833791770,63947.2698144876,65267.0633857816,7267.3394429545
672102312,6003,-2,0,55269.5239619986,61257.3570778398,61238.6674955197,68865.2216840811,74990.9634757135,73014.9173439709,78537.5429071805,63716.3634318786,65204.7891134418,7245.4740917636
672102312,6003,-2,0,55656.9069257506,61573.7171952363,61199.9255488355,68802.2538530224,74048.3441705370,71233.2136658843,79026.3071208613,63958.3302508996,65664.6185440776,7529.9061726967
672102312,6003,-2,0,56136.8982300220,62060.0843726429,61578.2557461512,68544.6028727966,72866.5566166087,70514.2122929198,79405.1726968372,64412.2826839699,66111.3555329319,7794.7725971385
672102312,6003,-2,0,56108.3041424881,62121.3122230560,61953.2033237502,68501.5413937402,72828.9584334259,71786.5883496949,79185.1685705816,64529.9199768541,65975.3085147546,7710.1706011286
672102312,6003,-2,0,55617.4714203475,61677.0209412630,61816.5844238222,68625.7492429088,73779.8517724419,72991.5188629804,78694.6643762551,64152.7578784334,65453.5455072900,7406.0511867360
672102312,6003,-2,0,55375.4437628423,61378.3404873503,61402.4811978470,68845.7290337707,74192.4340363143,72414.1738164286,78621.6460276207,63846.9106510919,65288.5637060678,7319.6605392931
672139707,6004,-2,0,55676.0588805499,61604.4041266237,61300.6862462263,68670.1248332220,73471.0112916820,70856.5261076397,79017.5463791487,64006.3318148661,65658.1088262773,7551.9905424304
672139707,6004,-2,0,56123.3555834581,62046.9554277710,61601.1553515720,68198.0668672792,72391.4202233697,70022.8198567253,79384.5971215096,64405.4566060523,66096.8394706221,7800.6739300976
672139707,6004,-2,0,56161.9758531741,62159.1902632658,61967.2691812775,68099.7883800403,72244.5561227168,71125.7607352409,79226.4048951145,64561.9696902858,66042.2551826744,7738.9593718117
672139707,6004,-2,0,55696.8413067235,61744.5881617208,61898.4486880469,68348.9949786709,73242.5019453472,72644.0824478981,78711.5288040517,64227.0294998406,65522.8040376062,7428.5370904648
672139707,6004,-2,0,55356.9001928842,61353.2141934109,61457.3696782153,68715.2061499510,73942.5825497520,72426.0008177405,78536.7398391902,63839.7682130569,65232.0447543252,7287.6473289519
672139707,6004,-2,0,55572.6821283422,61480.7438238122,61233.8977583651,68587.6886872466,73397.8104275952,70846.1957330370,78884.6021236613,63897.1875743643,65512.6318430622,7468.1186082298
672139707,6004,-2,0,56031.3677954767,61922.0661875803,61482.7514937880,68066.8625924374,72303.9344832127,69878.8029971290,79282.5831513461,64288.9995797599,65974.8339745785,7729.9674438595
672139707,6004,-2,0,56124.0369744802,62096.4414507499,61876.2304736483,67938.6759064077,72080.0001908833,70894.3189739717,79181.1532306300,64495.5097302389,65978.8858176205,7716.4369649924
672178538,6005,4,0,55683.3716663405,61725.8985794008,61852.6251418117,68213.8848731490,73042.3068295193,72456.4687305851,78679.1992335932,64194.7242647757,65484.5244634012,7424.5825889973
672178538,6005,4,0,55325.9699075602,61334.9626481765,61448.7184457742,68653.9904672348,73831.9781856314,72464.9496152707,78476.6922553690,63820.6162582576,65187.8151763738,7272.9122480994
672178538,6005,4,0,55499.7124504950,61421.9738481574,61226.9135003888,68678.0338361569,73480.7697845340,71097.4221693403,78789.1952128726,63852.7876486574,65435.8658438063,7435.4118391698
672178538,6005,4,0,55947.6783767285,61833.7895471298,61415.2572795111,68204.1263802970,72452.7454153573,69952.9651092648,79209.5648027116,64207.6585264985,65893.9187907059,7690.4954353659
672178538,6005,4,0,56117.2595673498,62060.8752729364,61788.6717273104,67954.9441170600,72019.2712160400,70604.0463985636,79207.1190956502,64457.6681931195,65983.5338778069,7709.0755084145
672178538,6005,4,0,55734.5611668746,61753.5192511889,61841.4673638251,68139.5767486513,72826.0625215820,72207.0187780180,78736.3874086610,64228.0759217674,65542.1263401610,7433.9760509446
672178538,6005,4,0,55341.0091808334,61342.4822848131,61467.4932019720,68538.5190243851,73659.4645800758,72339.0017854564,78487.4119962700,63839.7195422696,65214.0000599368,7260.2821787971
672178538,6005,4,0,55497.0477248908,61412.9697525084,61209.1486630273,68478.3862666861,73289.1285595727,70827.5913245947,78808.1281491291,63851.3275250387,65454.5310907327,7429.2306491837
672213615,6006,4,0,55998.3446662992,61870.3778114764,61413.3956218972,67878.3728009532,72138.1982847874,69526.4508325302,79286.4768143294,64249.9291052614,65960.5004277211,7732.9728649748
672213615,6006,4,0,56234.8116863562,62160.2245174957,61842.3921087836,67585.2408167917,71577.3648028244,70070.4077189998,79333.1520993422,64556.9079284074,66111.3433652351,7794.4075662338
672213615,6006,4,0,55875.6456115366,61883.2512347151,61947.7400278767,67906.9790561839,72334.5849115097,71761.0726894572,78850.4108955888,64348.9741574002,65666.2368477550,7519.3567795512
672213615,6006,4,0,55402.5290559702,61408.3703631093,61582.3805953742,68467.2041533058,73338.6875887325,72287.6662725605,78486.6332636733,63909.2092588254,65230.3412767700,7280.6022324915
672213615,6006,4,0,55421.0969613220,61352.1677714841,61252.3439867487,68595.7558702402,73301.7707965717,71128.6688147816,78678.5300102679,63805.8081712240,65343.5251926170,7368.1244757389
672213615,6006,4,0,55855.1917131773,61734.8905073530,61338.3574355901,68046.5425387431,72313.9606653948,69696.6890787800,79136.4491125025,64115.6342354266,65791.7466404837,7652.8972521830
672213615,6006,4,0,56153.5314715790,62075.0628074319,61725.0346729264,67592.8821303965,71607.3338400993,69911.1934060716,79276.0004273648,64454.3829149773,66008.8183518050,7772.2623580161
672213615,6006,4,0,55857.5279109673,61870.4629853542,61906.6375480088,67763.8991092430,72251.2483559694,71685.5112921867,78832.9989214352,64324.5414221797,65620.5836492754,7526.4505467990
672219833,6007,4,0,55337.3223686960,61363.3985556517,61566.8181111377,68276.8648719045,73369.9950726580,72452.7940861446,78413.3715611024,63863.7629111917,65133.1213791547,7237.7719396747
672219833,6007,4,0,55293.7133432826,61242.0136121460,61178.0115268574,68504.5468148554,73447.6614814788,71330.1050356854,78561.0752328361,63703.6481886986,65191.8061809317,7278.7162394839
672219833,6007,4,0,55729.1222063948,61616.9611897450,61240.1519545321,68091.7698678340,72492.0349083986,69881.0053502539,79035.5424027499,64012.4643340649,65666.2976862392,7561.6881967982
672219833,6007,4,0,56077.3130186801,61997.0678707969,61630.8810349105,67700.0308686193,71722.5375936189,69899.5002494248,79240.4950880355,64383.4939132869,65955.4264981459,7719.1138582935
672219833,6007,4,0,55865.1935599657,61873.3102264107,61858.5873132550,67851.4456878840,72207.4689828004,71527.5015812440,78870.9864709164,64324.3589067274,65652.4021764674,7523.7979888916
672219833,6007,4,0,55347.7744202669,61382.5261750574,61585.4103518831,68295.6274604055,73328.3450464330,72545.3659235735,78413.2498841341,63886.0662994682,65151.5676075383,7237.0053747749
672219833,6007,4,0,55211.3137003977,61179.2647996301,61187.9525351617,68608.8118089312,73638.0007628801,71737.0901590191,78462.1031868783,63655.6101216416,65111.7305681399,7236.5916730829
672219833,6007,4,0,55587.2711968329,61487.3873862775,61160.9280805180,68295.7004665865,72815.6591407984,70199.6651623500,78913.8654345204,63887.1127213949,65538.9384035934,7499.4747629425
672257123,6008,4,0,55986.4689942000,61903.0237420524,61520.8363848438,67839.5578480880,71928.6948808900,69944.5815661538,79187.4439298875,64280.2023349569,65896.1941500118,7689.8262120406
672257123,6008,4,0,55843.8757551319,61849.7292299679,61813.9683690053,67855.8990649212,72292.5090158960,71588.3035622682,78861.9945429642,64288.9630766694,65661.7226322337,7518.8822393751
672257123,6008,4,0,55308.5944364971,61351.4620450684,61575.7005298184,68182.1515198348,73478.6404375900,72791.0195547319,78363.4840041283,63854.0409214302,65134.9343659813,7204.0065809910
672257123,6008,4,0,55115.0063800441,61092.4482827984,61136.8238731117,68547.2432630071,73902.2344670871,72097.9475436971,78356.2442245187,63576.4470861116,65024.5125173131,7164.8996034021
672257123,6008,4,0,55454.8136492184,61360.5148115047,61071.3981672948,68455.6691767177,73190.2781905831,70659.2999098366,78776.2122803625,63775.9364755237,65400.0076412691,7413.2666309520
672257123,6008,4,0,55866.8361990368,61776.6257074556,61397.0057342767,68161.7584599595,72321.4559666378,70246.8514906293,79079.7719807013,64156.9192307469,65754.4891528118,7620.0444707611
672257123,6008,4,0,55801.4104932199,61793.2832844063,61705.3595071637,68121.5928927470,72534.7556919439,71690.5730540650,78824.7857260797,64218.4634412773,65579.8948710995,7489.0105436748
672257123,6008,4,0,55284.9282661765,61327.1996576035,61534.1965159554,68226.7826317813,73712.8442660380,73151.6944239576,78299.3237387809,63812.6220814449,65039.4179459212,7157.4164698560
672291067,6009,4,0,54994.1446475018,60985.5428985121,61083.2860070908,68533.5789394750,74393.3957170420,72824.3103732395,78189.7536288903,63461.9003882204,64832.9442985327,7040.3267233288
672291067,6009,4,0,55261.1282511908,61170.1876978002,60917.9026718733,68655.2194046139,73854.7196109935,71356.5576085785,78579.7283120656,63575.7413596959,65166.8258993542,7242.0793043500
672291067,6009,4,0,55700.2360941371,61600.5104636404,61201.1179831241,68527.9331281491,72930.7412173498,70738.8401439682,78936.6190275793,63966.9693156439,65585.7597009681,7469.3110425185
672291067,6009,4,0,55689.9300549281,61679.9533561974,61555.3074699432,68401.1092241636,73046.2004925027,72150.6701740310,78725.2661337648,64091.7855496537,65481.2391852590,7376.8608820578
672291067,6009,4,0,55172.7542691658,61227.4975498363,61431.4889870729,68252.0914411730,74255.5600474317,73745.5997058854,78181.0172225715,63703.8063687573,64930.4197177813,7051.0464642298
672291067,6009,4,0,54833.5797202262,60848.0235890192,60972.0732581291,68415.5522802924,75051.5951089822,73602.6292682158,78018.1160975059,63323.0182966833,64669.4469563228,6916.7637620918
672291067,6009,4,0,55049.1304694447,60987.5749038815,60781.9286598770,68815.0542700801,74679.0445676574,72304.8713958681,78364.3479106027,63399.1394080077,64957.3833339409,7104.9615288523
672291067,6009,4,0,55476.2652987172,61397.2612559100,61011.0463910530,69050.6330482691,73807.4602765332,71513.0828605088,78744.8317902561,63758.0742965876,65372.1436155445,7344.9815163816
672329937,6010,4,0,55549.7338521341,61542.3732082204,61365.7104180481,68922.6410453885,73718.6360897257,72591.9073639213,78638.5226231141,63940.0300348779,65357.4693731761,7303.5748440932
672329937,6010,4,0,55091.2672035425,61155.7203062777,61335.3276790812,68453.5398297737,74802.4736842293,74302.7950464983,78110.0917177905,63624.8623517701,64849.4315277278,6993.7609475874
672329937,6010,4,0,54700.6963032229,60737.3948895050,60906.8422354613,68280.2353239245,75737.4030050137,74426.1268214957,77877.5061930200,63216.4414402112,64526.5373571374,6823.7295521836
672329937,6010,4,0,54882.3843521831,60831.4511859463,60652.6955519205,68659.3564215337,75457.6433196606,73060.1325053649,78213.9795132648,63243.5510687327,64787.8386464100,6996.8758779741
672329937,6010,4,0,55364.7848604254,61280.4635341065,60863.2453777447,69110.7901413617,74502.9536592357,72077.7248315774,78661.7142532586,63633.4040749398,65269.5820990240,7271.7441492044
672329937,6010,4,0,55519.2294361990,61500.8935297510,61262.2119888721,69094.8626262205,74272.7164999520,73021.6825834044,78625.7343737532,63883.0608783529,65341.6878703967,7278.3877116697
672329937,6010,4,0,55113.2420640047,61171.6234860253,61295.5758135606,68585.6931849676,75277.5979097715,74736.1354011506,78134.1472544095,63626.6023324158,64876.8331809730,6987.5310868141
672329937,6010,4,0,54698.0680807091,60740.6558322535,60893.6281167116,68282.3281677780,76258.5697953339,75045.6937760231,77856.2005558830,63215.0299873797,64512.0699656149,6789.3923117493
672384976,6011,4,0,54796.7846050337,60763.0322267109,60615.3285549772,68558.8877488667,76147.2840401913,73897.4647299325,78116.5284294099,63184.6594161097,64696.7269325999,6918.1752149233
672384976,6011,4,0,55233.8726103074,61163.3859552762,60765.0520643835,69049.5257878582,75264.6028095646,72768.6553279713,78557.5831038479,63519.1250663787,65155.0597365264,7189.1984939575
672384976,6011,4,0,55467.4923893079,61451.4561775593,61163.3981229730,69152.4279998898,74839.1957932409,73345.3311511979,78622.6802818506,63816.3453966727,65303.6151470377,7261.7666378095
672384976,6011,4,0,55115.7607772471,61183.2193010976,61272.7978851081,68644.9620361922,75687.7344665824,75119.6247019193,78149.3812108318,63623.1953773053,64858.6789773132,6991.5464267656
672384976,6011,4,0,54647.5356358035,60708.9954851202,60902.3036845463,68235.7015535525,76770.0754343768,75676.5158501117,77803.1859008255,63187.9933650392,64434.4765629750,6752.0253148060
672384976,6011,4,0,54699.6863843866,60679.9755281975,60571.9263804098,68463.0428009924,76751.4101874504,74504.9734969084,78033.6299109552,63107.7960752791,64586.5606055649,6857.4949108673
672384976,6011,4,0,55163.8231796977,61096.0499210580,60698.3365827034,68996.1217665023,75828.8432466381,73252.2239351087,78514.0957554027,63456.0720614422,65076.9674583168,7151.5151368969
672384976,6011,4,0,55445.9555659313,61422.6065683922,61099.0066713860,69156.2973274795,75283.6817581830,73643.7195803869,78627.6447021544,63791.9248291491,65284.3658506638,7250.7792075784
672397264,6012,4,0,55148.9299187864,61213.6750462454,61255.7509418592,68693.9613512982,75988.3617519869,75316.9847443874,78192.5521991596,63653.4686070008,64901.6552824918,7000.5140193242
672397264,6012,4,0,54668.5614159135,60740.7775092218,60930.5935796597,68240.4712907071,77065.7382994774,76054.5661904005,77802.9303791922,63223.9367414541,64452.4969219698,6746.3551680865
672397264,6012,4,0,54637.3391058658,60636.1474842413,60583.7168786312,68376.7251597304,77220.5844092462,75143.9844309588,77950.7800632878,63079.5183478626,64516.9127089504,6807.1206460203
672397264,6012,4,0,55055.5915164576,60994.3279756182,60631.9131257469,68890.5669965633,76402.7326672921,73795.3412504975,78417.7884350491,63362.8431683848,64977.3140213369,7080.1150919398
672397264,6012,4,0,55407.9071779659,61371.5387448263,61005.9724614778,69150.1526405839,75701.8003241097,73850.8989541911,78622.5707725792,63726.9006573273,65263.3887413411,7223.9859391743
672397264,6012,4,0,55182.5492651082,61238.1564522532,61234.5304785999,68737.4852028338,76258.7401430895,75551.3589205909,78224.5289064103,63657.9706548253,64935.3476349946,7011.7204680981
672397264,6012,4,0,54659.7641711105,60742.2132974469,60948.1393984783,68211.7190231145,77417.6524269906,76522.5479779077,77768.1064308849,63213.6550376387,64431.9700174295,6725.5970773066
672397264,6012,4,0,54564.6736204392,60578.7037875402,60557.0574548922,68293.1209148600,77689.9654818880,75667.6699345214,77870.4489288627,63014.3359959821,64441.8866903402,6749.9811417398
672406069,6013,4,0,54972.4374763697,60922.1735334582,60579.9935634034,68815.7113257085,76917.5114167804,74317.2259349303,78342.2878762627,63290.2141860487,64901.6431147950,7021.7709856738
672406069,6013,4,0,55346.5576505847,61316.0053765264,60943.6616860475,69119.3561999251,76170.1228071280,74200.0145114350,78590.4115498762,63666.5853841759,65218.6359524263,7192.5081074934
672406069,6013,4,0,55191.5046899699,61251.3827386997,61200.5461013735,68787.4701013825,76560.0123164255,75704.1851926870,78266.9454975351,63660.8422312755,64960.9849722005,7021.0409238645
672406069,6013,4,0,54695.4885289827,60790.8354139514,60978.7898267753,68257.1653707482,77674.1109729277,76844.5904097205,77800.0101319547,63257.7872740156,64452.6916051189,6730.9265285151
672406069,6013,4,0,54519.1664343214,60553.0907857279,60575.0899815838,68233.0368279483,78129.4505234358,76285.8741070046,77807.2864146548,63000.5621631786,64365.2667034461,6707.4672090404
672406069,6013,4,0,54862.3684909093,60821.9603824244,60499.6867643720,68709.8036925616,77475.4611545964,74863.8840500947,78245.4938480362,63194.6247598077,64770.8038708579,6954.9581624191
672406069,6013,4,0,55284.9647692669,61248.8518577605,60826.2677470998,69086.8806171046,76608.5735944459,74452.2873696650,78565.3339267241,63589.8315526168,65161.3626034807,7168.0997076665
672406069,6013,4,0,55206.0572553701,61263.4895970385,61153.9559902384,68819.4346409363,76842.4732304733,75913.6885965845,78292.6071701347,63660.1121694661,64989.5668920376,7039.8400154559
672466116,6014,4,0,54691.8017168453,60802.9301045934,60983.4378869617,68245.4113756172,77977.6463378728,77206.2751977824,77788.2804722174,63266.7426988772,64469.6655421869,6731.3523979039
672466116,6014,4,0,54467.2103688875,60524.5332012845,60557.6293366429,68174.9847464061,78512.1975946983,76725.3956516429,77755.1721691621,62973.2213484174,64333.3873377700,6674.4562475598
672466116,6014,4,0,54795.8720277719,60777.3901089620,60465.8970702947,68652.9197099144,77923.1107207124,75347.3553156574,78192.9659008516,63157.1117505025,64720.2592582554,6923.0666290461
672466116,6014,4,0,55243.5702646753,61222.8981604372,60783.6686405226,69079.7503467664,77034.1022877378,74752.4887856806,78564.0563185577,63565.0581218853,65143.7437784811,7170.9956195104
672466116,6014,4,0,55242.5116750517,61305.7966788919,61128.1604729738,68903.5012582861,77057.5007687283,75920.0157989324,78377.6107001397,63691.7238458121,65056.8785908621,7091.4188822884
672466116,6014,4,0,54762.8488985945,60889.2477458553,61034.8585737355,68331.5099983364,78083.5418033229,77337.1996155973,77866.7256136349,63345.4311942312,64554.2066997127,6787.7010018909
672466116,6014,4,0,54459.1675212875,60545.8145030278,60624.4056568072,68148.4835027257,78775.4213800690,77161.7170920168,77730.9827878781,63001.6694235894,64335.5531878045,6674.6509307089
672466116,6014,4,0,54722.0141080567,60723.8035721538,60453.1818271147,68574.4015623160,78309.1309024202,75733.9108760255,78130.5456161499,63109.3778758661,64672.9999237951,6876.3426732460
672471027,6015,4,0,55213.8932521241,61192.8926200718,60729.1208556654,69072.9972750296,77320.7975602799,74878.8138140964,78564.2510017069,63525.2332501838,65139.2782337471,7142.0973395559
672471027,6015,4,0,55302.6079296602,61354.3944600027,61121.5777489926,68986.4849506185,77178.5571844197,75923.8607911284,78450.9697442853,63724.6374657182,65114.7603246489,7112.1404699778
672471027,6015,4,0,54848.8988505263,60966.6099622556,61079.7330396185,68421.2710977992,78147.7872425480,77383.7653913387,77941.4231044309,63412.3413590606,64608.9126646287,6817.5605298944
672471027,6015,4,0,54511.7563069563,60593.7552285102,60669.1949488124,68193.0051054008,78867.9445467107,77300.1489787714,77764.5169603222,63048.9409257466,64339.4955215751,6684.4215912578
672471027,6015,4,0,54730.8600236470,60728.9870110003,60477.9552578462,68571.9923583450,78486.8522822161,75985.8430387445,78122.3324207944,63123.6505842394,64634.6595111060,6879.4576036327
672471027,6015,4,0,55209.9995891408,61177.8411791019,60708.8373050615,69077.4384843700,77512.8889900237,74979.9638777855,78570.5173655707,63514.3674969209,65112.7039838858,7158.4872271764
672471027,6015,4,0,55385.3847711467,61415.6953165967,61109.7385799838,69102.2362504952,77168.0929651520,75698.3325305152,78560.6980342345,63771.5682723643,65202.0757170503,7184.1732351696
672471027,6015,4,0,54994.2784921668,61100.9656705745,61162.8749120096,68569.7169990391,78003.7338798612,77257.8905677053,78075.3407756642,63530.3436828495,64746.3102971533,6903.0872708629
672506370,6016,4,0,54577.8512360985,60669.4383027489,60778.6920525221,68226.7826317813,78876.4254313962,77492.1187315470,77797.6130956806,63123.2247148506,64384.3578197613,6701.7118884432
672506370,6016,4,0,54701.5602096973,60711.2708444261,60497.8251067581,68526.2783213812,78639.9584113392,76187.8389737022,78089.2971239201,63104.9975050099,64591.7562121083,6843.3560471590
672506370,6016,4,0,55185.7858724631,61153.5422885464,60679.9511928039,69065.3802968185,77636.4154481702,75026.7608397666,78567.7187953014,63487.0875206439,65093.9900661721,7138.0698319075
672506370,6016,4,0,55409.6836617021,61433.2533031122,61101.0751798459,69143.0588733361,77189.0457390811,75634.4034514075,78608.1642195408,63788.8464018529,65240.8663345218,7207.2310206491
672506370,6016,4,0,55047.4391595863,61153.3719407909,61197.2973263217,68625.4693858818,77967.6688264780,77211.7506613527,78131.5068641989,63580.8761277551,64807.2339551458,6948.3754384379
672506370,6016,4,0,54612.3466565915,60709.0563236044,60833.4466882253,68244.4136244778,78891.9879156328,77612.9926317861,77813.0539029489,63164.0595053884,64408.7905549818,6737.4605817090
672506370,6016,4,0,54675.8133632200,60696.2194034562,60540.4850518193,68472.9108031158,78826.7812283587,76547.2605701550,78038.2901388384,63100.0087493125,64551.5419741085,6846.6534929981
672506370,6016,4,0,55120.1411481034,61094.6019651361,60660.0205054079,68987.2393478216,77944.8300595413,75326.4877156061,78497.3043337870,63426.3950488911,65015.4232477863,7120.1103113969
672539859,6017,4,0,55405.9603464743,61423.5678164412,61049.9830208864,69156.8570415334,77363.3966668571,75619.1208241979,78619.7965377036,63756.9061976926,65232.3367790489,7215.7849115156
672539859,6017,4,0,55104.7733470160,61213.6385431549,61213.1274998884,68684.5800570477,78014.4414530654,77249.4096830197,78175.4444174266,63618.3526339698,64848.8353105835,6964.4246305473
672539859,6017,4,0,54606.2749758769,60723.9739199093,60876.0092917120,68212.9722958873,79068.6385381083,77948.9184056738,77772.4016278634,63169.0117579954,64379.3447286702,6694.3382641685
672539859,6017,4,0,54592.5376461638,60626.9852085336,60512.9008831217,68377.1388614224,79158.5821530235,76946.5070383094,77945.6087921380,63029.7281324632,64453.2513191728,6761.9054846263
672539859,6017,4,0,55035.1862888856,61010.4745093023,60591.4311984170,68910.9600564385,78301.0515517298,75660.9411981783,78425.1133885365,63344.0197413997,64928.5458924705,7056.4854247097
672539859,6017,4,0,55351.7289217344,61361.9871028203,60976.6483121345,69125.9510916031,77658.3903086325,75814.0959980887,78591.0929408983,63693.5003295483,65183.5808178794,7195.8542241197
672539859,6017,4,0,55106.0509551824,61206.5082728167,61177.0259434147,68704.1213781453,78198.0641658204,77343.7701718817,78193.8176396292,63606.0754278754,64852.9601598064,6982.7248465690
672539859,6017,4,0,54621.2655783627,60738.5508207032,60894.9422279685,68216.0263877898,79238.4022441820,78181.7837874713,77771.7202368413,63186.6670860855,64382.9950377171,6711.4217105079
672579791,6018,4,0,54543.5870018451,60590.3117703093,60534.2795264396,68296.0898328848,79490.3222392041,77439.7854675115,77869.0253083344,63008.2764829643,64387.5457563289,6735.5137502173
672579791,6018,4,0,54937.6013603656,60918.3285412621,60540.3877102447,68801.8279836336,78742.6294371312,76088.0273566636,78330.3391979826,63262.5691788670,64821.5431666096,7000.0273114512
672579791,6018,4,0,55321.2245057993,61323.5128454661,60897.4852766044,69120.9014974216,77953.0554225937,75890.9715066160,78592.1758659155,63646.3018335721,65163.3702734565,7180.3039075799
672579791,6018,4,0,55162.9592732233,61260.9222130089,61178.0845330383,68775.9716278848,78310.7370384009,77374.1772462422,78252.5389444967,63643.3694186378,64910.1970056615,7012.8155608122
672579791,6018,4,0,54642.3765323505,60778.6555494316,60947.1781504293,68218.0705608561,79411.8770977866,78444.6182065437,77762.5579611337,63215.5897014336,64385.9517880451,6717.3960496479
672579791,6018,4,0,54481.9819528305,60553.3098042707,60534.8757435840,68214.4567548997,79786.9706877475,77795.2038917096,77789.8257697139,62962.5624460005,64313.9676936406,6699.3513552595
672579791,6018,4,0,54850.4319803260,60845.8820743783,60496.8273556186,68706.1898866052,79099.6783327036,76470.0565338135,78239.3978319279,63185.4624841000,64728.2777704617,6956.4912922188
672579791,6018,4,0,55253.6451176447,61254.0109612135,60831.5363598241,69060.2941995465,78297.7784412844,76154.4386459232,78534.9755231508,63572.8332801552,65086.5677711101,7154.4232164376
672593807,6019,4,0,55165.2711356196,61243.9726113345,61122.4781585575,68794.4421916620,78515.7627298674,77443.1924226219,78268.4421242443,63624.3878115940,64901.1807423158,7017.6583041477
672593807,6019,4,0,54678.3564118560,60802.1757073903,60955.6833705086,68249.0981877546,79556.0643051385,78630.0539061253,77783.9731075421,63246.9336884495,64407.6954622677,6720.8151724552
672593807,6019,4,0,54447.5960416089,60523.2920962085,60552.2025438598,68156.4168410542,80099.2546267083,78275.4142145239,77728.8291055405,62955.6998649924,64273.5709401884,6655.5719820906
672593807,6019,4,0,54745.0475581425,60748.1146304060,60436.0497099880,68597.9338879715,79551.4040772553,76930.9810571633,78142.2752758872,63106.4332932350,64630.0479540101,6888.5347054626
672593807,6019,4,0,55184.7394505364,61184.3022261148,60727.9284213767,69019.4350736151,78646.7601538632,76321.0387508229,78503.1448282620,63500.7518441761,65035.9744877203,7124.9408870356
672593807,6019,4,0,55179.0328007264,61258.6833567935,61079.7087042248,68831.9917040576,78694.7495501329,77473.9158570998,78302.9983832215,63627.1255433791,64926.2948685583,7036.8589297343
672593807,6019,4,0,54690.6701210408,60821.9603824244,60960.5017784505,68257.7615878925,79740.3075704315,78764.3487759601,77790.4828253423,63259.8557824755,64407.8049715391,6725.6944188812
672593807,6019,4,0,54410.8130941131,60491.6682521657,60537.1511028898,68105.1299989455,80378.0043932251,78562.7057042103,77682.4093421610,62920.0850163916,64206.2714090607,6624.1549888937
672628424,6020,4,0,54676.7016050881,60680.0607020753,60389.5934435180,68521.9709567059,79918.1871302861,77359.8923701720,78069.5976227638,63039.3649483469,64542.4527045818,6838.7079869727
672628424,6020,4,0,55123.1344015218,61109.6777414997,60654.6058803217,68968.7322809538,79045.7754357780,76674.8632067372,78455.7759845303,63422.9394229933,64974.4546125835,7085.8460771435
672628424,6020,4,0,55181.3811662132,61238.2051230405,61000.9593703867,68866.4506214602,78933.3824202244,77550.0248007273,78332.7849050440,63592.9829860940,64942.7577623597,7040.3023879352
672628424,6020,4,0,54734.7293512367,60856.6626537635,60957.5936989098,68315.7406632538,79860.2688934089,78829.0565876645,77833.0332611322,63292.1610175404,64463.4235137168,6740.4538351274
672628424,6020,4,0,54382.0608265205,60475.6433954499,60562.0948813769,68061.7886628622,80640.2060920626,78933.2120724689,77632.5947913678,62923.8570024067,64192.2177192302,6586.9948427965
672628424,6020,4,0,54580.3699493408,60590.8593166663,60348.2232743200,68419.0322415838,80330.5503756156,77776.0032661230,77972.2560481803,62969.5710393705,64465.6258668417,6769.0114195709
672628424,6020,4,0,55057.9155465508,61033.9581641706,60572.3279144050,68921.1809217698,79392.8468199556,76893.4802155550,78409.6969166618,63354.5691345452,64930.9185933510,7048.5764217748
672628424,6020,4,0,55203.9400761230,61245.2502195010,60977.3418708534,68908.0641445947,79137.1183358278,77602.2607231882,78362.3402406269,63597.3755246470,64982.2541062470,7061.1213171992
672667377,6021,4,0,54785.0792806900,60901.1599210450,60995.6785899656,68360.1405889608,80031.2737045585,78811.4012595744,77864.1460619084,63330.3675855644,64510.4273265438,6770.8609094880
672667377,6021,4,0,54398.5237203220,60494.0774561366,60599.7904061343,68061.0951041433,80871.0151330970,79087.6201451521,77620.3175852735,62940.8187717779,64191.0861234257,6592.6893249096
672667377,6021,4,0,54545.4851625494,60562.8006077926,60354.9276752695,68373.4763846787,80677.9989583947,78186.0424813593,77920.0931319003,62949.6646873682,64418.3543646846,6741.9991326239
672667377,6021,4,0,54995.4587587587,60973.5820525351,60524.3506858321,68869.9914212357,79806.5120088451,77292.7996898904,78359.4929995704,63301.5058087004,64876.2491315255,7011.3067664061
672667377,6021,4,0,55207.7242298349,61239.6652466592,60910.7480661415,68950.6997542623,79395.3655331979,77717.4644767078,78397.9429215309,63583.6990334181,65015.8126140847,7067.4606872440
672667377,6021,4,0,54866.1039738340,60981.1138568685,61015.9864759631,68459.3681565518,80129.9658934894,78774.1437719026,77940.1211608709,63396.2191607702,64603.8874058408,6814.1170716935
672667377,6021,4,0,54433.5301840816,60544.7437457074,60674.5974062018,68078.3975690255,81082.0029960068,79279.2126993261,77619.3928403149,62990.5116456028,64215.6770387048,6597.9579376339
672667377,6021,4,0,54499.9779764316,60533.3182783906,60372.1693016676,68313.2341177083,81037.1772009111,78504.6414549713,77856.5047483036,62924.2463687051,64365.5587281698,6710.1197669478
672710983,6022,4,0,54956.5342966221,60939.9870416070,60497.8616098486,68838.1850617405,80148.1079294524,77552.5070108792,78322.1381703239,63266.3046617916,64836.3147505526,6997.5451012994
672710983,6022,4,0,55215.2560341683,61241.0280287034,60892.0341484278,68974.8404647590,79624.9334691564,77851.2726386697,78411.9722759677,63581.2168232662,65017.8324517573,7087.6955670605
672710983,6022,4,0,54901.0495991095,61013.2122410874,61027.9959927273,68502.4539710019,80275.1508519807,78788.9153558456,77970.7837568647,63425.5189747198,64631.6540899908,6842.1149420831
672710983,6022,4,0,54453.6312192331,60570.0768904927,60704.4812695989,68090.4192534866,81231.7143377163,79375.7025351320,77620.4027591512,63021.0038938411,64217.6482055902,6611.0260440218
672710983,6022,4,0,54468.1837846333,60513.2172432391,60390.7858778067,68268.6760119427,81309.7701128355,78845.6533261310,77803.2224039159,62921.2287798930,64312.3007191758,6689.3130053806
672710983,6022,4,0,54886.2780151664,60876.7393535213,60466.8583183437,68775.8256155229,80510.3645992650,77894.3584531198,78261.3361892997,63220.1769231358,64760.8020240695,6958.6693099501
672710983,6022,4,0,55212.8711655910,61231.2208650641,60842.7549762948,69016.8068511013,79843.0394347076,77915.5059101981,78452.1986816644,63572.2613984045,65032.2146694020,7096.9551843428
672710983,6022,4,0,54988.6326808410,61095.4415362169,61061.3111466285,68622.9993434268,80311.2889115449,78678.6151841457,78073.0289132679,63505.3512335751,64722.1087481725,6892.8299024411
672721329,6023,4,0,54502.4723542803,60628.3358228810,60787.6961481710,68132.4099752226,81339.8729947754,79365.9805453705,77651.2722059910,63086.6729535945,64251.8881044499,6622.5731883068
672721329,6023,4,0,54432.5811037294,60482.2139517343,60415.9243394429,68225.5415267054,81551.7490995533,78979.6926743326,77768.8608280880,62907.5887917545,64277.4767708686,6654.6837402225
672721329,6023,4,0,54848.2052918074,60830.9888134671,60443.4233342627,68746.6353108447,80755.2881686140,78065.5092766313,78238.9841302360,63187.4579863790,64725.6495479480,6935.8183753166
672721329,6023,4,0,55212.6278116545,61214.6241265976,60807.6025001734,69037.2607494607,80004.7359577877,78028.4708075022,78477.0937893641,63559.5826583150,65023.4904307800,7108.5023286278
672721329,6023,4,0,55052.9511262471,61141.7639580218,61060.9096126334,68707.6865133145,80340.4062100422,78755.8557235777,78157.6309092778,63546.8917505287,64768.9178778504,6947.5236996602
672721329,6023,4,0,54593.3772172445,60710.4556087390,60841.7937282458,68226.0769053656,81310.1351437402,79439.2179125478,77739.5001756542,63168.8535779367,64316.4985745797,6681.8298718345
672721329,6023,4,0,54473.5740743259,60530.6657204832,60481.5568961058,68252.4564720777,81638.8941441992,79198.2853477567,77793.0988801593,62962.8788061179,64286.4200280334,6680.1750650666
672721329,6023,4,0,54832.8496584169,60823.6638599797,60453.7415411686,68733.1169996744,80948.2191694386,78224.1760432024,78232.2797292865,63182.4692306815,64703.3583273684,6933.4091713456
672758588,6024,4,0,55239.6157632078,61242.9626924982,60787.5258004155,69096.9433023772,80066.4018452863,77893.3607019803,78544.1377988585,63572.5777585219,65081.7980339555,7140.8075636927
672758588,6024,4,0,55156.0601891247,61249.6670934477,61101.4402107506,68838.9881297308,80184.0391381705,78579.1929334054,78285.3187197377,63637.2855702263,64915.1492582685,7023.4379601386
672758588,6024,4,0,54686.3627563655,60822.5565995688,60942.5422579398,68323.0777844381,81124.8576242172,79332.6288883788,77833.6781490638,63270.5633556796,64444.3202297047,6753.0960721265
672758588,6024,4,0,54523.5589728745,60597.8679100363,60551.3994758695,68311.6644848182,81465.8451599834,78993.7341964662,77856.9549530861,63023.6807871422,64371.6669119750,6729.3933987154
672758588,6024,4,0,54903.4588030804,60899.6267912453,60496.5474985917,68833.6951816128,80684.3626638331,77844.7142500822,78338.0656854652,63251.6182517263,64809.7648360850,7000.1733238131
672758588,6024,4,0,55379.6781213367,61372.2566389388,60852.1119351517,69284.4231750251,79636.2980979890,77296.5108374213,78729.5004922592,63690.4097345553,65253.4964038240,7257.5079439215
672758588,6024,4,0,55408.6737428658,61476.2904467750,61223.4335390974,69142.8276870965,79497.1969879091,78161.6219138357,78581.1397648971,63843.1873358641,65183.7876687254,7201.2323461154
672758588,6024,4,0,54993.0617224845,61114.2162924147,61158.7013919994,68649.5370901976,80262.1557517738,79124.3544218605,78146.6313113498,63547.9868432427,64742.1854479304,6945.0171541147
672814782,6025,4,0,54759.2594280317,60839.8347290573,60805.6678363785,68531.9606357975,80700.3145143680,78756.6101207807,78071.0334109889,63273.1064043156,64584.9666372811,6877.4134305665
672814782,6025,4,0,55036.5855740202,61041.6603162595,60680.0120312880,68953.4618214411,80083.5948008971,77339.6331549618,78465.8630051965,63406.1480013777,64930.0790222702,7100.2404624850
672814782,6025,4,0,55511.8071411370,61501.2220575652,60966.7194715270,69429.4621211545,79005.8410548051,76450.2231879921,78883.8233910646,63819.0101222769,65393.1085571705,7368.1366434357
672814782,6025,4,0,55596.3239632692,61661.5071278138,61368.6671683761,69347.6221923234,78752.7164577974,77343.0887808596,78780.6899927933,64022.8677148485,65385.1387157514,7341.0635180047
672814782,6025,4,0,55166.6825884511,61292.3392062057,61340.1460870231,68810.0533466859,79569.1445792232,78597.0186092510,78298.9952109667,63729.2611905109,64915.4534506891,7061.6445281626
672814782,6025,4,0,54863.0498819314,60946.2899085613,60947.2998273976,68607.4855299775,80130.2214151227,78366.0878912484,78149.2838692572,63390.8288710776,64681.9675163536,6941.5128574297
672814782,6025,4,0,55094.9661833767,61094.6384682266,60772.3283470837,68983.0293247208,79619.6161856447,77002.3445990299,78502.0254001543,63479.7260640660,64980.5141256013,7133.8354734131
672814782,6025,4,0,55554.0777198999,61527.0175748298,61010.6691924515,69460.3315679943,78597.1524539161,76037.1177131564,78918.1606314989,63869.1410331875,65431.8991746420,7401.1962757036
672818584,6026,4,0,55698.2892626454,61737.6160714413,61395.9228092594,69460.6114250213,78237.9133729155,76700.9872518161,78897.4755468999,64109.8910825262,65502.7395055452,7412.4635629617
672818584,6026,4,0,55323.6823805575,61432.5840797870,61428.9702738305,68962.8674510852,78951.7069716398,78026.2319512868,78442.8052197171,63878.3276442888,65076.1400549328,7146.7575674391
672818584,6026,4,0,54969.2617074989,61056.2858878407,61078.1025682442,68683.2902811845,79645.2413551538,78095.0402768206,78218.1165301846,63518.9425509264,64770.5240138310,6989.4657506089
672818584,6026,4,0,55121.5891040253,61130.8738693653,60845.6143850482,68996.1217665023,79294.5196619294,76751.0329888489,78520.3986223570,63533.7871410504,65001.6859180732,7147.8404924563
672818584,6026,4,0,55587.8309108868,61561.8415231371,61031.5489601996,69505.3398785424,78227.5586629192,75550.4585110260,78973.4019750751,63906.1916700133,65474.2792626763,7434.3167464557
672818584,6026,4,0,55788.6222438590,61824.8827930554,61439.5926731570,69563.1729415419,77720.6645809723,76096.8489368602,78996.1555681340,64190.7210925210,65593.5835300253,7493.5125914993
672818584,6026,4,0,55430.1618954551,61542.8842514869,61524.4136877097,69061.3527891701,78407.1173649354,77531.3717214978,78542.1179611859,63982.5317998805,65173.7493188465,7239.7917773473
672818584,6026,4,0,55028.8225834472,61127.5885912231,61164.4932156871,68724.5387734142,79172.2951473429,77725.2152995841,78262.0662511091,63595.1001653412,64834.3070805769,7041.1176236223
672852362,6027,4,0,55131.3962676646,61152.3863573483,60903.3379387763,68985.3898579045,78934.2341590021,76520.7349910810,78517.0038349434,63570.3875730938,65021.7139470438,7168.0145337888
672852362,6027,4,0,55578.1332565189,61557.2786368285,61056.8699372882,69490.2641021788,77949.9648276006,75279.0823687839,78972.4042239356,63914.2466853101,65480.8741543544,7456.1334268592
672852362,6027,4,0,55839.0086764028,61862.5053116320,61440.6634304774,69638.2719663331,77313.9958177559,75508.1879322631,79081.1225950486,64225.7397239774,65665.5432890361,7557.4295029102
672852362,6027,4,0,55556.7911162915,61662.0668418677,61595.9962481191,69206.6472569328,77837.4623027757,76939.2794263966,78679.1262274122,64093.4281887247,65307.1559468132,7335.5515513439
672852362,6027,4,0,55120.4818436144,61229.3470397534,61297.8146697761,68804.9915848075,78691.7319613208,77422.3369902674,78338.7227410936,63697.7833588300,64912.3750233929,7112.5298362762
672852362,6027,4,0,55144.2940262969,61179.1066195714,60979.9944287608,68995.9270833531,78593.2831263264,76235.6701899131,78537.7740934201,63598.0082448818,65025.6076100272,7202.9358236706
672852362,6027,4,0,55591.9314247161,61574.2647415933,61072.4202538279,69528.0448008140,77552.1054768841,74772.0787775656,79019.1646828262,63922.3990421815,65497.9454329969,7493.1110575041
672852362,6027,4,0,55914.3388874336,61935.6210018410,61478.0912659048,69750.7866588548,76754.9388195290,74810.9058981276,79196.7278825634,64286.9310713000,65755.0975376530,7634.3658499217
672889737,6028,4,0,55683.1769831913,61790.5333849243,61691.4396619982,69355.7745491948,77158.9915279285,76204.0341781735,78828.5820474884,64213.6937041227,65446.4639077391,7440.9116381337
672889737,6028,4,0,55238.4233289192,61358.7748308590,61424.9427661822,68920.5968723223,77998.4530994400,76798.1949817346,78457.4551266919,63826.7731128500,65035.3782705760,7202.1084202867
672889737,6028,4,0,55197.2235074767,61250.1294659269,61102.6813158265,69027.5995981833,78024.1512751301,75856.0137136437,78577.5989651216,63686.5525746624,65082.1752325570,7244.0018004481
672889737,6028,4,0,55582.1242610768,61578.5477708750,61142.8833861295,69499.6697318229,77156.7891748035,74491.1509933175,79006.1087441352,63948.2919010207,65494.9400118817,7496.4328387368
672889737,6028,4,0,55923.5985047159,61940.7192668098,61491.2567138672,69761.2387104257,76355.8505314333,74341.8290179063,79214.6874030740,64295.7769868903,65773.1909028287,7644.2460197419
672889737,6028,4,0,55738.6616807040,61840.9076497713,61735.3285444386,69397.3515692388,76713.2766256073,75834.9027596559,78860.0720468662,64260.4419953164,65489.1481881940,7458.9441648253
672889737,6028,4,0,55223.8099250348,61352.0460945159,61485.7812502969,68857.1788364811,77777.0861911403,76869.0718157282,78384.8018089621,63829.8150370557,64973.0431597520,7165.1794604290
672889737,6028,4,0,55066.0192326349,61127.1627218343,61072.9799678817,68853.3703473755,78113.0728035122,76162.4328227359,78405.1948688374,63579.3916687427,64903.4682693185,7147.3416168866
672932222,6029,4,0,55407.1162776724,61401.2644281647,61026.0856643261,69304.6702225385,77407.5045678402,74839.5243210551,78813.9564759073,63786.6805518184,65289.5857926009,7386.3030147924
672932222,6029,4,0,55752.9587244709,61765.7477864959,61350.2696107798,69587.9098691829,76673.3179092407,74674.9197184344,79042.6240023008,64131.1358811790,65591.9530586510,7556.1153916533
672932222,6029,4,0,55603.6002459693,61703.5586880339,61605.6330640028,69264.3464752672,77022.9810128416,76123.2163358755,78725.2417983712,64123.2877167282,65349.9619042363,7388.6635479760
672932222,6029,4,0,55094.0414384181,61231.9022560862,61383.5847646810,68711.9573748993,78120.8601294788,77296.8271975387,78235.5406720351,63712.0073964160,64831.8248704250,7074.4814483108
672932222,6029,4,0,54874.3780076736,60954.5396070072,60964.8091431258,68625.3963797009,78652.9413438493,76916.0634608584,78182.6111908553,63425.9935148959,64686.2262102417,7001.4265965859
672932222,6029,4,0,55144.3426970842,61153.1772576417,60845.1641802658,69021.7226006178,78164.3839810145,75688.5253668759,78542.5316628779,63553.5353129940,65004.1437928315,7197.5333662812
672932222,6029,4,0,55518.6940575388,61527.4434442186,61105.8084139100,69362.6858009902,77405.8862641628,75255.8542355489,78830.0178357135,63888.6945219819,65349.6820472094,7390.5495409836
672932222,6029,4,0,55448.7906392910,61543.9306734137,61411.3027780436,69117.7013931571,77613.2116503289,76626.6061211374,78576.9540771900,63954.7286126400,65187.9611887357,7277.5238051953
672941047,6030,4,0,54933.2818279934,61085.0503231301,61269.1110729707,68526.7650292541,78781.9310978693,78079.5386310681,78046.3816572256,63564.2672215918,64650.4531815822,6962.0397619700
672941047,6030,4,0,54638.1421738562,60740.2542982584,60825.3673375349,68356.3077644615,79509.7418833336,77895.0763472323,77917.2823939342,63210.0412316823,64428.2467022016,6849.1843739372
672941047,6030,4,0,54876.9940624905,60900.7583870498,60658.4630402146,68737.5703767116,79160.8575123293,76762.8964932512,78266.1545972416,63306.1173657963,64728.2412673713,7032.4055526971
672941047,6030,4,0,55254.8253842365,61269.3909299977,60892.3748439388,69100.7396237860,78486.3412389495,76348.9879504252,78572.9265695416,63636.9935455025,65082.6011019458,7217.6952399169
672941047,6030,4,0,55221.3033794893,61311.3208132495,61176.9772726274,68902.9537119290,78673.8454469911,77529.1328652824,78360.9652908860,63719.8920639572,64950.1800574217,7105.4847398157
672941047,6030,4,0,54715.5043902564,60864.8758491190,61050.0925301578,68293.3886041901,79853.6983371245,78966.7584126098,77807.7852902246,63345.4311942312,64391.0500530139,6767.6851406172
672941047,6030,4,0,54327.9267433552,60442.3404092455,60597.5150468285,67996.7766587372,80852.0821968405,79312.1749900195,77561.3042556822,62928.5902364709,64050.6709020889,6585.3278683317
672941047,6030,4,0,54456.6001372579,60493.4569035987,60331.3223434330,68277.4124182616,80817.0513976873,78493.7513663147,77824.1873455419,62909.2557662192,64244.3076293292,6715.5100566404
672971588,6031,4,0,54858.4018217451,60871.9574486699,60495.2820581221,68710.9596237598,80160.6041540896,77863.8783725783,78202.7243937036,63231.5293842716,64655.1499125559,6949.2636803059
672971588,6031,4,0,54952.2634350372,61038.8617459902,60836.5007801279,68674.1036700831,80094.6795727029,78300.0538005903,78137.2621847962,63429.1936191603,64687.3943091367,6937.4245112972
672971588,6031,4,0,54553.7470286922,60712.2685955656,60830.4169317164,68186.3615429355,81019.7530590607,79015.3318583270,77696.9497398644,63172.4430484994,64260.1256351991,6680.1020588856
672971588,6031,4,0,54248.3743415268,60377.7299391157,60462.8064753017,67995.7667399009,81756.1299030883,79312.6130271051,77560.1604921809,62845.5822087448,64029.6937927662,6563.7910449551
672971588,6031,4,0,54481.2153879307,60525.3606046684,60283.6858103711,68391.6305883385,81399.4825415110,78653.0873562112,77939.2572543964,62933.1166196890,64339.2886707291,6762.0271615945
672971588,6031,4,0,54975.5159036659,60984.5573150694,60525.7864740572,68915.1457441456,80436.0078039800,77974.0325319164,78405.9005952531,63335.8065460443,64829.3183248795,7049.3794897651
672971588,6031,4,0,55174.2995666623,61243.8022635790,60924.8747621529,68977.3591780013,80008.5931176805,78327.9908324958,78437.8042963228,63613.3760459692,64950.2408959059,7098.1354509346
672971588,6031,4,0,54836.1106011654,60987.2220406736,61010.2311553658,68506.4084724694,80665.6609138162,79091.9518452210,78009.3796911870,63426.3950488911,64565.1211237629,6853.2605523729
673050051,6032,4,0,54462.0390977377,60600.8854988484,60685.2441409219,68194.4287259291,81453.7139662509,79403.5057223725,77756.0117402429,63062.2158829804,64243.3585489770,6679.8465372523
673050051,6032,4,0,54584.4947985638,60641.9758110195,60429.9171907893,68481.2578431363,81246.5710955371,78554.4925088548,78039.9449456063,63048.5758948419,64446.7050982820,6826.0170791863
673050051,6032,4,0,55070.0467402833,61079.3071702297,60591.9787447740,69028.0132998752,80230.8361001516,77549.9882976369,78527.9425943872,63421.1629392572,64944.5829168832,7120.1954852746
673050051,6032,4,0,55344.2457881883,61398.8795595874,61017.2397487358,69171.8354763224,79632.9884844531,77866.9811352682,78627.0606527069,63757.3320670814,65132.8171867341,7206.8173189571
673050051,6032,4,0,55043.1682980014,61176.1620369403,61168.3503755800,68712.6631013150,80233.1357948511,78918.6351716750,78202.0308349847,63609.5310537732,64745.7140800090,6969.8392556335
673050051,6032,4,0,54625.8406323682,60754.3688265730,60850.9316685599,68339.7475290855,81076.5640355270,79332.8479069216,77892.0587584202,63223.8393998796,64369.5132296373,6770.3255308277
673050051,6032,4,0,54681.5565161204,60735.4723934070,60567.6676865218,68553.4609560837,80990.6844313507,78505.9068954408,78108.3760725385,63165.0572565279,64513.9681263193,6886.6122093646
673050051,6032,4,0,55109.7012642293,61117.5259059505,60677.6271627107,69051.0467499611,80088.6808981691,77430.0026392658,78556.9017128258,63483.4858823843,64968.9669813164,7164.8265972212
673061118,6033,4,0,55406.5808990122,61448.4750918377,61050.5183995466,69246.2166070010,79415.9654439192,77532.0531125199,78710.0443450393,63813.9361927018,65201.5160029964,7282.2935423498
673061118,6033,4,0,55170.0408727742,61295.0160995068,61241.9527736619,68844.7434503281,79865.3184875904,78684.6260263762,78330.6920611905,63726.4139494543,64880.9336948024,7072.2304243986
673061118,6033,4,0,54709.6152249941,60848.9605016745,60966.3057698350,68389.0632043089,80807.5727618622,79352.6569173494,77936.5316903081,63323.8700354610,64438.1147043250,6821.5271990587
673061118,6033,4,0,54665.6898394633,60733.8784251232,60613.3087173046,68503.1962005081,80928.8238607028,78587.6251473037,78064.4506870077,63166.7972371736,64486.4447961058,6868.2876579492
673061118,6033,4,0,55081.2288536636,61087.6542102502,60652.4887010745,69015.3102243921,80078.0098280554,77369.9915585351,78527.7479112380,63451.5335105273,64944.8019354260,7144.0076679571
673061118,6033,4,0,55430.5390940566,61464.3782715853,61033.0577546057,69280.9310460369,79333.6144718215,77360.2452333799,78739.9403761333,63821.6991832748,65235.0745108341,7304.2805705089
673061118,6033,4,0,55239.7496078729,61358.7869985558,61269.1840791517,68916.6302031580,79718.5152254216,78562.3893440929,78394.1466001221,63777.5912822916,64948.2575613237,7121.6191058029
673061118,6033,4,0,54767.8741573824,60909.9449981511,61013.1635703002,68437.3811283928,80652.7144843966,79298.2429771572,77980.4935789294,63376.4588211297,64483.3785365064,6853.7472602458
673067456,6034,4,0,54674.5235873568,60749.0028722741,60653.8879862091,68500.2394501801,80852.6297431976,78640.1895975788,78063.9761468316,63189.7698487753,64474.3379377669,6869.6017692061
673067456,6034,4,0,55051.8195304425,61062.1142146189,60654.9344081359,68991.4372032255,80078.2896850823,77372.0965700855,78514.4972893978,63433.0994498405,64897.8832964767,7132.2171697357
673067456,6034,4,0,55453.3656932964,61475.0371740022,61002.0909661913,69341.1733130073,79203.3349419382,77009.2923539158,78809.4665957796,63825.3616600185,65264.1918093314,7328.6889703357
673067456,6034,4,0,55358.1291302633,61463.0398249348,61300.8079231945,69071.3546359585,79350.4058934371,78159.5047345885,78541.6190856162,63871.6597464298,65077.5271723706,7184.4774275902
673067456,6034,4,0,54883.3699356257,61022.5813676411,61130.3384907051,68551.5384599856,80296.6146691764,79143.8714075645,78084.6125606433,63496.2376286548,64593.7273789937,6899.5221356937
673067456,6034,4,0,54714.8108315375,60787.9029990170,60739.9622735346,68524.0029620753,80645.0001646109,78561.3672575598,78094.1276995588,63244.4636459944,64509.9649540645,6874.0308108497
673067456,6034,4,0,55070.9349821514,61069.4026650158,60679.7930127452,69004.8338374275,79909.4628916640,77184.3733435011,78535.1945416937,63456.4492600437,64917.7288099950,7139.8828187341
673067456,6034,4,0,55493.0445526361,61502.8281935458,61017.9576428484,69381.8985942737,78985.5818395949,76717.3893071334,78854.4992417213,63858.8714970689,65301.0477630081,7372.6021881697
673123792,6035,4,0,55436.3552531380,61538.1510174228,61343.4678682557,69153.5960987848,79047.8196088442,77839.8715067466,78623.6658652933,63944.1548841009,65155.0597365264,7267.4854553163
673123792,6035,4,0,54965.8790877821,61117.9517753393,61200.6556106449,68621.9650891968,79948.0223228959,78911.4075597622,78153.4208861770,63585.9013865430,64668.4370374865,6969.0118522496
673123792,6035,4,0,54727.4165654461,60828.3970940438,60804.1590419725,68508.8785149244,80412.3781367499,78539.6479187309,78080.3173636648,63290.8104031930,64505.5480801178,6882.3291800829
673123792,6035,4,0,55003.7571279919,61023.2019201791,60676.4590638157,68921.4851141904,79841.3724602428,77200.8362373026,78463.4781366192,63416.7095622200,64836.3025828558,7091.9785963422
673123792,6035,4,0,55445.4688580584,61448.9983028011,60945.5111759646,69354.3874317570,78875.8413819487,76442.9347375951,78836.8439136312,63799.6513166316,65249.7000824153,7333.2761920380
673123792,6035,4,0,55488.2139769974,61568.3999117246,61309.1671309119,69230.0214025297,78755.6245373381,77443.6547951012,78693.0582402745,63961.5790259513,65194.0572048440,7283.4008027607
673123792,6035,4,0,55040.2845538544,61179.9948614395,61255.7631095560,68682.3168654386,79675.1252185510,78753.8115505115,78204.5495482270,63645.9246349706,64708.2619091880,7000.5748578083
673123792,6035,4,0,54739.0975543961,60836.9388172135,60852.1849413326,68490.6756404773,80293.2320494596,78534.1846228574,78063.6111159269,63302.5522306272,64486.1771067757,6889.7028043576
673128526,6036,4,0,54982.3419815835,61003.4415805386,60679.4279818405,68880.6016528653,79797.0577084137,77191.2845952965,78430.4428397450,63401.1227425898,64803.6444845830,7086.2962819259
673128526,6036,4,0,55433.4715089909,61436.6845936163,60934.1465471320,69339.9322079313,78833.0719276161,76360.5959331943,78828.4968736107,63787.8608184102,65235.8289080371,7336.9508364785
673128526,6036,4,0,55530.6184004253,61601.3256993275,61299.3356318789,69282.8048713476,78602.2872219754,77168.9447039296,78748.4090931221,63982.4222906090,65231.6310526332,7316.3509257573
673128526,6036,4,0,55125.8599656101,61265.5581054984,61289.1147665477,68767.7827679230,79407.4115530526,78486.2438973750,78282.1186154733,63712.9564767682,64777.6786195629,7042.1762132459
673128526,6036,4,0,54773.1062670162,60890.6105278995,60917.1726100640,68501.7969153735,80116.8856194047,78533.2598778988,78067.6751266658,63351.7218934887,64499.5250701904,6890.0556675655
673128526,6036,4,0,54931.2741580176,60971.2336870483,60689.0526300275,68817.8163372589,79788.9296869360,77273.9154244211,78372.7436214106,63374.0617848556,64742.5139757446,7049.8296945475
673128526,6036,4,0,55395.9463319890,61397.6627899051,60876.4594964944,69320.8654270098,78791.0812058801,76180.1246539164,78815.4896057070,63742.2319553242,65204.7526103513,7325.0143258952
673128526,6036,4,0,55584.1806018399,61643.6571165745,61278.0178270451,69360.4834478653,78377.7445448048,76821.9949967203,78820.3566844361,64010.8825334779,65299.1617700005,7358.0617904663
673192303,6037,4,0,55203.7332252770,61334.9991512670,61343.1150050479,68836.1773917647,79155.6254026955,78292.0717914745,78341.7281622089,63781.7648023019,64848.1782549550,7073.6175418364
673192303,6037,4,0,54796.9062820019,60906.7448938867,60958.3359284160,68499.9960962437,79960.6158891077,78473.5894926791,78066.0203198978,63377.3348953010,64492.2609551871,6876.2331639746
673192303,6037,4,0,54918.8266041678,60951.0109749286,60697.4848439257,68786.5331887271,79718.6490700867,77269.2065257507,78343.2004535245,63367.4060546934,64697.3718205315,7019.0940923728
673192303,6037,4,0,55371.2337397416,61367.1583739700,60868.4288165913,69292.5025257155,78764.0810866300,76147.0893570421,78789.2073805694,63721.4251937569,65160.8515602142,7300.8614477017
673192303,6037,4,0,55600.8868495778,61647.2222517437,61251.1150493696,69399.9554563589,78243.7295319969,76530.5543224171,78859.4149912378,64009.9334531257,65314.7607573275,7373.3079145855
673192303,6037,4,0,55286.0841973746,61410.4388715692,61367.6085787525,68933.5311340451,78858.9039479712,77959.0662648242,78430.2846596863,63843.2238389546,64929.2151157958,7127.9463081508
673192303,6037,4,0,54845.5527339000,60964.5292860989,61040.2975342153,68529.9407981249,79741.3904954487,78436.7700420929,78089.0172668932,63439.3779814011,64527.2309158563,6895.0930940502
673192303,6037,4,0,54868.7200286509,60907.0490863073,60714.8238118984,68716.8487890221,79688.8138774768,77363.7495300649,78281.0356904560,63340.4789416243,64630.1574632815,6976.3611411306
673199748,6038,4,0,55307.1221451815,61291.4022935504,60799.6569941480,69234.0975809654,78754.4077676558,76055.6856185082,78746.2675784812,63659.1995922044,65086.2635786895,7259.9779863766
673199748,6038,4,0,55600.4853155826,61628.3744893649,61190.7024346437,69419.3385973979,78100.3453926354,76277.0403591112,78881.0734915826,64000.3088049388,65307.2776237814,7382.8717242883
673199748,6038,4,0,55314.4227632753,61431.1969623491,61365.2480455688,68968.1238961127,78663.0526999091,77779.8482583191,78458.7083994647,63876.2348004352,64939.5698257921,7150.3470380019
673199748,6038,4,0,54837.8505818111,60960.8668093551,61044.0695202304,68514.9988664264,79606.1222098681,78379.4845254505,78073.8198135613,63447.5181705757,64487.7102365754,6893.5842996441
673199748,6038,4,0,54819.8180551195,60864.6446628793,60704.1770771784,68659.3320861401,79657.2508719181,77439.1284118831,78224.4802356230,63314.3427288486,64549.3031178931,6955.7855658030
673199748,6038,4,0,55227.7644265023,61215.7070516148,60765.4901014692,69155.6524395479,78813.4332649439,76148.7563315069,78671.8012739248,63598.7261389944,64987.2428619444,7222.9760203380
673199748,6038,4,0,55562.5342691919,61575.9682191485,61124.4128223523,69405.8446216212,78071.5687896491,76069.1917619817,78874.6246122665,63948.5230872603,65268.5721801877,7366.5670105455
673199748,6038,4,0,55370.8930442305,61473.7960689263,61354.4066276996,69045.7781372367,78437.0498991198,77459.7161549075,78528.6361531061,63911.2047611044,64998.3519691438,7181.3381618099
673243864,6039,4,0,54885.8521457776,61019.6367850100,61114.9220188304,68547.9854925133,79420.5648333182,78351.9246921465,78095.8311771141,63509.2205611648,64537.6342966399,6912.4807328102
673243864,6039,4,0,54780.0661895989,60846.4661238258,60740.0109443219,68601.4260169597,79652.7731594872,77549.4042481894,78168.3384824820,63306.0078565249,64527.4864374896,6929.5885145432
673243864,6039,4,0,55182.4884266241,61176.5514032386,60740.9721923709,69121.0596774803,78830.4680404960,76106.3762434726,78638.6929708696,63561.8945207113,64969.7700493067,7208.0584240331
673243864,6039,4,0,55578.6929705727,61586.7244631400,61110.3834679155,69451.8385156119,77976.6972575206,75862.5234314440,78909.8987653562,63953.8160353783,65312.9234351073,7401.8533313321
673243864,6039,4,0,55439.6040281897,61532.8824046985,61389.0845636449,69132.0227723177,78248.7182876943,77226.9846177751,78597.5053171240,63961.4573489831,65076.8579490454,7243.8314526925
673243864,6039,4,0,54952.4702858832,61082.0205666212,61173.9231807249,68612.4256148876,79218.6662399351,78195.1074154924,78141.7520649238,63564.8512710393,64590.1014053404,6956.2722736759
673243864,6039,4,0,54786.5029012183,60857.1736970300,60784.0215037305,68592.3245797361,79546.7925201594,77575.4917901778,78147.1910254037,63323.1886444389,64513.2380645099,6929.3694960004
673243864,6039,4,0,55114.9455415600,61120.1784638579,60731.3475441840,69046.1431681414,78852.7957641661,76198.8264039333,78560.6006926600,63518.4193399630,64900.1829911763,7169.6085020726
673252351,6040,4,0,55528.0266810020,61536.0216704788,61050.8955981481,69426.3106876774,77943.5646190718,75664.8835319489,78883.8598941551,63904.6585402136,65281.2752556708,7380.0731540190
673252351,6040,4,0,55484.3568171045,61573.8875429918,61375.1525507827,69211.2223109383,78009.0146602824,76870.5562747406,78659.0008568671,63993.1541992069,65135.5427508224,7275.9541723051
673252351,6040,4,0,55006.3366797184,61146.5701982669,61246.8076846943,68669.0297405080,78995.0726431168,78102.7059258190,78175.6999390599,63633.5379196048,64633.5644183920,6986.9957081539
673252351,6040,4,0,54766.2680214017,60853.9492573720,60839.4575304558,68564.4970571021,79497.7932050534,77650.9193427832,78111.5640091061,63330.4527594422,64478.3776131122,6915.0724522335
673252351,6040,4,0,55074.0864156285,61085.8898942109,60724.8256586869,69015.0060319715,78863.6858528226,76198.9115778110,78524.7181547291,63489.7400785513,64851.2445145544,7150.6390627256
673252351,6040,4,0,55518.8887406880,61529.3902757103,61032.6683883073,69437.9795089306,77903.2773748910,75553.2205782048,78887.7657248352,63891.7851169749,65270.5190116793,7390.4521994090
673252351,6040,4,0,55525.2646138232,61614.3573026249,61382.8790382652,69272.8881984369,77868.6237743393,76648.7391616584,78709.9470034648,64021.3710881393,65186.5254005106,7314.8177959576
673252351,6040,4,0,55069.0246537502,61215.7922254926,61292.7772432914,68732.2409255032,78792.4439879243,77910.8578500117,78228.7389295110,63687.8180151320,64705.0496372267,7017.3176086366
673281134,6041,4,0,54779.8593387530,60890.2211616011,60900.9652378958,68557.8048238495,79389.2208463023,77703.3012776059,78096.6464128012,63360.8111630154,64485.2401941203,6909.6334917536
673281134,6041,4,0,55012.8585652155,61046.1988671744,60735.1073625023,68938.5077220457,78922.6018408393,76355.4976682255,78453.0869235324,63453.4925097158,64776.7903776948,7106.5920002266
673281134,6041,4,0,55467.3342092492,61480.3301221202,60975.9304180219,69406.7571988829,77933.0273936231,75428.8667166743,78863.1383064656,63839.3545113649,65215.2411650127,7365.0947192300
673281134,6041,4,0,55576.1864250272,61656.3480243609,61361.6950780965,69351.2846690671,77690.1479973403,76324.0198365445,78784.5714880799,64053.6154847201,65226.9586570532,7345.1761995308
673281134,6041,4,0,55140.8627357928,61290.1003499903,61353.1290195332,68794.6125394175,78588.4525506877,77787.8667705254,78282.6539941335,63762.1504750233,64746.1277817010,7055.8770398685
673281134,6041,4,0,54782.1955365430,60896.9377302474,60947.7378644832,68534.1508212257,79319.5242789005,77750.5241089758,78077.5309610923,63382.0802970619,64457.3640006989,6908.7087467951
673281134,6041,4,0,54978.1684615733,61008.7101932630,60730.3862961350,68892.0271201820,78928.3449937397,76397.7682469884,78412.9578594104,63431.0796121679,64735.8825809761,7096.9551843428
673281134,6041,4,0,55444.7874670363,61446.6377696175,60958.9929840444,69386.9968592425,77945.2194258397,75417.5507586290,78848.0746977988,63815.3476455332,65199.3988237492,7375.5589384977
673318588,6042,4,0,55596.8958450199,61664.4517104449,61349.8194059973,69392.5939997810,77613.8930413510,76127.3533527953,78826.9272407205,64056.9250982559,65268.3044908576,7392.2651862356
673318588,6042,4,0,55204.2199331499,61347.5318789946,61383.5847646810,68872.8873330795,78394.9861712029,77567.1690855509,78353.6525050954,63811.3688086721,64823.7941905218,7111.8241098604
673318588,6042,4,0,54807.5043459347,60929.5471577329,61014.5506877380,68544.2621772855,79205.9753321488,77798.1363066440,78085.2696162717,63420.8465791398,64480.1054260610,6922.9206166843
673318588,6042,4,0,54915.8941892334,60956.8514694036,60746.5936683031,68812.8397492583,79000.3047527506,76587.8033359691,78351.1459595498,63394.8807141196,64664.5555422000,7062.1920745197
673318588,6042,4,0,55377.5244389990,61373.5950855893,60899.5659527612,69330.4779074999,78017.5563834521,75367.1156552979,78812.1191536870,63748.9850270609,65135.3845707637,7350.0554459568
673318588,6042,4,0,55611.3023980582,61662.3588665914,61299.0922779425,69430.8370708955,77492.5567686326,75852.3634045968,78873.5051841587,64052.4838889155,65286.1179990063,7422.4045712660
673318588,6042,4,0,55262.1260023303,61400.4613601744,61412.9575848116,68930.2458559029,78214.3445441695,77428.6033541312,78407.9447683193,63864.4077991233,64865.3225397785,7160.6165741204
673318588,6042,4,0,54820.0857444496,60952.5562724251,61058.9141103544,68542.6317059112,79126.2769179585,77818.4076895510,78083.4322940515,63443.1377997194,64471.1865042898,6933.2266558933
673353526,6043,4,0,54890.9382430496,60940.9604573528,60766.2810017627,68779.7314462031,79015.5873799602,76675.1673991578,78323.1602568571,63382.8346942649,64624.0736148701,7044.7070941851
673353526,6043,4,0,55335.8744127741,61334.3055925481,60893.4212658656,69289.1077383019,78084.5517221592,75447.3251127547,78778.3416273065,63713.3215076729,65080.5934319700,7327.1071697487
673353526,6043,4,0,55606.5326609036,61646.2731713915,61276.3143494899,69448.1517034746,77476.9212782151,75682.1616614375,78895.4678769242,64031.7136304388,65283.1734163752,7426.6024266699
673353526,6043,4,0,55333.5382149841,61457.5278582740,61446.6621050111,69013.4972375655,78029.3468816735,77162.2403029802,78491.9748825786,63912.5797108454,64937.3553049704,7200.6361289711
673353526,6043,4,0,54869.1458980397,61004.4271639813,61150.5003643407,68566.1153607795,78984.8031069982,77826.7182264810,78107.6825138196,63499.8270992175,64512.6783504560,6953.7657281304
673353526,6043,4,0,54843.6667408925,60906.7570615835,60807.1401276941,68704.6445891087,79054.2441527667,76845.3083038330,78256.5786198419,63359.4240455776,64577.8120315492,7015.4924541132
673353526,6043,4,0,55277.0435986352,61277.5554545659,60861.9799372751,69233.0633267354,78151.1455268711,75434.2326709732,78734.9637881327,63658.3843565173,65033.3584329034,7304.0007134820
673353526,6043,4,0,55627.4854348327,61657.2484339258,61255.9212896147,69491.3956979833,77393.1953563764,75459.4928095777,78938.5658590710,64032.9304001211,65316.2938871272,7459.1996864586
673388461,6044,4,0,55404.2081981318,61520.6903724819,61482.9340092403,69091.1271432958,77858.3542382207,76987.1836487885,78556.6218557989,63969.6583766418,65000.9680239607,7249.9396364976
673388461,6044,4,0,54916.8554372825,61049.0947790183,61200.3270828306,68602.5819481579,78854.3653970563,77764.1397617207,78137.4690356422,63544.2148572276,64527.1700773722,6977.1642091209
673388461,6044,4,0,54841.9632633373,60904.8710685760,60831.9743969097,68689.0334340849,79013.7013869527,76898.4324681620,78241.3081603292,63366.4204712508,64535.8091421164,7010.8930647141
673388461,6044,4,0,55231.6945925761,61234.7129940523,60853.9127542815,69182.3483663774,78202.6635552195,75533.1803815374,78691.0627379956,63630.6055046705,64965.6695354773,7284.9582679541
673388461,6044,4,0,55604.6223325024,61625.1622174037,61207.8467194672,69491.4808718611,77381.0154918567,75284.1684660559,78948.5555381626,64005.4922437853,65293.9053249730,7467.4980556918
673388461,6044,4,0,55465.2291976988,61574.5202632266,61473.8325720167,69177.7489769784,77641.5867193200,76650.0046021280,78641.1021748405,64016.2484877768,65064.9944446430,7305.7650295213
673388461,6044,4,0,54972.8755134553,61120.5556624594,61266.5923597284,68653.3455793032,78651.0553508417,77706.1606863593,78180.6278562731,63620.5549870948,64574.8796166149,7018.3518628666
673388461,6044,4,0,54814.2209145809,60898.4100215630,60871.8966101858,68646.5560044760,79006.8509736414,77033.4330644125,78202.9190768528,63376.3371441615,64507.9694517856,6997.6546105708
673444757,6045,4,0,55184.9219659887,61195.2044824682,60823.8342077352,69146.0277913609,78250.2879205845,75547.3192452457,78659.3780554686,63599.1155052927,64931.0281026224,7255.2325846156
673444757,6045,4,0,55607.9927845224,61622.4731564058,61167.1336058977,69519.3327298888,77331.3104503350,75126.0614135386,78971.0657772851,63997.3885577013,65303.8950040647,7466.3056214032
673444757,6045,4,0,55520.7869013924,61616.5109849626,61475.9254158703,69249.6235621115,77497.2048288190,76452.6445596598,78705.1529309165,64049.9895110668,65112.8621639445,7333.7628999109
673444757,6045,4,0,55026.3890440826,61164.2620294474,61296.6709062747,68698.8284300274,78493.0213045054,77577.7549817868,78221.8885161997,63659.8566478329,64608.8883292350,7038.5137365022
673444757,6045,4,0,54816.3989323123,60901.4641134655,60903.2771002922,68624.0579330504,78930.4256698965,77082.5418887899,78184.1443206550,63382.0681293651,64488.0996028737,6987.6649314791
673444757,6045,4,0,55125.0203945294,61137.5174318306,60810.1820518998,69064.3338748917,78308.9483869679,75694.6335506810,78589.3529602526,63545.8088255114,64858.2652756212,7225.2878827344
673444757,6045,4,0,55558.9082955386,61569.0813027467,61102.9611728535,69483.9612352245,77360.0505502307,75006.7084754024,78951.1594252828,63936.5379058897,65274.6560285991,7461.7305673978
673444757,6045,4,0,55570.5527813982,61664.8532444401,61458.5134417167,69326.0366981595,77316.2833447586,76124.9563165212,78783.2573768230,64079.0703064737,65203.3776606103,7383.5531153104
673447298,6046,4,0,55101.0621994850,61257.1137239033,61377.6834317219,68766.7606813898,78298.3624907319,77495.0268110876,78280.3786348276,63739.6402359009,64698.6980994852,7079.0808377099
673447298,6046,4,0,54804.0973908243,60917.4402993941,60960.5017784505,68590.4994252127,78914.0236145791,77201.3716159628,78152.6056504899,63392.5566840265,64467.0373196732,6967.2718716039
673447298,6046,4,0,55066.5059405078,61097.8264047942,60789.4726319072,69006.2452902590,78360.9409554923,75739.3863395958,78540.8768561100,63502.6743402741,64792.8882405916,7178.2597345137
673447298,6046,4,0,55523.7314840235,61540.4142090319,61059.8996937971,69466.7439442200,77362.0460525097,74932.1691646650,78941.6686217609,63905.4737759008,65234.8919953818,7437.9062170185
673447298,6046,4,0,55582.2216026514,61675.5364822506,61429.1771246765,69364.7056386629,77214.3545484728,75925.8684611042,78820.4540260107,64084.5092669535,65208.6462733347,7401.7924928480
673447298,6046,4,0,55135.4237753130,61299.7128304804,61384.6433543046,68818.2422066477,78119.0714780459,77305.0768959847,78332.1156817188,63778.5403626438,64729.2268508139,7110.1449676989
673447298,6046,4,0,54802.6981056896,60938.1375516899,61001.1175504454,68584.2330613489,78808.9798879067,77246.5259388727,78147.1910254037,63421.9660072475,64466.9764811891,6971.3358823427
673447298,6046,4,0,54997.1865717075,61059.7415137384,60813.5281685261,68933.2026062309,78432.8642114127,75933.6071162836,78477.2641371196,63478.5457974742,64737.4400461694,7156.7837496212
673487449,6047,4,0,55465.5820609067,61500.2729772130,61045.1281098540,69425.9334890759,77438.9702318244,74892.0279328461,78914.2304654251,63859.7110681497,65214.9613079858,7434.8399574191
673487449,6047,4,0,55623.5552687589,61724.7791512931,61447.7937008156,69432.5770515412,77087.0196012208,75642.5436405820,78886.4151104879,64109.6477285897,65292.6277168066,7450.9743234063
673487449,6047,4,0,55214.0270967892,61392.3698417871,61490.1616211531,68889.3745622746,77942.3843524799,77199.4126167743,78390.6544711339,63856.3162807361,64820.0587075972,7167.0411180429
673487449,6047,4,0,54813.3935111970,60968.0700858743,61097.6682247355,68571.5178181689,78770.2622766161,77326.3460300312,78134.7434715538,63452.5312616667,64466.0152331401,6988.1881424425
673487449,6047,4,0,54966.8525035279,61037.9004979412,60846.6121361877,68892.6598404168,78469.6228235148,75993.4721846525,78444.3870203040,63461.5596927094,64695.0599581351,7151.7706585302
673487449,6047,4,0,55439.2146618914,61475.3291987260,61049.1556175024,69410.5535202917,77466.4083881601,74877.0373303603,78900.3471233502,63839.5978653014,65176.4992183285,7439.1108190039
673487449,6047,4,0,55643.7658131818,61740.1104492900,61456.7856287678,69482.9391486914,77011.9935826105,75428.6355304347,78935.0372269924,64120.7811711827,65312.3272179630,7494.9118766339
673487449,6047,4,0,55293.7498463731,61474.2949444960,61552.2047072533,68993.4813762917,77726.0305352712,76922.6461848396,78486.8157791257,63925.6843203237,64912.7157189039,7243.8192849957
673497406,6048,4,0,54867.3085758194,61045.3227930032,61210.8156374920,68623.6198959647,78601.3016385327,77310.3698441027,78179.3624158036,63533.8966503218,64545.6163057557,7040.7769281113
673497406,6048,4,0,54925.7013528727,61026.9130677101,60911.4172894667,68845.0233073550,78489.3466600648,76162.4449904327,78403.3332112234,63467.0959947638,64686.8345950828,7149.5926407988
673497406,6048,4,0,55380.5906985984,61428.5322367449,61030.5998798474,69373.1986910453,77520.4451297508,74842.4080652022,78876.4132636994,63804.1046936688,65159.1237472653,7435.5091807443
673497406,6048,4,0,55670.9727832779,61758.6783546418,61438.6557605016,69543.4126019014,76884.7924800235,75145.1403621570,78998.4917659240,64141.3080757230,65373.4942298919,7541.1612922579
673497406,6048,4,0,55369.7736161228,61541.1929416285,61606.8863367756,69075.5281559688,77525.8840902306,76758.9541594806,78559.1162336476,64000.8076805085,64994.8720078524,7294.3030591141
673497406,6048,4,0,54889.4902871277,61064.2678969565,61263.2219077084,68629.3630488652,78497.9735571123,77312.4018494721,78178.8392048402,63564.1212092299,64555.2774570332,7043.9892000725
673497406,6048,4,0,54893.2014346587,60989.7894247033,60913.7291518631,68804.1276783331,78482.8491099614,76227.7855223719,78357.1081309931,63443.7340168638,64654.9917324972,7123.9553035929
673497406,6048,4,0,55318.1582461999,61362.1452828790,60994.7173419166,69310.3525369548,77573.1312569941,74922.0821439988,78814.3215068120,63751.5524110905,65110.0392582815,7404.4207153617
673547397,6049,4,0,55629.4322663244,61712.7574668320,61374.3129797019,69525.5260875717,76882.4441145366,75004.2871037346,78984.2798960348,64098.1127520016,65359.7203970883,7537.4136416365
673547397,6049,4,0,55401.6529817989,61576.1629022977,61578.3652554226,69130.8546734227,77349.6958402344,76484.6456023042,78608.7847720788,64026.4328500176,65041.5472928652,7333.1301796761
673547397,6049,4,0,54927.8063644231,61122.9648664304,61309.9823665990,68656.9715529564,78348.6029109138,77305.3810884053,78197.3584394047,63618.3769693634,64581.8638745913,7073.8973988633
673547397,6049,4,0,54850.5414895974,60976.4901320758,60945.4990082678,68742.2792753821,78529.6947427297,76424.9873847813,78302.4021660771,63435.9345232003,64595.9175644218,7104.9371934586
673547397,6049,4,0,55259.9479845990,61316.3460720374,60958.1899160541,69261.8155943281,77666.8103548339,74950.6640638359,78772.5498036188,63701.9568788402,65050.2228607000,7380.1583278968
673547397,6049,4,0,55641.4904538760,61715.9819064901,61330.4849357457,69568.6119020217,76821.2527672141,74786.5096659976,79024.7253202743,64085.9693905723,65382.1454623330,7550.4452449338
673547397,6049,4,0,55474.8781812794,61636.9283802315,61600.0480911611,69220.8591268220,77182.7063690364,76293.9047869077,78685.5386036379,64071.5019990498,65118.4593044830,7372.9185482871
673547397,6049,4,0,54984.2036391974,61173.8988453312,61359.7360789080,68710.5215866742,78216.4860588103,77239.1036438107,78241.7948682021,63661.2924360580,64626.5558250219,7095.3368806653
673584958,6050,4,0,54858.6695110752,60982.5861481841,60966.4517821969,68740.6244686142,78484.8932830276,76475.8970282885,78295.8072743991,63443.3811536559,64585.3803389731,7099.3643883137
673584958,6050,4,0,55227.5940787468,61282.2400178427,60943.1506427809,69219.7518664111,77724.2175484446,75073.3144478111,78734.0633785678,63674.6647348664,65000.1162851831,7365.0825515331
673584958,6050,4,0,55625.2344109205,61691.8776990839,61279.8186461749,69565.0711022462,76842.9356029525,74665.9521258759,79027.5847290277,64056.5113965639,65364.0034263700,7572.6634593325
673584958,6050,4,0,55537.4079752525,61692.9971271916,61582.9159740344,69301.4457828804,77003.9385673137,75974.6852607579,78767.5002094373,64113.2371991525,65192.7187581934,7446.3749340072
673584958,6050,4,0,55042.5842485539,61244.9581947772,61417.7881604503,68752.4027991388,78027.1201931549,77176.4156697789,78279.7702499865,63731.7434006628,64694.6462564431,7150.6999012097
673584958,6050,4,0,54818.2605899262,60962.2539267930,61003.8674499274,68673.1789251246,78490.1375603583,76643.9694245038,78238.0350498838,63438.3923979585,64554.8880907348,7088.5716412318
673584958,6050,4,0,55139.9014877438,61203.6366963665,60895.1125757240,69135.5392366996,77805.0475584394,75131.7072248644,78665.7904316943,63606.3674525992,64929.0447680403,7325.3306860126
673584958,6050,4,0,55585.7258993364,61641.9536390193,61207.5546947435,69549.2530963764,76834.6250660225,74545.3215795732,79020.2232724498,64012.3061540062,65329.1794780627,7558.3907509592
673589760,6051,4,0,55566.5617768403,61703.8263773640,61556.5729104127,69349.2161606072,76896.3639597021,75806.6006968458,78811.7541227823,64127.4247336480,65203.8278653928,7462.1199336961
673589760,6051,4,0,55086.2906155419,61278.5288703117,61432.0487011268,68795.6102905570,77895.9280860099,77066.8212244947,78319.8384756244,63763.4524185834,64698.4547455487,7158.6089041446
673589760,6051,4,0,54830.5377960205,60977.8285787263,61033.0455869088,68670.9887396965,78435.7236201661,76695.5847944267,78235.2121442209,63458.1284022053,64525.2232458805,7073.8243926824
673589760,6051,4,0,55110.2366428895,61181.1142895472,60909.3487810068,69093.9257135651,77875.3403429855,75289.5222526580,78627.9488945749,63594.7107990428,64873.0490272611,7297.9168650705
673589760,6051,4,0,55563.0453124584,61620.1126232221,61179.4838181730,69540.4801869671,76883.0890024682,74446.3130305250,79016.1714294077,63985.2573639688,65307.8251701385,7551.5403376479
673589760,6051,4,0,55629.4931048085,61761.9514650872,61546.9847653163,69438.1863597766,76709.2247825652,75435.1087451445,78897.3295345381,64162.3095204394,65284.8403908399,7509.5131128215
673589760,6051,4,0,55176.6479321491,61375.1768861763,61507.0625520402,68876.9513438184,77648.5831449932,76901.0728583726,78393.1001781954,63848.1030853806,64793.0220852566,7211.2220252070
673589760,6051,4,0,54842.7541636307,60997.4915767922,61097.5952185545,68653.4307531810,78353.8836913350,76766.5224669045,78222.7645903710,63481.0645107165,64530.9542310841,7076.6351306485
673683880,6052,4,0,55070.4239388848,61137.6877795861,60894.1999984623,69044.7803860972,77885.1596743216,75308.7350459414,78591.7378288299,63558.3415532390,64834.2097390023,7277.4021282270
673683880,6052,4,0,55539.9875269790,61580.7866270904,61138.8680461780,69527.3999128824,76850.9662828557,74347.1828045084,79012.5576234513,63956.2130716524,65296.9959199661,7552.6962688461
673683880,6052,4,0,55656.9677642347,61766.8550469068,61529.9013189769,69482.7322978454,76578.5437186868,75211.2474589960,78940.1111565675,64174.5988942306,65327.8653668059,7549.3866553102
673683880,6052,4,0,55241.4044146408,61425.7701695661,61538.5525514180,68943.0584406574,77443.4722796488,76677.3210814955,78451.4929552486,63902.0181500030,64868.4861409525,7264.0176617218
673683880,6052,4,0,54868.4158362303,61030.5755444538,61153.2867669132,68654.3068273522,78216.9727666833,76769.4183787483,78215.1354444630,63522.5685245796,64551.1891109006,7094.7041604306
673683880,6052,4,0,55013.2479315138,61095.4415362169,60913.2424439902,68955.7858515342,77928.6348550700,75498.2712593524,78504.9821504823,63533.2517623901,64764.7443578401,7247.2992462871
673683880,6052,4,0,55463.8420802610,61510.0679731555,61085.8655588172,69453.0431175974,76935.4344342005,74344.2382218773,78949.1030845197,63888.8405343438,65217.5408597122,7517.4829542405
673683880,6052,4,0,55668.5392439134,61774.7762175386,61482.9340092403,69519.1867175269,76479.6811820004,74943.6919735563,78979.5831650612,64174.4650495655,65343.0141493504,7567.3583435177
