steady_timestamp,sequence,battery,flags,EEG-ch1,EEG-ch2,EEG-ch3,EEG-ch4,EEG-ch5,EEG-ch6,EEG-ch7,EEG-ch8,EEG-ch9,EEG-ch10
5355318505,4148,-2,0,11593.0165019944,39596.4961998194,34998.6764336374,52564.5476166840,51222.4141540230,50381.1517633817,49678.9296443360,74251.7758937198,49823.8955842846,2918.1543936525
5355318505,4148,-2,0,11571.1754861973,39572.6231786528,34978.0156844321,52541.9035328965,51202.1427711160,50377.8664852395,49661.6271794538,74235.9457201531,49808.8684787082,2906.0962061010
5355318505,4148,-2,0,11569.1556485247,39567.6344229554,34980.9480993664,52542.5240854345,51201.5952247590,50399.2329608606,49661.8096949062,74236.6392788720,49811.3628565569,2909.9046952066
5355318505,4148,-2,0,11578.4639365942,39578.3176607659,34995.8656956714,52557.0888185316,51210.4046372588,50425.1988258807,49671.5560200613,74248.9529880568,49821.8635789151,2922.8876277167
5355318505,4148,-2,0,11594.5374640973,39594.1356666357,35018.1812516446,52576.2651087245,51228.9238718233,50451.4323802310,49688.5664602198,74267.0828563230,49837.2192123057,2934.2887596398
5355318505,4148,-2,0,11607.3500488519,39607.1307668426,35026.6499686334,52583.5292237278,51238.4633461325,50422.3150817337,49701.0505171601,74273.0815308567,49847.1967237005,2933.6073686177
5355318505,4148,-2,0,11588.9159881651,39598.1023358000,34998.6155951533,52556.9428061697,51221.5989183359,50374.4351947354,49684.6971326301,74251.0336642136,49830.1497804516,2915.1733079309
5355318505,4148,-2,0,11567.5130094536,39581.4569265462,34981.4591426330,52538.5574162702,51204.7953290234,50394.3415467377,49663.0629676789,74237.0164774735,49808.2357584734,2906.1692122819
5355353024,4149,-2,0,11579.6320354892,39591.9576489044,35006.9626351739,52562.1019096226,51219.1167081840,50452.0164296785,49672.7971251373,74257.7502328598,49817.5805496335,2922.7051122643
5355353024,4149,-2,0,11599.4775490074,39613.2511183446,35029.9717498661,52585.3787136449,51240.6170284702,50440.4449499999,49691.8882414525,74277.4862371066,49841.2467199541,2934.8849767841
5355353024,4149,-2,0,11591.3373598329,39605.6341401334,35010.4669318589,52570.1204218289,51228.7900271583,50400.0846996382,49682.6772949575,74263.0188455841,49838.3264727166,2922.0480566359
5355353024,4149,-2,0,11577.1133222469,39590.9720654617,34990.6822568248,52552.1122305310,51213.6899154010,50392.2000320969,49672.5051004135,74249.8047268344,49824.1632736147,2910.1967199303
5355353024,4149,-2,0,11574.3877581585,39584.1824906346,34984.4158929610,52548.8634554793,51209.8205878113,50389.0972694070,49677.1288252062,74247.5171998317,49817.8117358731,2911.3648188253
5355353024,4149,-2,0,11573.9497210729,39579.0598902721,34985.5109856750,52551.0536409074,51208.4943088576,50406.4849081670,49676.7759619984,74249.1841742965,49810.6814655348,2911.8028559110
5355353024,4149,-2,0,11590.8019811727,39590.5583637698,35008.0212247975,52574.6833081375,51226.5998417301,50451.2376970818,49689.1261742737,74271.3537179079,49824.3336213702,2921.9750504549
5355353024,4149,-2,0,11614.0666174981,39614.2488694840,35027.7572290443,52595.3197219492,51249.7306333906,50437.1596718577,49705.2118694736,74288.7048535774,49850.6280142046,2930.6141151992
5355408464,4150,-2,0,11598.9178349536,39603.9428302750,35000.5867620386,52565.5940386108,51232.1483114814,50376.3576908334,49683.3830213732,74262.5443054081,49843.2787253235,2918.1178905621
5355408464,4150,-2,0,11571.4553432242,39577.9039590739,34976.7259085689,52539.0076210527,51209.3947184225,50394.0008512267,49659.6438448717,74243.0394874009,49824.4066275511,2911.3039803412
5355408464,4150,-2,0,11585.4725299642,39591.0937424300,35005.2469899218,52560.1915812214,51227.3785743268,50451.5175541087,49674.3424226338,74266.0364343962,49835.7712563838,2926.3675890080
5355408464,4150,-2,0,11605.0016833650,39616.0253532202,35031.8820782673,52583.3710436691,51250.8378938014,50453.2940378449,49694.5407993599,74285.1397184083,49856.5901856478,2933.4735239526
5355408464,4150,-2,0,11604.2837892525,39625.3458089866,35037.3088710503,52584.8068318942,51257.3841146922,50438.6197954764,49696.9621710276,74285.8697802176,49863.8664683479,2928.1805758346
5355408464,4150,-2,0,11593.6613899261,39622.7662572601,35029.8622405947,52577.7860708274,51256.4593697336,50426.1114031424,49692.4357878095,74280.3943166473,49864.3653439177,2923.0701431690
5355408464,4150,-2,0,11578.2084149609,39609.8684986278,35013.7157069106,52562.9536484002,51245.8004673167,50408.1275472381,49680.9129789182,74268.5429799418,49855.2639066941,2917.4486672368
5355408464,4150,-2,0,11570.4210889942,39596.9585722986,35007.6926969832,52558.3420913043,51237.0518933011,50430.4674386050,49675.5470246193,74265.1238571345,49848.7906919843,2915.3071525960
5355437251,4151,-2,0,11592.9069927230,39614.4922234205,35038.0511005565,52583.7360745738,51253.7946441294,50485.1369004305,49693.1415142252,74286.5511712397,49861.5546059516,2925.6983656828
5355437251,4151,-2,0,11622.0729620076,39645.7388688618,35067.3874175966,52606.9885432024,51277.0106096676,50475.3784075785,49713.6927541592,74304.6567041122,49884.5393852501,2932.2810896640
5355437251,4151,-2,0,11615.3442256645,39647.2963340552,35052.1047903870,52584.4783040800,51267.3494583902,50412.0577133119,49698.6899839765,74282.3411481390,49872.4933653954,2916.0858851926
5355437251,4151,-2,0,11597.0561773397,39627.2196342973,35026.0415837922,52560.8608045467,51244.6080330281,50410.0257079425,49671.5073492740,74259.4780458087,49843.1570483553,2896.9947688774
5355437251,4151,-2,0,11613.2270464174,39635.3233203814,35041.7257449970,52579.9519208619,51252.1520050583,50459.4873955278,49678.9661474265,74271.3658856047,49846.0651278960,2904.8672687219
5355437251,4151,-2,0,11648.2091747833,39668.1639341065,35071.5122668196,52614.2039874184,51277.1566220295,50483.6767768118,49705.9054281925,74296.2974963949,49869.3175965246,2924.9074653893
5355437251,4151,-2,0,11669.3931349521,39690.6741732289,35086.9530740879,52632.6623834988,51293.4126649849,50489.2495819567,49722.6846821113,74310.1321676826,49884.6732299152,2936.9291498503
5355437251,4151,-2,0,11674.0533628352,39699.2767348828,35087.6831358973,52633.6966377288,51296.9412970636,50469.1850498956,49726.4566681264,74309.0492426653,49887.6056448495,2934.4226043048
5355448630,4152,-2,0,11663.5161373866,39694.9328671170,35071.0620620371,52611.9286281126,51284.9439479962,50432.3899347031,49715.1893808684,74290.9315420960,49872.5663715763,2916.4630837941
5355448630,4152,-2,0,11654.5850479185,39688.4474847103,35065.9759647651,52602.9610355540,51274.6987472712,50460.0957803689,49702.3159576297,74284.3853212052,49857.4054213350,2906.0718707074
5355448630,4152,-2,0,11678.5310752661,39716.4331874031,35108.8549283692,52638.9044119690,51302.5506052989,50533.9415323873,49721.6990986687,74316.4715377273,49877.4699533960,2922.9362985040
5355448630,4152,-2,0,11714.1580915637,39755.5158295984,35151.2715194940,52674.5679313571,51335.4642252050,50538.8329465102,49748.5775409506,74344.6397558724,49911.6246783780,2941.2000114352
5355448630,4152,-2,0,11710.2644285803,39756.0998790459,35136.6702833064,52659.6259996585,51326.2532787100,50475.4027429722,49739.4517683333,74324.6482299924,49908.0838786025,2924.0435589148
5355448630,4152,-2,0,11691.3923308079,39734.3075340360,35109.1834561834,52635.5826307364,51300.2144075089,50466.0822872058,49718.4016528297,74298.3781725516,49877.8471519975,2899.8785130245
5355448630,4152,-2,0,11697.9872224860,39731.3507837080,35113.7828455825,52643.9175030601,51302.2950836657,50496.1121629648,49722.5021666590,74302.5273571682,49871.8484774638,2892.2006963292
5355448630,4152,-2,0,11719.4753750753,39749.5779935488,35134.3949240005,52664.9189477765,51319.6097162447,50517.6246509478,49739.0137312477,74319.8419897473,49883.6511433820,2899.2701281833
5355474688,4153,-2,0,11740.7931799091,39767.9390480546,35152.5856307508,52684.4237657836,51337.8977645696,50536.0830470282,49754.9655817826,74335.4409770743,49897.8386778776,2910.0507075685
5355474688,4153,-2,0,11753.5692615732,39780.3135957235,35158.6694791623,52692.8681473788,51348.1064622040,50511.2001070253,49764.2982052458,74340.9042729478,49905.6138361474,2909.7708505415
5355474688,4153,-2,0,11737.2767155272,39765.5420117805,35130.1727332030,52668.1677228282,51325.8152416244,50449.5463872234,49743.3575990135,74312.7482224995,49887.1432723702,2883.9266624896
5355474688,4153,-2,0,11720.6678093639,39744.5527347609,35109.2564623643,52648.1518615545,51303.6578657098,50462.2737981002,49723.2565638620,74294.5453480524,49863.7326236829,2861.1974048243
5355474688,4153,-2,0,11744.6260044083,39758.8741139215,35140.0894061137,52679.6296932354,51323.4547084408,50538.0907170040,49744.1363316102,74321.7523181485,49873.4181103539,2869.3862647862
5355474688,4153,-2,0,11782.8325724323,39792.2257709132,35180.6808427150,52714.0399398507,51356.3318252563,50544.4787578360,49776.0400326799,74349.3364868461,49898.9337705916,2884.7905689640
5355474688,4153,-2,0,11783.6721435131,39795.9490861410,35171.2265422836,52704.8533287494,51352.9735409332,50494.1896668668,49770.9174323175,74336.7307529375,49895.0887783956,2879.3272730905
5355474688,4153,-2,0,11768.4625224844,39782.2604272152,35144.8469755715,52683.1704930109,51337.6057398458,50480.5131756378,49752.6050485989,74321.2777779724,49873.1382533270,2867.3907625072
5355526368,4154,-2,0,11770.1416646460,39777.7340439971,35138.2764192871,52682.8176298030,51334.9531819384,50493.9828160208,49749.5144536059,74321.9713366913,49868.6483731994,2867.6462841405
5355526368,4154,-2,0,11783.7451496941,39786.5191211033,35149.1178371563,52695.2286805624,51344.7968486682,50511.9058334410,49759.8326605118,74331.9366803893,49878.6867230783,2874.9834053247
5355526368,4154,-2,0,11805.1237930120,39803.7120767141,35172.1512872421,52718.8218447021,51363.5472694724,50542.7752802808,49780.5785835949,74353.4126652818,49896.7435851635,2888.2583625586
5355526368,4154,-2,0,11823.5335183051,39820.0411258505,35186.6916849456,52736.1729803716,51376.1651710777,50519.7539978918,49800.5092709909,74363.4510151607,49913.6445160506,2886.1776864018
5355526368,4154,-2,0,11807.1192952909,39806.9121809785,35153.7902327363,52712.9813502271,51356.5873468896,50460.8866806624,49783.6326754975,74336.0615296123,49897.0599452809,2860.8202062228
5355526368,4154,-2,0,11787.2859494695,39786.0810840176,35126.7414426989,52689.6923785080,51336.7296656746,50467.5180754309,49761.3779580083,74315.5954635561,49868.3563484756,2843.5420767343
5355526368,4154,-2,0,11799.7821741067,39798.5651409580,35148.4364461342,52709.1120226374,51352.1096344588,50527.2371314379,49769.2382901559,74335.9641880377,49870.7655524465,2856.2938230047
5355526368,4154,-2,0,11824.7502879874,39829.4345877978,35177.4198999665,52734.4938382101,51376.7127174348,50533.0654582161,49792.1257278799,74359.8493769011,49895.5389831780,2872.1604996618
5355541330,4155,-2,0,11823.8863815129,39827.7797810299,35166.6758236718,52724.6015006930,51370.3003412091,50492.2550030720,49787.4533322999,74346.1120471880,49894.1640334371,2860.3091629563
5355541330,4155,-2,0,11806.4379042689,39807.9220998148,35146.0272421633,52703.6608944607,51353.2777333538,50474.9890412802,49772.2437112712,74325.0132608970,49880.5727160858,2836.4483094865
5355541330,4155,-2,0,11797.8961810991,39792.7003110893,35135.2953335654,52691.9434024202,51339.9297699390,50471.6672600475,49762.1080198177,74313.6121289739,49871.0332417766,2825.0593452602
5355541330,4155,-2,0,11798.0421934610,39788.4781202917,35138.4589347394,52694.1944263325,51339.3822235820,50498.8985655373,49762.1810259986,74315.2304326514,49871.6537943146,2838.6993333987
5355541330,4155,-2,0,11814.3955779911,39804.1257784061,35167.6249040240,52720.8660177684,51360.1768174524,50548.0438930051,49784.7399359083,74341.7803471191,49894.6750767036,2867.4637686882
5355541330,4155,-2,0,11830.2622546482,39824.5796767654,35186.4239956154,52740.8697113453,51376.7248851316,50523.3434684546,49805.7778837152,74357.1359805096,49914.4232486473,2877.5021185671
5355541330,4155,-2,0,11804.2477188407,39805.0140202741,35149.4463649705,52705.9727568571,51349.8586105465,50442.1119244646,49783.2068061086,74322.0808459627,49891.1221092313,2847.9954537715
5355541330,4155,-2,0,11764.6540333789,39762.2932367288,35106.2510412491,52666.2938975175,51314.4627804886,50435.6752128453,49748.6505471315,74286.6241774207,49847.8537793289,2825.0350098666
5355570891,4156,-2,0,11767.9393115211,39758.6794307724,35117.9807009864,52680.5057674067,51322.6759758441,50493.5569466320,49757.8979967169,74299.3515882974,49843.9844517392,2839.3685567240
5355570891,4156,-2,0,11793.2967917001,39785.0955005750,35145.9907390728,52714.7578339632,51353.0100440237,50511.6503118077,49790.3370764469,74324.5752238114,49868.6118701089,2860.3091629563
5355570891,4156,-2,0,11799.2224600528,39795.9490861410,35146.7086331854,52721.2918871572,51356.7576946452,50484.5406832862,49803.1131581110,74326.1813597920,49877.9809966625,2861.4529264576
5355570891,4156,-2,0,11788.5878930296,39787.3586921840,35133.4823467388,52709.1241903342,51344.5534947317,50466.4229827168,49795.8733785013,74315.3886127101,49874.3185199188,2852.7043524419
5355570891,4156,-2,0,11765.2015797359,39768.5961036831,35110.3150519879,52685.0686537153,51323.5398823185,50442.1849306455,49775.9791941958,74294.5453480524,49860.5811902057,2839.2712151494
5355570891,4156,-2,0,11750.4908342770,39755.6375065666,35101.2866209453,52674.6531052348,51313.7448863761,50459.6212401928,49764.7240746346,74286.5025004524,49848.9488720430,2838.2369609195
5355570891,4156,-2,0,11762.4516802539,39763.6803541666,35125.6341822880,52697.6743876238,51331.7165745835,50514.0108449914,49783.8395263434,74311.2759311839,49857.4419244254,2855.9409597968
5355570891,4156,-2,0,11785.5216334302,39784.8156435480,35152.8046492937,52723.9322773677,51358.4125014131,50508.0121704577,49810.1217514810,74334.2728781793,49880.9255792937,2872.1848350555
5355600929,4157,-2,0,11771.1272480887,39771.6866986761,35128.9072927334,52698.1002570126,51340.2704654501,50439.7513912810,49795.2771613570,74309.2560935113,49878.5042076259,2856.7318600903
5355600929,4157,-2,0,11740.9756953614,39739.0894388874,35097.6119765048,52663.4223210672,51310.8489745322,50437.5733735496,49767.7659988403,74284.1906380561,49857.6122721809,2840.1837924111
5355600929,4157,-2,0,11748.6413443599,39738.4202155622,35109.7188348436,52673.0226338605,51314.5601220632,50489.2252465630,49770.9296000143,74298.9987250896,49864.4505177954,2851.8647813611
5355600929,4157,-2,0,11769.0709073256,39761.2954855893,35135.2588304750,52697.6135491397,51337.7760876014,50506.8562392595,49791.5660138260,74322.5675538356,49885.5128009959,2873.2555923759
5355600929,4157,-2,0,11780.1800145249,39777.8435532685,35146.5139500362,52709.9029229309,51352.7058516031,50509.2776109272,49804.6097848202,74335.3193001061,49896.5245666207,2884.8149043577
5355600929,4157,-2,0,11783.4774603640,39783.4893645943,35146.1002483442,52711.4360527306,51357.1835640340,50491.0625687833,49811.2290118919,74336.3535543360,49901.2456329880,2880.2641857459
5355600929,4157,-2,0,11770.6283725189,39770.4090905097,35125.4881699262,52693.3183521612,51343.6409174700,50456.2021173856,49797.9297192644,74320.6572254344,49891.4384693487,2864.0568135777
5355600929,4157,-2,0,11751.2330637832,39749.2738011282,35104.2920420606,52675.7603656457,51324.8174904849,50455.4720555762,49781.2721423138,74304.1578285425,49870.7777201434,2852.0107937230
5355643259,4158,-2,0,11760.9550535447,39753.6541719845,35121.3876560968,52695.0705005037,51336.9365165206,50512.8549137932,49792.8314542956,74321.6671442707,49872.1161667939,2861.4407587608
5355643259,4158,-2,0,11792.0556866241,39782.2969303057,35152.2327675430,52728.0936296812,51366.2484981670,50526.8112620491,49821.6567280691,74347.9615371051,49901.4524838340,2874.3871881804
5355643259,4158,-2,0,11786.9574216553,39781.7493839487,35140.2840892629,52713.2733749508,51359.8969604255,50465.0115298854,49812.1780922441,74332.2895435972,49904.3605633747,2865.2735832600
5355643259,4158,-2,0,11750.5516727611,39749.8578505757,35105.7278302857,52676.2470735186,51329.3438737031,50448.4269591157,49781.6736763090,74305.6666229486,49877.8106489070,2848.6525093999
5355643259,4158,-2,0,11744.0419549608,39740.3913824475,35103.7079926131,52678.5346005213,51327.0441790035,50481.4135852027,49782.9147813849,74310.4241924063,49871.4469434686,2854.2739853321
5355643259,4158,-2,0,11755.1875652506,39752.8267686005,35116.8004343946,52692.6126257455,51340.3434716310,50494.3600146223,49798.3434209564,74326.9235892982,49880.9620823842,2865.2735832600
5355643259,4158,-2,0,11764.0456485377,39764.7876145775,35130.0875593252,52702.4319570816,51352.8275285713,50502.9382408825,49812.7499739948,74336.9497714803,49889.9905134268,2872.6350398379
5355643259,4158,-2,0,11764.1794932028,39768.1458989006,35131.2678259170,52701.9939199960,51357.1592286403,50483.1048950611,49815.8892397751,74337.3999762628,49895.5146477844,2880.0451672031
5355665943,4159,-2,0,11743.5187439974,39752.8754393878,35101.9436765738,52676.2470735186,51337.5327336649,50430.3457616368,49795.4110060221,74310.2781800444,49880.9377469905,2863.6309441889
5355665943,4159,-2,0,11716.4334508696,39728.7712319816,35074.8583834459,52652.7877540440,51314.7304698187,50439.1308387430,49773.0224438678,74287.4394131078,49854.5946833689,2840.1837924111
5355665943,4159,-2,0,11732.5799845536,39739.1016065842,35099.7413234488,52678.4615943404,51330.3537925394,50507.7079780371,49788.1833941092,74307.9663176481,49860.3621716629,2849.6867636298
5355665943,4159,-2,0,11767.8419699465,39771.9178849157,35135.7212029542,52714.6848277823,51360.6756930221,50517.1501107717,49818.2132698683,74335.7208341012,49887.7516572114,2871.8684749381
5355665943,4159,-2,0,11775.1912588275,39782.5524519390,35132.2290739661,52710.3044569260,51359.4102525526,50476.0597986006,49821.9974235802,74328.1160235869,49897.9725225426,2874.0099895789
5355665943,4159,-2,0,11761.5391029922,39769.9832211209,35111.6656663353,52690.5319495888,51343.4949051081,50463.0281953032,49809.1118326447,74311.3976081522,49886.9729246147,2859.8224550834
5355665943,4159,-2,0,11756.5381795980,39760.0178774229,35104.5353959970,52684.8739705661,51331.5948976153,50465.3035546091,49801.8112145509,74304.9852319265,49875.8151466281,2857.9729651663
5355665943,4159,-2,0,11760.9307181510,39756.4770776474,35103.0387692878,52689.2665091192,51326.4601295560,50474.0034578375,49804.7192940916,74305.4476044058,49866.8840571600,2860.5768522864
5355687375,4160,-2,0,11768.2435039416,39762.2689013351,35112.1888772987,52699.0128342744,51333.3592136546,50497.9008143978,49809.2213419161,74313.8189798199,49862.1994938832,2863.3145840715
5355687375,4160,-2,0,11783.5382988481,39775.5316908721,35127.0578028163,52711.4968912147,51346.6828416758,50497.4992804026,49819.6125550029,74326.0961859143,49873.9656567110,2869.9703142337
5355687375,4160,-2,0,11778.6468847253,39766.3572474676,35105.8738426476,52691.1646698236,51334.3691324909,50448.2809467538,49811.3628565569,74305.6301198581,49871.6051235273,2867.1352408739
5355687375,4160,-2,0,11750.8558651817,39737.5684767846,35077.8273014707,52661.3538126073,51307.5028579059,50445.1660163672,49783.9125325244,74281.6232540264,49854.8988757894,2863.2780809811
5355687375,4160,-2,0,11747.9599533378,39734.2831986424,35091.7958174234,52673.5093417335,51311.4208562829,50500.7602231512,49791.2131506181,74296.4191733631,49858.8168741664,2873.2069215886
5355687375,4160,-2,0,11768.3286778194,39755.9051958967,35119.6355077543,52701.8965784214,51332.0207670041,50508.8395738416,49816.9965001860,74317.9194936493,49884.0770127708,2885.0704259910
5355687375,4160,-2,0,11766.7347095356,39760.8087777164,35114.0383672158,52694.2552648166,51330.4876372044,50467.8709386388,49815.3051903276,74309.0492426653,49887.4109617003,2878.3538573447
5355687375,4160,-2,0,11746.7310159587,39744.8447594847,35089.9341598095,52666.7197669063,51313.0269922635,50438.7901432319,49795.0824782078,74287.4029100173,49868.6848762898,2864.6408630252
5355726227,4161,-2,0,11731.4362210522,39728.5035426515,35070.7335342229,52649.5633143859,51297.8538743253,50423.7873730493,49778.6195844064,74270.6236560985,49845.4202399643,2854.3104884226
5355726227,4161,-2,0,11721.6777282002,39721.2515953450,35065.0512198066,52644.2825339648,51291.5510073710,50441.5887135012,49769.2382901559,74265.0143478631,49834.9803560903,2856.5493446380
5355726227,4161,-2,0,11735.0865300991,39732.4945472094,35084.9940748994,52662.0960421135,51304.8016292112,50486.8160425921,49779.6538386363,74283.9959549069,49845.7244323849,2874.7278836915
5355726227,4161,-2,0,11759.6652776815,39755.4306557206,35107.9180157138,52686.8816405419,51325.0730121182,50480.9877158139,49801.6895375827,74303.0505681316,49869.5974535515,2885.5206307734
5355726227,4161,-2,0,11745.7454325160,39746.6577463113,35082.9499018331,52662.9599485880,51309.1333292802,50413.0919675419,49789.9355424517,74280.7350121583,49868.2468392042,2863.9716397000
5355726227,4161,-2,0,11710.0697454312,39716.8833921856,35048.7708414575,52624.8872252290,51275.6234922298,50411.6196762263,49758.5550523454,74249.5978759884,49847.9754562972,2847.3262304462
5355726227,4161,-2,0,11713.0386634559,39719.7671363326,35062.2161464469,52634.5118734159,51281.9141914872,50471.9349493776,49766.9264277596,74263.4203795793,49852.0272993392,2863.2780809811
5355726227,4161,-2,0,11739.3695593808,39747.4243112111,35089.2649364843,52663.8968612433,51307.6123671773,50487.5826074919,49794.2794102175,74287.4880838951,49876.2531837137,2886.9077482112
5355758550,4162,-2,0,11741.1338754201,39755.2724756619,35085.8093105865,52664.1645505734,51310.8003037449,50449.2908655901,49798.3799240469,74284.5800043544,49877.4334503055,2886.1776864018
5355758550,4162,-2,0,11725.4497142154,39742.8857602962,35062.0092956009,52648.1640292513,51298.3040791077,50420.4534241198,49787.2343137570,74268.9445139369,49865.5699459031,2867.6827872310
5355758550,4162,-2,0,11712.5762909767,39725.9969971059,35034.6684808397,52630.2775149216,51279.5658260004,50401.6786679220,49770.8200907429,74251.2891858468,49853.2440690215,2848.6768447935
5355758550,4162,-2,0,11714.6082963461,39715.0704053589,35025.5427082225,52623.4027662166,51270.8902581657,50417.6548538505,49762.4487153287,74245.2296728290,49844.0939610107,2845.7809329497
5355758550,4162,-2,0,11739.0653669602,39725.4859538394,35053.1390446169,52643.8566645760,51287.0854626370,50478.7731949921,49776.3320574037,74267.7399119514,49854.9718819704,2863.6187764921
5355758550,4162,-2,0,11779.4742881092,39752.1818806689,35089.3866134525,52675.1398131077,51318.3929465624,50487.5339367046,49805.9482314707,74295.6161053728,49881.4609579539,2880.8847382839
5355758550,4162,-2,0,11784.3048637479,39751.7073404928,35071.9381362084,52659.2853041475,51311.2870116178,50428.1069054214,49800.1442400862,74282.0977942025,49882.9089138758,2866.8918869375
5355758550,4162,-2,0,11765.2137474327,39726.1186740742,35035.7392381601,52628.3063480362,51284.5424140010,50416.2799041095,49775.6263309880,74255.0490041651,49860.8488795358,2847.5939197763
5355791379,4163,-2,0,11769.1560812034,39723.0402467780,35038.5378084294,52633.6966377288,51279.7361737559,50458.6599921438,49778.1085411398,74261.5952250559,49858.8290418632,2850.7210178598
5355791379,4163,-2,0,11793.0777731573,39743.1534496263,35061.2305630042,52657.2046279907,51297.0386386382,50475.9016185419,49797.2604959391,74283.3632346721,49878.5893815037,2865.2735832600
5355791379,4163,-2,0,11809.3703192032,39758.3509029581,35071.8407946338,52668.3259028869,51310.3135958720,50479.8439523125,49810.4502792952,74295.6526084633,49890.8787552949,2876.2731811880
5355791379,4163,-2,0,11812.1080509883,39762.6582676335,35072.3031671131,52668.9342877280,51312.9174829921,50466.1552933867,49815.1835133593,74294.3628326000,49893.8111702292,2878.6823851589
5355791379,4163,-2,0,11798.9060999355,39755.8321897158,35057.2882292336,52650.8895933396,51302.4775991180,50432.6941271236,49805.9482314707,74280.2239688918,49884.6610622183,2870.4691898034
5355791379,4163,-2,0,11782.1268460166,39746.0858645606,35045.5220664058,52635.8868231569,51292.2202306963,50440.4936207872,49793.3181621685,74269.7354142304,49875.4379480265,2865.1397385950
5355791379,4163,-2,0,11788.0403466726,39757.0854624886,35067.3387468093,52656.4623984845,51303.5361887416,50495.9661506029,49805.5588651724,74292.3186595338,49882.3370321252,2880.0816702935
5355791379,4163,-2,0,11809.3094807191,39783.8787308927,35095.1906048370,52687.9889009528,51327.0441790035,50495.6011196983,49832.8996799335,74315.7658113116,49902.8396012718,2895.9240115570
5355819799,4164,-2,0,11794.9881015585,39779.1819999190,35073.7146199445,52672.2439012639,51312.9539860826,50427.3890113088,49823.8347458005,74296.7111980869,49890.7935814171,2879.9599933253
5355819799,4164,-2,0,11757.5359307374,39747.2052926683,35033.7315681843,52638.5637164580,51280.2837201130,50408.5290812333,49797.6011914502,74269.6624080495,49857.9407999952,2857.0725556014
5355819799,4164,-2,0,11748.8846982963,39737.7631599337,35033.3787049765,52640.4740448592,51276.8402619121,50442.9514955454,49792.5150941782,74274.2739651454,49848.2309779304,2858.3258283741
5355819799,4164,-2,0,11761.6851153541,39750.3688938423,35052.2751381425,52663.2398056149,51294.1427267943,50468.7470128100,49809.1361680383,74294.4115033873,49866.5190262553,2872.8783937744
5355819799,4164,-2,0,11771.9303160790,39762.7069384208,35064.2603195131,52680.4327612257,51306.1522435585,50481.0972250853,49824.1754413115,74308.2096715846,49885.2329439690,2880.0695025967
5355819799,4164,-2,0,11780.8005670629,39773.5726916836,35069.4680937533,52692.2962656281,51317.6020462689,50475.0985505516,49838.8010128927,74320.8154054931,49904.2510541033,2880.1060056872
5355819799,4164,-2,0,11765.2502505232,39760.5897591736,35038.7568269722,52670.2240635913,51297.8660420221,50414.0775509845,49824.1146028274,74297.9401354660,49894.1640334371,2860.5890199832
5355819799,4164,-2,0,11734.7093314976,39727.1894313946,35003.6408539412,52636.7507296314,51266.1083533142,50409.1131306808,49792.1622309703,74269.3338802353,49864.0368161034,2846.8881933606
5355869857,4165,-2,0,11743.4214024228,39723.4052776827,35023.0118272833,52649.8796745033,51270.6469042292,50481.9246284693,49792.8314542956,74281.8422725692,49862.2238292768,2868.2059981944
5355869857,4165,-2,0,11779.5351265933,39758.8011077406,35067.8619577727,52692.0042409043,51306.6389514315,50505.2866063693,49824.2971182797,74317.7369781969,49895.0522753051,2901.5211520956
5355869857,4165,-2,0,11780.2408530091,39768.4135882307,35064.2481518163,52691.3106821854,51308.3910997740,50447.7942388809,49824.2241120988,74311.7383036632,49902.2677195211,2898.9294326723
5355869857,4165,-2,0,11751.7806101402,39744.4553931863,35032.1497675974,52665.9410343096,51285.3089789008,50422.6192741542,49801.7747114605,74286.5511712397,49879.7939834892,2874.1316665471
5355869857,4165,-2,0,11742.2533035278,39730.4990449304,35023.7053860022,52662.2177190818,51275.9276846503,50439.1308387430,49795.6786953522,74282.9495329801,49865.6186166904,2860.6255230737
5355869857,4165,-2,0,11748.5440027853,39733.3706213806,35030.5436316167,52675.1154777141,51281.6586698540,50456.5549805934,49805.9117283803,74292.0631379005,49867.8818082995,2858.0581390440
5355869857,4165,-2,0,11767.6837898878,39748.9817764045,35049.5130709637,52695.8614007972,51301.3703387071,50485.4654282447,49825.8424157762,74310.5215339809,49879.8426542765,2868.4493521308
5355869857,4165,-2,0,11787.1886078950,39769.7033640939,35068.1174794060,52715.2445418362,51320.7778151397,50482.9832180929,49843.8019362869,74327.5684772299,49897.4614792761,2880.6413843474
5355882511,4166,-2,0,11773.6216259374,39766.3207443772,35051.7884302696,52694.0484139706,51311.7250487034,50426.2087447170,49831.6220717671,74307.8446406799,49892.3388789136,2873.3042631632
5355882511,4166,-2,0,11739.6615841045,39738.0308492638,35023.5228705499,52661.6701727247,51286.5987547641,50425.2961674553,49803.0279842332,74281.7936017819,49871.3252665004,2863.6431118858
5355882511,4166,-2,0,11743.1780484864,39737.5563090877,35042.1394466890,52673.9717142127,51296.3694153129,50495.5646166078,49810.7423040190,74300.5318548893,49880.4510391176,2879.0839191541
5355882511,4166,-2,0,11778.0750029746,39768.4865944117,35082.9620695300,52712.9448471366,51328.8936689206,50517.9775141556,49842.0741233380,74331.5716494846,49915.3844966963,2902.5067355382
5355882511,4166,-2,0,11788.6974023010,39779.6687077919,35080.5285301654,52712.7744993811,51330.5484756885,50469.0755406242,49846.2719787420,74328.3837129170,49923.4516796899,2898.3575509216
5355882511,4166,-2,0,11768.8518887828,39758.8619462247,35048.6613321861,52685.6162000723,51304.6921199398,50440.5301238776,49824.8811677272,74300.1546562878,49901.1361237166,2874.1681696376
5355882511,4166,-2,0,11752.2551503163,39743.8105052547,35031.3710350007,52669.7251880215,51286.8907794878,50434.5192816471,49806.8121379452,74285.6872647653,49883.6024725947,2860.6985292546
5355882511,4166,-2,0,11738.8098453269,39734.3440371265,35024.8734848972,52661.9865328421,51275.2341259314,50438.6441308701,49794.7661180904,74277.3888955320,49869.7312982166,2857.4254188092
5355917904,4167,-2,0,11741.9977818946,39735.7068191706,35038.9880132119,52672.4385844131,51281.5856636730,50478.2743194224,49798.7449549515,74288.4006611568,49872.6272100604,2868.0843212261
5355917904,4167,-2,0,11760.4805133686,39756.9881209140,35063.9074563052,52695.9100715845,51304.7164553334,50479.9534615840,49818.8703254967,74309.2682612082,49891.1342769281,2880.6413843474
5355917904,4167,-2,0,11749.4200769565,39755.2481402683,35043.4535579459,52677.6706940469,51296.0408874987,50409.6971801283,49808.1140815052,74288.8873690297,49881.3149455920,2865.3222540473
5355917904,4167,-2,0,11717.0175003171,39727.2137667882,35007.5345169245,52639.7196476562,51264.1006833385,50394.3050436473,49777.2446346654,74259.0643441167,49851.2242313489,2843.7975983675
5355917904,4167,-2,0,11715.7763952411,39725.0844198442,35018.5949533366,52644.7205710504,51262.9204167466,50458.4896443883,49779.9093602696,74269.1391970861,49849.4964184000,2852.8747001975
5355917904,4167,-2,0,11740.3794782171,39750.3810615391,35052.8835229837,52674.3124097238,51287.9737045051,50485.1612358242,49805.0843249963,74297.1005643852,49876.9710778262,2872.4160212951
5355917904,4167,-2,0,11750.3448219151,39761.2346471052,35058.8943652142,52682.8054621062,51299.2166563695,50469.9394470987,49817.0208355796,74303.9509776965,49891.5358109233,2876.4921997308
5355917904,4167,-2,0,11748.9455367805,39755.0169540287,35045.9114327041,52676.1132288536,51297.1238125159,50445.7013950274,49812.5187877551,74295.7742854315,49884.8557453675,2867.5732779596
5355942338,4168,-2,0,11742.6548375230,39741.0849411664,35025.5062051320,52663.7630165783,51286.1363822848,50416.9369597379,49797.7958745994,74281.2947262122,49868.9403979231,2850.9643717962
5355942338,4168,-2,0,11733.6872449645,39727.9924993849,35008.8607958783,52652.8972633154,51274.7717534522,50415.5498423001,49786.2487303144,74272.7651707393,49854.8502050021,2840.8651834332
5355942338,4168,-2,0,11738.9558576888,39733.0664289601,35022.8779826183,52669.2993186327,51285.8078544706,50467.5910816118,49793.8048700414,74287.2690653523,49858.6708618045,2849.2365588474
5355942338,4168,-2,0,11764.0334808409,39760.9304546846,35054.6843421135,52703.2350250719,51311.6033717352,50485.8426268463,49823.5913918640,74318.0898414048,49885.8899995975,2868.0113150452
5355942338,4168,-2,0,11760.6021903368,39767.9998865387,35045.6437433740,52697.9785800444,51309.8268879991,50428.8613026244,49826.2682851650,74310.9230679761,49893.3853008404,2862.5236837780
5355942338,4168,-2,0,11728.5646446020,39740.5252271125,35009.4935161130,52664.6025876591,51281.9141914872,50406.8499390717,49800.9959788638,74282.5966697723,49873.1869241143,2842.9701949836
5355942338,4168,-2,0,11727.1896948610,39731.6549761286,35010.7224534922,52666.0992143683,51278.0813669880,50455.2165339429,49798.8301288293,74288.3641580663,49871.0697448671,2845.1968835022
5355942338,4168,-2,0,11750.7098528198,39746.0128583797,35037.1628586884,52690.0817448063,51293.9845467356,50477.3495744638,49815.4998734767,74310.0956645921,49894.3708842830,2860.2361567753
5355996211,4169,-2,0,11760.7725380924,39751.9993652166,35046.7023329976,52697.3458598096,51302.0760651229,50472.8961974266,49822.5206345436,74315.4007804069,49905.3096437269,2866.5998622137
5355996211,4169,-2,0,11758.3633341214,39753.1431287179,35048.1989597068,52698.9154926998,51304.9354738762,50467.0678706485,49827.6432349060,74316.0456683385,49905.8328546903,2867.7436257151
5355996211,4169,-2,0,11742.1924650437,39745.0637780275,35033.9262513335,52685.0321506248,51292.8529509311,50432.8888102728,49819.7463996679,74302.8315495888,49896.0135233541,2857.9486297726
5355996211,4169,-2,0,11720.9476663909,39727.0434190327,35013.3263406123,52663.7265134878,51274.1633686110,50428.5936132943,49802.4439347857,74286.7458543889,49877.4821210928,2848.9445341236
5355996211,4169,-2,0,11728.2726198783,39730.6572249891,35032.1132645069,52681.2845000033,51284.4572401232,50489.5537743773,49811.3871919506,74302.4056802000,49880.6213868731,2865.4195956219
5355996211,4169,-2,0,11756.8423720185,39762.5487583621,35073.0940674066,52719.7465896606,51318.2591018974,50508.7787353575,49841.7699309175,74332.3017112940,49911.1623058987,2888.3922072236
5355996211,4169,-2,0,11753.6057646636,39767.0386384897,35062.3499911119,52712.0079344813,51315.5578732027,50435.3101819406,49838.0222802960,74317.1650964462,49909.3249836784,2876.6868828799
5355996211,4169,-2,0,11719.8525736768,39733.3706213806,35018.8504749699,52673.8257018509,51278.9817765529,50401.8855187680,49806.2037531040,74277.5470755907,49871.8363097670,2848.5186647348
5356011546,4170,-2,0,11709.6925468296,39720.1808380246,35011.8297139030,52669.0437969994,51269.9046747230,50434.4827785566,49796.9441358218,74273.3613878836,49860.1553208169,2848.9567018205
5356011546,4170,-2,0,11717.8327360042,39731.2899452239,35029.5945512645,52682.0023941159,51283.9096937662,50453.6712364464,49802.9428103555,74286.3808234842,49872.0674960066,2860.9175477974
5356011546,4170,-2,0,11723.9409198093,39740.8294195331,35040.7279938575,52690.4589434078,51294.3982484276,50463.7339217190,49806.5566163119,74296.5530180282,49878.6258845942,2869.1064077593
5356011546,4170,-2,0,11733.0910278202,39749.4319811869,35050.7176729492,52697.5162075651,51307.0161500330,50465.9119394503,49812.0077444886,74305.2164181661,49883.2009385996,2876.2123427039
5356011546,4170,-2,0,11726.8855024405,39744.4553931863,35036.7978277837,52683.0488160427,51299.4113395186,50421.8892123449,49803.1253258078,74290.5665111913,49878.6502199878,2867.5611102627
5356011546,4170,-2,0,11704.7646296163,39721.7626386116,35010.1140686510,52655.5498212228,51276.4265602201,50407.3974854288,49780.3595650521,74269.0418555115,49859.5226005821,2853.4100788577
5356011546,4170,-2,0,11711.6393783213,39722.5657066019,35023.1213365547,52669.5305048724,51283.7636814043,50466.9826967707,49785.6403454732,74283.4849116403,49862.6131955752,2863.7769565508
5356011546,4170,-2,0,11747.1690530443,39755.0656248160,35060.0381287155,52708.1751099820,51316.6894690072,50491.4032642943,49817.3006926065,74317.2502703240,49888.5547252017,2883.9875009737
5356058547,4171,-2,0,11757.5846015247,39767.3184955167,35058.8700298205,52709.8907552341,51323.5277146217,50440.0920867920,49822.7396530864,74314.1840107246,49890.7692460235,2879.4246146651
5356058547,4171,-2,0,11736.6439952925,39746.8524294605,35030.3489484676,52683.5233562187,51302.4045929371,50412.1428871897,49803.2348350792,74292.0631379005,49869.0985779818,2859.6277719342
5356058547,4171,-2,0,11729.7570788907,39734.6847326375,35023.6202121245,52675.3831670442,51295.0431363592,50433.5215305076,49793.9508824033,74286.7336866921,49859.4860974917,2854.8215316891
5356058547,4171,-2,0,11738.6638329651,39744.3337162181,35037.4548834122,52685.6162000723,51304.0837350986,50459.1710354104,49801.1298235288,74300.2763332560,49868.3928515661,2860.9905539784
5356058547,4171,-2,0,11753.0703860034,39762.8407830858,35058.3954896444,52701.8114045436,51320.7048089588,50488.1544892426,49814.9279917261,74319.5256296299,49885.8169934165,2870.9072268890
5356058547,4171,-2,0,11766.0654862103,39780.7029620219,35077.2432520232,52718.1891244673,51337.2650443348,50492.0603199228,49827.5458933315,74335.1854554410,49903.1072906019,2875.7256348309
5356058547,4171,-2,0,11754.3358264730,39780.8611420806,35064.0534686671,52704.7924902653,51330.0130970283,50441.0289994474,49820.0870951790,74323.7599881243,49903.3506445384,2861.4529264576
5356058547,4171,-2,0,11720.6069708798,39754.4815753684,35032.3201153529,52671.1974793371,51302.8304623259,50424.7972918856,49792.8922927797,74298.5363526103,49881.4852933475,2843.5785798247
5356073803,4172,-2,0,11715.1801780968,39747.3634727270,35042.7113284397,52678.8752960324,51303.4388471670,50482.2531562835,49796.3357509806,74307.1875850514,49873.4546134444,2850.9400364026
5356073803,4172,-2,0,11743.5674147847,39773.5848593805,35081.7574675445,52715.4270572885,51333.2253689896,50509.3749525018,49827.6188995124,74338.5680751578,49901.2091298975,2871.9049780285
5356073803,4172,-2,0,11751.0748837245,39780.9219805647,35083.9963237599,52717.0088578755,51337.3745536062,50470.3166457002,49834.3111327650,74336.4265605169,49914.0217146521,2869.1550785465
5356073803,4172,-2,0,11729.9274266462,39760.3707406308,35055.0372053213,52690.7144650411,51313.0148245667,50433.9839029869,49814.0519175548,74310.4971985873,49899.3109691932,2851.9742906326
5356073803,4172,-2,0,11714.1945946541,39741.5108105552,35038.6959884881,52674.2150681492,51296.9656324572,50434.6287909185,49800.8134634114,74295.7864531283,49885.4884656023,2843.3717289787
5356073803,4172,-2,0,11708.0864108490,39732.8109073268,35041.1903663368,52672.6941060463,51296.4302537970,50453.8537518987,49796.9198004281,74294.3019941159,49886.0116765657,2849.0783787887
5356073803,4172,-2,0,11724.0990998680,39743.2994619882,35065.4162507113,52691.6148746060,51312.5646197842,50501.6728004129,49810.2677638429,74314.0623337564,49897.6439947284,2871.0532392509
5356073803,4172,-2,0,11754.7373604682,39771.0661461381,35098.9625908521,52722.7276753823,51339.3457204915,50516.7364090797,49834.4814805205,74338.4342304927,49920.4584262714,2892.8699196545
5356121288,4173,-2,0,11754.4696711381,39775.3613431166,35085.8214782834,52710.9371771608,51333.7364122561,50450.2399459423,49827.6310672092,74322.7744046816,49917.9883838164,2881.9311602106
5356121288,4173,-2,0,11722.6876470365,39748.8966025267,35048.4909844306,52674.5192605698,51302.1612390006,50427.1456573724,49796.3357509806,74292.8905412845,49893.5556485959,2860.5281814991
5356121288,4173,-2,0,11710.5686210009,39737.4589675132,35051.5329086363,52672.7062737432,51296.8804585795,50479.5762629824,49790.6534365643,74295.2267390745,49883.9066650153,2863.9108012159
5356121288,4173,-2,0,11733.5534002994,39759.2513125230,35086.5272046991,52701.6653921818,51320.6074673842,50509.8981634652,49811.9955767917,74320.5355484662,49903.1924644797,2881.5539616091
5356121288,4173,-2,0,11749.2862322915,39772.0517295808,35094.6795615705,52711.2657049751,51332.0329347009,50488.9575572329,49822.0095912770,74326.3882106380,49915.7251922073,2882.4908742645
5356121288,4173,-2,0,11744.5286628337,39762.5000875748,35079.5064436323,52697.8447353794,51321.9337463379,50465.4982377583,49812.4822846646,74314.7558924753,49910.3957409989,2871.4182701556
5356121288,4173,-2,0,11738.8220130238,39752.4617376958,35064.2116487258,52683.7545424584,51310.5934528989,50450.7996599962,49800.6309479591,74305.2164181661,49903.5088245971,2861.3069140957
5356121288,4173,-2,0,11724.5614723473,39741.2187858314,35053.2728892820,52671.0636346721,51300.4334260518,50454.5108075272,49787.9035370823,74300.5561902829,49895.5268154812,2856.5615123348
5356136190,4174,-2,0,11725.7052358486,39746.0128583797,35070.9768881594,52682.8054621062,51308.0017334756,50505.7611465454,49795.8977138950,74314.5977124166,49899.0189444694,2867.6584518373
5356136190,4174,-2,0,11749.7242693771,39772.7452882997,35106.0563580999,52713.9304305793,51336.1091131366,50523.8910148116,49822.8613300546,74343.5689985520,49923.0501456947,2885.3259476242
5356136190,4174,-2,0,11747.9964564283,39775.4465169944,35097.1861071160,52704.2936146955,51331.1933636202,50455.5328940603,49821.8757466120,74332.2895435972,49921.2128234745,2875.9811564642
5356136190,4174,-2,0,11715.5452090015,39739.1867804620,35053.4554047343,52662.3758991405,51293.6073481341,50418.0320524520,49791.6755230974,74297.0762289916,49888.5547252017,2852.1933091754
5356136190,4174,-2,0,11711.5420367467,39723.9406563429,35052.8105168027,52661.7431789057,51289.3243188524,50470.5965027271,49790.5560949897,74300.3858425274,49878.9057416211,2857.5835988679
5356136190,4174,-2,0,11736.1329520259,39745.1489519052,35084.4951993297,52692.6369611391,51315.4361962344,50505.2622709757,49816.6193015844,74326.3030367603,49899.5786585233,2876.6747151831
5356136190,4174,-2,0,11746.6945128682,39757.8641950852,35098.7800753998,52707.8222467742,51329.6237307300,50497.4992804026,49829.0181846470,74337.3148023850,49912.9266219380,2885.7883201035
5356136190,4174,-2,0,11743.6769240561,39755.0899602096,35093.5236303723,52704.6951486907,51326.9833405194,50481.9489638629,49827.3512101823,74332.3503820813,49914.5935964028,2883.3182776485
5356165868,4175,-2,0,11732.3974691012,39741.7419967948,35075.6614514362,52687.0033175101,51311.8588933685,50445.3485318195,49813.3826942295,74313.5512904898,49904.6647557953,2868.7048737641
5356165868,4175,-2,0,11714.1337561700,39721.6652970370,35053.3823985534,52664.8946123828,51293.3031557135,50436.2592622928,49792.1987340608,74294.9712174412,49886.4862167418,2855.4907550144
5356165868,4175,-2,0,11716.5551278378,39721.4584461910,35065.1120582907,52673.9108757286,51299.5573518805,50494.1774991700,49796.3479186774,74307.6864606212,49886.0846827466,2865.9306388885
5356165868,4175,-2,0,11747.0960468634,39754.9317801509,35106.4700597919,52712.5798162319,51335.3182128431,50531.5079930228,49829.4805571263,74341.3179746398,49918.4994270829,2890.8865850723
5356165868,4175,-2,0,11752.6201812210,39768.6569421672,35108.0640280757,52714.3806353617,51340.4286455088,50468.9538636560,49834.6396605792,74337.5946594120,49926.4814361988,2889.7793246614
5356165868,4175,-2,0,11723.1135164253,39742.3990524233,35071.2445774895,52677.5611847755,51308.2329197153,50423.0086404526,49806.7878025515,74303.2695866744,49896.3542188652,2865.0302293236
5356165868,4175,-2,0,11710.1184162184,39723.0159113843,35058.1643034048,52662.4610730182,51289.5798404857,50445.4458733941,49788.3172387743,74289.7391078073,49872.1770052780,2855.1257241097
5356165868,4175,-2,0,11719.3050273198,39728.2115179277,35071.1472359149,52673.0591369510,51297.6226880857,50466.8731874993,49795.0946459047,74298.1104832215,49878.1513444181,2858.9828840026
5356193580,4176,-2,0,11728.7349923575,39739.0164327065,35082.8160571681,52686.4557711531,51308.8899753437,50484.0783108069,49803.0766550205,74306.0194861564,49889.8445010649,2866.5511914264
5356193580,4176,-2,0,11739.9414411315,39754.1773829479,35093.4384564945,52697.7352261079,51322.3109449394,50487.3757566459,49813.6990543469,74313.1984272820,49901.5863284990,2872.3065120237
5356193580,4176,-2,0,11735.5975733657,39754.4694076716,35081.7696352413,52686.5287773340,51317.4316985134,50445.6283888464,49807.4083550895,74300.8603827035,49898.3375534473,2864.5556891475
5356193580,4176,-2,0,11710.1427516121,39731.1439328620,35056.9110306321,52660.3682291647,51296.6006015525,50428.8734703212,49784.5817558496,74277.0116969305,49878.1513444181,2852.3271538404
5356193580,4176,-2,0,11704.8863065846,39727.4571207247,35067.7889515918,52664.6512584464,51296.3815830097,50490.1134884311,49785.4943331114,74287.4394131078,49877.9444935721,2862.5358514749
5356193580,4176,-2,0,11729.1121909591,39756.8421085521,35106.9932707553,52699.8645730520,51324.0995963724,50521.8590094422,49812.9811602344,74319.9880021092,49902.2798872180,2884.5715504212
5356193580,4176,-2,0,11732.1419474680,39770.7984568080,35108.7332514010,52700.7771503137,51327.0928497908,50471.0102044191,49818.2984437460,74318.4913753999,49910.0915485783,2879.8991548412
5356193580,4176,-2,0,11706.9669827413,39751.9750298229,35074.1891601206,52671.2218147308,51302.3315867561,50432.4021023999,49796.0072231664,74290.7733620373,49886.8877507369,2859.0437224867
5356235856,4177,-2,0,11695.8943786324,39738.7122402859,35061.4009107597,52657.8373482255,51289.9570390872,50447.1250155557,49781.4789931598,74280.7836829456,49870.5343662069,2851.0252102804
5356235856,4177,-2,0,11703.2071644230,39745.7573367464,35073.4712660081,52667.4254933220,51299.4843456996,50470.9493659350,49787.0761336983,74289.4714184772,49873.1504210238,2856.4763384570
5356235856,4177,-2,0,11722.3469515255,39758.3752383518,35094.5578846022,52683.9978963948,51319.9017409685,50506.1505128437,49799.7183706974,74310.4485278000,49885.0747639103,2867.9869796515
5356235856,4177,-2,0,11747.9842887314,39776.5781127989,35117.6156700817,52705.8389121920,51342.1077876703,50515.9333410894,49817.8360712667,74329.5883149025,49901.8418501323,2880.4832042887
5356235856,4177,-2,0,11750.8923682721,39781.1896698948,35108.3438851026,52698.6964741570,51339.7594221835,50460.4729789704,49814.0397498580,74320.2191883488,49904.4457372524,2873.9126480043
5356235856,4177,-2,0,11721.7994051685,39753.8975259209,35073.1305704970,52661.7431789057,51310.7759683513,50429.5913644338,49788.0495494442,74290.2136479834,49880.6700576604,2853.9819606083
5356235856,4177,-2,0,11717.7232267328,39746.2440446193,35078.1679969817,52665.2839786812,51308.9994846151,50485.5992729098,49785.5673392923,74297.0032228106,49875.4744511170,2859.7129458119
5356235856,4177,-2,0,11743.6404209656,39770.6159413557,35115.0117829616,52700.5702994677,51336.9365165206,50517.2352846494,49810.9369871681,74327.7753280758,49900.3208880295,2878.7432236430
5356257252,4178,-2,0,11750.0284617977,39781.9684024915,35121.8378608793,52707.2381973267,51345.5877489617,50481.2919082345,49817.5805496335,74330.8780907657,49911.4908337129,2880.3250242300
5356257252,4178,-2,0,11727.3357072229,39765.1648131790,35096.5047160939,52684.2412503313,51328.8084950429,50448.4026237221,49802.6264502381,74311.4462789395,49898.9337705916,2863.4605964334
5356257252,4178,-2,0,11710.5564533041,39748.9087702235,35079.2874250894,52668.6787660948,51315.3875254471,50450.9821754485,49792.2595725449,74300.1789916814,49884.5028821596,2855.7097735572
5356257252,4178,-2,0,11707.5023614015,39746.1345353479,35079.8471391433,52668.8734492439,51316.5312889485,50463.1985430588,49791.5416784324,74301.9189723271,49882.7142307267,2857.6809404425
5356257252,4178,-2,0,11715.7398921506,39751.5126573437,35092.6718915947,52682.6229466538,51326.2532787100,50496.4650261727,49799.9130538465,74315.5102896783,49887.9706757542,2866.5755268201
5356257252,4178,-2,0,11735.9139334831,39768.3770851402,35116.1068756757,52708.2481161630,51346.1839661060,50508.0121704577,49819.5030457315,74336.3048835487,49906.5142457123,2876.0298272515
5356257252,4178,-2,0,11733.0058539424,39766.6371044946,35104.5110606034,52695.9100715845,51340.1001176945,50444.6306377070,49812.5309554519,74319.9149959282,49904.1537125287,2863.7282857635
5356257252,4178,-2,0,11696.3445834149,39735.8893346230,35062.3013203246,52656.2068768512,51304.4244306097,50405.7913494481,49778.7777644651,74283.5579178213,49872.8340609064,2841.3275559125
5356289839,4179,5,0,11681.2201362640,39717.8081371441,35060.9263705836,52647.9450107085,51293.0232986866,50450.7023184216,49767.6808249626,74278.6300006080,49857.7217814523,2844.0044492135
5356289839,4179,5,0,11702.2459163740,39735.6338129897,35096.1761882797,52678.2182404039,51315.2536807821,50488.7385386901,49791.4808399482,74306.0681569437,49877.5672949706,2864.1054843650
5356289839,4179,5,0,11716.2752708109,39747.7406713285,35110.8260952545,52692.6369611391,51328.9058366174,50472.4094895537,49805.3276789328,74312.7238871059,49893.4826424150,2868.4980229181
5356289839,4179,5,0,11710.8119749374,39741.2796243156,35098.4880506760,52684.2655857249,51320.9968336825,50452.4422990673,49800.2294139639,74300.4953517988,49889.5524763412,2860.9297154942
5356289839,4179,5,0,11701.2116621440,39731.1926036493,35081.5992874858,52670.2362312881,51308.2450874121,50432.9861518474,49787.8305309014,74285.8332771272,49877.4577856992,2849.7354344171
5356289839,4179,5,0,11691.3436600206,39721.3002661323,35067.5699330489,52655.3186349832,51295.3716641734,50430.3335939400,49773.9106857359,74271.3293825142,49865.1805796048,2843.6394183088
5356289839,4179,5,0,11693.9840502312,39723.1862591398,35079.1170773339,52664.9067800796,51300.3117490835,50475.5487553340,49775.8696849244,74281.5259124518,49867.0544049155,2853.8724513369
5356289839,4179,5,0,11718.7818163564,39747.2782988493,35112.6512497779,52695.1191712910,51325.0730121182,50499.7138012244,49803.3443443506,74309.6454598097,49890.4042151188,2870.0798235051
5356342499,4180,5,0,11718.4046177549,39749.9551921503,35103.8661726718,52688.4756088257,51318.7336420735,50438.6197954764,49802.6751210254,74295.5917699792,49895.5268154812,2858.8612070343
5356342499,4180,5,0,11682.2422227971,39718.6598759217,35061.0115444614,52647.5069736228,51284.0800415217,50399.0747808019,49769.7006626352,74258.2612761264,49862.5158540006,2833.4185529776
5356342499,4180,5,0,11669.9406813091,39704.9347139054,35056.2418073068,52639.8534923212,51275.3192998092,50445.9082458734,49758.9565863405,74254.5014578081,49845.9921217150,2834.2702917552
5356342499,4180,5,0,11693.1444791504,39727.5544622993,35089.9219921127,52669.4818340851,51301.9665558514,50485.4775959416,49782.2820611501,74282.0734588089,49866.4095169839,2853.8602836401
5356342499,4180,5,0,11711.2865151134,39745.7816721400,35107.5164817187,52685.0808214121,51317.3830277261,50481.5839329582,49798.3799240469,74296.7477011773,49884.9895900326,2861.0027216752
5356342499,4180,5,0,11713.0264957591,39750.0890368154,35107.2609600854,52686.3340941849,51319.0865052813,50466.6906720469,49802.1884131524,74297.1370674757,49887.9828434510,2858.6178530979
5356342499,4180,5,0,11703.5478599341,39744.2363746435,35091.7714820298,52672.3534105353,51310.8246391385,50435.1033310946,49792.4055849068,74285.4195754352,49880.6457222668,2846.6570071209
5356342499,4180,5,0,11684.3472343475,39731.5089637667,35071.3419190641,52650.3055438921,51295.4933411416,50422.9599696653,49774.5555736675,74268.0806074625,49869.0134041040,2834.4528072075
5356357719,4181,5,0,11682.9357815160,39730.8884112288,35078.8007172165,52654.0288591199,51296.1382290733,50470.8885274509,49773.0589469583,74276.5979952386,49870.1936706959,2840.2933016825
5356357719,4181,5,0,11710.3982732454,39755.9416989872,35115.9486956170,52689.0474905764,51325.6205584752,50510.3483682477,49802.1884131524,74308.5138640051,49896.7070820731,2860.3091629563
5356357719,4181,5,0,11719.2806919261,39769.8980472431,35120.8036066493,52694.3282709975,51335.6224052637,50467.7979324578,49808.6981309527,74312.0911668711,49913.2308143586,2862.5358514749
5356357719,4181,5,0,11694.1543979867,39747.9110190841,35088.9972471541,52661.1226263677,51311.3600177988,50430.4917739987,49783.7178493752,74284.9328675623,49894.9062629433,2844.8926910816
5356357719,4181,5,0,11681.6338379559,39735.5608068088,35080.3216793194,52652.4227231393,51301.1878232548,50459.6942463738,49775.1882939023,74279.3843978110,49880.7430638413,2844.5154924801
5356357719,4181,5,0,11691.1976476588,39746.4752308590,35098.6218953411,52669.3479894200,51311.7858871876,50484.6136894671,49787.4654999967,74295.3970868300,49889.0170976810,2857.5714311711
5356357719,4181,5,0,11699.3256691365,39757.6938473297,35112.4322312351,52682.7081205316,51322.9923359615,50491.8169659863,49799.4993521546,74305.2529212566,49899.1771245281,2862.8522115923
5356357719,4181,5,0,11704.6551203449,39765.8705395947,35120.4872465319,52690.3737695301,51328.5164703191,50489.8701344947,49809.3308511875,74312.1763407488,49906.9279474043,2865.7602911329
5356383861,4182,5,0,11697.5856884908,39761.3563240734,35110.4610643498,52680.8951337050,51322.2987772426,50447.7942388809,49803.1009904142,74299.6801161117,49905.8450223871,2856.7561954840
5356383861,4182,5,0,11669.6243211917,39735.5486391119,35078.4113509182,52647.8963399212,51297.1968186969,50417.4114999140,49776.0278649831,74271.6214072380,49884.2595282232,2840.0864508365
5356383861,4182,5,0,11661.5814735917,39724.0501656143,35078.6182017642,52645.5358067375,51290.8696163489,50469.3067268639,49768.8245884639,74274.7606730183,49875.9733266868,2843.8584368516
5356383861,4182,5,0,11696.0038879038,39749.2616334314,35115.8391863456,52683.3043376759,51322.5299634822,50511.7598210791,49796.9441358218,74307.1389142641,49900.6250804500,2867.3907625072
5356383861,4182,5,0,11715.5573766983,39765.9922165629,35124.2592325470,52692.7464704105,51335.5128959923,50469.3553976512,49806.5931194023,74309.9131491398,49915.9685461438,2872.5376982633
5356383861,4182,5,0,11696.6852789259,39741.1822827410,35091.6011342743,52661.5728311502,51307.2838393631,50422.6436095479,49782.1238810914,74278.0094480700,49894.2735427085,2851.4997504565
5356383861,4182,5,0,11679.5409941024,39716.5426966745,35071.9624716020,52643.0900996761,51283.1796319568,50430.1510784877,49766.4153844930,74260.0134244689,49870.9967386862,2841.0842019760
5356383861,4182,5,0,11680.4292359705,39719.5481177898,35076.7200410598,52648.4682216719,51280.2958878098,50443.6572219611,49766.5978999453,74262.0454298383,49869.9746521530,2847.1193796002
5356416534,4183,5,0,11684.2377250760,39728.2601887150,35087.6466328068,52655.5863243133,51281.5004897953,50463.0281953032,49769.8345073002,74265.6592357947,49874.7078862172,2854.4078299971
5356416534,4183,5,0,11698.5347688430,39748.5437393188,35108.5385682518,52672.6576029559,51300.8106246533,50482.5695164009,49785.8715317129,74283.1077130388,49891.4019662583,2867.5611102627
5356416534,4183,5,0,11702.1729101931,39757.8763627820,35103.7809987940,52670.3822436500,51304.0959027955,50438.9361555938,49787.3803261189,74275.8679334292,49896.0013556573,2862.6696961399
5356416534,4183,5,0,11677.8131811535,39737.2764520608,35066.6086849999,52638.3081948247,51279.9430246019,50401.7151710124,49764.1278574903,74248.3689386093,49876.7885623739,2842.1427915996
5356416534,4183,5,0,11665.5238073624,39723.2836007144,35059.2958992093,52630.5087011612,51270.8172519847,50451.4080448373,49753.9921660368,74243.9520646626,49866.0688214729,2841.3032205188
5356416534,4183,5,0,11689.8835364019,39748.4098946538,35097.2347779033,52664.6755938400,51300.9688047120,50497.5479511899,49780.4812420203,74278.2041312192,49891.8156679502,2862.3533360225
5356416534,4183,5,0,11704.7889650100,39766.9534646120,35110.9842753132,52678.4980974309,51317.7237232372,50472.1296325268,49795.1433166920,74287.2203945650,49908.6070895659,2868.2911720721
5356416534,4183,5,0,11700.7857927552,39761.1738086211,35095.5678034385,52665.3326494685,51311.5425332511,50449.1691886219,49788.7917789504,74274.9310207738,49901.2699683817,2861.2339079148
5356463553,4184,5,0,11697.9263840019,39752.4495699990,35086.0769999166,52658.2997207048,51303.4023440766,50450.4102936979,49782.0387072136,74264.8926708949,49886.8877507369,2856.9387109363
5356463553,4184,5,0,11699.8610477967,39758.5212507137,35088.2306822543,52661.3051418201,51303.5483564384,50463.5149031762,49784.3627373068,74267.5452288023,49885.7074841451,2861.1852371275
5356463553,4184,5,0,11706.5776164430,39769.1558177369,35101.7368257278,52674.3367451174,51310.7516329576,50495.5037781237,49792.8192865988,74281.7205956010,49893.9085118038,2874.5575359359
5356463553,4184,5,0,11725.5835588804,39789.8895731232,35127.1673120877,52701.0083365533,51333.1036920214,50517.5394770700,49813.9789113739,74305.7517968263,49912.5737587302,2890.8622496787
5356463553,4184,5,0,11728.1509429100,39795.6448937205,35123.6386800091,52700.6676410423,51334.3082940068,50463.0890337874,49816.3272768607,74301.9189723271,49918.8036195035,2882.8680728660
5356463553,4184,5,0,11693.9353794439,39766.3329120740,35081.1004119161,52658.7012546999,51300.3482521740,50413.1041352387,49782.9999552627,74265.1603602250,49886.7782414655,2853.5195881291
5356463553,4184,5,0,11674.3332198622,39747.4364789080,35066.9493805110,52645.0369311678,51284.7005940597,50450.9700077517,49768.4352221656,74258.0179221899,49866.7745478886,2846.0364545830
5356463553,4184,5,0,11693.5703485392,39767.1968185484,35097.9526720158,52673.4485032494,51307.0404854266,50496.2216722362,49789.7165239089,74285.0545445305,49885.8534965070,2862.7670377145
5356485340,4185,5,0,11708.9868204139,39781.9440670978,35110.8382629513,52683.9248902139,51316.2027611343,50475.8529477546,49801.6408667954,74292.7201935289,49901.4768192276,2866.6485330010
5356485340,4185,5,0,11702.2459163740,39773.7065363487,35098.3785414046,52671.7085226037,51307.2351685758,50452.1989451308,49793.7805346478,74281.0635399726,49895.4903123908,2853.8481159433
5356485340,4185,5,0,11691.0029645096,39762.3419075161,35085.6389628310,52656.0365290957,51296.6006015525,50440.7491424204,49784.4479111846,74267.0220178389,49884.3325344041,2843.5664121279
5356485340,4185,5,0,11678.9934477454,39751.9506944293,35075.2477497442,52644.9395895932,51287.2679780893,50435.9063990849,49774.2148781565,74255.9372460332,49874.5618738553,2838.9670227288
5356485340,4185,5,0,11679.1637955009,39748.3977269570,35083.4487774029,52653.1406172519,51291.7456905202,50478.7853626889,49776.6240821274,74265.0873540441,49874.7808923981,2845.6470882846
5356485340,4185,5,0,11703.9493939292,39768.8394576195,35117.3236453580,52686.4922742435,51319.1351760686,50518.3425450603,49802.0058977001,74296.6016888155,49896.9991067968,2864.1176520618
5356485340,4185,5,0,11715.7520598475,39783.9517370736,35122.4097426299,52692.4422779900,51326.2167756196,50471.0953782968,49810.9491548650,74297.1248997788,49911.9775415858,2863.7891242476
5356485340,4185,5,0,11688.8371144751,39764.7267760934,35087.8899867433,52655.8905167338,51298.8029546775,50422.8747957875,49782.8052721135,74263.9557582395,49889.3091224047,2846.1581315512
5356506011,4186,5,0,11671.3034633533,39751.0137817739,35076.6105317884,52641.9341684779,51284.4937432137,50453.1723608767,49767.5834833880,74254.0999238129,49873.6006258063,2843.7489275802
5356506011,4186,5,0,11686.7442706216,39764.3374097950,35102.0288504515,52663.5196626418,51302.7574561449,50492.7903817322,49783.3406507737,74277.3158893511,49890.6475690552,2858.4475053424
5356506011,4186,5,0,11700.2504140950,39775.1058214833,35117.9807009864,52675.6265209807,51318.4172819561,50490.7583763627,49794.6687765159,74288.8021951520,49906.2222209886,2866.0036450694
5356506011,4186,5,0,11697.8533778209,39774.6556167009,35117.9441978959,52674.3367451174,51320.7413120492,50479.5275921951,49794.1699009461,74290.4204988294,49912.5250879429,2865.6507818615
5356506011,4186,5,0,11688.1922265435,39766.1990674089,35106.2510412491,52660.5629123139,51315.2780161757,50446.6748107732,49785.4334946272,74279.9441118649,49909.8968654291,2856.9265432395
5356506011,4186,5,0,11665.0857702767,39745.7816721400,35079.5916175100,52633.0639174940,51292.1350568185,50420.1735670928,49764.7240746346,74254.6109670795,49893.3609654467,2842.9093564995
5356506011,4186,5,0,11659.7319836746,39733.5653045298,35074.1526570302,52628.7443851219,51282.5955825093,50464.0016110491,49760.0030082673,74253.0535018862,49882.4343736997,2844.3816478150
5356506011,4186,5,0,11692.2197341919,39760.9304546846,35111.7386725162,52668.7152691852,51310.8246391385,50517.4056324050,49789.5583438502,74285.3222338606,49908.7531019278,2869.7026249036
5356537310,4187,5,0,11711.6758814118,39782.3212656993,35123.7846923709,52680.7612890399,51321.0211690762,50467.3477276754,49803.5755305902,74286.0522956700,49923.2448288439,2873.7788033393
5356537310,4187,5,0,11681.1592977798,39757.6573442392,35083.8746467917,52642.6033918032,51289.9692067840,50414.1140540750,49774.7989276040,74246.1787531812,49897.9603548458,2848.6525093999
5356537310,4187,5,0,11658.0771769067,39735.8528315325,35068.6650257630,52626.2256718795,51272.4477233590,50441.5278750171,49756.9002455774,74231.0299706366,49879.3194433131,2841.1450404601
5356537310,4187,5,0,11667.4584711572,39745.1976226925,35089.5082904207,52642.6033918032,51283.1674642600,50468.7713482037,49767.1576139992,74243.7452138166,49885.4397948150,2854.2009791512
5356537310,4187,5,0,11679.3706463469,39760.3585729339,35106.2023704618,52660.0153659568,51293.8872051610,50476.1084693879,49780.4325712330,74256.2779415442,49896.3177157747,2865.9428065853
5356537310,4187,5,0,11683.6536756285,39768.1702342943,35114.1478764872,52670.9419577038,51300.8471277437,50475.5974261213,49790.1058902073,74260.9260017306,49902.9369428464,2869.9581465369
5356537310,4187,5,0,11678.3607275106,39768.0485573260,35105.3627993810,52664.8702769892,51297.8173712348,50436.9284856180,49787.9035370823,74251.4960366928,49902.0852040688,2862.6818638367
5356537310,4187,5,0,11652.7112226078,39743.4089712596,35070.2954971373,52631.6037938753,51273.0074374128,50402.8467668170,49761.6578150352,74226.3089042693,49878.6380522910,2838.7601718828
5356597647,4188,5,0,11642.3808480051,39726.5810465534,35061.5469231216,52623.3905985198,51265.3296207176,50447.9280835460,49752.4955393275,74226.2358980884,49865.2292503921,2837.3000482641
5356597647,4188,5,0,11673.4693133877,39748.1300376269,35098.3663737078,52661.0739555804,51294.3617453371,50499.8233104958,49781.0409560742,74263.1161871587,49887.0824338861,2858.3866668582
5356597647,4188,5,0,11692.6212681871,39768.4135882307,35114.7197582379,52678.4615943404,51312.1022473050,50467.1287091326,49800.0955692989,74275.0892008325,49905.8571900839,2864.5678568443
5356597647,4188,5,0,11666.8500863161,39752.6199177545,35085.0184102930,52650.5732332222,51291.5753427647,50415.3186560605,49783.2919799864,74251.6663844483,49889.2361162238,2845.9391130084
5356597647,4188,5,0,11639.1564083470,39731.4116221922,35062.1674756596,52626.5298643001,51274.4918964252,50415.4646684224,49764.0183482189,74235.5685215516,49870.6682108720,2833.2360375252
5356597647,4188,5,0,11634.3745034956,39729.4039522164,35064.1386425449,52627.8439755570,51274.5770703030,50432.7793010014,49762.4852184192,74240.9831466378,49871.7146327987,2835.2193721074
5356597647,4188,5,0,11643.4151022351,39737.1061043053,35076.1603270059,52639.0260889373,51285.0047864803,50460.4608112736,49769.4329733051,74254.6474701700,49882.0206720078,2844.4789893896
5356597647,4188,5,0,11664.6599008879,39752.9606132656,35097.4659641429,52658.8716024555,51301.0053078024,50478.0796362732,49785.0562960257,74271.4632271793,49895.4051385130,2855.0527179288
5356607446,4189,5,0,11672.8000900625,39762.2445659415,35096.6142253653,52657.8008451350,51301.7962080959,50433.0104872410,49790.6534365643,74265.3428756773,49898.6539135647,2847.9832860746
5356607446,4189,5,0,11646.7855542550,39740.2453700856,35061.9241217231,52621.6506178741,51271.1457797989,50388.0021766930,49767.8268373245,74232.3562495903,49875.5717926916,2824.2441095731
5356607446,4189,5,0,11632.2451565516,39724.3786934285,35055.6577578593,52610.7848646112,51257.1285930589,50437.2326780386,49758.3847045898,74224.5445882300,49859.7416191250,2824.7429851428
5356607446,4189,5,0,11663.2484480565,39750.5392415978,35100.0090127789,52649.6119851732,51287.1463011211,50500.7967262416,49791.1888152245,74262.9336717064,49887.5691417590,2854.8336993859
5356607446,4189,5,0,11685.4544947583,39775.5438585690,35124.4904187867,52671.3434916990,51307.9287272947,50478.6028472366,49811.0951672268,74280.8931922170,49913.8878699870,2869.3740970894
5356607446,4189,5,0,11668.3710484189,39761.3563240734,35100.1185220503,52647.1906135054,51291.9403736693,50428.5692779007,49793.2086528971,74257.2756926837,49899.3718076773,2854.9675440510
5356607446,4189,5,0,11647.4061067930,39739.4179667016,35077.3892643851,52622.5996982263,51271.8028354274,50418.4579218408,49771.4163078872,74238.5739426669,49877.5307918801,2839.6484137509
5356607446,4189,5,0,11638.7792097455,39731.5698022508,35067.6916100172,52614.5933537168,51267.4711353584,50423.8968823207,49759.0539279151,74232.0763925634,49868.5388639279,2832.9683481951
5356630739,4190,5,0,11641.8454693449,39734.6603972439,35073.0332289224,52622.3441765930,51273.6158222540,50455.7519126031,49761.2684487369,74239.6446999873,49868.3806838692,2835.9616016136
5356630739,4190,5,0,11665.2804534259,39758.4725799264,35101.0189316152,52652.0941953251,51301.0661462865,50496.9639017424,49788.9377913123,74268.8228369687,49889.3334577983,2852.8381971070
5356630739,4190,5,0,11675.3066356080,39775.3248400261,35108.0275249852,52661.9256943580,51316.9571583373,50457.2972100996,49803.1496612015,74276.2207966370,49906.9279474043,2854.8580347796
5356630739,4190,5,0,11648.0874978151,39753.5324950163,35070.1494847754,52628.2941803394,51294.2035652784,50401.4961524696,49782.4767442993,74245.8015545797,49890.5988982679,2835.5600676184
5356630739,4190,5,0,11624.9323707610,39728.4427041673,35051.3747285776,52608.8258654227,51270.8294196815,50434.5922878280,49761.7429889130,74229.1804807195,49871.8606451606,2828.8800020626
5356630739,4190,5,0,11646.7003803773,39744.3702193086,35082.3171815984,52637.3956175630,51287.1828042116,50485.1369004305,49781.3816515852,74249.4640313234,49888.2870358716,2846.6935102114
5356630739,4190,5,0,11669.7216627663,39767.1359800643,35102.0288504515,52658.2267145239,51301.4190094944,50474.4293272263,49798.4529302278,74259.3685365373,49904.0320355605,2856.1356429460
5356630739,4190,5,0,11668.4805576903,39762.9381246604,35089.8246505381,52651.9238475696,51290.2855669014,50438.3764415400,49794.9121304523,74243.8425553912,49894.4317227672,2845.1603804117
5356693686,4191,5,0,11659.9875053079,39751.1232910453,35071.6096083942,52636.8359035091,51274.5649026062,50421.3051628974,49782.1603841819,74227.0267983819,49875.4014449361,2834.0999439997
5356693686,4191,5,0,11651.0929189304,39745.8181752305,35059.7217685982,52623.8286356054,51262.7987397784,50415.1118052145,49769.9196811780,74216.0637035444,49862.2481646705,2829.4762192069
5356693686,4191,5,0,11652.3096886126,39747.8136775095,35064.4793380559,52629.1824222075,51263.7721555242,50450.4467967883,49768.7150791925,74221.4418255402,49859.0480604060,2837.0323589340
5356693686,4191,5,0,11677.3994794616,39771.0783138349,35097.5511380207,52662.6922592579,51290.6749331998,50489.7362898296,49796.8102911567,74254.9394948937,49879.6236357336,2856.3789968825
5356693686,4191,5,0,11687.3769908564,39785.5457053574,35104.4502221193,52673.9352111223,51301.4311771912,50445.6162211496,49809.8297267572,74259.6727289578,49894.1762011339,2854.5903454495
5356693686,4191,5,0,11654.0253338647,39761.4658333448,35066.2436540952,52638.2108532501,51272.7032449923,50391.2631194415,49784.6425943338,74227.1241399565,49873.5154519285,2829.5370576910
5356693686,4191,5,0,11630.0063003362,39735.0862666327,35046.1061158533,52618.6573644556,51251.4462786426,50419.0419712883,49769.3234640337,74214.9077723462,49852.4410010312,2819.4378693280
5356693686,4191,5,0,11648.7567211403,39746.7550878859,35071.9016331179,52642.7737395587,51266.5828934903,50470.5843350303,49788.3537418648,74242.1269101392,49865.8498029301,2836.5091479706
5356727851,4192,5,0,11672.6175746101,39771.1148169254,35095.4704618640,52664.1767182703,51287.3774873607,50476.7776927132,49810.4989500825,74265.2820371932,49889.3577931920,2853.6656004909
5356727851,4192,5,0,11677.0831193442,39779.6200370046,35098.3542060110,52668.2042259187,51296.4180861002,50463.9407725650,49819.1380148268,74270.6236560985,49897.6074916380,2857.9607974694
5356727851,4192,5,0,11663.0659326041,39770.8592952921,35085.6998013151,52652.1063630219,51289.3973250333,50432.3169285221,49807.8950629624,74258.9061640580,49889.1996131333,2846.3284793067
5356727851,4192,5,0,11635.2749130605,39750.9894463803,35058.7726882460,52619.6186125047,51267.6901539012,50406.3388958052,49777.5609947828,74235.7510370039,49871.2765957131,2826.3734565171
5356727851,4192,5,0,11627.5362578811,39743.7374990738,35058.7970236396,52613.9484657852,51266.8505828204,50449.3030332870,49768.7637499798,74237.6126946178,49867.6262866662,2828.7461573976
5356727851,4192,5,0,11654.7797310677,39769.9345503336,35099.1207709108,52649.4051343272,51303.0129777782,50509.2776109272,49798.7692903452,74275.4177286467,49894.2978781021,2857.4619218997
5356727851,4192,5,0,11681.4999932909,39799.3195381610,35121.9108670602,52670.4552498309,51327.1658559718,50481.0607219948,49820.0627597853,74290.9437097928,49916.3457447453,2869.4349355735
5356727851,4192,5,0,11662.4697154598,39787.8697354506,35091.9661651789,52643.5159690649,51306.6511191283,50424.6391118269,49801.3245066780,74265.1846956186,49899.3718076773,2852.3514892341
5356739953,4193,5,0,11634.7882051876,39760.1638897848,35066.3166602762,52618.8520476048,51279.7361737559,50430.6256186637,49779.3496462158,74242.3337609851,49872.4325269113,2837.5677375942
5356739953,4193,5,0,11637.1852414617,39760.7114361418,35078.6790402483,52630.8858997627,51283.7515137075,50461.3125500512,49786.1757241334,74252.5059555291,49876.5087053470,2842.3983132329
5356739953,4193,5,0,11649.1825905291,39773.7552071360,35097.7944919571,52647.7016567720,51296.7831170049,50477.8241146399,49798.5259364087,74264.2356152664,49893.7381640483,2850.2464776837
5356739953,4193,5,0,11664.5868947070,39789.0621697392,35113.6855040079,52659.3096395411,51308.0869073534,50483.2022366357,49810.8883163808,74275.6854179768,49907.9987047247,2855.1378918065
5356739953,4193,5,0,11668.1885329666,39795.0730119698,35112.3348896606,52657.5088204113,51308.1355781407,50452.0285973753,49813.1150048994,74272.5218168029,49913.1943112681,2848.1171307397
5356739953,4193,5,0,11644.7900519761,39775.0206476056,35079.5551144195,52628.3428511267,51281.4396513111,50407.0932930082,49788.7796112536,74239.1458244175,49891.7548294661,2826.3004503361
5356739953,4193,5,0,11633.4375908403,39761.4414979512,35068.3973364329,52622.3198411994,51269.0529359454,50446.3584506558,49779.9215279665,74234.5707704121,49879.0760893766,2826.4342950012
5356739953,4193,5,0,11661.1191011125,39785.6308792352,35102.5398937181,52658.5795777317,51296.7466139144,50504.7755631028,49810.1947576619,74266.7664962056,49901.7566762546,2850.5141670138
5356756227,4194,5,0,11680.9524469339,39807.9829382989,35119.0879613973,52679.0821468784,51315.9959102883,50477.5199222194,49831.8532580068,74279.6034163538,49923.3908412058,2857.8756235917
5356756227,4194,5,0,11659.7319836746,39791.3618644388,35091.0779233109,52654.4790639024,51294.2887391562,50418.8472881391,49818.3106114428,74253.0169987957,49907.0252889789,2838.3586378877
5356756227,4194,5,0,11629.9697972457,39760.5289206894,35062.3134880214,52628.9755713615,51263.8938324925,50416.9977982221,49796.4574279488,74227.0389660787,49876.5817115279,2820.4234527707
5356756227,4194,5,0,11628.5461767174,39758.7767723469,35065.9637970683,52634.3780287509,51263.3097830450,50443.8397374135,49800.7526249273,74231.8208709301,49874.2333460411,2824.9133328983
5356756227,4194,5,0,11643.4881084160,39771.3095000746,35080.2365054416,52650.5245624349,51273.6158222540,50467.2747214944,49811.8252290362,74243.6478722420,49883.9918388931,2837.7137499561
5356756227,4194,5,0,11668.5657315681,39790.3884486929,35102.9535954101,52674.7017760221,51294.1913975816,50489.5051035900,49830.6121529308,74260.5244677354,49900.0897017898,2852.8260294102
5356756227,4194,5,0,11682.4612413399,39802.6778224841,35107.3704693568,52679.1794884530,51300.7011153819,50450.6779830280,49836.5621566772,74261.3397034226,49905.7720162061,2849.1513849696
5356756227,4194,5,0,11660.3890393031,39781.2261729853,35072.1936578417,52645.5358067375,51273.2507913493,50394.7309130361,49810.3407700238,74229.7401947734,49881.7894857681,2825.1445191380
5356789572,4195,5,0,11634.0459756814,39756.2580591046,35050.4499836191,52624.6195358989,51251.1420862220,50420.8427904181,49790.3249087501,74216.5504114173,49857.8677938142,2812.9768223150
5356789572,4195,5,0,11647.1262497661,39772.3559220013,35080.4190208940,52653.9071821517,51273.9930208555,50486.0859807827,49812.4579492710,74249.7803914408,49879.1490955575,2829.7439085370
5356789572,4195,5,0,11669.0646071378,39801.0230157162,35108.3073820122,52681.1993261256,51303.4510148638,50480.5983495156,49840.4801550542,74276.9386907496,49913.0239635126,2846.7908517860
5356789572,4195,5,0,11660.4498777872,39800.3416246941,35094.7647354482,52666.1113820651,51299.0219732203,50436.6364608943,49832.4008043638,74267.4235518341,49916.8689557087,2837.9206008021
5356789572,4195,5,0,11642.8188850907,39783.8787308927,35074.2013278174,52642.5303856223,51285.7226805928,50428.9586441990,49815.8527366846,74254.6109670795,49905.9788670521,2825.0350098666
5356789572,4195,5,0,11635.2262422732,39775.3005046325,35068.2148209806,52632.1635079291,51279.9430246019,50433.8135552314,49807.7855536910,74249.5248698075,49901.5133223181,2822.0539241449
5356789572,4195,5,0,11635.8102917207,39771.9057172189,35075.6249483457,52634.2441840858,51285.5279974436,50463.4540646920,49806.4106039500,74260.4636292513,49901.6228315895,2827.9065863168
5356789572,4195,5,0,11653.4291167204,39788.3807787172,35104.7787499335,52658.7742608809,51310.4596082339,50505.2622709757,49825.9762604413,74287.8166117093,49919.1808181050,2846.4623239718
5356825305,4196,5,0,11664.4287146483,39800.8283325670,35115.9365279201,52667.3524871411,51324.7809873945,50470.5356642430,49837.1583738216,74296.0298070648,49932.8694770308,2853.1180541339
5356825305,4196,5,0,11636.5038504396,39780.4231049950,35080.2486731385,52635.8868231569,51304.0715674018,50417.0951397966,49815.8527366846,74269.2243709638,49912.9752927253,2836.1197816723
5356825305,4196,5,0,11615.3198902709,39761.8673673400,35065.8421201001,52620.5433574632,51291.1373056790,50447.6968973063,49804.5002755488,74260.6826477941,49892.5457297596,2835.0003535645
5356825305,4196,5,0,11633.8877956227,39777.8678886621,35096.1396851892,52650.6340717063,51311.6885456130,50501.6606327161,49824.0172612528,74286.2591465160,49903.9468616827,2854.0793021829
5356825305,4196,5,0,11661.3381196553,39800.2077800291,35121.2416437349,52674.5800990539,51331.0473512583,50496.9882371361,49843.9601163456,74303.1965804935,49923.4638473867,2865.0667324140
5356825305,4196,5,0,11665.8888382670,39799.4168797356,35112.6269143843,52667.4741641093,51327.2266944559,50467.2017153135,49837.9249387214,74293.3042429764,49923.1231518757,2857.5592634743
5356825305,4196,5,0,11658.3692016305,39785.6917177193,35094.0833444261,52650.4880593445,51309.6565402435,50443.1583463914,49822.3137836976,74274.5294867786,49910.2375609402,2844.2356354532
5356825305,4196,5,0,11643.3420960541,39770.5672705684,35073.9701415778,52632.3703587751,51293.0111309898,50426.2087447170,49806.1672500135,74257.1905188060,49896.8044236476,2833.4672237649
5356853706,4197,5,0,11636.9418875253,39762.1228889733,35070.9403850689,52629.8029747455,51286.6230901577,50452.6126468228,49801.8720530350,74254.5622962922,49887.2284462480,2834.1364470901
5356853706,4197,5,0,11660.6445609364,39781.3478499535,35105.3384639874,52662.8139362261,51312.3212658478,50510.7012314555,49828.2759551408,74284.1176318751,49908.1812201771,2856.0869721587
5356853706,4197,5,0,11677.6550010948,39803.8580890759,35126.3885794911,52683.5598593092,51333.6269029847,50485.7817883621,49851.2485667425,74296.5165149377,49933.0033216959,2864.1054843650
5356853706,4197,5,0,11649.5841245243,39789.0500020424,35094.3510337562,52653.0067725868,51311.2626762242,50420.9157965990,49832.0236057623,74266.4014653009,49921.2858296554,2842.8728534090
5356853706,4197,5,0,11613.0688663587,39760.9304546846,35064.2846549068,52625.5442808574,51285.0047864803,50428.6179486880,49807.8707275687,74242.1634132296,49893.9693502879,2826.9331705709
5356853706,4197,5,0,11619.5907518558,39760.9912931687,35078.1679969817,52641.2284420622,51289.2513126715,50471.6915954412,49817.1546802447,74255.6330536126,49893.6529901705,2834.5014779948
5356853706,4197,5,0,11642.6607050321,39774.1324057375,35096.5655545780,52661.6945081184,51302.5262699053,50477.8119469431,49834.3841389459,74268.8350046655,49902.8030981813,2843.8584368516
5356853706,4197,5,0,11657.5052951560,39779.1941676158,35103.2577878306,52667.9000334981,51304.7894615144,50470.5599996366,49844.5198303995,74271.2928794238,49906.8671089202,2846.2554731258
5356884989,4198,5,0,11656.6048855911,39775.7142063245,35094.4970461181,52660.3682291647,51298.6204392251,50443.9735820785,49841.6725893429,74260.9503371242,49902.9856136337,2839.6849168414
5356884989,4198,5,0,11637.9639740584,39763.0598016286,35072.1449870544,52639.2937782674,51277.9353546261,50414.4547495861,49824.5526399130,74239.6933707746,49890.2825381505,2824.7794882333
5356884989,4198,5,0,11623.4600794454,39750.6000800819,35060.8655320995,52628.2820126426,51265.5486392604,50440.6518008459,49812.6526324202,74231.2368214826,49875.2189294837,2820.1679311374
5356884989,4198,5,0,11647.6007899422,39771.1999908032,35093.9738351547,52661.6701727247,51290.8817840457,50501.2347633273,49838.2899696261,74260.7434862783,49891.2072831091,2840.7556741618
5356884989,4198,5,0,11679.4193171342,39801.7774129192,35120.7792712557,52689.3638506938,51317.8697355990,50481.0607219948,49864.0124807098,74280.3943166473,49915.1168073662,2855.5394258017
5356884989,4198,5,0,11667.0569371621,39789.7435607613,35092.0391713599,52664.0672089989,51301.5041833722,50415.7688608429,49848.6933504097,74254.8786564096,49902.7179243036,2838.4194763718
5356884989,4198,5,0,11641.2127491101,39758.7889400438,35058.2129741921,52632.4798680465,51274.7352503617,50415.6836869652,49821.2308586803,74232.2710757126,49875.5596249948,2823.5870539446
5356884989,4198,5,0,11641.1275752324,39754.3477307034,35065.6596046477,52638.2595240374,51276.6090756724,50452.5031375514,49822.1069328516,74244.0372385404,49879.5871326432,2830.9241751289
5356906682,4199,5,0,11653.5386259918,39766.0773904407,35085.2739319263,52653.8098405771,51288.1683876542,50469.2337206829,49831.3422147402,74259.7822382293,49894.8575921560,2841.5100713648
5356906682,4199,5,0,11662.2141938265,39776.9918144909,35099.9238389012,52664.6999292337,51300.7376184723,50479.6979399507,49842.4026511523,74273.3492201868,49907.5484999423,2849.1392172728
5356906682,4199,5,0,11662.8712494550,39781.9927378851,35101.8828380896,52666.5250837571,51306.2009143458,50455.0948569747,49846.9898728545,74274.4808159914,49912.9144542412,2847.6304228668
5356906682,4199,5,0,11640.0933210024,39764.5077575505,35074.2499986047,52637.2374375043,51287.0124564560,50409.8066893997,49828.8356691947,74250.3401054946,49898.3983919314,2830.2062810163
5356906682,4199,5,0,11616.7313431024,39743.0561080517,35058.2129741921,52616.8443776290,51271.5351460973,50436.1619207182,49810.7179686253,74240.5816126426,49880.4388714208,2823.4045384923
5356906682,4199,5,0,11636.8688813443,39754.2868922193,35090.0436690809,52646.1441915787,51294.1548944911,50499.2635964420,49832.3156304860,74271.2563763333,49898.2645472664,2843.9679461231
5356906682,4199,5,0,11661.3989581394,39777.9530625399,35115.5836647123,52670.6012621928,51316.6773013104,50480.4888402442,49854.5703479752,74291.2357345166,49921.2249911713,2853.9819606083
5356906682,4199,5,0,11648.6228764753,39768.0607250228,35092.2703575995,52649.1496126939,51301.2851648294,50426.0870677488,49841.3318938318,74273.7507541820,49911.0892997178,2838.9426873352
5356946500,4200,5,0,11624.9688738515,39743.0196049612,35064.0778040608,52623.2324184611,51277.1931251199,50418.2632386916,49818.0672575064,74249.5127021107,49886.2063597149,2824.7673205365
5356946500,4200,5,0,11622.8151915138,39740.0263515428,35067.2779083252,52623.5244431848,51276.4022248264,50440.7856455109,49816.0352521369,74252.4451170450,49881.2176040174,2828.1499402532
5356946500,4200,5,0,11626.6358483162,39748.9331056172,35078.8372203070,52634.1346748144,51284.5424140010,50461.2395438703,49826.1952789841,74261.9115851733,49888.7494083508,2838.6141595210
5356946500,4200,5,0,11639.1685760439,39769.5451840352,35101.4934717913,52655.7566720688,51303.3780086829,50489.0548988075,49848.7420211970,74281.0270368821,49904.3118925874,2851.6335951215
5356946500,4200,5,0,11649.1582551355,39786.0202455335,35110.0838657483,52668.3867413710,51316.2027611343,50464.0624495332,49862.7592079370,74289.6904370200,49915.1411427598,2849.8327759917
5356946500,4200,5,0,11629.1910646491,39769.1314823433,35081.7939706350,52639.4519583261,51297.2454894841,50415.8783701143,49843.4369053822,74261.8264112955,49901.3551422594,2831.9949324493
5356946500,4200,5,0,11605.3545465729,39743.2386235040,35068.6406903694,52615.9926388514,51275.8060076821,50441.0046640537,49821.6810634628,74242.3215932883,49880.4145360271,2830.7051565860
5356946500,4200,5,0,11621.6227572252,39753.8610228305,35104.4988929066,52639.8534923212,51292.9016217184,50510.8229084238,49833.8974310730,74265.0873540441,49896.9139329190,2858.8733747312
5356977872,4201,5,0,11648.9757396832,39779.9729002125,35136.3660908859,52666.3425683048,51316.1054195597,50506.7954007754,49855.3125774814,74284.0446256942,49925.6662005117,2879.4367823619
5356977872,4201,5,0,11644.6075365237,39778.9994844667,35126.0843870705,52656.3528892131,51307.7705472360,50463.0281953032,49850.1899771189,74272.6069906806,49925.7757097831,2875.6891317405
5356977872,4201,5,0,11624.0319611961,39761.2468148020,35104.4015513320,52634.2928548731,51287.1341334243,50450.4589644851,49833.9461018603,74251.6663844483,49909.8846977323,2866.8553838470
5356977872,4201,5,0,11611.5600719526,39751.6708374023,35098.6218953411,52625.2279207400,51278.8966026751,50453.4278825099,49825.0758508764,74242.7717980708,49900.1748756676,2866.5998622137
5356977872,4201,5,0,11610.0391098497,39750.0038629376,35103.7809987940,52629.0607452393,51278.1178700785,50471.5090799888,49827.6067318156,74242.7474626771,49898.0941995109,2872.0753257841
5356977872,4201,5,0,11622.6083406678,39754.3355630066,35123.5535061313,52648.1396938576,51290.7966101680,50503.8994889315,49841.1615460763,74259.7700705324,49905.9423639617,2883.0384206215
5356977872,4201,5,0,11633.2550753879,39763.4004971397,35133.0686450468,52659.4434842061,51298.9611347362,50477.1913944051,49856.3711671050,74267.1436948071,49922.3322515822,2884.1943518197
5356977872,4201,5,0,11607.1431980059,39741.5108105552,35095.7138158004,52624.9480637131,51269.5883146056,50411.5953408327,49833.1186984764,74234.7654535613,49903.3263091447,2859.2019025454
5357008697,4202,5,0,11579.0844891322,39712.2718350897,35063.8466178211,52593.6405797877,51239.4124264847,50424.4930994650,49804.6584556075,74211.9023512310,49873.0044086620,2841.6560837267
5357008697,4202,5,0,11594.8903273052,39726.7513943090,35090.8832401617,52619.1440723286,51258.6982259491,50489.0427311107,49820.0627597853,74235.5076830675,49886.2063597149,2860.0293059293
5357008697,4202,5,0,11624.3361536167,39757.1341332758,35122.6287611728,52648.5533955496,51289.3364865492,50493.5082758447,49845.0795444533,74262.4226284398,49916.8202849214,2877.2465969338
5357008697,4202,5,0,11631.6367717105,39758.9836231929,35119.1609675782,52644.4893848108,51293.7898635864,50461.7384194400,49846.9533697640,74261.0111756084,49921.1276495967,2872.9513999553
5357008697,4202,5,0,11623.9589550152,39742.7884187216,35100.4835529550,52626.2135041827,51279.6266644845,50438.6562985669,49835.1385361490,74245.9719023352,49907.1104628567,2862.4628452939
5357008697,4202,5,0,11607.8002536343,39727.0069159422,35081.8304737254,52606.5383384200,51263.9790063702,50422.3272494305,49820.0627597853,74226.6495997804,49890.3677120283,2850.8426948280
5357008697,4202,5,0,11594.0994270117,39718.9519006455,35079.1779158180,52600.3328130403,51257.3232762081,50451.2498647786,49814.4169484595,74224.4229112618,49884.3933728882,2850.2951484710
5357008697,4202,5,0,11608.9926879230,39736.3517071023,35111.4344800957,52628.9755713615,51280.3323909003,50505.5786310931,49835.8442625647,74252.7614771624,49903.7765139272,2870.1649973829
5357055279,4203,5,0,11627.3780778224,39756.7447669775,35134.8451287830,52651.3276304252,51298.3040791077,50481.2919082345,49856.3589994082,74269.6745757463,49928.8541370793,2877.0640814815
5357055279,4203,5,0,11605.7925836585,39742.5207293915,35103.4159678893,52621.4681024217,51277.1687897263,50411.1329683534,49839.1660437974,74243.0881581882,49918.0005515132,2854.9310409605
5357055279,4203,5,0,11576.1034034106,39710.6656991090,35070.3563356214,52590.7690033375,51248.5381991019,50419.8693746723,49814.3926130659,74220.8212730022,49891.8643387375,2839.7700907191
5357055279,4203,5,0,11589.6338822777,39716.7738829141,35090.6885570125,52610.0913058923,51261.2899453724,50479.9777969776,49830.0767742706,74241.1778297870,49898.8729321075,2856.3059907015
5357055279,4203,5,0,11614.5898284615,39742.5207293915,35119.3069799401,52637.8093192550,51285.7470159865,50493.6664559034,49853.6090999262,74263.1770256428,49919.9352153080,2874.0343249725
5357055279,4203,5,0,11626.1856435338,39759.4824987627,35129.4426713936,52649.8918422001,51297.7200296602,50489.2495819567,49867.2004172774,74272.9841892821,49932.5409492166,2881.2619368854
5357055279,4203,5,0,11628.6313505952,39763.3274909587,35125.9140393150,52648.3465447036,51299.3748364282,50464.0381141395,49872.0674960066,74269.9909358637,49931.2633410502,2876.6990505768
5357055279,4203,5,0,11613.7259219871,39747.5946589667,35099.3762925441,52626.5785350874,51281.1962973747,50423.7630376556,49855.9939685035,74246.7141318414,49915.6400183295,2859.5547657532
5357072590,4204,5,0,11598.5893071394,39725.0965875410,35079.7863006592,52609.2639025083,51260.9005790740,50436.0645791436,49836.1241195916,74229.6306855020,49897.4736469729,2849.5164158743
5357072590,4204,5,0,11619.0067024083,39736.1691916499,35106.6647429411,52635.1932644380,51280.5027386558,50494.8710578889,49851.6987715250,74254.0025822383,49912.7197710920,2866.9405577248
5357072590,4204,5,0,11643.2812575700,39760.7722746259,35133.1538189246,52660.7940985535,51302.9034685068,50478.2743194224,49869.6217889452,74269.9179296827,49934.4999484051,2878.6945528557
5357072590,4204,5,0,11625.7841095386,39751.7073404928,35108.3073820122,52636.8602389028,51283.7515137075,50412.6782658499,49854.2418201610,74243.3680152151,49924.6197785849,2860.9905539784
5357072590,4204,5,0,11595.0485073639,39722.4075265432,35076.2211654901,52605.1268855885,51252.9550730486,50410.9991236883,49825.3070371160,74215.1997970700,49893.3609654467,2845.3915666513
5357072590,4204,5,0,11597.8349099363,39723.3444391985,35087.5249558386,52612.5370129537,51259.3552815775,50459.0858615326,49827.7284087838,74222.6342598288,49895.5146477844,2856.0626367651
5357072590,4204,5,0,11622.3041482473,39747.9353544777,35117.9198625023,52638.5515487612,51282.9606134140,50488.2518308172,49849.2530644636,74245.6798776115,49919.7770352493,2878.4146958288
5357072590,4204,5,0,11640.6408673594,39764.3860805823,35141.1844988277,52658.6525839127,51302.0152266387,50500.0423290386,49868.8552240453,74262.4712992271,49940.7054737848,2890.2903679280
5357098605,4205,5,0,11646.8828958296,39771.2243261968,35146.4652792489,52662.2785575659,51307.7218764487,50475.9746247229,49877.5672949706,74264.0409321173,49951.9240902556,2890.0226785979
5357098605,4205,5,0,11623.8129426533,39754.7370970017,35118.2727257102,52633.9399916653,51284.1530477027,50421.3051628974,49856.3224963177,74236.0673971213,49934.6337930702,2871.3087608842
5357098605,4205,5,0,11599.0881827091,39730.6328895955,35093.9494997611,52608.3391575498,51258.5522135872,50436.2470945959,49829.9916003929,74214.2263813241,49909.9942070037,2860.5403491959
5357098605,4205,5,0,11611.2315441384,39740.0628546333,35118.1753841356,52630.4235272834,51274.1998717015,50501.6119619288,49840.7721797780,74238.2819179431,49919.5093459192,2876.6017090022
5357098605,4205,5,0,11642.5025249734,39772.3559220013,35152.0380843938,52660.6967569789,51305.0571508445,50506.3816990834,49869.7799690039,74265.2577017996,49952.5203073999,2896.9947688774
5357098605,4205,5,0,11639.6674516136,39771.3703385587,35136.2565816145,52645.5479744343,51295.8462043495,50447.0155062842,49862.5280216974,74250.9119872453,49950.9020037224,2886.2141894923
5357098605,4205,5,0,11616.3541445009,39747.8866836904,35107.1392831172,52615.5546017658,51271.7419969433,50434.6044555248,49838.9835283450,74226.5157551153,49928.8054662920,2869.2037493338
5357098605,4205,5,0,11609.0048556198,39738.0308492638,35102.9535954101,52612.3666651982,51266.6558996713,50453.9997642606,49833.2525431414,74226.5157551153,49919.5701844034,2866.6485330010
5357132577,4206,5,0,11616.1716290485,39743.5063128341,35113.7220070984,52622.8673875564,51272.6910772955,50470.0002855828,49839.2633853719,74237.5883592242,49927.7347089716,2874.4358589677
5357132577,4206,5,0,11625.5650909958,39757.2314748504,35133.5066821325,52641.9828392652,51286.5379162800,50499.0567455960,49854.3513294324,74256.5456308743,49943.8325718683,2884.7905689640
5357132577,4206,5,0,11633.4010877498,39774.1080703438,35145.8812298014,52653.4934804597,51298.6326069220,50479.8196169189,49868.3806838692,74265.5253911297,49955.9029271167,2886.1046802209
5357132577,4206,5,0,11606.6564901330,39760.1638897848,35114.8170998124,52622.2346673216,51277.4486467532,50419.7476977040,49849.0097105271,74238.4522656986,49939.2940209533,2864.8477138712
5357132577,4206,5,0,11575.6897017186,39732.5918887840,35086.9530740879,52594.0299460860,51253.9163210976,50432.7306302141,49824.8568323336,74216.7694299601,49914.4719194345,2852.5826754737
5357132577,4206,5,0,11588.9281558619,39740.0020161491,35111.7508402130,52620.1661588617,51272.3138786939,50500.4195276401,49839.7865963353,74242.7839657676,49924.9726417927,2874.6305421169
5357132577,4206,5,0,11618.1184605402,39768.7907868322,35144.2264230335,52652.5322324107,51299.4965133964,50501.3077695082,49865.0345672429,74269.8327558050,49955.0390206422,2896.5445640950
5357132577,4206,5,0,11614.5898284615,39770.2265750573,35132.9469680786,52642.3843732604,51293.5586773468,50456.7861668331,49860.6663640835,74260.8286601560,49956.6329889260,2892.1763609356
5357173346,4207,5,0,11590.3882794807,39748.9696087077,35105.3749670778,52613.5469317900,51267.7266569917,50432.9131456665,49837.0975353375,74236.4445957228,49938.1137543615,2874.3628527868
5357173346,4207,5,0,11574.5824413077,39734.1128508868,35093.6453073405,52598.3008076709,51255.0235815085,50435.9063990849,49824.0050935560,74226.9051214137,49927.0898210399,2865.0667324140
5357173346,4207,5,0,11573.3048331413,39732.4215410285,35097.1131009351,52599.4689065659,51255.8509848925,50456.4698067157,49820.1966044504,74229.3508284751,49924.9361387023,2865.9671419789
5357173346,4207,5,0,11591.8362354026,39748.6289131966,35122.9451212902,52621.5289409059,51274.3945548507,50499.3122672293,49838.3629758070,74252.5181232259,49936.8726492856,2881.7121416678
5357173346,4207,5,0,11617.4127341244,39770.7254506271,35143.3016780749,52641.5934729669,51292.7434416597,50483.7376152959,49856.3103286209,74265.7200742788,49953.1408599379,2890.6067280454
5357173346,4207,5,0,11606.9120117662,39758.4117414423,35113.5394916460,52616.6010236926,51270.9024258625,50412.1185517961,49838.9713606482,74239.1944952048,49941.6423864402,2870.3475128352
5357173346,4207,5,0,11579.3400107655,39725.6197985044,35077.9976492262,52584.9528442561,51239.4976003625,50412.1793902802,49809.6715466985,74209.4931472600,49913.4620005982,2851.5605889406
5357173346,4207,5,0,11585.7280515975,39723.2957684112,35092.4285376582,52601.5495827226,51246.4696906420,50468.3819819053,49818.6634746507,74225.6761840345,49915.4088320899,2858.3379960710
5357198829,4208,5,0,11609.6740789451,39745.4774797195,35119.1001290941,52627.6371247110,51267.4102968743,50475.9746247229,49839.9447763940,74245.1444989512,49937.0186616475,2870.4570221066
5357198829,4208,5,0,11614.3221391314,39754.5667492462,35116.8247697882,52626.3473488477,51269.1259421263,50448.4999652967,49844.7996874264,74241.4333514202,49941.0826723863,2869.4471032703
5357198829,4208,5,0,11600.3292877850,39744.6622440323,35096.1883559765,52606.3314875740,51253.5147871025,50421.6215230148,49830.0524388770,74222.5612536479,49925.5201881498,2858.3988345551
5357198829,4208,5,0,11579.2791722813,39729.1849336735,35074.4811848444,52583.8090807547,51234.2411553350,50402.2870527631,49812.6161293297,74202.7522432201,49908.4367418104,2846.9977026320
5357198829,4208,5,0,11566.4179167395,39720.7162166848,35067.3265791125,52575.4620407342,51228.1573069235,50424.8337949760,49802.1032392747,74198.6517293908,49899.6151616137,2850.0639622314
5357198829,4208,5,0,11582.5036119394,39735.8163284421,35093.4141211009,52602.1214644733,51247.9663173512,50482.4235040390,49819.8072381521,74224.1917250221,49913.8270315029,2871.1262454319
5357198829,4208,5,0,11610.4771469354,39767.7565326023,35125.1961452024,52634.6943888683,51276.7915911248,50477.4469160384,49847.9267855099,74250.5956271279,49939.9389088850,2887.6499777174
5357198829,4208,5,0,11597.3116989729,39759.8840327578,35103.8053341877,52613.2305716726,51263.6261431624,50405.2316353943,49837.6694170881,74228.2314003674,49934.1105821068,2871.1870839160
5357223432,4209,5,0,11566.2354012872,39727.8951578103,35070.5266833769,52579.5747222604,51233.4380873446,50400.0116934572,49809.9270683318,74198.6882324812,49913.0726342999,2855.2960718652
5357223432,4209,5,0,11568.0605558106,39723.0402467780,35078.6060340674,52587.5202282857,51235.9446328902,50452.0651004658,49812.9568248407,74210.1380351916,49915.5426767550,2861.7936219687
5357223432,4209,5,0,11595.5960537209,39745.3923058417,35104.7300791462,52616.7957068417,51260.3530327170,50474.6361780723,49837.1097030343,74236.7244527498,49937.3106863712,2879.8869871444
5357223432,4209,5,0,11609.8687620942,39757.5965057551,35111.1059522814,52628.3915219140,51268.4688864979,50464.0137787459,49849.0097105271,74244.4266048387,49943.2120193303,2884.5107119371
5357223432,4209,5,0,11611.5844073463,39762.9746277509,35106.3118797332,52628.0873294934,51269.2232837009,50450.2156105487,49852.0516347329,74241.4698545107,49942.3602805527,2881.0550860394
5357223432,4209,5,0,11596.4599601953,39755.6861773539,35087.9386575306,52609.3004055988,51253.7824764326,50414.7589420066,49839.7379255480,74226.2115626947,49932.8329739404,2868.1816628007
5357223432,4209,5,0,11578.2449180514,39737.5928121782,35072.0233100861,52592.3264685308,51240.6656992575,50430.6986248447,49825.2705340256,74216.1123743317,49918.9861349559,2862.8157085018
5357223432,4209,5,0,11597.4455436380,39748.4950685316,35102.3938813562,52619.4360970523,51262.1903549373,50500.7723908480,49846.3936557102,74244.7673003497,49937.6027110950,2885.0217552037
5357262649,4210,5,0,11634.9707206400,39779.1089937381,35138.7144563727,52655.4159765577,51293.7290251023,50503.6439672982,49876.2288483200,74274.1522881771,49968.8736919299,2905.0254487806
5357262649,4210,5,0,11630.4443374218,39778.2450872637,35122.7261027473,52640.5835541306,51287.8763629305,50438.7171370510,49870.5708692974,74258.2612761264,49966.7808480764,2892.5778949307
5357262649,4210,5,0,11600.0007599708,39751.8411851579,35090.9805817363,52609.5437595353,51262.1051810595,50425.7828753282,49844.4833273090,74231.7478647492,49937.9799096965,2874.0343249725
5357262649,4210,5,0,11596.9101649778,39751.4518188595,35100.4470498645,52615.4207571007,51264.6238943018,50471.1318813873,49847.7442700575,74239.4621845349,49937.3593571585,2880.7752290125
5357262649,4210,5,0,11611.6939166177,39771.6623632824,35125.3178221706,52638.5515487612,51284.3112277614,50495.7714674538,49865.7524613555,74260.2324430117,49956.4018026864,2896.8852596060
5357262649,4210,5,0,11626.2829851084,39791.0090012309,35144.2264230335,52656.5110692718,51297.7078619634,50504.0089982029,49881.2784425016,74275.2352131944,49972.3536532213,2905.1349580520
5357262649,4210,5,0,11633.2064046006,39800.2077800291,35146.5139500362,52659.4313165093,51302.2829159688,50485.0882296432,49888.6155636858,74277.4862371066,49977.5370920679,2902.0808661494
5357262649,4210,5,0,11613.9814436204,39786.4826180128,35121.7648546983,52632.9787436163,51283.7636814043,50435.2980142438,49869.9989875467,74253.9539114511,49963.3252221787,2884.3646995752
5357323741,4211,5,0,11589.1836774952,39762.2932367288,35099.4614664219,52607.6090957404,51264.3927080622,50444.1804329245,49848.8271950748,74236.3959249356,49941.0340015990,2875.9568210706
5357323741,4211,5,0,11602.7871625433,39771.2364938936,35126.8752873640,52633.0274144035,51283.0822903822,50518.4277189381,49864.3288408272,74262.0819329288,49948.2251104214,2895.1817820508
5357323741,4211,5,0,11642.2348356433,39808.0072736926,35166.5663144004,52673.5580125208,51319.4393684892,50531.0699559371,49900.5034034818,74293.6206030938,49979.5204266500,2915.6113450165
5357323741,4211,5,0,11645.7756354187,39816.5976676496,35157.2823617245,52666.3669036984,51319.0256667972,50474.2224763803,49897.4006407920,74283.0347068579,49983.3410834524,2904.8551010251
5357323741,4211,5,0,11617.7777650291,39791.8485723117,35124.5999280581,52632.6258804084,51294.2157329752,50448.5851391744,49869.1715841627,74253.2481850353,49960.4293103348,2883.6954762500
5357323741,4211,5,0,11606.3401300156,39777.4298515765,35116.8612728787,52626.0796595176,51283.5811659520,50467.3355599786,49857.0768935207,74249.3666897488,49949.9894264607,2879.7774778730
5357323741,4211,5,0,11610.0391098497,39776.6632866767,35124.7946112072,52631.4821169070,51286.4770777958,50481.8394545915,49858.9385511346,74255.0855072556,49954.7104928280,2884.9852521132
5357323741,4211,5,0,11624.1658058612,39789.4272006439,35143.2043365004,52646.5822286643,51301.1513201643,50511.8206595632,49873.1382533270,74268.8106692719,49967.1702143747,2896.6662410632
5357333887,4212,5,0,11642.9162266653,39808.5304846560,35161.4558817348,52661.1469617614,51317.0301645182,50501.7093035034,49889.1144392555,74280.5524967060,49983.7669528412,2902.8352633525
5357333887,4212,5,0,11632.4641750944,39803.8094182886,35139.6878721185,52641.0337589130,51304.9476415731,50447.3683694921,49877.7376427261,74261.1693556671,49980.3843331244,2889.7671569646
5357333887,4212,5,0,11601.5338897705,39780.1189125744,35110.6070767117,52612.8047022838,51280.0038630860,50446.2732767780,49852.3071563661,74237.9168870384,49954.8686728867,2878.0374972273
5357333887,4212,5,0,11604.6123170667,39781.3235145599,35127.1186413004,52626.7488828429,51285.4549912627,50511.6624795045,49858.2693278094,74254.5744639890,49955.7325793611,2892.9307581386
5357333887,4212,5,0,11631.0283868693,39807.3258826705,35157.3188648150,52654.5520700833,51310.5691175053,50517.9531787620,49882.1301812792,74279.8102671998,49976.8070302585,2907.6901743848
5357333887,4212,5,0,11629.4465862823,39809.9784405779,35145.9420682855,52646.0468500041,51305.3856786587,50465.9606102376,49881.2541071079,74269.9179296827,49975.5780928794,2897.8586753519
5357333887,4212,5,0,11601.8259144943,39786.9449904921,35114.2817211522,52617.5866071352,51281.8411853063,50440.0555837015,49860.3500039661,74244.3901017482,49952.0335995270,2877.3317708116
5357333887,4212,5,0,11580.7027928096,39770.2630781478,35099.7413234488,52605.1268855885,51269.1259421263,50442.1970983424,49852.9520442978,74234.6194411994,49938.3571082980,2869.7877987813
5357344300,4213,5,0,11571.0903123195,39763.4613356238,35099.7413234488,52602.4986630748,51267.8361662631,50454.3039566812,49849.1070521017,74235.2643291310,49933.3926879942,2871.4791086397
5357344300,4213,5,0,11587.5775415146,39776.7606282512,35125.1231390215,52624.4248527497,51286.2823946467,50502.4515330096,49865.2779211794,74256.7281463267,49948.8943337466,2887.5283007492
5357344300,4213,5,0,11613.8719343490,39801.8990898874,35151.3688610685,52647.5069736228,51307.1134916076,50493.7881328716,49884.0283419835,74273.5074002455,49969.0440396854,2897.7856691709
5357344300,4213,5,0,11601.9597591593,39791.9459138863,35127.6175168702,52623.6582878499,51291.0156287108,50423.2519943890,49865.9471445047,74247.8335599491,49957.3265476449,2880.9212413743
5357344300,4213,5,0,11575.0326460901,39759.9083681515,35093.8278227929,52590.9028480025,51265.3052853239,50423.2276589954,49839.4945716116,74221.9528688067,49929.5841988886,2865.6629495584
5357344300,4213,5,0,11583.8785616804,39758.5455861073,35109.7553379341,52608.4121637307,51272.3260463908,50487.0958996190,49847.5130838179,74237.3693406814,49932.0542413437,2879.5219562397
5357344300,4213,5,0,11613.9814436204,39783.3555199293,35139.8217167836,52641.8003238129,51296.7587816112,50498.6552116008,49872.6515454541,74262.8971686159,49954.3332942265,2896.5445640950
5357344300,4213,5,0,11622.1703035822,39790.4614548739,35135.2953335654,52641.8733299938,51296.7587816112,50464.0502818364,49876.0706682613,74258.3829530946,49957.7889201242,2889.8644985392
5357406614,4214,5,0,11613.5069034443,39779.8998940316,35114.2087149713,52624.7655482608,51280.2472170225,50436.0280760531,49864.8398840938,74241.0074820314,49941.0948400831,2876.5773736085
5357406614,4214,5,0,11600.9133372325,39763.8872050126,35094.2293567880,52607.4752510754,51263.3341184386,50409.5511677664,49851.4554175885,74221.6486763861,49918.7914518067,2859.2627410295
5357406614,4214,5,0,11588.3076033240,39749.5293227615,35083.2419265569,52596.0376160618,51249.5724533319,50424.9433042474,49840.2611365114,74212.6932515245,49905.4069853015,2851.4754150628
5357406614,4214,5,0,11605.5248943284,39764.7146083965,35111.9941941495,52619.3022523873,51267.0087628791,50489.9796437661,49858.0989800539,74236.6271111752,49918.1222284814,2868.4493521308
5357406614,4214,5,0,11638.1221541171,39800.2564508164,35149.0448309754,52653.7246666994,51298.0850605649,50499.9328197672,49888.0193465415,74266.2676206359,49950.7316559669,2886.5913880938
5357406614,4214,5,0,11633.4254231434,39801.3880466209,35131.2313228266,52636.4343695140,51286.8664440942,50427.3890113088,49879.0760893766,74246.5316163891,49948.0547626659,2871.4547732461
5357406614,4214,5,0,11602.7506594528,39766.2355704994,35091.0170848268,52599.6514220182,51250.9595707697,50409.3686523141,49844.3616503408,74210.2962152503,49915.4818382708,2850.0639622314
5357406614,4214,5,0,11601.6677344356,39758.1197167185,35098.1473551650,52607.2562325325,51251.5192848235,50462.7240028827,49846.5031649816,74218.6797583614,49909.5318345244,2858.8247039439
5357414923,4215,5,0,11623.0707131471,39778.7074597429,35126.2790702196,52636.6655557536,51276.4752310074,50486.1833223573,49870.8750617179,74244.2197539927,49931.9082289818,2877.3317708116
5357414923,4215,5,0,11627.2320654606,39793.9414161652,35136.9988111207,52646.8377502976,51287.5721705099,50473.6505946297,49881.9233304332,74254.1120915098,49942.2994420686,2884.0726748515
5357414923,4215,5,0,11618.0454543592,39793.2478574463,35129.1141435794,52635.5096245554,51282.3887316633,50445.8717427829,49875.6326311757,74245.8623930638,49940.0605858532,2874.9469022343
5357414923,4215,5,0,11594.6104702783,39778.3059257478,35102.0775212388,52607.6821019214,51261.6306408834,50405.0977907292,49855.2395713005,74220.4684097943,49923.2813319344,2856.6710216062
5357414923,4215,5,0,11568.9487976787,39754.4450722780,35078.8858910943,52582.5436402852,51237.0032225138,50409.0401244999,49830.4418051753,74198.8099094495,49902.7057566068,2846.4866593654
5357414923,4215,5,0,11577.5878624230,39759.6406788214,35101.1041054930,52602.6203400430,51250.3633536253,50480.9755481171,49846.9533697640,74221.0402915450,49915.1898135471,2862.7061992304
5357414923,4215,5,0,11611.0125255956,39791.5200444975,35140.2354184756,52640.1333493481,51283.0336195949,50500.0788321291,49879.8304865796,74255.3896996762,49952.5081397031,2887.5769715365
5357414923,4215,5,0,11606.8146701917,39793.2235220527,35127.5810137797,52627.0774106571,51275.3436352029,50432.3777670062,49874.9512401536,74240.3747617967,49955.6960762707,2878.5363727970
5357443769,4216,5,0,11573.2926654445,39765.0309685139,35089.1310918192,52588.5666502125,51241.8824689398,50410.2568941821,49844.5685011867,74208.4223899396,49926.4084300179,2858.1311452250
5357443769,4216,5,0,11565.4931717810,39757.6330088456,35093.4262887977,52588.5301471220,51240.6900346511,50451.4932187151,49841.7212601302,74211.9145189278,49921.2736619586,2859.7494489024
5357443769,4216,5,0,11578.2084149609,39775.6533678404,35119.9397001749,52610.1278089828,51261.2899453724,50480.3063247918,49858.9507188315,74232.3319141967,49939.1845116819,2872.6350398379
5357443769,4216,5,0,11590.5221241457,39794.5011302191,35140.5761139866,52626.5055289064,51278.6167456482,50496.0756598744,49874.6713831267,74247.7118829809,49957.0466906180,2886.7739035462
5357443769,4216,5,0,11601.0228465039,39805.5007281470,35148.0227444422,52632.0053278704,51286.9881210624,50481.5230944741,49881.4731256507,74252.9439926147,49966.0507862670,2889.9010016297
5357443769,4216,5,0,11595.1823520289,39795.1216827571,35125.0136297501,52612.8047022838,51273.6036545572,50431.5746990159,49866.7137094045,74233.4635100012,49955.5865669993,2874.7887221756
5357443769,4216,5,0,11574.8257952442,39768.3405820498,35094.5822199959,52589.3818858996,51250.8865645887,50426.2452478075,49843.2543899299,74213.1556240037,49931.0686579010,2858.8490393375
5357443769,4216,5,0,11585.6793808102,39771.8205433411,35113.2231315286,52607.7064373150,51261.6671439739,50491.5371089594,49855.2517389973,74230.4094180987,49931.7013781358,2869.1672462434
5357475370,4217,5,0,11622.4744960028,39804.9653494868,35153.3156925602,52646.6795702389,51297.0751417286,50508.1946859100,49889.5038055539,74263.8340812713,49958.8840128383,2889.9983432042
5357475370,4217,5,0,11627.3780778224,39816.2326367449,35147.5968750534,52642.4330440477,51299.3018302472,50453.4278825099,49892.3753820041,74257.7015620725,49966.1359601448,2883.6103023722
5357475370,4217,5,0,11601.2905358341,39793.4060375050,35113.2718023159,52608.7771946354,51274.1268655206,50424.2862486190,49868.1616653264,74227.5500093453,49946.1931050520,2864.5435214507
5357475370,4217,5,0,11590.0475839697,39782.1265825502,35105.0829423541,52600.5761669768,51264.1250187321,50442.4039491884,49857.2229058826,74220.3832359166,49937.9190712124,2862.4750129908
5357475370,4217,5,0,11595.8029045669,39790.1694301501,35115.5593293186,52607.9984620387,51270.6347365324,50470.5843350303,49860.3135008756,74228.8519529053,49945.6698940886,2870.5300282875
5357475370,4217,5,0,11611.8520966764,39804.8315048218,35134.0785638832,52625.4834423733,51283.9705322503,50491.7317921086,49873.4911165349,74244.4874433228,49958.6284912050,2880.0086641126
5357475370,4217,5,0,11621.6957634061,39813.1542094487,35142.3525977227,52634.5970472937,51292.1107214249,50472.4338249474,49882.6777276362,74250.5104532502,49965.6005814845,2878.7432236430
5357475370,4217,5,0,11600.1832754232,39797.3483712757,35112.5782435970,52607.4265802881,51271.3647983417,50406.1928834433,49868.3685161724,74225.6518486409,49952.6541520649,2856.3303260952
5357531103,4218,5,0,11560.2002236630,39765.1648131790,35074.4690171476,52570.0960864353,51238.5363523135,50398.0405265719,49839.3972300370,74193.6264706029,49924.2060768929,2838.8818488511
5357531103,4218,5,0,11561.2344778929,39766.1382289248,35093.4627918882,52584.6729872292,51248.3921867400,50472.1418002236,49847.1115498227,74211.9996928055,49931.1051609915,2855.6245996794
5357531103,4218,5,0,11593.6248868356,39796.6791479504,35136.4147616732,52621.2125807885,51279.6023290909,50493.9828160208,49876.1436744423,74246.0327408193,49961.7555892885,2876.6990505768
5357531103,4218,5,0,11599.1490211932,39804.6489893694,35137.9965622601,52619.4604324460,51283.2404704409,50447.6117234286,49878.3703629609,74241.9687300805,49970.4919956074,2872.5498659601
5357531103,4218,5,0,11573.7428702269,39784.6939665798,35110.0473626578,52593.2512134893,51257.7734809905,50410.1230495171,49857.8677938142,74216.1732128158,49953.5180585394,2854.2861530289
5357531103,4218,5,0,11555.0776233005,39768.6204390767,35093.8034873992,52577.6157230719,51241.0428978590,50408.5290812333,49843.6315885314,74201.5719766283,49943.1268454526,2845.2212188958
5357531103,4218,5,0,11551.5611589187,39766.5397629200,35093.0855932867,52576.7031458101,51242.0163136048,50435.0181572168,49841.3683969223,74205.4413042180,49944.7694845237,2851.1347195518
5357531103,4218,5,0,11569.5815179135,39784.2315941005,35118.3092288006,52599.5054096563,51264.2345280035,50488.2396631204,49858.9628865283,74231.8573740206,49962.6194957629,2875.6404609532
5357539751,4219,5,0,11599.8304122153,39814.5534945833,35149.1300048531,52631.2630983642,51295.7610304717,50494.2505053509,49885.2329439690,74261.6317281463,49986.3343368708,2896.6905764569
5357539751,4219,5,0,11594.7321472465,39811.9739428569,35129.8077022983,52614.5811860200,51285.8200221674,50421.7675353766,49877.4942887896,74243.0029843104,49980.7006932418,2882.3205265090
5357539751,4219,5,0,11561.2709809834,39776.9188083100,35087.7804774719,52574.7684820153,51251.8234772441,50398.8192591686,49844.5685011867,74209.7365011965,49947.5558870961,2858.0338036504
5357539751,4219,5,0,11557.6206719365,39765.0066331203,35091.3456126410,52577.4575430132,51249.6576272096,50453.2575347544,49841.5752477683,74213.8248473290,49936.1790905667,2860.8202062228
5357539751,4219,5,0,11579.6077000956,39786.4217795287,35123.0424628647,52609.4585856575,51272.8735927478,50477.1062205274,49865.9471445047,74237.6491977083,49953.2260338156,2875.2267592612
5357539751,4219,5,0,11589.9259070014,39800.4511339655,35129.9658823570,52618.1706565827,51283.1309611695,50456.6401544712,49878.6502199878,74243.7208784230,49960.6848319681,2877.1857584497
5357539751,4219,5,0,11579.6198677924,39793.6007206542,35111.0694491910,52604.5185007474,51271.9610154861,50423.9577208048,49871.3861049845,74231.0178029398,49949.1133522895,2864.2393290301
5357539751,4219,5,0,11560.2853975407,39777.1621622464,35086.8557325133,52583.3953790628,51253.1862592883,50395.4366394518,49853.7429445912,74208.5805699983,49929.9857328838,2847.6669259572
5357570301,4220,5,0,11541.1942812255,39760.5045852958,35069.0543920613,52566.1172495742,51237.1492348756,50396.9210984642,49834.7978406379,74193.3952843633,49911.6368460748,2839.7092522350
5357570301,4220,5,0,11548.8720979208,39768.2067373847,35087.5127881418,52583.2737020945,51252.8577314741,50455.9465957523,49843.5950854409,74211.7441711723,49918.3899178115,2852.9477063784
5357570301,4220,5,0,11583.4648599884,39799.2221965864,35127.7391938384,52618.5478551842,51285.1021280548,50472.3364833728,49873.4059426571,74243.3193444278,49946.3269497170,2870.7368791335
5357570301,4220,5,0,11581.3841838317,39798.7963271976,35114.0140318221,52608.6433499704,51278.1665408658,50398.4542282639,49867.1152433997,74225.5666747631,49944.5748013745,2856.5250092443
5357570301,4220,5,0,11544.8810933629,39764.8484530616,35068.4703426138,52567.2245099851,51241.5052703382,50373.0602449944,49835.0898653617,74190.4872048226,49915.2019812439,2833.6497392172
5357570301,4220,5,0,11540.3912132352,39753.5446627131,35069.7114476898,52568.0032425817,51238.5363523135,50428.0825700277,49833.4350585938,74195.5854697914,49912.4520817619,2841.2302143379
5357570301,4220,5,0,11564.5684268224,39775.3613431166,35102.0896889356,52597.6315843456,51262.0565102722,50455.8614218745,49855.5802668115,74220.7969376085,49933.8307250798,2860.2118213817
5357570301,4220,5,0,11571.3580016496,39788.3321079299,35115.1699630203,52609.2030640242,51273.2629590461,50446.3462829590,49869.0864102850,74228.3774127292,49944.4896274967,2864.6286953284
5357602288,4221,5,0,11559.3241494917,39785.8133946875,35109.3416362421,52600.9655332751,51269.6491530897,50426.0505646583,49866.8110509791,74219.3733170803,49939.1115055010,2856.1843137333
5357602288,4221,5,0,11538.6999033768,39775.1058214833,35089.8124828413,52581.6067276298,51254.8288983594,50396.1058627771,49853.7551122881,74201.5476412346,49928.6351185364,2843.6394183088
5357602288,4221,5,0,11518.2338373206,39757.9980397503,35074.2256632111,52560.8486368498,51237.5872719613,50401.2162954427,49834.1529527063,74185.5957906998,49913.9243730775,2837.2635451736
5357602288,4221,5,0,11529.7201431215,39761.1251378338,35095.9084989496,52577.1290151989,51247.7716342021,50464.1354557141,49842.0741233380,74202.5818954646,49924.9239710055,2856.5615123348
5357602288,4221,5,0,11564.1912282209,39789.3298590694,35134.1759054577,52614.6541922009,51275.7451691980,50481.2797405377,49870.6925462656,74233.2566591552,49955.2215360946,2876.9302368164
5357602288,4221,5,0,11566.4300844363,39792.2014355196,35121.0347928890,52606.2341459994,51271.1579474958,50411.9847071310,49870.9359002021,74220.2493912515,49953.5910647203,2866.6120299106
5357602288,4221,5,0,11536.8139103693,39766.1503966216,35077.9368107421,52569.4146954132,51241.3835933700,50378.3166900219,49843.9722840424,74187.2505974677,49920.1298984572,2844.0044492135
5357602288,4221,5,0,11522.7845559324,39753.5203273194,35066.5113434254,52559.4736871089,51233.0000502590,50410.0865464266,49833.8609279826,74184.9022319809,49901.8905209196,2839.4172275113
5357650080,4222,5,0,11534.9644204522,39768.9124638005,35085.6876336183,52577.1046798053,51246.8712246372,50437.8775659702,49846.6491773435,74201.1339395427,49913.1213050872,2852.4123277182
5357650080,4222,5,0,11547.5823220576,39781.7737193423,35101.9923473611,52593.8474306337,51259.2457723061,50449.7167349789,49858.5126817458,74215.2241324636,49927.9780629080,2859.2992441200
5357650080,4222,5,0,11558.6670938633,39792.7124787861,35114.4885719982,52604.8105254711,51267.7753277790,50446.8816616192,49869.3906027055,74223.6806817556,49941.8492372862,2866.1253220376
5357650080,4222,5,0,11545.7449998373,39786.7381396461,35100.8729192533,52585.5490614004,51255.5954632592,50397.2861293689,49858.5370171395,74208.1547006095,49936.9943262538,2854.7728609018
5357650080,4222,5,0,11510.0693127525,39758.1562198090,35067.6794423204,52550.0558897679,51226.4294939746,50375.6032936304,49831.5855686767,74181.3249291149,49910.3714056052,2836.6308249388
5357650080,4222,5,0,11507.4775933292,39752.7050916323,35076.7322087566,52557.2956693775,51229.1793934566,50438.3521061463,49834.7248344570,74193.5291290283,49906.7697673456,2846.5109947591
5357650080,4222,5,0,11538.1888601103,39779.9242294252,35113.7463424920,52595.3318896461,51259.1971015188,50470.2923103065,49864.6938717319,74225.7978610028,49935.0474947621,2871.5886179111
5357650080,4222,5,0,11545.5138135977,39791.7025599498,35113.2352992255,52596.9745287172,51263.4679631037,50421.2199890196,49869.8408074880,74223.3764893350,49946.4607943821,2868.5831967959
5357667725,4223,5,0,11520.4726935361,39769.5695194289,35079.0805742435,52565.6913801854,51239.0108924895,50384.8629109127,49846.2476433483,74193.9428307203,49925.6905359053,2848.3604846761
5357667725,4223,5,0,11505.9931343168,39753.2648056862,35066.1584802175,52552.5015968293,51224.8720287813,50396.5925706500,49833.9461018603,74183.6976299954,49910.8337780845,2837.8475946211
5357667725,4223,5,0,11512.1134858187,39757.6451765424,35076.5618610011,52560.4105997642,51231.3087404006,50415.8783701143,49836.8176783105,74190.2925216734,49911.6855168621,2843.2013812232
5357667725,4223,5,0,11529.0022490090,39767.3915016976,35095.9206666464,52577.8955800988,51246.2385044024,50445.9204135702,49850.8348650506,74205.1371117974,49920.2272400318,2856.2208168238
5357667725,4223,5,0,11552.5467423613,39784.9738236067,35118.5769181307,52600.2354714657,51265.6459808350,50454.3282920748,49871.6659620114,74222.8289429780,49941.1070077800,2869.4106001798
5357667725,4223,5,0,11550.3808923269,39786.3731087414,35105.7886687698,52589.6009044425,51260.4625419884,50393.6358203220,49866.2878400157,74209.3349672013,49942.8591561225,2860.8688770101
5357667725,4223,5,0,11514.4618513055,39755.2968110556,35064.8565366574,52549.5448465013,51224.7990226003,50365.9664777466,49830.4904759626,74171.5177654756,49913.0604666031,2836.7768373007
5357667725,4223,5,0,11504.9102092995,39745.5261505068,35066.5721819095,52550.1897344329,51217.4010629320,50424.0672300762,49823.2871994434,74173.9634725370,49903.4358184161,2840.1351216238
5357684902,4224,5,0,11530.3893664468,39771.0661461381,35101.4326333072,52584.9893473466,51241.5417734287,50458.9155137771,49847.8781147226,74200.2943684619,49925.8730513576,2860.0293059293
5357684902,4224,5,0,11543.5913174997,39788.0522509029,35113.2109638318,52596.0619514554,51254.2691843055,50433.3146796616,49863.5987790178,74206.0740244528,49940.5472937261,2864.2149936364
5357684902,4224,5,0,11529.1360936740,39777.6853732098,35095.6286419227,52578.2241079130,51240.3128360496,50398.0405265719,49854.2904909483,74188.9175719324,49924.6927847658,2850.4046577424
5357684902,4224,5,0,11515.0093976626,39760.2490636625,35077.0729042677,52560.7877983657,51224.4096563020,50383.1594333574,49842.5364958173,74174.3650065322,49902.8639366655,2837.4338929291
5357684902,4224,5,0,11513.2329139264,39753.0336194465,35069.9182985358,52558.3664266980,51220.3091424727,50396.2518751389,49840.9303598367,74174.8517144051,49898.4957335060,2835.0246889582
5357684902,4224,5,0,11527.5664607838,39761.8551996431,35086.9774094815,52579.1853559620,51237.4047565089,50444.3142775896,49857.6609429682,74196.2790285103,49910.7242688131,2849.2973973315
5357684902,4224,5,0,11549.9185198476,39787.6507169078,35119.4529923020,52609.1422255401,51264.3197018813,50465.8389332693,49882.9940877536,74223.1574707922,49935.5342026351,2871.1505808255
5357684902,4224,5,0,11543.1289450204,39792.6151372115,35113.8680194602,52595.7334236412,51258.1385118952,50403.2604685089,49878.2608536895,74209.9555197393,49939.6955549485,2868.0843212261
5357726524,4225,5,0,11500.0552982672,39758.2535613836,35071.5731053037,52550.1775667361,51221.7449306978,50365.5406083578,49840.3463103892,74168.2446550303,49911.3691567447,2845.6714236783
5357726524,4225,5,0,11484.2859631846,39740.3427116602,35067.3874175966,52544.0572152342,51213.0328597726,50414.3817434051,49833.1552015668,74169.0233876269,49907.5850030328,2850.3194838646
5357726524,4225,5,0,11503.7056073141,39758.8497785279,35100.5200560455,52573.8559047536,51239.4976003625,50458.5383151756,49857.5757690905,74199.5278035620,49934.8284762193,2875.5431193786
5357726524,4225,5,0,11516.2748381322,39779.0481552540,35119.0392906100,52588.3597993665,51256.7635621542,50443.7423958389,49874.8417308822,74213.5571579989,49956.7181628038,2892.0425162705
5357726524,4225,5,0,11502.8051977492,39767.9877188419,35105.5331471365,52572.0429179270,51246.3480136738,50413.8220293513,49865.2900888762,74200.7202378507,49947.3368685533,2886.5670527002
5357726524,4225,5,0,11484.4441432433,39748.5924101061,35085.1644226549,52548.0847228826,51227.4272451141,50389.0729340134,49848.3404872019,74181.0085689975,49930.1439129425,2874.2168404249
5357726524,4225,5,0,11466.8009828501,39727.8343193262,35068.1418147996,52526.4505579314,51206.8029989992,50383.9138305605,49829.5413956104,74165.2148985213,49913.5106713855,2864.7503722966
5357726524,4225,5,0,11472.4954649632,39729.0754244021,35082.0008214810,52537.3771496784,51212.4609780219,50444.2047683182,49834.4449774301,74177.0784029237,49920.3610846969,2878.0983357114
5357766084,4226,5,0,11505.5794326248,39762.8772861763,35122.6774319601,52578.2241079130,51246.4210198547,50480.8295357552,49868.6970439866,74214.1047043559,49955.6352377866,2905.3174735043
5357766084,4226,5,0,11515.2040808117,39777.0404852782,35123.2006429234,52581.0713489696,51254.2691843055,50415.7931962366,49878.0174997530,74209.3471348982,49969.6524245266,2902.3607231764
5357766084,4226,5,0,11478.6523195556,39746.2318769225,35079.1535804244,52537.0364541673,51220.1387947172,50364.9687266071,49845.8339416563,74168.8895429619,49937.7973942441,2870.7612145272
5357766084,4226,5,0,11460.5102835926,39726.2646864360,35070.2589940468,52525.1121112809,51204.9291736885,50409.6971801283,49834.3476358555,74160.6641799096,49920.5314324524,2863.0712301351
5357766084,4226,5,0,11483.1908704706,39747.5703235730,35105.8981780412,52554.4119252305,51230.7611940436,50457.8204210630,49856.4076701955,74189.3556090181,49945.1953539125,2884.4012026657
