steady_timestamp,sequence,battery,flags,EEG-ch1,EEG-ch2,EEG-ch3,EEG-ch4,EEG-ch5,EEG-ch6,EEG-ch7,EEG-ch8,EEG-ch9,EEG-ch10
8350993832,7613,-2,0,57414.3725517659,61128.5376715753,40833.9996374999,59915.7103230517,57447.3470101561,63171.8833344456,67486.6459694354,58279.6904790262,69541.4657704097,27612.1057295150
8350993832,7613,-2,0,57437.5520142136,61147.3976016509,40865.1246059729,59961.2175091695,57457.3123538541,63183.9901927844,67524.3049911024,58312.7744466878,69566.1053564762,27618.2747518042
8350993832,7613,-2,0,57448.4421028701,61233.5570628541,40914.9269890692,60034.4427086500,57564.2907443214,63173.4773027294,67556.8292447101,58421.3103023485,69571.8120062862,27620.7569619561
8350993832,7613,-2,0,57434.4127484333,61272.9682328636,40919.7453970111,60046.9267655903,57633.4397653661,63142.4618435277,67542.1428346448,58469.9810896402,69549.2287609828,27617.4108453298
8350993832,7613,-2,0,57417.2197928225,61215.0743313801,40875.5888252407,59980.7223271767,57573.7937155401,63142.8390421292,67500.3467960580,58398.4472000181,69530.7825325992,27621.5356945528
8350993832,7613,-2,0,57420.3347232091,61133.4047503045,40837.0658970992,59919.4944767637,57459.8919055805,63171.9441729297,67486.5121247704,58304.1840527308,69544.0939929235,27627.5100336928
8350993832,7613,-2,0,57440.9954724145,61148.6022036363,40863.6644823542,59957.1778338243,57454.0392434087,63198.3115719450,67527.1643998558,58336.7204740354,69576.9224389518,27624.4802771839
8350993832,7613,-2,0,57448.2230843273,61242.3421399603,40916.6061312308,60039.9790107044,57566.7121159891,63170.3015338586,67563.8013349897,58451.5591966503,69579.4654875878,27618.0557332614
8351006348,7614,-2,0,57423.4618212926,61281.0962543413,40916.2411003261,60045.8316728763,57635.0580690436,63131.5960902648,67542.8485610606,58479.3137131034,69546.5396999849,27607.8105325365
8351006348,7614,-2,0,57402.8010720873,61222.3019432929,40872.0480254652,59977.9359246043,57583.4792022111,63138.7993667840,67500.7239946596,58391.4021035577,69527.7162729998,27607.6888555683
8351006348,7614,-2,0,57407.6924862101,61141.2650824521,40838.2096606006,59924.7022510039,57478.7396679593,63166.7485663863,67490.4544585410,58295.0339447200,69541.5996150748,27616.1819079507
8351006348,7614,-2,0,57428.0247076012,61136.6656930530,40853.5774616880,59947.0664777644,57456.0104102940,63190.5607490688,67522.1513087647,58301.6775071853,69569.7556655231,27625.6118729885
8351006348,7614,-2,0,57440.3140813924,61217.0333305685,40902.0292304369,60021.6422915923,57547.2438010724,63174.9130909545,67560.1145228523,58404.7622346693,69579.8670215829,27623.7015445873
8351006348,7614,-2,0,57428.1707199631,61276.5820388200,40920.4876265173,60056.3932337186,57638.5501980318,63143.5934393322,67556.3547045340,58478.9365145019,69560.5082159376,27616.9241374569
8351006348,7614,-2,0,57414.6889118833,61244.1186236964,40891.5893465628,60009.3894208916,57613.7889349971,63147.1099037141,67524.4875065548,58435.6803522964,69544.1426637108,27625.4415252329
8351006348,7614,-2,0,57417.1224512479,61155.3674430699,40847.7856380003,59936.7726062522,57497.4414179761,63170.5570554919,67498.7771631679,58324.9908142980,69550.3603567873,27632.5596278744
8351067249,7615,-2,0,57431.8696997973,61135.0838924660,40856.1813488081,59944.1949013142,57452.2870950662,63189.0397869659,67523.4045815375,58309.2214792155,69576.5817434407,27632.1824292728
8351067249,7615,-2,0,57432.7336062717,61210.2924265286,40900.9219700260,60012.5530220655,57538.0450222743,63172.1996945630,67553.8481589885,58398.9825786784,69580.5484126050,27619.6253661516
8351067249,7615,-2,0,57419.3004689792,61271.2769230052,40920.1104279158,60044.1890338052,57630.4343442509,63144.4938488971,67544.8440633395,58459.7723920058,69556.4320375019,27605.4743347465
8351067249,7615,-2,0,57403.6528108649,61241.7215874223,40890.1048875504,59999.2658971349,57612.1462959260,63139.6876086521,67506.5158183473,58414.7397460641,69537.5964428200,27604.0628819150
8351067249,7615,-2,0,57406.3540395596,61160.2831925863,40851.8861518296,59938.4882515043,57510.4486858798,63160.2023454956,67485.0641688484,58323.6158645571,69544.0088190457,27617.4108453298
8351067249,7615,-2,0,57420.4442324805,61124.8021886506,40850.2556804553,59931.7595151612,57449.2330031636,63181.3011317865,67502.4883106989,58292.7829208077,69565.7646609651,27621.4505206750
8351067249,7615,-2,0,57433.4515003843,61188.1593860077,40897.0283070427,60001.9549581327,57517.5789562181,63181.7148334785,67544.2965169825,58380.0374747250,69581.8868592556,27619.0534844009
8351067249,7615,-2,0,57422.9386103292,61262.5040135959,40928.4209648459,60050.5527392436,57624.3869989299,63149.6772877437,67551.0860918097,58480.7738367222,69564.9737606717,27612.7871205371
8351071110,7616,-2,0,57401.0854268352,61245.8707720389,40901.3600071117,60012.7842083052,57623.8637879665,63137.6799386763,67513.5122440205,58476.6976582865,69538.1439891771,27611.7650340039
8351071110,7616,-2,0,57398.7492290452,61159.5896338674,40851.3629408662,59936.8334447364,57516.0944972057,63161.2000966350,67483.4215297773,58393.1420842033,69538.7280386246,27618.5667765280
8351071110,7616,-2,0,57425.2504727256,61126.5056662059,40852.1538411597,59942.7104423018,57452.7007967582,63200.6599374318,67512.7213437270,58388.1289931123,69570.6682427848,27628.9701573116
8351071110,7616,-2,0,57447.2740039751,61193.3428248543,40901.7737088036,60021.3746022621,57520.6573835143,63190.3904013133,67563.8621734738,58495.7401038144,69590.2460669729,27627.8020584166
8351071110,7616,-2,0,57433.2203141446,61259.1457292728,40921.7774023806,60062.2458958904,57616.5875052664,63146.4650157825,67564.9572661879,58583.8098934188,69567.4559708235,27609.1368114902
8351071110,7616,-2,0,57409.4568022494,61247.8784420147,40894.6434384654,60027.6531338228,57625.5550978249,63129.6492587732,67528.8800451078,58567.2374903460,69537.7789582724,27601.9700380615
8351071110,7616,-2,0,57399.3819492800,61170.3458778589,40850.6572144505,59952.3594258824,57535.1612781272,63149.7016231374,67492.5107993041,58470.9058345988,69533.0335565114,27611.6068539452
8351071110,7616,-2,0,57410.8560873841,61118.4263155154,40836.2506614121,59921.3926374680,57451.4718593790,63182.0433612927,67497.2683687618,58402.1218444587,69555.5437956339,27620.8056327434
8351106456,7617,-2,0,57428.7669371074,61166.8294134771,40874.0921985315,59979.8584207023,57490.5910046648,63191.2299723941,67536.7525449523,58452.4474385184,69576.0098616901,27620.4892726260
8351106456,7617,-2,0,57424.7029263686,61252.6968499566,40914.9999952502,60047.2187903141,57601.0128533330,63157.1239181994,67553.6656435362,58549.3509760163,69564.3532081337,27615.2328275985
8351106456,7617,-2,0,57405.2224437550,61257.9411272873,40901.4695163831,60028.9915804733,57626.8327059913,63138.4951743634,67523.9764632882,58550.1905470971,69538.7645417150,27618.4450995597
8351106456,7617,-2,0,57394.8190629714,61175.1764534976,40851.4116116535,59951.5198548016,57533.0440988800,63149.6772877437,67486.5364601640,58452.2405876724,69529.1033904376,27621.9615639416
8351106456,7617,-2,0,57406.4270457405,61112.2207901357,40830.0573037292,59922.8527610868,57443.9278873488,63175.8743390035,67493.3990411721,58394.9550710300,69549.4477795256,27619.8200493007
8351106456,7617,-2,0,57426.7105963444,61156.4138649966,40866.3657110489,59984.1901207712,57480.6378286636,63187.8960234646,67538.2856747520,58461.4271987737,69570.6804104816,27610.9132952263
8351106456,7617,-2,0,57429.5213343105,61243.7535927917,40904.9008068871,60047.8271751552,57591.2543604810,63160.4822025225,67559.5183057080,58557.7223514305,69565.2779530922,27604.0750496118
8351106456,7617,-2,0,57413.5086452915,61267.0303968140,40898.5492691456,60042.6315686118,57641.6042899343,63140.1256457377,67538.4438548107,58575.1708286746,69542.3783476715,27605.3161546878
8351128705,7618,-2,0,57402.5942212413,61203.7827087284,40858.3715342362,59974.9670065794,57572.7229582197,63148.3631764868,67499.4828895836,58493.0753782102,69532.3156623989,27617.4108453298
8351128705,7618,-2,0,57407.3274553054,61132.2244837126,40831.3957503798,59923.9356861040,57470.4656341197,63185.0001116207,67492.0605945216,58410.5783937506,69548.6082084448,27624.0909108856
8351128705,7618,-2,0,57427.6596766965,61159.1272613882,40864.7839104619,59968.4329533855,57481.5260705317,63199.5161739305,67532.7615403943,58455.5136981177,69577.3483083406,27615.5126846254
8351128705,7618,-2,0,57426.1143792000,61247.0997094180,40910.9238168145,60042.9235933356,57590.6459756399,63165.9941691833,67562.3168759773,58570.8756316961,69572.0918633131,27605.4621670497
8351128705,7618,-2,0,57406.4027103469,61271.6541216067,40905.6795394838,60039.6018121029,57643.6849660911,63137.5582617081,67538.9792334709,58599.5792285014,69542.8285524539,27604.3184035483
8351128705,7618,-2,0,57392.6775483306,61203.0039761317,40859.9289994295,59968.7128104125,57571.6400332024,63151.4416037830,67498.4608030505,58514.4053507408,69529.1642289217,27614.5027657891
8351128705,7618,-2,0,57402.9592521460,61130.6670185193,40835.3137487567,59926.8924364320,57473.7752476555,63192.1547173526,67494.8956678814,58441.5695175587,69550.7983938729,27625.6483760789
8351128705,7618,-2,0,57426.8566087062,61150.7193828835,40866.4265495330,59970.5136295423,57478.7761710497,63206.4030903323,67537.3974328839,58480.4696443016,69582.2518901602,27629.9192376638
8351166045,7619,-2,0,57433.1229725700,61229.9310892009,40908.0035695770,60039.1394396237,57574.9253113446,63171.1167695457,67563.5093102659,58571.8003766546,69580.4024002431,27619.6253661516
8351166045,7619,-2,0,57414.8227565483,61268.3688434645,40911.1550030541,60051.8303474100,57639.9129800759,63142.4131727404,67547.8859875453,58604.5679841988,69552.9399085138,27611.6433570357
8351166045,7619,-2,0,57398.6518874707,61214.8796482309,40869.2251198023,59989.8115967034,57589.9037461336,63140.4420058551,67503.8510927430,58526.7190599256,69534.1651523160,27613.7483685861
8351166045,7619,-2,0,57399.0655891626,61127.9901252183,40826.0054606872,59918.6184025924,57473.7509122619,63168.4642116383,67482.4602817283,58422.8312644513,69544.1061606203,27614.9773059652
8351166045,7619,-2,0,57417.4874821526,61128.7810255118,40844.1474966502,59942.6009330304,57454.1730880737,63188.1393774010,67515.7511002359,58446.2297454418,69573.4546453572,27613.7362008893
8351166045,7619,-2,0,57432.3807430638,61222.1924340215,40903.6718695080,60032.4593740679,57565.8725449083,63179.8775112583,67561.2461186569,58574.2460837160,69585.4398267278,27618.8101304644
8351166045,7619,-2,0,57422.0868715516,61274.4770272697,40917.9567455782,60058.0602081833,57651.2654412117,63146.6475312348,67553.2276064505,58627.5649311941,69561.8223271945,27618.7127888898
8351166045,7619,-2,0,57398.8952414071,61221.6448876644,40873.1917889666,59990.2252983954,57602.5216477390,63135.9521257274,67508.5964945040,58536.6479005331,69537.0002256757,27612.9574682926
8351195178,7620,-2,0,57393.3224362622,61133.5264272727,40829.7287759150,59922.8770964804,57488.1209622097,63158.7908926641,67485.2345166039,58408.0110097210,69541.1859133828,27615.6465292905
8351195178,7620,-2,0,57408.8119143178,61117.6962537060,40837.8811327864,59933.1709679926,57449.3911832223,63187.6039987408,67507.3067186408,58377.7621154191,69564.1098541972,27615.7195354714
8351195178,7620,-2,0,57422.7560948769,61192.8804523750,40888.8029439904,60007.1140615857,57536.1103584794,63189.1127931469,67545.9878268409,58463.2158502067,69579.4168168005,27616.7294543077
8351195178,7620,-2,0,57417.8160099668,61262.7838706228,40922.2032717694,60054.8601039189,57637.4186022272,63166.5173801467,67553.7873205044,58539.9331786753,69569.8530070977,27620.2580863864
8351195178,7620,-2,0,57401.5721347082,61235.4795589521,40896.3469160206,60012.0298111021,57622.5740121033,63154.6660434411,67523.0273829360,58492.8563596674,69549.3504379510,27630.6127963827
8351195178,7620,-2,0,57397.9948318422,61140.6932007014,40843.4296025376,59933.2683095672,57500.6050191501,63162.3438601364,67494.1291029815,58364.9738660582,69545.1404148503,27625.5632022012
8351195178,7620,-2,0,57408.6415665623,61104.2752841103,40833.9144636221,59928.6202493809,57440.0463920623,63174.5358923530,67513.3662316586,58325.6235345328,69560.8367437519,27616.4739326744
8351195178,7620,-2,0,57417.7673391795,61170.5527287049,40874.7979249472,60001.6629334090,57517.1044160420,63165.9820014865,67551.1347625970,58417.5383163333,69568.0156848774,27609.2949915489
8351238061,7621,-2,0,57412.3527140933,61237.9617691040,40900.7151191801,60044.1281953211,57619.5320878975,63145.0292275574,67552.1811845238,58503.9289637762,69552.6600514868,27612.1300649086
8351238061,7621,-2,0,57397.7879809962,61218.1770940699,40873.6541614458,60003.0743862404,57612.3166436815,63134.6501821674,67515.6050878740,58481.4795631379,69532.8023702718,27616.1819079507
8351238061,7621,-2,0,57395.6221309617,61140.0969835571,40831.2740734115,59938.0258790250,57513.8921440807,63160.9810780922,67489.5297135824,58399.4814542481,69535.1020649713,27620.0755709340
8351238061,7621,-2,0,57414.2995455850,61108.7043257539,40830.3371607562,59933.5846696846,57452.6399582740,63190.6580906434,67507.2580478535,58376.2533210131,69560.3500358789,27624.5289479712
8351238061,7621,-2,0,57433.3419911129,61176.2107077276,40878.3752278131,60002.3808275215,57516.0701618120,63203.2516568551,67551.1469302938,58466.7444822853,69584.6610941312,27622.4969426018
8351238061,7621,-2,0,57434.3884130396,61267.2980861441,40922.0450917107,60064.8619507073,57633.5006038503,63170.2406953745,67569.9216864916,58569.3181665027,69575.9490232059,27620.3189248705
8351238061,7621,-2,0,57413.2287882645,61260.6180205883,40899.4861818009,60031.9726661949,57641.8841469613,63140.2108196155,67535.4627690890,58548.0733678499,69545.0795763661,27617.3013360584
8351238061,7621,-2,0,57400.0390049085,61168.1313570371,40846.2768435942,59948.5387690800,57531.8881676819,63163.4754559409,67499.3003741313,58432.1152171272,69535.8321267807,27620.3189248705
8351252226,7622,-2,0,57414.8714273356,61122.9040279463,40839.5237718575,59934.6067562177,57456.8499813748,63190.1957181641,67514.9358645487,58393.6044566826,69562.4428797325,27616.9849759410
8351252226,7622,-2,0,57426.0413730191,61178.5712409112,40879.1782958034,59996.3091468069,57508.8912206865,63187.1537939584,67553.3371157220,58475.0550192154,69578.1148732404,27608.7839482823
8351252226,7622,-2,0,57414.4333902500,61254.3516567245,40909.6827117386,60041.4269666264,57610.3089737057,63163.0495865521,67559.2262809843,58562.8084487024,69566.0810210825,27602.3594043598
8351252226,7622,-2,0,57396.3521927711,61260.5450144074,40900.4474298499,60018.6490381738,57634.5226903834,63160.8472334272,67528.3568341444,58553.6826760852,69548.8758977749,27613.8822132511
8351252226,7622,-2,0,57392.9087345702,61190.9701239738,40865.5139722713,59954.8659714279,57552.1717182857,63177.2127856540,67496.4653007715,58463.8364027446,69550.2143444254,27627.9602384753
8351252226,7622,-2,0,57406.6338965865,61126.9193678978,40846.9217315258,59922.4755624853,57461.2911907152,63201.9132102046,67499.2273679503,58394.6143755189,69568.7214112931,27627.5343690865
8351252226,7622,-2,0,57426.7349317380,61161.0984282735,40881.8551891045,59975.7092360856,57490.3963215156,63207.4860153495,67542.1184992512,58450.1599115156,69593.2028173009,27622.2657563621
8351252226,7622,-2,0,57424.0215353465,61244.7270085376,40922.8359920042,60043.1426118784,57602.7041631914,63177.6386550428,67563.4241363882,58564.0373860816,69584.6732618280,27608.0660541698
8351308819,7623,-2,0,57399.0655891626,61253.7676072770,40910.3641027606,60029.2957728939,57640.8863958218,63149.1054059930,67533.7471238370,58578.0302374279,69555.7506464799,27606.7276075192
8351308819,7623,-2,0,57382.7973785104,61172.0736908078,40861.7419862562,59949.0984831339,57552.5124137968,63163.5971329092,67493.3138672944,58478.8635083210,69545.0917440630,27616.4252618871
8351308819,7623,-2,0,57395.9993295632,61107.8404192795,40845.3764340293,59916.7202418880,57459.1618437711,63203.2273214615,67501.5635657403,58413.7176595309,69570.6439073911,27626.3297671010
8351308819,7623,-2,0,57423.5956659577,61146.3390120273,40885.4324919704,59976.1107700808,57486.2958076863,63210.2845856188,67545.8053113885,58470.3217851513,69595.6606920591,27627.2545120595
8351308819,7623,-2,0,57433.4636680811,61228.9333380614,40923.5417184199,60044.2133691988,57591.2786958746,63179.0987786616,67568.9969415331,58564.4632554704,69589.4064958921,27619.6010307579
8351308819,7623,-2,0,57411.2089505919,61252.5265022011,40915.2676845803,60038.4458809047,57638.1243286430,63148.0954871567,67544.5398709190,58581.7170495653,69559.4861294045,27612.8114559307
8351308819,7623,-2,0,57386.7275445842,61189.8871989566,40870.1011939735,59968.5546303538,57572.1024056817,63152.5488641939,67500.2007836962,58500.1813131548,69541.2224164733,27619.4185153056
8351308819,7623,-2,0,57387.0925754889,61117.3798935887,40840.2660013637,59915.0654351201,57467.5088837917,63190.2443889514,67490.0042537585,58411.9168404011,69555.7019756926,27627.6195429642
8351350165,7624,-2,0,57407.0232628848,61141.4475979044,40871.4031375336,59953.3206739314,57470.4291310292,63219.2765135709,67528.3446664476,58443.8570445614,69586.3402362927,27625.9160654090
8351350165,7624,-2,0,57424.1310446179,61244.5566607820,40932.1442800737,60041.9258421961,57591.8019068380,63207.8388785574,67571.8685179833,58567.6755274316,69596.3542507780,27627.0476612136
8351350165,7624,-2,0,57416.2585447734,61289.0660957604,40937.4372281917,60057.2449724962,57664.1510321472,63173.8423336341,67560.9540939331,58611.7712607180,69575.4379799394,27628.9458219179
8351350165,7624,-2,0,57398.9317444976,61221.1825151852,40885.9800383275,59981.6470721352,57595.3913774008,63165.9576660928,67517.3815716102,58525.5752964242,69554.2175166802,27627.7290522356
8351350165,7624,-2,0,57393.9186534065,61133.4655887886,40844.5611983422,59919.4823090668,57482.3899770061,63185.3894779191,67498.5946477155,58430.6307581148,69562.1873580992,27617.9097208995
8351350165,7624,-2,0,57408.1791940830,61134.9622154978,40861.9366694053,59948.4292598086,57469.9180877626,63199.7108570797,67530.0481440028,58446.8989687671,69584.1500508646,27612.8601267180
8351350165,7624,-2,0,57423.3036412339,61218.4691187937,40911.1063322668,60027.5801276418,57569.7175371044,63196.9244545072,67565.4439740608,58544.3743880157,69590.8057810268,27615.4031753540
8351350165,7624,-2,0,57420.7727602948,61274.2701764237,40928.3844617554,60058.7294315086,57654.2708623270,63171.7008189932,67564.9816015815,58595.3692054006,69574.4280611031,27619.0899874914
8351356720,7625,-2,0,57408.3738772322,61232.6809886828,40895.7385311795,60006.9315461333,57616.8551945965,63168.1600192178,67531.0215597487,58532.8759145180,69557.1255962209,27627.0111581231
8351356720,7625,-2,0,57408.7267404400,61145.1830808291,40853.6261324753,59937.7338543012,57499.3639140741,63192.0087049907,67510.4094813306,58421.6388301627,69564.4383820114,27631.7565598840
8351356720,7625,-2,0,57422.4640701531,61131.2997387541,40861.1701045055,59946.3607513487,57460.2812718788,63206.1962394863,67532.6763665166,58411.3814617409,69588.2140616035,27622.3874333304
8351356720,7625,-2,0,57427.1364657332,61210.2315880445,40907.3708493422,60020.4498573036,57552.4759107063,63186.2533843935,67565.4683094544,58512.5436931269,69592.3145754328,27611.4486738865
8351356720,7625,-2,0,57412.7055773011,61265.1079007160,40921.0230051775,60047.0849456490,57642.3100163501,63161.9788292317,67554.4687115265,58572.5182707672,69569.0256037137,27605.8271979543
8351356720,7625,-2,0,57404.5897235202,61229.7972445358,40890.7376077852,59999.5944249491,57616.7821884155,63168.5493855161,67524.1103079532,58515.0502386724,69555.1422616387,27617.6907023567
8351356720,7625,-2,0,57414.9079304261,61155.8784863364,40856.4612058350,59944.2800751920,57517.1774222229,63191.9600342034,67512.2954743382,58422.4418981530,69569.6461562517,27628.5564556196
8351356720,7625,-2,0,57437.7588650596,61139.9144681047,40863.2507806622,59959.1246653160,57477.0848611913,63210.6982873108,67539.0522396518,58410.4932198729,69594.0788914721,27626.6704626120
8351385687,7626,-2,0,57453.9297341373,61212.0932456584,40908.8309729610,60030.9749150555,57557.3308217386,63203.8722093931,67577.5873354901,58498.1493077853,69605.5651972730,27621.5721976432
8351385687,7626,-2,0,57443.0396454807,61284.0651723661,40936.1352846316,60070.2157373094,57656.8747494471,63175.9230097908,67577.9401986979,58577.8963927629,69588.6764340828,27623.4095198635
8351385687,7626,-2,0,57419.4829844315,61262.5283489895,40910.2180903988,60023.6742969617,57646.0454992747,63158.6205449086,67540.7800526007,58536.7695775013,69562.1021842214,27626.7678041866
8351385687,7626,-2,0,57405.5388038724,61166.2696994232,40855.6824732383,59938.4882515043,57524.8187358277,63174.6819047149,67504.4108067969,58410.2376982396,69553.7064734136,27624.6749603331
8351385687,7626,-2,0,57418.1567054778,61129.4624165338,40853.3706108420,59933.1466325990,57457.4218631255,63201.4508377253,67523.4654200216,58370.1816402985,69576.0585324774,27621.3775144941
8351385687,7626,-2,0,57437.1504802184,61202.8822991635,40904.7182914348,60013.5507732050,57535.9886815112,63203.8478739995,67568.7049168093,58467.4745440947,69591.9617122249,27620.2702540832
8351385687,7626,-2,0,57438.2212375389,61279.9768262336,40937.9726068519,60064.9471245851,57642.5898733770,63170.9099186997,67578.8892790501,58552.9647819727,69578.7840965657,27615.2814983858
8351385687,7626,-2,0,57417.8890161477,61256.9798792383,40907.3100108581,60021.0582421448,57633.1842437329,63150.7967158514,67540.4636924833,58508.1389868770,69551.5041202887,27611.0228044977
8351446789,7627,-2,0,57407.7289893006,61170.9907657905,40859.5031300407,59948.2102412658,57530.4767148504,63165.0572565279,67512.0277850081,58402.2556891237,69550.1535059413,27613.8092070702
8351446789,7627,-2,0,57420.5050709647,61121.8332706259,40845.7292972372,59932.7816016943,57454.7936406117,63190.0983765895,67522.7596936059,58348.5718107409,69568.3442126916,27610.2197365074
8351446789,7627,-2,0,57442.0540620381,61176.0038568816,40886.2720630512,60000.2028097902,57509.9741457037,63195.4034924043,67565.5291479385,58416.7230806462,69589.4186635889,27605.3283223846
8351446789,7627,-2,0,57442.2730805809,61261.3602500945,40924.9045004641,60065.6650186977,57624.9102098933,63172.6620670423,67584.6567673442,58514.8798909169,69580.4754064241,27607.8227002333
8351446789,7627,-2,0,57428.7547694106,61263.9763049115,40911.5200339588,60050.0051928865,57650.4015347373,63155.3230990696,67555.9896736293,58509.6356135862,69557.1134285240,27618.8466335549
8351446789,7627,-2,0,57411.9876831886,61171.0881073651,40853.7721448371,59961.4365277123,57539.4199720153,63155.5177822187,67510.3364751497,58388.0073161441,69545.1282471534,27620.9273097116
8351446789,7627,-2,0,57416.7209172527,61107.3172083161,40832.9897186636,59928.5715785936,57444.8891353978,63185.1582916794,67514.7533490964,58316.9966374854,69561.8831656786,27615.8655478333
8351446789,7627,-2,0,57431.9913767655,61153.7369716956,40873.9705215632,59989.3492242242,57486.1862984149,63182.9194354640,67554.8702455216,58379.6967792140,69579.1856305609,27603.3206524088
8351465067,7628,-2,0,57425.9440314445,61227.8869161346,40908.9404822324,60043.1426118784,57586.4967910232,63148.1684933377,67567.0987808287,58461.5853788324,69563.8786679576,27590.2768814146
8351465067,7628,-2,0,57403.4094569284,61227.0595127507,40892.7574454578,60017.4201007947,57608.0092790062,63130.3063144016,67533.9418069862,58449.4906881904,69535.8321267807,27588.4882299817
8351465067,7628,-2,0,57392.4341943941,61156.8640697791,40850.8153945092,59948.0642289039,57526.7168965321,63148.5456919392,67500.2494544834,58359.1090361896,69529.6387690978,27605.0119622672
8351465067,7628,-2,0,57408.6172311686,61103.1680236995,40829.0108818025,59916.5133910420,57440.5087645416,63184.5620745351,67505.2260424840,58298.9154400065,69553.7429765041,27614.3689211241
8351465067,7628,-2,0,57436.8219524042,61147.4949432254,40861.9731724958,59974.1396031955,57470.8063296307,63199.4796708400,67547.2289319168,58358.0626142628,69583.1644674220,27618.7249565867
8351465067,7628,-2,0,57445.9477250214,61243.7414250949,40909.3663516212,60053.6433342366,57590.9258326668,63170.3502046459,67574.9347775827,58474.1181065600,69579.9886985512,27612.3490834514
8351465067,7628,-2,0,57426.8444410094,61266.7383720903,40904.5966144666,60045.4179711843,57643.4294444578,63136.8160322019,67549.5042912227,58489.5467461315,69547.1845879165,27612.6167727816
8351465067,7628,-2,0,57409.3594606748,61190.4104099199,40857.3372800063,59965.7803954781,57563.7797010548,63152.4028518321,67505.5180672078,58387.8491360854,69535.8807975680,27626.4757794629
8351481763,7629,-2,0,57419.3613074633,61121.0180349387,40836.0559782629,59926.3813931654,57466.5963065300,63183.9415219971,67504.8366761857,58310.4017458073,69554.9354107927,27635.5407135960
8351481763,7629,-2,0,57441.7742050112,61151.7171340230,40867.1809467360,59978.0210984820,57484.6410009184,63200.2827388303,67547.9711614230,58354.6434914556,69578.9179412307,27630.8561503191
8351481763,7629,-2,0,57456.3876088955,61245.1650456232,40914.6471320423,60057.1597986184,57596.3891285403,63186.7157568727,67582.7099358525,58459.5655411598,69583.0792935442,27631.6713860063
8351481763,7629,-2,0,57439.9855535782,61278.0056593483,40909.7557179195,60060.6640953034,57649.6958083216,63140.7827013661,67565.8576757527,58480.9563521745,69555.6654726021,27627.8020584166
8351481763,7629,-2,0,57412.6204034234,61212.5556181377,40857.1547645539,59987.9012683022,57581.5810415068,63131.0485439078,67520.0219618207,58395.0524126045,69531.8654576164,27625.5632022012
8351481763,7629,-2,0,57411.2941244697,61124.6926793792,40812.2924663677,59922.0375253997,57468.2632809947,63161.3339413001,67500.4076345421,58293.7198334631,69539.0322310451,27621.7668807924
8351481763,7629,-2,0,57431.2978180466,61131.2997387541,40834.4133391918,59950.6194452367,57460.7923151454,63185.1582916794,67534.7327072797,58315.0133029032,69566.9327598602,27615.6465292905
8351481763,7629,-2,0,57444.1590735885,61221.9612477818,40889.0341302300,60036.0123415402,57570.7274559407,63163.4267851536,67571.6981702278,58431.3486522274,69571.3374661101,27607.2994892699
8351527122,7630,-2,0,57424.2770569798,61261.4940947596,40892.0882221326,60051.0516148133,57639.7791354109,63117.1043633487,67551.4876258049,58470.8571638115,69540.2733361211,27599.2079708827
8351527122,7630,-2,0,57398.3720304437,61195.6546872506,40839.6941196130,59973.4825475671,57572.5282750705,63112.7239924924,67500.1156098184,58378.4556741381,69513.3340553551,27600.7776037728
8351527122,7630,-2,0,57401.0002529575,61116.6254963856,40806.5371457705,59916.2578694088,57460.5732966026,63160.5308733098,67488.5197947461,58287.4534695993,69528.9695457726,27612.7384497498
8351527122,7630,-2,0,57431.5411719831,61132.9910486125,40841.9573112221,59954.7321267629,57458.1032541475,63199.3701615686,67533.2604159641,58319.4423445468,69570.2423733960,27626.3297671010
8351527122,7630,-2,0,57446.5804452562,61219.1018390284,40895.8115373604,60029.9893316128,57556.1140520563,63180.5954053708,67566.5634021685,58422.2472150038,69581.4123190794,27617.9705593836
8351527122,7630,-2,0,57430.7989424769,61270.1939979880,40905.7647133616,60049.6888327691,57634.8147151071,63141.4032539041,67557.8878343337,58475.3105408487,69556.5172113797,27601.2156408585
8351527122,7630,-2,0,57406.5000519214,61223.8959115767,40866.3900464425,59993.1820487234,57600.6113193378,63136.5240074781,67516.6515098008,58419.4364770377,69533.1674011765,27603.0651307755
8351527122,7630,-2,0,57404.7844066694,61137.4687610433,40824.5940078557,59925.7851760211,57491.4062403519,63176.7139100843,67497.1710271872,58320.3670895053,69543.2300864491,27617.7880439313
8351535678,7631,-2,0,57433.0986371764,61133.2344025489,40845.2547570611,59946.2025712900,57466.2069402316,63217.4756944411,67535.4019306049,58321.6568653686,69584.1865539551,27631.7565598840
8351535678,7631,-2,0,57452.1654180979,61225.1491843495,40901.9197211655,60031.4616229284,57564.6071044388,63194.9654553187,67580.7631043609,58429.3774853421,69598.3010822697,27626.8408103676
8351535678,7631,-2,0,57440.6669446003,61289.3459527873,40920.1590987031,60065.7501925754,57659.2109472371,63169.0604287827,67579.4733284976,58502.1524800401,69575.1337875188,27622.5821164795
8351535678,7631,-2,0,57427.2338073077,61255.2885693799,40885.5054981514,60016.6048651076,57633.4154299725,63150.0301509516,67541.9116484052,58449.6123651586,69549.8371458239,27627.9724061721
8351535678,7631,-2,0,57416.4653956194,61164.3593710220,40835.2772456663,59942.2967406099,57517.8344778514,63155.6881299743,67512.2103004604,58341.9647513661,69545.1769179407,27623.1661659270
8351535678,7631,-2,0,57424.2040507988,61128.0996344897,40830.1911483943,59934.5945885209,57460.3542780598,63173.3191226707,67525.0228852150,58314.8307874509,69559.7659864314,27613.1399837449
8351535678,7631,-2,0,57433.4636680811,61192.6127630449,40872.5347333381,59998.4749968414,57530.4280440631,63174.2560353261,67561.3434602314,58395.3079342378,69572.4082234305,27602.2742304820
8351535678,7631,-2,0,57430.0323775770,61267.4197631124,40906.6772906233,60049.5428204073,57639.0125705110,63149.0567352057,67572.3430581594,58482.3921403996,69561.5911409549,27600.4369082618
8351578862,7632,-2,0,57416.3072155607,61254.4976690864,40887.0507956479,60021.0825775384,57643.5632891228,63145.1387368288,67543.2744304494,58459.4316964947,69546.4301907135,27610.0980595392
8351578862,7632,-2,0,57416.9521034924,61166.6834011152,40837.7472881213,59945.4360063902,57534.5163901956,63170.5448877951,67510.2513012719,58346.8561654889,69548.6082084448,27621.0003158926
8351578862,7632,-2,0,57440.5939384193,61131.8107820207,40833.1722341159,59936.9672894014,57463.2866929941,63196.7176036612,67528.2838279635,58309.4283300615,69575.5353215140,27627.0598289104
8351578862,7632,-2,0,57453.8567279563,61198.2950774612,40876.7325887420,60006.2744905049,57528.5177156619,63186.1682105157,67570.0555311567,58398.9947463752,69588.7616079605,27621.5965330369
8351578862,7632,-2,0,57441.6525280429,61273.1142452255,40908.7457990832,60053.7285081144,57632.5271881044,63152.7192119495,67574.0830388051,58484.0956179548,69570.0598579436,27611.7041955198
8351578862,7632,-2,0,57422.0138653707,61260.9465484025,40890.7497754821,60019.2695907118,57638.2581733080,63142.6078558896,67541.3275989577,58452.6907924548,69548.4743637798,27613.2738284100
8351578862,7632,-2,0,57415.6258245387,61179.9583583490,40845.3886017261,59949.7433710655,57542.2307099814,63152.5488641939,67508.3896436580,58346.4667991905,69542.4513538524,27615.7925416523
8351578862,7632,-2,0,57428.0977137822,61128.0144606119,40829.4002481008,59927.3913120017,57461.7413954976,63178.5268969109,67516.6393421040,58291.4201387635,69560.9097499328,27613.5050146496
8351600059,7633,-2,0,57448.1379104496,61177.2936327448,40868.8722565944,59986.5019831676,57507.9664757280,63189.0641223596,67556.1721890817,58358.0504465660,69581.6678407127,27609.7695317250
8351600059,7633,-2,0,57445.5948618136,61261.9564672389,40908.7336313864,60049.7861743437,57620.5055036433,63159.6547991385,67573.9735295337,58461.2811864118,69576.6425819249,27609.0151345220
8351600059,7633,-2,0,57420.1157046663,61267.6874524425,40892.7087746706,60029.2349344098,57649.6836406248,63141.8412909897,67541.4979467132,58457.8620636046,69549.9344873985,27615.2936660826
8351600059,7633,-2,0,57405.6483131438,61183.7668474546,40842.2006651585,59945.6671926298,57553.7656865695,63153.5344476366,67497.6333996665,58343.8020735863,69538.9348894706,27618.2017456233
8351600059,7633,-2,0,57413.9710177707,61121.1397119069,40824.9712064572,59912.6075603619,57460.0257502456,63184.6594161097,67500.9308455055,58271.5746252453,69559.4009555268,27612.0570587277
8351600059,7633,-2,0,57434.4492515237,61168.3503755800,40869.3346290737,59978.8485018660,57499.0962247440,63185.9005211856,67545.7201375108,58339.6772243633,69580.2563878813,27607.5550109032
8351600059,7633,-2,0,57433.8165312890,61249.8009381127,40905.9350611171,60042.8019163674,57604.9673548005,63146.5380219634,67561.4651371997,58439.7565307320,69566.2148657476,27603.7221864040
8351600059,7633,-2,0,57412.4378879710,61258.8780399426,40893.9255443528,60025.8523146930,57638.8422227555,63123.9304412664,67531.4230937438,58448.2130800240,69538.7645417150,27604.8416145117
8351653109,7634,-2,0,57392.3246851227,61184.3022261148,40845.9483157800,59952.0917365523,57556.0288781786,63127.5320795260,67488.5441301398,58360.7516752607,69522.8248588770,27606.2408996463
8351653109,7634,-2,0,57396.1210065315,61112.9143488546,40819.2645566473,59908.8964128309,57458.0302479666,63160.4213640384,67484.8938210929,58283.1096018335,69537.2192442185,27610.4144196566
8351653109,7634,-2,0,57421.0404496249,61143.1997462469,40851.1682577170,59958.5406158685,57474.4079678903,63180.6197407645,67529.3302498903,58324.3337586696,69567.4438031267,27614.1985733685
8351653109,7634,-2,0,57426.4429070143,61235.9906022187,40899.1698216835,60037.5576390367,57590.3782863097,63154.8363911966,67564.6895768578,58435.7533584773,69569.1472806819,27614.1377348844
8351653109,7634,-2,0,57410.1625286652,61268.2349987995,40898.8777969598,60044.3228784702,57653.1027634320,63135.7087717910,67546.4623670170,58464.7489800064,69545.5297811486,27620.9638128021
8351653109,7634,-2,0,57398.8952414071,61199.8525426546,40854.3683619815,59973.3121998115,57580.1939240689,63136.2319827544,67504.9583531539,58368.3443180782,69531.8776253133,27629.7610576051
8351653109,7634,-2,0,57401.0489237448,61115.5912421557,40820.1284631217,59917.6449868466,57466.0365924761,63159.0342466006,67493.5572212308,58276.5755486396,69544.8727255202,27623.0809920493
8351653109,7634,-2,0,57417.6578299081,61132.4435022555,40849.7811402792,59958.8204728954,57472.4002979145,63177.4074688032,67529.5857715236,58317.2886622091,69567.0909399189,27614.2837472463
8351662028,7635,-2,0,57427.2094719141,61219.3938637522,40898.9751385344,60034.2723608945,57579.7072161960,63160.2266808892,67560.7594107839,58426.1530456840,69569.2932930438,27611.9597171531
8351662028,7635,-2,0,57413.3382975359,61256.3714943971,40902.3699259480,60042.2665377071,57643.7701399688,63121.5455726891,67542.2645116131,58463.2888563876,69542.4270184588,27609.1733145807
8351662028,7635,-2,0,57389.3557670979,61199.1224808452,40860.1236825787,59974.4802987065,57585.5720460647,63114.0137683557,67496.0637667764,58389.0172349804,69519.5760838253,27608.5040912554
8351662028,7635,-2,0,57393.2737654749,61120.9693641514,40825.8716160221,59913.3497898681,57478.1677862086,63150.3465110690,67479.8563946082,58294.3768890915,69533.7149475335,27613.3346668941
8351662028,7635,-2,0,57413.6668253502,61125.1063810712,40846.7513837703,59939.5955119152,57462.5687988816,63174.1465260547,67513.8651072283,58306.0457103447,69562.0291780405,27612.9331328989
8351662028,7635,-2,0,57423.0116165102,61213.8818970914,40902.8688015177,60023.2119244824,57570.9099713930,63160.5795440971,67553.4831280838,58417.9641857221,69570.6560750880,27607.5671786000
8351662028,7635,-2,0,57406.8407474325,61262.7717029260,40914.9999952502,60044.7974186463,57652.8594094956,63131.4500779029,67541.4857790164,58471.7089025891,69547.1115817356,27603.3693231961
8351662028,7635,-2,0,57385.7176257479,61209.6475385970,40871.8898454065,59978.6416510200,57606.3058014510,63133.5307540597,67495.9055867177,58397.8266474802,69527.9839623299,27609.8668732996
8351698833,7636,-2,0,57384.2818375228,61127.5642558295,40835.0947302139,59916.6229003134,57498.2688213601,63161.0784196668,67480.9514873223,58301.3124762806,69541.7091243462,27621.3166760100
8351698833,7636,-2,0,57400.6717251433,61125.3375673109,40852.2268473406,59939.1939779200,57473.0816889366,63180.1695359820,67512.1129588858,58308.2237280760,69566.3852135031,27624.4802771839
8351698833,7636,-2,0,57418.1323700842,61207.2383346261,40902.6376152781,60016.4953558362,57565.6656940624,63171.8224959615,67550.7940670860,58409.1426055255,69575.9125201155,27622.7159611446
8351698833,7636,-2,0,57414.9079304261,61271.8366370591,40924.2352771388,60052.5969123098,57658.6877362737,63146.0634817873,67550.6237193304,58483.7184193533,69557.6001363970,27615.4031753540
8351698833,7636,-2,0,57400.2458557545,61245.5057411342,40895.8723758445,60007.8441233950,57641.0689112741,63139.1887330823,67515.7267648422,58447.2761673686,69537.4504304582,27619.0048136136
8351698833,7636,-2,0,57394.2958520080,61160.3805341609,40853.8329833213,59931.9055275231,57532.9710926991,63162.2708539555,67487.3881989416,58339.1053426127,69542.5486954270,27627.7898907198
8351698833,7636,-2,0,57400.7325636274,61130.9833786367,40853.1029215119,59926.4543993464,57476.0141038709,63182.2623798356,67502.8290062099,58307.9682064428,69566.0810210825,27626.4636117661
8351698833,7636,-2,0,57404.6018912171,61200.5461013735,40897.6123564902,59997.9639535748,57554.1063820806,63167.8436591004,67537.1175758570,58395.1497541791,69574.5740734650,27617.4351807234
8351733903,7637,-2,0,57391.2782631959,61263.9763049115,40920.1956017936,60036.1096831147,57649.9148268644,63140.6245213075,67531.6542799835,58464.8341538841,69553.0250823915,27608.5770974363
8351733903,7637,-2,0,57378.6603615906,61238.8135078816,40895.8602081477,59990.5173231192,57634.4131811120,63148.0103132790,67492.4012900326,58421.2737992580,69537.3287534899,27614.3445857304
8351733903,7637,-2,0,57382.2498321533,61161.2201052417,40859.9046640359,59927.0384487939,57534.2608685623,63175.7161589448,67472.9329751160,58328.2760924402,69547.8416435449,27622.1684147876
8351733903,7637,-2,0,57401.3166130749,61133.2587379426,40862.3990418846,59928.0605353270,57483.0592003314,63203.1543152805,67493.9100844387,58311.3508261595,69578.4434010547,27628.7633064656
8351733903,7637,-2,0,57418.8380964999,61197.5528479550,40904.7547945253,59997.7084319415,57550.9306132098,63194.6247598077,67535.6452845414,58396.4882008297,69593.8842083230,27629.7853929987
8351733903,7637,-2,0,57414.0318562548,61272.7127112303,40933.9937699908,60048.5329015710,57653.3704527621,63163.6214683028,67546.4623670170,58478.9121791083,69577.2753021596,27625.8065561376
8351733903,7637,-2,0,57403.8596617109,61268.6608681883,40920.0252540381,60026.2538486882,57666.5115653309,63150.8453866387,67520.8858682952,58462.0234159180,69555.8358203576,27634.4456208819
8351733903,7637,-2,0,57396.7902298567,61180.0435322268,40870.4053863941,59947.2003224295,57560.8351184236,63156.3573532995,67487.5950497876,58349.0706863106,69548.6933823226,27639.7872397872
8351761876,7638,-2,0,57401.9493333097,61123.5245804842,40850.2191773648,59917.8275022989,57473.7752476555,63177.8333381920,67494.4211277053,58292.9776039569,69565.3874623636,27633.3626958647
8351761876,7638,-2,0,57410.2233671493,61179.5446566571,40890.4455830615,59982.9368479985,57526.1328470846,63170.8977510029,67532.2261617341,58376.2898241036,69576.9102712550,27626.4271086756
8351761876,7638,-2,0,57398.5545458961,61252.5386698979,40919.2951922287,60031.9604984981,57629.5095992923,63137.7407771604,67537.1297435538,58467.2190224614,69556.8944099812,27617.2891683616
8351761876,7638,-2,0,57379.3417526126,61244.3984807233,40897.0283070427,59999.4362448904,57640.5335326139,63128.1161289735,67502.8290062099,58446.0228945959,69529.8821230343,27616.8146281855
8351761876,7638,-2,0,57374.0488044947,61166.8902519612,40852.7378906072,59931.1632980169,57548.8742724467,63150.2735048880,67473.5048568666,58349.6060649709,69525.9397892637,27621.0124835894
8351761876,7638,-2,0,57395.3301062380,61120.3123085230,40844.6463722199,59915.3817952375,57473.2763720858,63181.2524609993,67489.7974029125,58296.9929439085,69553.6212995359,27625.5023637170
8351761876,7638,-2,0,57417.3293020939,61165.9655070027,40882.7069278821,59973.2513613274,57510.2783381243,63186.7279245696,67534.3798440718,58351.4798902816,69576.2410479297,27620.2215832959
8351761876,7638,-2,0,57415.1634520594,61253.6337626120,40924.3934571975,60040.1128553695,57618.6073429390,63162.8549034030,67558.0216789988,58452.8976433008,69570.6074043007,27612.7506174466
8351817702,7639,-2,0,57395.8168141109,61269.6342839341,40917.5430438862,60030.4760394857,57657.1667741709,63135.6479333069,67531.5691061057,58465.7345634490,69547.5617865180,27614.6609458478
8351817702,7639,-2,0,57380.4855161140,61185.1052941051,40866.1101894156,59944.9736339109,57561.7355279885,63141.0990614835,67484.6869702469,58354.8381746047,69530.6973587214,27622.7159611446
8351817702,7639,-2,0,57393.8821503161,61116.0657823318,40845.0479062151,59904.6377189428,57464.8319904906,63179.4638095663,67482.2899339728,58274.8112326002,69553.8159826850,27626.6461272184
8351817702,7639,-2,0,57417.6456622113,61158.4945411534,40886.2842307480,59966.7294758303,57500.8118699961,63189.5021594452,67530.6200257535,58331.9994076681,69580.3050586686,27625.8673946217
8351817702,7639,-2,0,57424.3135600702,61249.7644350223,40931.5237275357,60040.5143893646,57618.9723738437,63177.1884502604,67558.3988776003,58434.5365887950,69577.2022959787,27628.0819154435
8351817702,7639,-2,0,57418.5217363825,61282.5320425664,40934.5899871351,60041.8771714088,57672.1573766567,63161.1027550605,67544.8805664300,58453.7372143816,69561.8466625882,27636.0760922562
8351817702,7639,-2,0,57402.4482088794,61216.3397718496,40886.5519200781,59970.5623003295,57598.1169414891,63144.8832151955,67504.0336081954,58363.9396118283,69544.8483901265,27634.4091177914
8351817702,7639,-2,0,57393.1399208099,61130.4601676733,40840.4728522097,59910.3443687528,57482.0736168887,63151.9283116560,67483.8352314693,58266.8657265749,69544.4590238282,27621.7182100051
8351827596,7640,-2,0,57402.7889043905,61137.1889040164,40854.9889145194,59937.7946927854,57473.8847569269,63167.6124728607,67508.3409728707,58287.6116496580,69562.1508550087,27607.7010232651
8351827596,7640,-2,0,57409.9435101223,61226.2077739730,40906.1784150536,60013.9279718065,57582.7613080986,63154.7877204094,67541.2424250799,58405.3462841168,69563.9881772290,27609.7938671186
8351827596,7640,-2,0,57404.1395187378,61271.4837738512,40917.4943730989,60032.5202125520,57659.6489843228,63133.5307540597,67530.4861810885,58463.8242350478,69544.2886760727,27619.0413167041
8351827596,7640,-2,0,57399.6131355197,61216.8873182067,40882.1593815251,59970.6961449946,57603.7019143309,63149.5556107755,67497.9375920871,58403.9713343758,69535.7591205998,27631.5862121285
8351827596,7640,-2,0,57415.4919798736,61146.1443288781,40855.6946409352,59923.0109411455,57503.0020554242,63187.0807877774,67496.0637667764,58338.2779392287,69556.9309130717,27635.5893843833
8351827596,7640,-2,0,57437.0288032502,61165.9411716090,40881.4414874125,59965.3301906957,57506.6280290774,63202.5946012267,67537.8598053632,58388.5548625011,69585.3668205469,27628.1670893213
8351827596,7640,-2,0,57439.0486409228,61249.5089133890,40923.2375259993,60033.3354482391,57608.2161298522,63183.9536896939,67566.6364083494,58495.1925574574,69586.9729565275,27620.7812973497
8351827596,7640,-2,0,57425.1166280605,61294.4198823625,40931.2317028120,60045.1016110669,57680.1637211662,63154.2401740523,67557.0604309498,58537.1589437997,69565.6916547842,27624.6506249394
8351856336,7641,-2,0,57403.7501524395,61238.9351848498,40884.6050885865,59985.1270334266,57627.6966124657,63140.0891426472,67515.7754356295,58466.4767929552,69542.2323353096,27624.5289479712
8351856336,7641,-2,0,57402.1805195493,61150.0988303455,40840.6310322684,59924.1060338596,57514.3910196505,63172.3457069249,67494.7983263068,58367.5412500879,69546.7100477404,27629.0796665830
8351856336,7641,-2,0,57423.5956659577,61144.4895221102,40858.1403479966,59946.3729190455,57490.8465262981,63201.7063593586,67525.7772824180,58376.3993333750,69579.3681460132,27629.0309957957
8351856336,7641,-2,0,57435.0576363649,61236.0757760964,40916.7886466832,60026.4241964437,57593.8460799043,63193.7851887269,67564.9816015815,58496.2876501714,69591.6453521075,27621.6817069146
8351856336,7641,-2,0,57420.3590586028,61298.5568992823,40935.4295582159,60052.8889370336,57682.9866268292,63153.8264723603,67554.0185067440,58561.8837037439,69567.5411447013,27618.3234225915
8351856336,7641,-2,0,57397.3742793042,61248.4138206749,40891.2243156582,59985.3825550599,57634.9607274690,63144.0923149020,67504.3499683128,58483.6575808692,69539.8718021259,27622.0224024257
8351856336,7641,-2,0,57397.6663040280,61163.5197999412,40851.5089532281,59922.1592023679,57523.6628046296,63175.7283266416,67487.6558882717,58371.3984099807,69551.5162879855,27635.3460304468
8351856336,7641,-2,0,57416.3558863480,61150.8045567613,40864.0781840462,59941.3476602577,57487.8167697892,63193.2863131571,67518.3671550528,58367.7602686307,69578.2365502087,27637.6335574495
8351882637,7642,-2,0,57432.9526248145,61226.8283265110,40911.6660463207,60018.5273612056,57574.2439203225,63183.8441804225,67558.6665669304,58466.0630912632,69589.1996450461,27628.9579896148
8351882637,7642,-2,0,57423.9241937719,61288.8714126112,40933.6530744798,60054.6289176792,57666.2925467881,63157.3186013485,67561.1366093855,58542.4762273113,69571.7024970147,27621.1341605576
8351882637,7642,-2,0,57406.0011763517,61265.3877577429,40906.2635889313,60014.3051704080,57655.9135013981,63146.4163449952,67528.1743186921,58511.8501344080,69551.3946110173,27623.3608490762
8351882637,7642,-2,0,57397.1552607614,61178.0723653415,40859.7099808867,59938.9627916804,57547.3776457375,63170.4840493109,67498.1566106299,58411.5883125869,69552.4897037313,27630.8926534096
8351882637,7642,-2,0,57409.3594606748,61143.7959633913,40859.5883039185,59930.3480623297,57488.1696329970,63199.4066646591,67514.9967030329,58386.9000557332,69577.7133392453,27633.7033913757
8351882637,7642,-2,0,57424.8246033368,61218.8098143047,40912.5664558856,60007.7954526077,57568.2330780920,63195.2939831329,67561.1852801728,58493.6350922640,69596.7192816827,27629.1040019766
8351882637,7642,-2,0,57415.6379922355,61287.5938044448,40937.2790481330,60051.4044780212,57667.1442855657,63144.2869980512,67561.8910065885,58577.1054924694,69572.5785711860,27617.2161621806
8351882637,7642,-2,0,57387.6522895427,61250.2024721079,40894.2175690766,59997.8544443034,57645.6804683700,63120.1706229481,67512.3806482159,58524.4923714070,69534.6153570984,27614.1133994908
8351935196,7643,-2,0,57379.4634295809,61157.0830883219,40840.8987215985,59924.1060338596,57535.4654705478,63144.4695135035,67481.0731642905,58413.6568210468,69531.4152528340,27620.3675956578
8351935196,7643,-2,0,57395.7316402331,61120.2758054325,40836.3358352899,59919.0686073749,57470.2466155768,63179.5854865345,67498.0592690553,58377.3727491208,69557.7461487588,27627.2301766659
8351935196,7643,-2,0,57412.0241862791,61182.7325932247,40883.1936357550,59984.3604685268,57534.3947132274,63193.0916300080,67540.3663509087,58454.0170714085,69581.4366544731,27626.1472516487
8351935196,7643,-2,0,57414.4698933405,61271.6054508194,40927.6787353397,60044.5905678003,57646.9580765364,63169.9365029539,67560.7229076935,58550.7867642414,69577.6159976707,27627.1936735754
8351935196,7643,-2,0,57395.2327646634,61271.3499291862,40916.4236157785,60021.7518008637,57663.8103366362,63149.6164492596,67529.8412931568,58545.6884992726,69553.5604610517,27625.6605437757
8351935196,7643,-2,0,57383.9289743149,61184.0223690879,40868.5315610834,59941.3233248640,57560.1902304920,63157.9391538865,67487.9965837827,58439.3671644337,69541.0642364146,27625.6118729885
8351935196,7643,-2,0,57400.9150790797,61130.7035216098,40854.7942313703,59918.1438624163,57474.5053094649,63187.7986818900,67497.8159151189,58382.9820573562,69565.7159901779,27628.9093188275
8351935196,7643,-2,0,57421.2838035613,61185.3486480416,40894.1080598052,59983.7277482920,57524.3563633485,63185.6084964619,67542.5687040336,58464.5421291604,69584.7097649185,27629.4325297909
8351951009,7644,2,0,57421.6853375565,61271.4716061544,40928.8711696283,60049.9808574929,57638.6353719095,63155.1649190109,67565.0059369752,58571.9585567133,69572.0431925258,27630.6006286859
8351951009,7644,2,0,57401.9128302192,61266.6288628189,40906.6894583201,60024.7937250694,57656.6313955107,63127.4225702546,67532.2626648246,58562.4799208882,69541.6604535589,27627.1084996977
8351951009,7644,2,0,57390.8645615040,61187.3198149269,40860.0871794882,59951.7632087381,57567.1379853779,63139.3104100506,67496.7208224048,58463.4835395368,69534.2746615874,27628.1792570181
8351951009,7644,2,0,57398.1530119009,61126.3109830567,40844.0623227724,59918.9225950130,57477.7419168198,63174.4263830816,67496.8059962826,58395.0159095141,69552.8182315455,27627.1815058786
8351951009,7644,2,0,57422.7682625737,61171.1976166365,40888.4744161762,59974.8696650049,57515.1940876408,63206.6707796624,67537.6407868204,58446.7772917989,69583.7606845663,27629.3960267004
8351951009,7644,2,0,57439.7421996417,61273.5157792206,40946.5995038994,60057.7438480659,57641.9936562327,63182.7977584958,67572.2578842816,58557.7953576114,69591.8643706504,27635.3947012341
8351951009,7644,2,0,57421.4419836200,61295.9165090717,40940.9536925735,60052.4630676448,57687.3304945949,63144.7858736209,67549.1392603180,58577.5922003423,69563.5501401434,27633.2653542901
8351951009,7644,2,0,57397.0700868837,61212.1784195362,40882.6947601853,59964.1255887102,57592.4832978601,63137.1323923193,67497.8402505125,58476.9288445261,69539.6041127958,27627.7655553261
8351975241,7645,2,0,57392.9452376607,61129.2677333847,40843.0767393298,59904.6985574270,57478.1556185118,63163.7918160583,67487.3151927607,58389.7351290929,69551.3459402300,27625.5388668075
8351975241,7645,2,0,57411.0507705332,61158.8230689676,40871.7194976510,59953.6978725329,57494.5698415259,63177.0911086858,67529.2937467998,58436.8119481009,69574.7930920078,27622.8741412033
8351975241,7645,2,0,57420.0305307886,61249.4480749049,40919.5020430747,60033.3232805423,57610.0656197693,63169.7418198047,67562.1830313122,58546.1873748423,69577.3118052501,27624.3464325189
8351975241,7645,2,0,57412.9732666312,61279.8429815686,40921.8747439551,60039.9668430076,57665.2826279518,63144.0193087211,67546.9125717994,58574.3190898969,69558.4883782650,27626.2810963137
8351975241,7645,2,0,57397.3986146979,61214.3686049643,40876.7082533484,59976.0012608094,57599.8934252253,63142.4496758309,67509.3752271007,58498.2101462694,69542.2566707032,27622.8498058096
8351975241,7645,2,0,57401.1462653194,61139.3912571414,40847.6882964257,59927.8658521778,57499.7897834629,63175.4849727052,67502.2449567624,58419.1322846171,69556.7483976193,27628.6294618005
8351975241,7645,2,0,57420.2130462409,61149.2470915679,40867.0227666773,59956.6059520736,57493.5964257801,63190.0497058022,67533.4794345069,58438.6736057148,69581.3271452017,27628.7633064656
8351975241,7645,2,0,57431.6385135576,61238.7283340039,40917.6282177639,60033.4692929042,57599.6135681984,63173.9761782991,67566.5755698653,58544.7029158299,69585.6345098770,27629.8340637860
8352010593,7646,2,0,57421.3446420454,61287.8614937749,40928.3114555745,60054.2030482905,57678.2290573714,63145.8322955477,67555.7584873897,58596.1114349068,69563.2459477228,27632.4136155125
8352010593,7646,2,0,57407.6681508164,61230.8801695531,40885.8948644497,59987.3415542484,57624.5451789886,63150.6872065800,67510.1296243037,58515.9993190246,69543.8141358966,27640.8579971076
8352010593,7646,2,0,57415.1877874530,61148.8455575728,40852.6527167294,59924.6170771261,57512.5780328239,63174.4263830816,67495.3702080575,58417.8790118444,69555.7019756926,27643.6930704673
8352010593,7646,2,0,57425.8345221731,61151.1939230596,40869.9065108244,59947.4923471532,57493.5720903864,63184.9149377430,67521.6646008918,58434.3905764331,69575.6326630886,27636.0760922562
8352010593,7646,2,0,57424.4474047353,61228.9333380614,40914.6106289519,60011.7986248625,57582.4692833748,63171.0802664553,67543.7489706255,58532.7542375498,69576.3627248979,27625.3198482647
8352010593,7646,2,0,57409.3229575844,61278.4923672212,40927.5083875842,60032.2160201314,57659.0405994816,63157.4159429231,67535.3897629081,58586.7788114436,69560.1553527298,27623.5920353158
8352010593,7646,2,0,57401.0732591384,61242.7923447427,40898.7317845979,59990.6146646938,57628.8525436639,63156.5520364487,67507.9881096628,58537.9741794868,69549.9831581858,27628.4469463482
8352010593,7646,2,0,57413.7641669247,61166.9875935358,40863.3967930241,59941.1286417149,57529.0652620189,63185.5963287650,67500.3954668453,58446.4487639847,69564.1341895909,27643.1090210198
8352059251,7647,2,0,57437.5155111231,61150.9505691231,40863.7131531415,59951.5685255889,57488.7415147477,63198.0317149181,67530.5713549662,58433.7700238952,69586.0968823563,27640.0184260268
8352059251,7647,2,0,57446.0572342928,61226.8039911174,40906.2757566281,60025.3656068201,57574.3655972908,63179.7558342900,67569.2402954695,58531.4401262929,69589.3699928017,27625.2346743869
8352059251,7647,2,0,57437.0409709470,61291.7551567582,40927.4597167969,60063.0246284871,57669.3831417811,63154.5930372602,67568.6440783252,58605.6509092160,69571.9458509512,27618.2139133201
8352059251,7647,2,0,57421.7218406469,61255.0087123530,40895.1179786415,60011.0442276595,57641.9571531422,63152.0864917147,67530.4131749075,58548.1950448181,69551.1512570808,27621.0611543767
8352059251,7647,2,0,57418.1445377810,61169.3724621131,40854.8915729448,59940.7879462038,57530.0265100680,63181.7756719626,67507.1242031884,58436.4712525898,69557.2229377954,27630.6006286859
8352059251,7647,2,0,57432.2468983988,61152.2160095927,40866.9740958900,59950.7654575986,57488.1818006939,63206.9871397798,67531.6299445898,58421.5049854976,69584.6489264344,27633.4235343488
8352059251,7647,2,0,57443.5993595346,61224.9179981098,40916.6791374118,60020.1334971862,57568.5494382094,63203.4463400043,67570.6639159978,58512.6410347015,69596.4637600494,27630.2355977812
8352059251,7647,2,0,57435.3983318759,61293.7749944308,40943.0100333366,60059.0214562323,57668.9816077860,63175.1199418005,67572.1118719197,58587.8252333704,69582.8359396077,27626.3662701915
8352066639,7648,2,0,57419.2274627982,61275.0854121108,40918.5286273288,60021.6422915923,57667.4119748958,63156.0653285758,67538.3830163266,58554.0233715963,69563.5501401434,27629.0553311893
8352066639,7648,2,0,57408.0940202053,61181.8200159630,40864.9542582174,59943.0876409033,57558.7787776606,63171.0315956680,67501.7460811927,58433.9038685602,69558.1111796635,27634.8349871802
8352066639,7648,2,0,57429.0102910439,61143.7351249071,40862.6423958211,59937.0281278855,57495.1903940639,63216.3319309398,67523.1612276011,58387.9099745695,69590.3677439411,27646.9540132159
8352066639,7648,2,0,57449.5128601905,61213.0666614043,40914.0752502916,60015.2055799729,57566.3957558717,63216.2467570620,67572.6715859736,58476.0771057485,69614.8734853425,27644.3257907021
8352066639,7648,2,0,57439.1216471038,61290.8304117997,40941.9271083194,60064.2779012598,57671.9505258108,63175.8743390035,67578.4512419645,58564.2807400180,69594.7359471006,27635.5285458992
8352066639,7648,2,0,57421.8921884025,61280.5730433780,40922.0329240138,60028.2736863608,57677.5963371366,63181.1429517278,67545.6592990267,58535.8448325428,69574.2090425603,27643.8147474356
8352066639,7648,2,0,57420.9917788376,61202.4442620778,40880.1273761556,59956.5572812863,57574.3169265035,63183.6008264861,67515.3008954534,58428.2702249312,69573.0531113621,27648.9616831917
8352066639,7648,2,0,57427.5623351220,61151.9604879595,40861.3647876547,59938.4152453233,57492.5500038533,63192.0695434748,67520.9467067793,58373.5399246216,69584.8679449772,27638.6313085890
8352103988,7649,2,0,57439.4623426148,61196.7497799647,40889.7763597362,59994.3258122247,57534.8570857067,63185.9856950634,67556.0261767198,58442.1048962189,69590.8909549045,27623.9570662205
8352103988,7649,2,0,57434.4370838269,61271.5811154258,40919.7575647080,60049.0561125343,57634.5226903834,63158.2311786102,67567.5246502175,58540.0061848563,69572.7610866383,27617.7272054472
8352103988,7649,2,0,57417.0737804606,61273.7713008539,40903.3798447843,60032.3863678869,57660.0870214084,63137.9232926128,67541.8021391338,58546.2238779328,69542.3296768842,27621.9980670320
8352103988,7649,2,0,57407.2422814276,61191.4568318467,40857.0209198889,59956.6302874673,57564.8869614657,63149.9693124675,67503.4982295352,58447.7872106352,69531.6342713768,27628.8241449497
8352103988,7649,2,0,57419.4708167347,61129.2677333847,40841.1907463222,59922.0861961869,57472.3151240367,63185.7666765206,67505.2990486650,58380.2564932679,69552.6357160932,27635.3703658405
8352103988,7649,2,0,57440.2289075146,61181.9903637185,40889.6668504648,59986.4654800771,57518.0656640910,63208.3620895208,67551.1469302938,58457.5822065776,69581.5461637445,27635.8570737134
8352103988,7649,2,0,57446.6412837403,61282.0331669967,40944.6770078013,60058.4982452690,57643.3199351864,63185.8031796110,67574.0222003209,58580.1717520688,69586.6687641070,27637.0373403052
8352103988,7649,2,0,57425.1409634542,61288.0561769241,40926.7539903811,60031.8023184394,57672.9847800407,63150.9062251228,67535.2315828494,58581.7413849589,69558.5492167491,27630.2842685685
8352166256,7650,2,0,57409.5176407335,61210.1342464699,40871.1597835971,59956.5086104990,57583.9659100841,63153.7169630889,67494.1777737688,58486.6751696813,69545.8461412660,27621.2436698290
8352166256,7650,2,0,57416.5870725877,61143.8568018754,40840.4850199065,59921.9523515219,57490.9195324790,63178.2592075808,67493.9100844387,58418.1467011745,69561.1774392629,27613.9795548257
8352166256,7650,2,0,57435.9945490203,61173.2417897028,40868.8114181103,59969.3698660409,57515.2792615185,63202.3390795934,67535.2680859399,58467.8395749994,69588.0193784543,27614.7826228160
8352166256,7650,2,0,57442.2000744000,61261.8226225738,40917.3605284338,60044.1525307147,57627.8547925244,63190.0010350149,67567.5003148238,58576.5336107187,69593.2149849977,27621.6330361274
8352166256,7650,2,0,57428.3532354155,61296.3910492478,40927.6422322492,60055.5779980314,57687.1966499299,63167.3812866211,67556.4885491991,58609.0821997201,69575.8638493282,27635.3825335373
8352166256,7650,2,0,57408.3860449290,61224.4069548433,40878.6307494464,59978.8363341691,57607.7415896761,63161.8693199603,67514.0476226807,58509.5017689211,69555.2517709101,27640.9675063790
8352166256,7650,2,0,57415.5041475704,61147.1664154112,40846.9582346163,59924.1547046468,57499.2057340154,63194.6855982918,67509.8497672768,58417.5869871206,69570.7047458753,27645.3357095384
8352166256,7650,2,0,57439.5231810989,61174.1300315709,40878.5942463559,59974.3707894351,57511.5194432003,63207.4008414718,67553.2641095410,58463.6782226859,69594.6872763133,27642.6466485406
8352193973,7651,2,0,57450.0239034571,61264.5725220558,40924.7098173149,60052.7915954590,57622.9025399175,63176.3853822701,67580.9091167227,58579.7215472863,69588.4087447526,27627.7655553261
8352193973,7651,2,0,57434.9359593967,61294.5902301180,40920.6579742728,60054.6167499824,57680.3340689218,63147.0734006236,67560.0415166714,58609.5445721994,69557.3689501573,27623.5068614381
8352193973,7651,2,0,57417.8403453604,61234.4331370254,40874.9682727027,59988.1811253292,57622.3549935604,63142.6078558896,67517.1625530673,58533.9710072321,69536.2579961695,27624.9183142695
8352193973,7651,2,0,57415.1391166657,61151.0965814850,40834.8635439743,59930.3845654202,57512.7605482762,63166.5417155403,67499.1300263757,58436.0818862915,69541.1129072019,27624.8088049981
8352193973,7651,2,0,57433.5001711716,61151.2669292405,40855.2809392432,59956.0219026261,57495.6771019368,63193.4688286095,67530.4618456948,58440.3040770891,69565.1684438208,27623.7137122841
8352193973,7651,2,0,57449.4398540096,61240.2736315004,40912.5056174015,60040.3075385186,57598.6401524525,63192.7874375874,67575.8108517539,58542.7804197319,69578.1635440277,27621.2801729195
8352193973,7651,2,0,57441.2874971382,61297.8633405634,40932.7526649149,60071.0553083902,57685.8582032794,63168.8657456335,67572.6837536704,58598.1434402763,69565.8863379334,27625.0156558441
8352193973,7651,2,0,57421.1499588963,61246.4061506991,40893.9498797465,59999.2172263476,57637.2117513812,63169.0847641763,67524.2563203151,58519.4914480128,69551.8934865870,27633.4843728329
8352200566,7652,2,0,57417.9376869350,61159.0542552072,40855.8041502066,59925.1281203927,57521.9836624680,63199.1511430258,67500.2616221803,58414.5815660054,69567.5046416108,27640.5903077775
8352200566,7652,2,0,57434.2424006778,61156.0001633047,40872.5590687318,59947.7722041802,57498.0132997268,63216.1129123970,67531.2405782915,58432.8939497239,69595.0644749148,27641.7219035820
8352200566,7652,2,0,57447.8580534226,61238.2659615246,40919.4777076810,60027.8721523656,57594.9533403152,63200.3557450113,67570.9559407216,58548.6330819037,69601.4646834437,27639.7264013031
8352200566,7652,2,0,57438.5375976563,61289.9786730221,40926.1091024495,60052.8159308526,57674.8464376546,63157.9391538865,67563.5944841437,58606.0889463017,69573.7588377778,27628.4712817418
8352200566,7652,2,0,57419.0814504364,61250.2998136825,40885.3229826990,60001.2370640202,57641.1419174551,63140.1013103441,67524.6700220071,58548.1098709403,69544.8240547329,27625.9404008027
8352200566,7652,2,0,57409.8948393351,61160.5752173101,40835.8004566297,59932.7207632102,57525.5609653339,63157.2455951676,67496.2097791382,58434.0742163157,69538.3508400231,27627.4370275119
8352200566,7652,2,0,57429.1806387994,61136.6778607498,40840.3025044541,59938.4517484138,57478.5814879006,63192.4467420764,67522.5163396694,58410.5297229633,69560.9584207201,27632.5352924807
8352200566,7652,2,0,57452.1775857948,61220.4037825885,40898.8777969598,60024.0271601695,57569.1213199601,63192.1303819590,67572.5012382181,58518.0678274845,69577.7620100326,27634.5186270628
8352238913,7653,2,0,57446.0450665960,61292.0958522693,40926.4863010510,60071.1283145712,57671.6585010870,63154.3131802333,67577.0276214362,58604.8843443162,69558.4883782650,27631.6713860063
8352238913,7653,2,0,57420.7849279916,61254.9600415657,40886.7709386210,60015.8748032982,57645.3276051622,63128.4689921813,67531.4230937438,58549.6308330432,69527.9839623299,27629.3230205195
8352238913,7653,2,0,57409.5663115208,61159.9911678626,40833.2087372064,59933.3778188386,57523.5289599645,63143.0945637625,67495.6744004780,58425.6054993270,69523.0925482071,27627.1571704850
8352238913,7653,2,0,57418.9962765586,61128.2943176388,40832.0893090987,59926.6977532828,57464.6738104319,63162.3195247428,67509.8132641863,58389.6256198215,69543.2665895395,27621.9737316384
8352238913,7653,2,0,57429.5578374009,61192.8317815877,40875.6374960280,59990.7850124493,57533.3117882102,63156.6615457201,67542.9580703320,58470.0054250339,69549.7398042493,27621.4140175845
8352238913,7653,2,0,57416.4288925290,61259.8392879917,40901.8467149846,60029.7459776763,57627.6479416784,63125.4514033692,67542.4713624591,58547.2946352532,69529.2128997090,27619.8322169976
8352238913,7653,2,0,57394.1620073430,61246.2844737309,40879.1904635003,59997.1487178877,57631.1644060602,63119.6109088942,67506.2359613203,58530.3328658820,69507.5787347578,27623.9083954332
8352238913,7653,2,0,57383.3570925642,61164.3228679316,40835.4962642091,59922.0740284901,57531.3162859312,63147.6331146775,67469.2948337659,58434.9746258806,69511.2290438047,27631.7078890967
8352295179,7654,2,0,57397.6906394216,61123.3664004255,40834.2064883459,59903.6278001065,57458.9184898347,63187.1051231711,67480.5256179335,58392.6797117241,69546.9777370705,27630.5397902017
8352295179,7654,2,0,57420.0183630917,61193.0994709178,40888.1093852715,59980.0896069419,57524.2590217739,63197.2164792309,67529.7439515823,58484.9595244293,69580.0982078226,27625.2955128711
8352295179,7654,2,0,57424.1188769211,61284.5032094518,40932.3267955261,60051.1611240847,57646.7998964777,63170.0338445285,67552.5462154285,58598.6788189365,69578.2973886928,27627.1206673945
8352295179,7654,2,0,57402.4360411826,61272.4571895971,40909.3176808339,60017.4931069756,57657.6534820438,63149.4704368977,67516.1282988374,58585.6472156391,69554.3148582548,27629.7853929987
8352295179,7654,2,0,57384.8050484861,61180.4328985251,40855.8406532970,59934.2173899194,57553.9968728091,63158.7057187863,67477.4958614246,58484.1442887421,69546.8438924055,27634.0197514931
8352295179,7654,2,0,57388.2606743839,61125.7756043965,40840.1929951827,59906.5723827377,57473.4223844476,63181.5201503294,67482.7401387552,58433.5875084428,69564.2680342559,27639.3857057920
8352295179,7654,2,0,57406.0011763517,61175.8700122165,40881.6726736521,59967.2526867937,57520.0489986731,63199.5283416273,67525.7529470243,58497.8451153648,69586.8756149530,27640.6268108680
8352295179,7654,2,0,57420.6754187202,61268.5270235232,40931.3777151739,60040.1493584600,57637.6984592542,63181.6296596008,67559.5669764953,58597.3403722860,69587.8977014861,27641.0891833472
8352300501,7655,2,0,57403.2269414761,61278.6383795831,40920.8404897252,60032.1551816473,57668.4340614289,63144.4573458067,67535.8886384778,58599.1776945062,69558.8655768665,27635.7353967451
8352300501,7655,2,0,57379.5364357618,61188.9259509075,40861.6324769848,59951.8240472222,57568.5981089967,63145.3455876747,67487.8505714209,58491.4205714422,69537.1949088249,27627.9115676880
8352300501,7655,2,0,57383.7951296498,61114.3988078670,40832.5516815779,59908.5070465325,57467.1073497965,63177.1519471699,67483.6162129265,58412.5495606359,69551.3459402300,27630.1990946907
8352300501,7655,2,0,57402.4238734858,61157.7036408599,40873.1552858761,59964.6853027641,57500.1304789740,63187.0564523838,67524.9377113372,58476.9775153134,69576.1193709615,27640.5173015966
8352300501,7655,2,0,57402.0466748843,61247.8419389242,40918.1027579400,60028.6873880527,57613.1197116718,63147.8399655235,67541.4979467132,58584.5764583187,69565.6551516937,27643.3523749563
8352300501,7655,2,0,57375.5210958102,61254.6436814483,40898.5127660551,60004.1086404704,57644.4515309909,63109.9862607073,67503.1210309337,58581.6683787780,69525.0028766083,27632.5961309648
8352300501,7655,2,0,57361.1023750751,61180.1287061046,40846.9704023131,59930.5184100852,57563.8040364484,63126.1084589977,67462.0550541562,58489.5832492220,69508.9901875893,27631.1725104365
8352300501,7655,2,0,57373.4890904408,61114.5448202289,40827.1857272790,59893.4312701689,57472.7774965160,63166.9797526259,67461.0573030168,58426.1773810776,69530.4175016945,27631.5862121285
8352316197,7656,2,0,57404.5775558234,61148.2858435189,40866.9984312837,59942.3940821844,57495.5189218781,63199.7838632606,67505.4328933300,58479.4232223748,69565.6186486033,27636.7696509751
8352316197,7656,2,0,57424.6542555813,61248.4503237654,40927.7517415206,60024.8545635535,57614.2391397795,63190.3660659196,67545.5497897553,58597.7662416748,69580.0982078226,27640.0062583300
8352316197,7656,2,0,57415.4068059958,61291.3657904599,40937.0356941965,60042.5950655214,57685.0307998954,63158.9490727228,67535.0977381844,58641.2049193327,69563.6839848084,27642.7196547215
8352316197,7656,2,0,57391.4242755578,61222.2289371119,40884.1427161072,59969.3576983441,57613.8254380876,63138.4951743634,67487.6923913622,58548.6817526910,69539.5554420085,27638.6556439826
8352316197,7656,2,0,57380.9722239869,61126.8585294137,40837.1997417643,59897.2519269713,57491.0168740536,63161.5894629334,67467.5061823329,58439.6226860670,69546.4788615008,27632.2554354538
8352316197,7656,2,0,57396.9484099154,61138.4786798796,40861.3404522610,59933.5359988973,57489.8852782491,63184.1483728431,67503.4252233542,58469.7499034006,69571.7024970147,27631.8904045491
8352316197,7656,2,0,57405.2224437550,61227.8747484378,40911.9580710444,60011.3240846864,57596.1822776943,63166.8824110514,67534.3555086782,58576.5944492028,69575.5353215140,27629.4081943972
8352316197,7656,2,0,57390.7915553230,61266.7383720903,40916.3141065071,60020.2308387608,57662.3988838047,63144.9927244669,67516.6636774976,58601.8059170200,69553.1710947534,27626.3784378883
8352354022,7657,2,0,57376.6526916148,61217.3861937764,40882.5000770361,59963.1278375707,57615.0787108603,63151.0400697879,67482.2169277919,58522.2170121011,69541.5022735002,27633.1193419282
8352354022,7657,2,0,57381.8482981582,61142.5061875280,40853.3827785388,59910.6120580829,57516.1431679930,63179.4273064758,67473.9428939522,58432.0665463399,69556.4077021083,27643.5348904086
8352354022,7657,2,0,57401.0002529575,61138.7950399970,40867.5459776407,59928.1700445984,57493.4990842055,63193.6148409714,67501.9529320387,58442.2509085807,69580.2563878813,27644.2041137339
8352354022,7657,2,0,57412.4987264552,61216.8386474194,40909.0864945942,60002.8797030913,57582.8586496732,63174.8765878640,67538.3830163266,58557.4303267067,69581.5583314413,27637.9742529606
8352354022,7657,2,0,57405.2102760582,61276.8010573628,40921.7774023806,60039.4923028315,57670.4538991015,63144.4451781099,67538.5533640821,58639.0877400855,69557.3811178541,27637.6700605400
8352354022,7657,2,0,57387.9199788728,61233.4597212795,40880.1152084588,59982.9611833921,57629.2662453559,63135.4167470672,67498.7528277742,58580.5367829735,69534.0556430446,27642.4884684819
8352354022,7657,2,0,57382.1646582756,61140.1334866476,40832.3935015192,59908.7869035595,57506.3603397473,63158.0851662484,67473.3101737175,58466.2456067156,69537.1097349471,27637.4267066035
8352354022,7657,2,0,57400.7812344147,61131.1050556049,40846.2890112910,59928.5107401095,57473.7752476555,63182.3475537133,67502.3544660338,58461.5245403483,69566.2148657476,27636.1612661339
8352406316,7658,2,0,57413.9101792866,61212.2514257171,40897.7705365489,60007.1505646761,57566.4200912654,63183.4061433369,67542.9337349383,58556.4325755672,69579.3681460132,27638.5217993176
8352406316,7658,2,0,57409.2499514034,61273.4792761302,40922.7994889137,60040.8915879662,57656.3150353933,63150.5655296118,67544.5885417063,58603.4363883942,69563.6596494148,27638.5461347112
8352406316,7658,2,0,57388.8325561345,61238.1564522532,40890.0805521568,59990.9675279016,57632.1743248966,63136.8647029892,67507.2093770662,58535.6623170905,69539.0200633483,27636.0274214689
8352406316,7658,2,0,57385.6811226574,61153.5666239401,40846.1429989292,59924.7752571848,57526.0476732068,63158.8517311482,67479.7103822463,58425.2648038159,69540.7357086004,27641.5515558265
8352406316,7658,2,0,57409.6271500049,61130.4114968860,40849.0389107730,59925.6026605688,57480.0294438225,63197.5328393484,67503.3522171733,58406.7942400387,69572.9436020907,27644.4718030640
8352406316,7658,2,0,57434.6926054602,61209.2338369050,40901.9318888623,60004.7170253115,57564.3759181991,63196.3769081502,67549.8936575211,58516.2305052642,69595.1618164894,27641.5393881297
8352406316,7658,2,0,57425.3721496938,61287.6668106257,40931.2560382056,60053.4364833906,57676.1605489115,63156.2843471186,67556.0018413262,58618.4391585769,69578.7719288689,27639.7507366967
8352406316,7658,2,0,57394.0646657684,61257.1623946906,40893.6091842355,59997.5137487924,57659.2717857212,63134.4554990182,67508.1219543279,58577.2515048313,69543.0597386935,27636.6479740069
8352411358,7659,2,0,57387.3602648190,61169.9686792574,40850.2435127585,59920.6625756587,57549.3853157133,63172.8567501914,67480.1727547256,58474.9333422472,69545.5176134518,27642.9873440516
8352411358,7659,2,0,57406.9137536134,61141.4719332981,40858.1525156934,59924.4467293706,57491.5035819265,63201.3899992412,67506.4428121663,58452.3379292470,69574.9877751569,27647.6232365412
8352411358,7659,2,0,57421.6366667692,61204.1234042394,40900.5447714245,59990.7606770556,57553.0356247601,63197.8857025562,67547.1559257359,58530.5762198185,69589.3578251048,27642.9386732643
8352411358,7659,2,0,57418.4487302016,61280.1350062923,40930.8910073009,60040.4778862742,57654.6723963222,63173.0149302501,67558.0581820893,58607.6342437982,69579.9278600671,27635.6137197769
8352411358,7659,2,0,57400.4648742973,61271.5081092449,40909.0134884133,60013.9888102906,57661.9973498096,63150.8088835482,67526.8967105257,58587.4480347689,69557.3567824605,27635.8327383197
8352411358,7659,2,0,57387.8226372982,61185.4338219194,40855.5486285733,59938.7559408344,57559.1803116557,63157.3064336517,67491.4522096805,58477.8900925751,69547.8659789386,27638.5461347112
8352411358,7659,2,0,57398.2625211723,61126.4569954186,40835.5205996027,59912.5588895746,57470.0397647308,63186.2290489998,67498.1687783267,58408.8627484986,69564.8399160066,27643.5105550150
8352411358,7659,2,0,57422.0260330675,61181.0656187599,40881.8065183172,59983.4478912650,57521.6307992601,63204.3954203565,67547.5087889438,58477.7319125164,69589.6255144349,27646.7106592794
8352440005,7660,2,0,57433.6948543207,61271.9583140273,40932.3146278292,60064.6794352550,57647.3961136221,63176.1055252431,67573.6571694163,58584.8441476488,69585.7926899357,27647.3190441206
8352440005,7660,2,0,57417.8160099668,61267.9916448630,40911.6173755334,60040.6604017265,57668.9937754828,63142.6565266769,67542.3496854908,58565.6800251527,69553.1224239661,27635.7232290483
8352440005,7660,2,0,57405.9768409581,61182.3310592295,40857.4832923681,59959.9033979126,57571.1654930263,63153.1450813383,67504.3134652223,58459.7967273994,69543.1327448745,27631.3306904952
8352440005,7660,2,0,57414.3968871595,61125.7756043965,40839.3655917988,59930.7009255376,57484.3733115883,63179.3056295076,67512.7578468174,58407.7676557845,69561.3356193216,27634.4577885787
8352440005,7660,2,0,57430.9571225356,61169.0561019957,40876.4283963215,59984.2144561649,57516.8732298024,63190.3173951323,67553.4709603870,58474.0816034696,69581.1933005366,27639.3857057920
8352440005,7660,2,0,57435.5565119346,61256.3958297908,40921.9234147424,60049.7861743437,57623.6812725141,63174.1586937515,67579.5341669817,58578.8819762056,69577.9445254849,27651.8089242482
8352440005,7660,2,0,57416.7452526464,61277.4094422040,40914.5011196804,60039.8695014330,57667.7161673164,63141.5370985692,67554.5417177074,58596.9023352003,69551.5284556823,27654.4736498525
8352440005,7660,2,0,57389.5504502471,61197.7840341947,40855.4512869987,59955.7663809928,57581.3985260544,63133.7862756930,67502.2449567624,58497.5652583378,69527.7649437871,27647.6840750253
8352495752,7661,2,0,57391.7649710689,61121.1032088165,40820.4083201486,59908.0933448406,57476.3547993820,63175.0226002259,67494.0682644974,58408.5098852907,69544.2156698917,27640.9553386822
8352495752,7661,2,0,57420.9917788376,61161.0375897894,40861.5594708038,59970.3797848772,57503.4035894194,63197.0948022627,67545.2821004252,58453.5181958388,69578.6015811134,27640.8458294108
8352495752,7661,2,0,57425.9683668382,61250.1903044111,40910.6074566971,60045.8681759667,57614.7745184397,63164.4002008995,67574.8374360081,58545.2991329742,69577.3361406438,27631.7808952777
8352495752,7661,2,0,57405.2346114519,61265.8866333127,40898.3667536932,60032.9825850312,57655.7309859458,63131.0850469983,67545.5376220584,58540.7849174529,69544.4833592218,27626.1837547391
8352495752,7661,2,0,57391.4972817388,61193.1846447956,40847.8586441812,59960.2805965142,57579.2205083231,63132.3261520742,67503.7050803812,58438.4910902624,69526.4508325302,27626.3175994042
8352495752,7661,2,0,57402.6672274222,61126.8463617169,40820.1649662122,59920.6990787491,57486.6000001069,63163.9864992075,67503.1818694178,58362.5768297841,69541.2710872606,27637.2320234544
8352495752,7661,2,0,57427.0269564617,61149.8919794996,40850.5233697854,59963.3103530231,57495.7622758146,63181.5201503294,67540.0256553977,58397.7658089961,69565.7403255715,27645.8345851082
8352495752,7661,2,0,57434.8994563062,61236.4043039107,40900.8732992388,60035.3796213054,57598.6158170589,63155.0189066490,67571.1749592644,58498.1858108758,69564.1220218940,27636.6358063100
8352529201,7662,2,0,57413.3382975359,61272.6762081399,40904.9008068871,60046.8294240157,57662.3015422302,63118.8565116912,67554.1523514091,58540.6632404847,69533.0943949956,27629.3595236099
8352529201,7662,2,0,57388.0903266283,61207.7858809831,40857.8848263633,59974.1031001050,57598.1899476701,63115.0723579793,67507.9029357851,58461.9747451307,69507.9559333593,27631.3428581921
8352529201,7662,2,0,57388.0538235379,61123.6949282398,40823.9004491368,59911.4516291637,57487.9384467574,63164.6678902296,67493.4842150499,58367.7602686307,69527.6432668189,27640.7241524425
8352529201,7662,2,0,57414.4090548564,61143.2605847310,40861.1092660214,59952.9556430267,57490.9682032663,63201.4143346349,67536.8742219205,58406.8672462196,69573.0287759684,27649.8985958470
8352529201,7662,2,0,57420.7849279916,61232.3281254750,40914.5011196804,60031.4494552315,57596.4499670244,63172.4430484994,67566.8432591954,58521.4747825949,69581.7530145905,27645.7007404431
8352529201,7662,2,0,57399.4184523705,61266.2881673078,40913.4546977537,60039.0907688364,57661.1821141224,63133.6037602406,67544.3573554666,58556.9557865306,69553.1832624502,27633.4843728329
8352529201,7662,2,0,57383.1502417182,61208.8931413940,40867.2174498265,59977.0233473425,57607.9849436125,63127.9579489148,67500.3102929676,58481.0171906586,69530.7703649024,27629.0674988862
8352529201,7662,2,0,57389.6112887312,61129.9734598004,40829.3150742230,59919.6283214287,57504.4256759525,63159.9954946496,67485.9889138070,58383.9068023147,69543.1814156618,27635.3825335373
8352544016,7663,2,0,57412.1093601568,61125.3132319172,40842.6265345473,59935.4949980858,57476.9023457390,63184.7445899874,67513.5122440205,58371.2645653157,69572.7732543352,27640.8214940171
8352544016,7663,2,0,57423.0846226911,61202.1765727477,40889.9832105822,60005.4105840305,57564.0960611722,63173.4651350326,67551.2686072620,58446.8989687671,69581.5096606540,27631.9999138205
8352544016,7663,2,0,57413.5329806851,61265.3634223493,40915.8152309373,60041.5121405041,57658.6268977896,63147.5601084965,67551.3537811398,58502.4810078543,69564.0733511068,27624.9913204505
8352544016,7663,2,0,57395.9871618664,61230.9410080372,40883.3153127232,59991.4420680777,57635.6299507943,63148.7647104820,67515.5929201772,58442.5185979108,69545.7122966009,27631.9634107300
8352544016,7663,2,0,57402.6428920286,61152.5567051038,40848.4183582350,59929.4476527648,57531.8394968946,63190.7189291275,67502.1232797942,58336.6596355512,69561.8709979818,27652.7701722973
8352544016,7663,2,0,57422.9264426324,61141.2894178457,40863.2872837527,59945.6915280235,57495.1660586702,63207.0966490512,67532.8345465753,58329.7970545431,69591.9008737408,27660.4723243862
8352544016,7663,2,0,57431.4194950148,61214.4537788421,40908.8553083546,60017.5904485502,57576.1785841174,63188.2002158852,67568.9726061394,58427.1386291266,69596.7557847732,27654.5466560334
8352544016,7663,2,0,57416.7695880400,61270.9970659783,40921.3028622045,60046.1602006905,57659.2596180244,63149.7867970151,67559.3844610430,58491.0798759312,69569.4636407993,27644.0337659784
8352569716,7664,2,0,57395.0624169079,61239.2393772704,40884.0940453199,59998.5601707191,57638.1364963398,63131.4257425093,67518.2333103878,58448.2982539017,69542.5000246397,27638.2906130780
8352569716,7664,2,0,57384.4400175815,61150.0258241646,40831.0915579592,59923.1326181137,57528.5055479651,63148.3631764868,67484.6504671564,58344.2644460656,69535.5279343601,27631.9755784269
8352569716,7664,2,0,57404.5167173393,61116.6254963856,40828.7188570787,59915.3087890566,57468.9081689263,63177.5534811651,67502.4761430020,58306.6662628827,69562.2725319770,27636.3194461926
8352569716,7664,2,0,57419.4829844315,61178.1697069161,40872.7172487905,59980.5276440275,57534.9665949781,63172.7350732232,67540.5245309674,58384.6368641241,69577.0076128295,27631.4767028571
8352569716,7664,2,0,57412.9367635408,61255.5927618004,40911.4956985652,60034.5765533150,57640.6673772790,63147.6696177679,67548.9689125625,58479.7152470986,69561.9926749500,27633.7277267694
8352569716,7664,2,0,57395.3301062380,61242.7558416522,40891.5528434724,59998.3776552668,57644.9139034702,63145.5646062176,67510.5798290861,58455.0148225480,69539.9569760037,27639.6533951221
8352569716,7664,2,0,57398.6883905611,61168.4720525482,40857.8239878792,59930.4575716011,57552.0257059238,63186.0830366380,67487.1935157924,58355.8724288347,69552.8425669392,27652.3077998180
8352569716,7664,2,0,57423.1576288721,61139.5859402905,40861.2431106864,59927.3426412145,57492.7325193056,63213.6428699419,67509.6550841276,58326.6334533691,69585.5980067865,27657.0532015789
8352601654,7665,2,0,57437.4668403358,61198.6722760627,40899.4983494978,59994.8490231881,57549.1419617768,63199.7230247765,67549.2122664990,58403.0100863268,69599.0311440791,27647.1608640619
8352601654,7665,2,0,57428.1342168726,61266.3855088824,40923.3470352707,60041.0619357217,57645.5466237050,63162.4533694078,67555.1866056390,58485.5314061799,69578.6989226879,27631.4645351603
8352601654,7665,2,0,57401.5843024050,61256.3958297908,40897.0769778300,60011.2145754150,57658.2618668849,63139.1522299919,67520.2653157572,58474.5926467361,69549.1922578923,27627.0841643040
8352601654,7665,2,0,57389.6356241249,61175.9065153070,40847.8221410907,59940.5445922673,57566.3835881749,63159.3749421116,67486.9258264623,58388.3115085646,69542.3296768842,27638.4366254398
8352601654,7665,2,0,57401.7424824637,61117.4163966791,40828.3781615677,59911.1961075304,57481.3192196857,63190.2200535578,67495.1633572115,58327.8380553546,69565.4604685446,27642.0869344867
8352601654,7665,2,0,57422.4884055468,61163.1060982493,40866.5482265012,59974.0422616209,57521.4361161110,63196.0362126391,67541.9359837988,58390.1366630881,69589.7471914032,27630.7101379573
8352601654,7665,2,0,57426.0048699286,61256.6148483336,40911.9459033476,60047.8271751552,57640.5822034012,63175.2537864655,67568.3398859046,58497.8207799711,69583.9797031091,27624.9304819664
8352601654,7665,2,0,57419.5316552188,61276.6185419105,40912.3352696460,60041.0376003280,57683.2543161593,63171.5791420250,67548.7012232324,58506.6423601677,69567.9426786965,27638.2784453811
8352641737,7666,2,0,57408.4103803226,61199.9742196228,40868.4828902961,59962.5194527296,57593.4323782123,63174.1343583578,67508.5356560199,58405.2367748453,69558.7317322015,27640.5781400807
8352641737,7666,2,0,57412.5960680297,61131.9932974730,40845.1330800928,59922.0010223092,57498.6581876584,63190.9379476703,67506.9051846456,58334.2504315803,69571.4713107751,27641.1500218314
8352641737,7666,2,0,57422.8412687547,61159.2002675691,40864.9907613079,59965.1476752433,57517.2260930102,63183.6738326670,67536.9107250110,58374.8783712721,69582.2518901602,27632.5839632680
8352641737,7666,2,0,57419.0814504364,61234.6156524777,40892.5262592182,60025.0492467027,57611.0633709087,63155.3474344632,67553.1789356633,58461.1960125341,69567.9183433028,27626.0620777709
8352641737,7666,2,0,57403.4337923221,61257.4057486271,40887.2211434034,60026.0469978422,57655.9621721854,63137.9962987937,67534.7813780670,58479.7639178859,69544.0696575298,27625.3563513552
8352641737,7666,2,0,57396.4130312552,61193.6226818812,40846.9825700099,59964.2229302848,57586.1439278154,63147.1464068045,67498.5824800187,58396.9870763994,69532.6563579099,27630.7101379573
8352641737,7666,2,0,57408.9092558924,61118.9495264788,40818.5344948379,59913.3376221712,57480.8811826001,63175.8500036099,67495.8082451431,58306.8974491223,69547.9268174227,27636.4776262513
8352641737,7666,2,0,57430.6650978118,61145.8401364575,40851.3264377757,59958.8934790763,57494.4359968608,63195.8536971868,67536.5091910158,58346.4059607064,69576.6182465312,27636.6601417037
8352685240,7667,2,0,57429.9958744866,61238.0591106786,40901.1409885689,60034.7712364642,57610.4428183708,63166.1280138483,67565.7238310877,58457.6065419713,69572.8462605161,27632.3771124220
8352685240,7667,2,0,57403.7866555299,61266.4706827602,40897.7705365489,60026.8500658325,57666.1100313357,63135.8669518497,67538.2126685710,58477.8170863942,69542.4756892460,27633.8494037376
8352685240,7667,2,0,57391.4972817388,61203.5028517014,40855.0619207004,59957.3116784894,57602.9231817342,63150.3586787658,67498.0349336617,58388.5548625011,69529.4562536455,27643.0360148389
8352685240,7667,2,0,57409.4324668558,61140.4985175522,40837.7472881213,59922.8649287836,57514.4761935282,63191.3273139686,67502.9871862686,58309.6960193916,69556.0913419909,27652.0522781847
8352685240,7667,2,0,57434.4979223110,61153.9559902384,40864.6013950096,59961.2540122600,57511.5316108971,63210.5036041616,67541.0477419308,58333.0579972917,69584.9044480676,27651.5412349181
8352685240,7667,2,0,57446.7507930117,61236.5989870598,40912.3961081301,60034.9902550070,57608.1187882776,63187.9446942519,67575.1902992159,58431.4946645893,69590.4285824253,27644.5448092450
8352685240,7667,2,0,57424.3622308575,61273.3332637683,40913.8805671425,60046.4643931111,57670.6729176443,63144.0314764179,67559.1897778938,58475.6269009661,69558.9872538348,27633.2045158060
8352685240,7667,2,0,57399.9416633339,61214.8066420499,40866.3170402616,59981.5132274702,57617.5122502249,63133.9931265389,67512.9890330571,58405.3706195104,69532.2061531275,27632.8759879917
8352706625,7668,2,0,57400.2336880576,61125.4714119759,40822.3186485498,59915.2966213597,57505.2287439428,63170.8977510029,67493.5450535340,58307.6761817190,69543.3760988109,27638.4122900462
8352706625,7668,2,0,57425.6641744176,61131.7499435365,40844.5368629485,59944.0245535587,57491.9051159217,63201.7671978427,67532.5425218515,58328.4464401958,69580.0373693385,27642.4519653914
8352706625,7668,2,0,57439.1824855879,61219.5520438109,40897.2351578887,60023.4066076316,57593.1281857917,63175.4971404020,67569.6783325552,58437.5663453039,69587.3744905227,27636.6844770973
8352706625,7668,2,0,57423.7295106227,61265.9109687063,40906.5556136551,60041.6581528660,57668.3610552480,63136.2928212385,67555.0162578835,58479.6787440081,69557.7826518493,27625.1616682060
8352706625,7668,2,0,57404.7722389726,61221.3041921534,40868.6045672643,59986.3316354121,57627.5627678007,63145.9053017286,67516.8218575563,58415.1169446656,69536.9758902821,27628.9701573116
8352706625,7668,2,0,57410.6005657508,61146.1808319686,40835.0095563362,59932.7572663007,57526.0233378132,63167.2231065624,67504.3134652223,58329.3225143670,69550.8714000539,27646.0171005605
8352706625,7668,2,0,57425.3721496938,61125.1550518585,40835.1799040917,59940.2647352404,57479.0073572894,63174.5237246562,67523.5749292930,58322.3139209970,69569.0986098946,27644.6178154259
8352706625,7668,2,0,57431.6506812545,61190.2035590740,40870.1011939735,60003.9869635022,57551.2226379335,63161.5164567524,67553.0207556045,58405.2854456326,69570.3275472737,27632.8638202949
8352726155,7669,2,0,57422.1842131262,61256.4566682749,40892.4045822500,60043.9943506560,57646.7998964777,63133.0927169740,67552.9112463331,58473.1446908142,69550.7010522983,27626.4879471597
8352726155,7669,2,0,57402.6063889381,61230.1987785310,40863.9200039875,59996.4186560783,57631.4320953904,63128.0674581862,67511.7600956779,58422.6974197863,69527.3634097919,27628.0819154435
8352726155,7669,2,0,57399.5888001260,61144.5260252006,40820.3961524518,59919.2389551304,57519.6352969812,63159.1802589624,67485.0154980611,58315.9258801650,69534.1164815287,27636.8061540656
8352726155,7669,2,0,57416.9764388860,61121.5047428116,40826.9910441298,59923.6679967739,57471.0618512640,63177.7846674047,67509.3143886165,58309.8055286630,69562.4185443388,27639.4100411857
8352726155,7669,2,0,57426.8687764031,61189.2179756313,40868.9209273817,59996.1022959609,57548.9959494149,63163.7674806647,67547.8008136675,58411.9655111884,69569.2567899533,27633.0341680504
8352726155,7669,2,0,57423.2184673562,61255.8969542210,40892.4897561277,60040.6360663329,57650.7422302484,63145.9418048191,67553.6778112330,58490.2524725472,69551.1755924744,27631.3306904952
8352726155,7669,2,0,57413.1436143868,61236.4043039107,40870.7825849956,60010.3993397279,57649.6836406248,63137.0107153510,67527.7727846970,58453.2626742055,69530.0524707898,27636.8183217624
8352726155,7669,2,0,57407.5464738482,61151.3034323310,40827.7576090297,59939.4738349469,57547.4506519184,63149.0567352057,67499.0083494075,58341.9647513661,69528.5680117774,27641.0891833472
8352761294,7670,2,0,57417.4631467589,61103.4722161200,40818.4979917474,59919.9811846366,57470.7941619339,63177.8576735856,67507.1485385821,58285.2146133838,69551.1390893840,27637.1955203639
8352761294,7670,2,0,57434.8872886094,61159.8573231975,40861.9245017085,59982.5353140033,57525.0864251578,63182.8707646767,67545.8904852663,58356.6511614313,69572.0796956163,27627.4370275119
8352761294,7670,2,0,57431.9913767655,61244.6905054471,40902.3212551607,60043.0331026070,57638.0269870684,63161.0054134859,67563.6431549310,58459.2735164360,69567.7236601536,27621.4383529782
8352761294,7670,2,0,57413.2044528709,61241.0766994907,40885.9678706306,60014.8405490682,57655.1712718919,63163.0009157648,67532.7128696071,58451.4861904694,69548.7420531098,27624.8209726950
8352761294,7670,2,0,57412.9002604503,61165.1502713155,40849.5742894332,59942.4549206685,57564.7166137102,63185.1704593762,67506.4063090759,58360.8611845321,69559.6686448569,27643.9972628879
8352761294,7670,2,0,57420.8701018693,61112.5371502531,40836.1776552312,59918.6305702892,57482.6820017299,63192.3859035922,67510.5189906020,58318.0308917153,69577.5064883993,27647.5745657539
8352761294,7670,2,0,57424.0580384370,61155.5012877349,40864.1146871366,59968.9926674394,57521.5334576855,63177.6386550428,67534.7205395828,58391.9983207020,69581.2054682335,27636.4411231609
8352761294,7670,2,0,57414.4698933405,61230.5273063452,40893.6821904164,60016.6657035917,57621.1625592718,63153.9116462381,67540.1838354564,58490.3741495155,69563.1851092387,27624.0544077951
8352815323,7671,2,0,57399.0655891626,61241.9649413588,40883.7776852025,60000.4826668172,57651.7399813878,63143.6177747259,67517.0895468864,58507.3237511898,69542.6582046984,27620.0025647531
8352815323,7671,2,0,57394.5392059445,61173.0957773409,40844.3665151930,59938.5855930789,57570.7761267280,63157.4281106199,67488.1547638414,58432.1030494304,69536.9028841011,27633.4843728329
8352815323,7671,2,0,57410.6492365381,61111.7462499596,40826.9667087362,59909.1762698578,57477.4255567024,63193.3958224285,67493.9100844387,58372.3474903329,69561.6033086517,27648.1221121109
8352815323,7671,2,0,57440.7034476907,61156.9614113537,40869.4563060419,59972.1197655229,57510.5095243640,63208.1065678875,67541.2667604736,58431.8961985844,69592.8864571835,27651.5168995245
8352815323,7671,2,0,57449.6223694620,61253.7189364897,40921.4853776568,60051.6843350481,57630.3978411604,63184.2213790240,67571.4791516850,58544.0093571110,69592.3997493106,27649.9107635439
8352815323,7671,2,0,57425.6641744176,61265.9353040999,40907.8818926088,60034.7469010706,57666.0613605484,63150.6020327023,67541.6196236815,58547.4771507055,69561.5181347739,27645.1653617829
8352815323,7671,2,0,57403.2512768697,61183.7181766673,40851.4602824408,59950.5586067526,57573.6963739655,63156.3208502090,67496.7938285857,58446.6799502243,69544.4103530409,27642.3911269073
8352815323,7671,2,0,57415.5041475704,61124.9847041030,40835.2285748790,59921.6116560108,57487.1840495544,63196.0970511232,67502.7194969385,58389.2727566137,69567.1639460998,27652.0157750942
8352819938,7672,2,0,57435.2036487268,61160.7455650656,40870.8799265702,59968.3721149014,57512.0791572541,63191.7653510543,67540.7800526007,58437.0796374310,69587.3988259163,27650.6651607469
8352819938,7672,2,0,57428.2558938409,61233.6787398223,40904.1220742905,60021.5084469272,57604.3224668688,63146.9882267458,67551.9134951937,58506.2894969599,69566.2148657476,27636.4776262513
8352819938,7672,2,0,57399.6618063070,61251.3949063965,40892.9886316975,60014.2321642271,57647.4569521062,63115.8754259696,67521.5550916204,58504.3061623777,69528.4219994155,27627.2910151500
8352819938,7672,2,0,57384.3183406132,61188.0742121299,40854.1980142259,59953.0651522982,57585.0366674045,63134.0904681135,67481.0609965937,58413.4012994135,69514.9645267294,27634.9444964517
8352819938,7672,2,0,57394.1133365557,61110.1887847663,40824.2411446479,59902.6300489671,57477.5837367611,63166.4200385721,67470.5116034482,58314.8064520572,69533.1430657828,27641.6245620074
8352819938,7672,2,0,57419.0449473459,61127.6372620104,40852.5188720644,59945.9957204440,57481.2583812016,63188.2610543693,67512.0521204017,58345.8827497430,69567.2126168871,27639.9575875427
8352819938,7672,2,0,57426.7957702221,61221.0973413074,40905.3023408823,60029.9649962191,57597.4598858607,63172.0658498979,67550.2708561226,58467.5475502756,69578.3947302674,27637.0373403052
8352819938,7672,2,0,57409.7731623668,61261.8347902706,40909.6827117386,60038.4702162984,57669.6873342017,63150.2735048880,67532.5060187611,58510.4751846670,69560.1431850330,27636.1125953467
8352875272,7673,2,0,57397.2769377297,61208.5889489734,40871.5004791082,59973.8232430781,57618.4491628803,63160.1658424051,67496.3679591969,58434.6947688537,69553.6821380200,27638.5583024081
8352875272,7673,2,0,57398.4450366247,61127.6250943136,40836.2384937153,59918.1560301131,57510.2418350338,63172.2848684407,67482.2534308823,58345.7732404716,69565.3387915763,27635.3703658405
8352875272,7673,2,0,57412.0241862791,61122.1617984401,40848.2480104795,59941.6640203751,57489.6175889190,63188.5165760025,67511.7844310716,58364.7670152122,69585.8656961166,27631.8052306713
8352875272,7673,2,0,57421.0161142312,61199.3536670848,40892.4410853404,60015.4854369999,57581.0699982402,63178.8675924220,67548.5065400832,58461.7192234974,69589.3699928017,27631.0508334683
8352875272,7673,2,0,57414.6280733992,61257.7586118349,40914.7688090106,60049.4576465295,57667.6188257418,63153.5344476366,67549.1757634085,58520.6595469078,69572.9801051812,27640.0184260268
8352875272,7673,2,0,57390.3778536310,61212.3487672917,40876.7569241357,59986.9278525564,57627.5262647102,63136.8647029892,67504.6054899461,58454.2239222545,69547.1480848260,27643.4010457436
8352875272,7673,2,0,57381.5197703439,61116.4551486301,40826.2001438364,59905.4651223268,57504.1701543192,63156.3330179059,67472.8234658445,58340.7723170774,69546.4423584103,27640.0184260268
8352875272,7673,2,0,57396.1088388347,61104.8106627706,40836.4210091676,59917.8031669053,57472.1569439780,63181.3376348770,67498.7649954711,58347.8539166284,69570.0233548532,27637.0981787893
8352885125,7674,2,0,57409.1404421320,61191.2986517880,40891.4311665041,60001.0545485678,57576.0812425428,63182.6152430434,67538.8575565026,58468.4844629310,69582.3248963412,27634.3482793073
8352885125,7674,2,0,57407.8750016624,61256.8582022700,40916.6182989276,60039.2367811982,57673.4471525200,63155.6881299743,67539.1130781359,58544.1918725633,69568.1738649361,27637.9742529606
8352885125,7674,2,0,57389.1854193424,61218.7003050333,40880.4680716667,59985.2243750012,57641.9449854454,63140.5028443392,67499.3125418281,58482.2582957346,69544.3130114663,27641.9652575185
8352885125,7674,2,0,57381.8117950677,61133.4777564854,40837.2605802484,59914.8950873646,57530.1116839457,63158.4501971531,67472.8964720255,58373.5764277121,69543.1327448745,27643.8147474356
8352885125,7674,2,0,57402.2170226398,61115.3722236129,40846.7635514671,59921.2344574093,57486.2593045958,63198.5670935783,67499.6897404296,58353.9255973430,69572.8097574256,27648.2072859887
8352885125,7674,2,0,57429.1076326185,61192.3937445021,40900.5082683341,60002.6485168516,57569.0726491728,63194.9046168346,67548.9689125625,58445.6943667816,69591.7548613790,27648.1099444141
8352885125,7674,2,0,57423.6686721386,61263.3192492830,40925.1600220973,60051.8546828036,57668.1907074925,63149.4826045946,67558.0946851797,58525.8916565416,69571.8241739830,27638.9963394937
8352885125,7674,2,0,57393.6387963796,61230.2352816214,40885.6758459069,59998.9373693206,57649.0630880868,63124.4779876234,67508.5964945040,58489.8144354616,69535.5279343601,27635.8327383197
8352918070,7675,2,0,57380.1448206030,61134.4268368376,40833.1478987223,59912.9969266602,57532.8129126404,63156.8927319597,67472.5314411208,58383.7607899529,69536.3310023504,27644.0702690689
8352918070,7675,2,0,57398.6032166834,61104.3847933818,40839.7792934908,59908.5922204103,57473.9334277142,63189.4656563547,67491.9389175534,58357.6367448740,69568.5145604471,27654.5831591239
8352918070,7675,2,0,57410.8560873841,61173.1566158250,40888.7177701126,59979.3352097389,57544.3357215317,63180.7657531263,67529.1112313475,58435.1206382425,69583.8580261409,27648.9373477980
8352918070,7675,2,0,57402.4725442731,61244.4836546011,40914.3551073186,60024.2826818028,57642.9427365849,63153.1085782478,67530.7051996313,58503.1989019669,69567.6749893664,27643.0846856262
8352918070,7675,2,0,57385.2065824813,61232.1699454163,40890.1535583377,59993.6565888995,57648.2235170060,63140.5515151265,67500.6753238723,58475.8945902962,69546.0529921120,27640.3834569315
8352918070,7675,2,0,57377.0663933067,61149.3200977489,40840.8500508112,59927.1236226716,57553.2789786966,63149.3000891422,67474.3200925538,58382.3006663341,69541.7942982239,27636.7574832783
8352918070,7675,2,0,57390.8523938071,61099.7245654986,40825.9446222031,59909.1519344642,57480.0902823066,63171.0802664553,67488.1060930542,58331.7925568221,69561.3721224121,27633.5452113170
8352918070,7675,2,0,57408.3252064449,61148.6508744236,40863.5306376891,59970.0512570630,57526.5587164734,63172.4673838931,67529.2572437093,58395.2349280569,69578.2243825118,27630.7466410477
8352949098,7676,2,0,57411.8660062204,61237.4993966247,40907.0788246185,60044.1525307147,57644.6583818369,63154.8728942871,67554.4687115265,58501.3615797466,69571.2401245355,27631.0386657715
8352949098,7676,2,0,57398.8100675293,61246.0046167040,40895.3856679716,60026.7892273484,57673.7513449405,63140.6001859138,67526.9818844035,58499.9014561278,69548.2675129338,27639.8845813618
8352949098,7676,2,0,57385.9853150780,61161.9501670511,40845.7901357213,59941.4328341354,57572.5039396768,63155.8219746393,67487.1813480956,58395.6607974457,69542.3540122778,27639.8724136649
8352949098,7676,2,0,57390.7793876262,61104.7619919833,40831.5174273480,59905.7206439601,57485.6995905420,63179.7071635027,67492.1701037930,58344.6294769703,69562.7349044562,27639.2883642174
8352949098,7676,2,0,57402.4968796667,61151.0114076073,40871.1354482035,59959.8912302158,57525.0499220674,63193.5905055777,67527.1278967653,58415.3968016925,69583.0671258474,27641.4663819487
8352949098,7676,2,0,57405.8794993835,61235.3335465902,40912.9923252744,60019.8779755529,57630.6898658842,63162.0031646254,67542.4470270654,58510.5481908479,69574.3063841348,27640.4442954156
8352949098,7676,2,0,57387.9321465696,61240.0667806544,40897.8313750330,60004.3154913164,57657.8603328898,63129.3328986558,67512.7456791206,58509.9033029163,69544.4103530409,27633.0341680504
8352949098,7676,2,0,57372.4791716045,61162.3760364399,40843.8433042296,59932.0758752786,57570.9099713930,63126.5343283865,67471.9960624606,58417.8668441476,69525.5260875717,27630.9778272874
8352998777,7677,2,0,57380.5220192045,61092.8498167936,40814.3001363435,59892.0076496406,57471.4512175623,63164.0960084789,67470.9861436243,58347.0508486380,69539.8352990355,27638.3757869557
8352998777,7677,2,0,57402.1318487620,61124.4371577460,40851.2534315948,59940.1795613627,57494.1439721371,63185.0122793175,67512.1251265826,58404.9447501216,69568.8430882613,27640.7606555330
8352998777,7677,2,0,57405.8308285962,61217.8729016493,40905.4240178505,60016.6170328044,57613.1562147623,63170.2893661618,67544.5763740094,58532.3162004642,69570.2910441833,27636.8913279433
8352998777,7677,2,0,57399.5522970355,61251.0298754918,40913.3573561791,60021.4962792304,57676.9271138113,63159.1194204783,67529.4762622522,58570.8756316961,69554.9110753991,27645.4938895971
8352998777,7677,2,0,57391.5094494356,61183.4018165499,40871.1232805067,59951.0574823224,57603.4220573039,63167.4664604989,67493.0705133579,58484.2659657104,69547.6104573053,27657.4425678773
8352998777,7677,2,0,57400.1606818767,61111.4420575391,40841.4706033491,59908.5678850167,57499.7897834629,63186.0343658507,67490.8073217488,58403.0465894172,69563.2337800260,27656.8098476425
8352998777,7677,2,0,57414.5794026119,61129.4137457465,40863.1534390876,59949.7068679750,57504.4500113461,63189.3318116897,67525.2905745451,58427.6253369996,69581.1689651430,27643.8634182229
8352998777,7677,2,0,57420.2617170282,61211.6917116633,40905.6187009997,60016.8238836504,57605.8677643654,63164.8504056819,67551.9865013746,58510.0614829750,69579.5263260719,27635.8570737134
8353001293,7678,2,0,57403.2269414761,61246.5886661515,40907.4316878263,60024.7450542821,57668.8234277273,63142.3036634690,67538.2735070551,58534.1291872908,69557.6244717906,27629.2378466417
8353001293,7678,2,0,57388.5526991076,61193.4888372162,40869.7118276752,59962.5559558200,57616.0642943030,63150.6020327023,67497.3900457301,58458.1905914188,69541.8794721017,27637.7308990241
8353001293,7678,2,0,57393.1034177194,61114.1797893242,40836.2506614121,59901.9364902482,57506.4941844124,63187.5796633472,67482.7888095425,58359.2915516419,69556.3711990178,27649.3753848837
8353001293,7678,2,0,57417.3171343970,61126.3231507535,40865.0881028825,59935.5193334795,57498.3783306315,63209.9317224109,67521.2874022903,58375.6449361720,69590.4650855157,27653.8409296177
8353001293,7678,2,0,57426.4794101047,61216.4979519083,40920.0860925222,60017.7364609121,57606.2571306637,63179.1231140552,67555.9288351452,58482.2339603409,69590.3434085475,27646.3091252843
8353001293,7678,2,0,57406.4148780437,61254.7896938101,40922.3249487376,60030.9749150555,57675.6251702513,63146.1486556651,67536.5456941063,58518.8100569907,69560.0215080647,27642.8048285993
8353001293,7678,2,0,57394.1620073430,61202.2130758382,40881.8673568013,59971.8277407991,57627.2099045928,63155.5786207028,67498.9353432266,58438.3085748101,69545.4689426645,27649.7647511820
8353001293,7678,2,0,57400.0998433926,61120.2149669484,40845.9604834768,59914.8950873646,57519.3067691669,63173.0270979469,67486.1105907752,58336.9151571845,69556.2738574433,27647.3190441206
8353048948,7679,2,0,57416.5749048908,61112.7318334023,40856.7775659524,59933.1953033863,57491.4305757456,63189.6481718071,67514.5221628568,58333.1066680790,69574.8417627951,27636.0030860752
8353048948,7679,2,0,57431.9913767655,61195.3504948301,40905.9715642076,60009.2190731360,57585.0244997077,63198.8469506052,67554.9432517026,58432.5775896065,69588.3844093590,27637.7065636305
8353048948,7679,2,0,57431.3343211371,61265.8379625254,40932.5701494625,60049.7253358596,57682.5120866531,63171.9685083233,67561.1122739918,58508.3701731166,69577.0806190105,27643.9972628879
8353048948,7679,2,0,57410.8317519904,61227.0838481443,40896.1887359619,59997.2460594623,57650.2433546786,63150.7723804578,67519.4135769796,58459.3221872233,69550.7010522983,27642.6344808437
8353048948,7679,2,0,57401.5843024050,61132.7963654633,40846.5323652275,59920.4070540254,57532.0706831342,63171.2627819076,67488.8848256508,58348.5961461346,69548.7055500194,27643.7782443451
8353048948,7679,2,0,57417.4874821526,61113.4253921212,40853.5044555070,59927.8050136937,57488.2183037843,63196.0118772455,67513.5487471109,58336.4892877957,69574.6227442523,27644.1067721593
8353048948,7679,2,0,57431.3586565307,61198.1003943121,40905.5456948188,60010.6061905738,57582.3962771939,63187.9568619487,67559.0681009255,58445.9377207181,69586.4497455642,27638.4731285303
8353048948,7679,2,0,57430.0080421834,61267.1277383886,40927.6909030365,60052.4995707352,57681.0276276407,63167.7949883131,67564.1663658944,58530.7709029676,69568.5023927503,27641.5028850392
8353085147,7680,2,0,57416.0638616243,61233.6057336414,40893.9742151401,60004.3154913164,57657.6169789533,63147.7304562520,67525.5825992688,58489.1695475300,69544.9092286106,27644.0337659784
8353085147,7680,2,0,57406.5730581024,61144.1731619928,40846.5080298338,59932.2827261246,57545.9661929060,63163.4024497600,67493.8614136514,58392.0348237925,69544.1669991044,27647.0026840032
8353085147,7680,2,0,57419.2152951014,61113.4375598180,40848.3940228414,59928.2065476889,57490.2138060633,63194.1137165411,67508.6816683817,58365.8134371390,69570.5830689070,27643.2185302913
8353085147,7680,2,0,57433.0377986923,61179.9340229554,40897.3324994633,59996.3943206847,57558.6814360860,63202.6676074076,67547.1194226454,58449.9043898824,69590.0513838237,27634.5186270628
8353085147,7680,2,0,57426.6254224666,61258.9632138204,40932.5214786752,60050.8934347546,57665.5138141914,63172.6133962550,67562.5237268233,58545.5303192139,69582.5804179745,27635.5285458992
8353085147,7680,2,0,57403.2026060824,61239.0811972117,40902.8322984272,60014.8283813714,57665.4286403137,63147.4019284378,67526.5195119242,58526.0133335099,69553.7794795946,27639.7264013031
8353085147,7680,2,0,57387.6036187554,61140.6688653078,40842.7238761219,59925.8460145052,57548.8986078403,63161.3704443906,67486.4512862862,58410.1403566650,69545.3107626058,27643.3402072595
8353085147,7680,2,0,57400.4040358132,61092.4239474048,40831.9676321304,59910.1010148163,57473.5805645063,63195.9632064582,67498.2296168108,58369.2568953399,69568.1738649361,27634.7619809993
8353122924,7681,2,0,57427.1973042173,61164.7000665331,40888.7542732031,59990.4564846351,57544.7007524364,63198.6035966688,67548.6525524451,58468.1437674200,69591.8278675599,27636.3316138895
8353122924,7681,2,0,57425.6763421144,61245.0190332613,40922.4344580090,60044.0551891401,57649.0265849963,63164.1325115694,67556.9509216784,58556.5177494450,69575.2919675775,27635.4068689309
8353122924,7681,2,0,57405.3441207233,61233.8369198810,40897.9043812139,60010.0708119136,57653.8206575446,63144.4451781099,67520.1923095762,58533.9223364448,69546.6005384690,27633.6060498011
8353122924,7681,2,0,57391.4972817388,61153.0799160672,40851.3021023821,59934.6919300955,57559.0464669907,63159.3627744148,67485.2101812103,58439.9268784876,69538.9835602579,27638.2419422907
8353122924,7681,2,0,57398.7857321357,61102.9611728535,40839.5237718575,59905.0514206348,57478.8613449275,63195.0019584092,67491.1480172599,58390.7693833229,69561.3234516248,27643.5105550150
8353122924,7681,2,0,57416.2220416830,61153.5057854560,40879.7866806446,59960.7186335998,57524.1738478961,63197.6666840134,67529.8777962473,58458.0324113601,69584.6489264344,27639.9940906332
8353122924,7681,2,0,57414.3603840691,61240.5048177400,40918.6381366002,60027.3002706149,57634.4253488088,63160.2266808892,67547.5574597310,58564.2077338371,69573.7345023842,27626.1229162550
8353122924,7681,2,0,57395.9628264728,61248.5111622495,40904.3532605301,60014.3781765890,57668.7869246368,63136.8038645050,67516.4081558643,58570.3037499454,69542.9867325126,27625.0399912378
8353142561,7682,2,0,57392.3490205164,61169.6766545337,40853.7478094435,59941.0434678371,57577.6143723425,63148.7647104820,67480.6716302953,58470.2487789703,69531.0988927166,27637.3658681194
8353142561,7682,2,0,57405.0155929090,61105.8692523941,40830.2398191816,59909.5291330657,57485.2007149722,63172.8810855851,67485.5022059340,58407.8163265718,69548.9732393495,27643.9364244038
8353142561,7682,2,0,57419.2031274046,61140.5958591268,40859.5518008280,59960.4022734824,57510.6920398163,63171.3722911790,67523.9156248041,58459.7723920058,69563.8056617767,27636.5749678259
8353142561,7682,2,0,57418.7772580158,61221.4015337280,40898.4397598742,60022.1046640715,57612.0367866546,63154.6417080475,67542.3740208845,58546.7714242898,69556.8700745876,27632.4622862998
8353142561,7682,2,0,57407.9115047529,61243.6684189140,40896.1887359619,60020.6080373623,57655.8404952172,63138.2883235174,67525.2419037578,58555.3253151563,69539.7622928545,27635.1148442072
8353142561,7682,2,0,57394.8920691524,61180.0435322268,40857.2277707349,59960.1710872428,57584.9514935267,63151.0400697879,67491.6347251328,58471.2586978066,69535.1507357586,27639.0936810683
8353142561,7682,2,0,57400.7082282337,61112.0017715929,40835.7031150551,59916.1483601373,57488.3399807526,63188.9302776945,67488.2886085065,58393.6774628636,69559.7903218251,27645.3235418416
8353142561,7682,2,0,57416.2950478639,61135.4124202802,40869.1764490150,59952.8096306649,57500.9213792675,63206.0502271244,67523.9156248041,58431.1296336846,69589.9783776428,27643.4740519245
8353163984,7683,2,0,57421.4419836200,61225.4777121637,40918.0175840623,60027.7504753974,57614.8475246207,63173.8788367246,67552.4123707634,58544.2770464411,69586.2428947182,27639.4587119730
8353163984,7683,2,0,57401.7059793732,61253.4512471596,40910.3884381543,60025.7793085121,57672.1087058694,63136.1954796639,67527.4929276700,58566.5317639303,69551.5406233791,27630.8561503191
8353163984,7683,2,0,57386.3625136795,61184.5334123545,40857.5806339427,59949.1836570116,57598.4089662129,63143.3257500021,67483.4336974741,58468.8129907452,69531.8532899196,27632.4501186029
8353163984,7683,2,0,57395.0867523015,61112.0504423802,40826.7111871029,59900.7318882627,57495.6162634527,63181.7026657817,67481.1705058651,58383.4931006227,69547.9511528164,27644.5691446386
8353163984,7683,2,0,57420.1157046663,61140.8270453665,40860.9997567500,59950.2422466352,57511.4707724130,63213.5211929737,67528.3568341444,58430.8984474449,69583.2253059061,27659.0973746452
8353163984,7683,2,0,57432.2712337924,61230.9531757340,40912.6881328538,60027.6774692164,57619.8484480149,63187.4579863790,67563.1321116644,58534.6037274669,69589.8932037650,27660.3506474180
8353163984,7683,2,0,57407.9966786307,61265.0227268382,40913.0044929712,60034.3940378627,57680.6260936455,63143.8732963592,67540.0864938818,58563.3316596658,69559.3279493458,27648.8156708298
8353163984,7683,2,0,57382.0429813073,61204.6952859901,40866.4265495330,59966.8633204954,57622.1116396240,63132.5208352234,67492.8028240278,58486.0424494465,69531.0258865356,27642.7926609024
8353233027,7684,2,0,57383.1867448087,61113.8999322973,40823.6327598067,59899.9288202724,57505.8979672681,63163.7431452710,67474.8189681235,58382.6291941483,69537.9128029374,27639.5195504571
8353233027,7684,2,0,57412.7542480884,61118.2559677599,40845.2182539706,59932.4774092737,57486.7703478624,63195.5130016757,67516.5420005294,58398.2281814753,69570.8507582371,27643.7052381642
8353233027,7684,2,0,57430.4095761785,61208.8688060004,40900.3379205785,60022.0924963747,57593.1890242758,63171.8711667488,67562.0248512535,58511.2539172636,69578.2243825118,27647.0513547905
8353233027,7684,2,0,57416.1733708957,61258.1723135269,40908.3320973912,60045.4058034875,57671.8775196298,63136.0981380893,67551.3537811398,58561.0319649663,69547.9024820291,27643.6565673769
8353233027,7684,2,0,57394.6730506095,61207.8102163768,40866.6212326822,59982.8881772112,57626.7962029008,63128.2378059417,67506.6739984060,58482.4651465806,69520.6711765393,27640.5416369902
8353233027,7684,2,0,57391.2782631959,61120.6895071245,40823.4502443544,59915.3209567534,57513.3445977237,63153.9116462381,67483.6040452297,58374.7810296975,69524.1633055275,27636.2464400117
8353233027,7684,2,0,57405.8308285962,61111.6854114755,40836.0438105661,59929.0339510728,57481.3435550794,63186.5454091172,67508.9250223182,58370.0477956334,69553.0737531788,27632.4257832093
8353233027,7684,2,0,57417.5239852430,61189.0111247853,40885.5663366355,59998.1829721176,57567.8802148841,63186.6062476013,67545.4402804839,58464.3961167985,69573.2842976017,27633.9589130090
8353238881,7685,2,0,57409.1647775257,61255.0330477466,40912.0067418317,60035.2579443371,57662.9829332522,63163.8404868456,67546.3528577456,58535.7474909682,69564.0003449258,27638.0837622320
8353238881,7685,2,0,57392.7870576020,61228.3857917043,40885.0917964594,59994.0337875010,57646.3010209080,63153.5222799398,67512.0764557954,58492.8685273642,69545.7001289041,27649.0955278567
8353238881,7685,2,0,57390.1710027851,61138.7707046034,40837.3335864293,59921.4048051649,57534.6867379511,63166.7972371736,67483.8595668629,58378.7842019523,69549.3747733447,27648.8035031330
8353238881,7685,2,0,57410.1381932715,61111.5515668105,40838.2096606006,59927.2331319431,57481.3070519889,63193.3471516413,67507.8664326946,58356.8336768837,69574.4280611031,27644.5934800322
8353238881,7685,2,0,57429.8741975183,61191.9800428101,40890.8106139662,60010.5818551802,57570.0095618281,63188.6382529708,67554.0185067440,58465.7954019331,69590.2217315793,27642.7683255088
8353238881,7685,2,0,57422.9142749356,61264.8523790827,40919.5507138620,60050.5162361531,57673.4349848232,63160.1536747083,67555.7341519961,58548.1585417276,69571.7755031957,27641.1986926186
8353238881,7685,2,0,57406.5487227087,61244.1429590901,40895.0936432478,60002.7458584262,57664.7715846852,63158.3041847912,67519.3162354050,58509.2340795910,69551.6501326505,27648.1586152014
8353238881,7685,2,0,57405.3562884201,61166.2940348169,40856.2786903827,59935.6045073572,57566.2740789035,63177.7846674047,67496.2949530160,58408.1935251733,69555.8358203576,27655.2523824491
8353260265,7686,2,0,57413.5816514724,61125.5444181568,40847.4449424892,59922.9987734487,57496.3949960493,63190.5364136752,67508.0611158438,58364.9982014519,69571.4713107751,27649.5092295487
8353260265,7686,2,0,57423.1089580848,61178.8876010286,40883.4491573883,59979.8705883991,57551.0887932685,63187.0442846870,67541.0720773244,58433.9647070443,69581.2663067176,27637.7552344177
8353260265,7686,2,0,57416.5749048908,61255.3737432576,40915.6327154850,60032.8122372757,57654.5263839603,63161.7476429921,67547.9711614230,58527.4977925223,69566.3852135031,27629.7367222114
8353260265,7686,2,0,57400.2701911481,61252.4169929297,40897.8557104267,60007.0167200111,57671.5246564219,63148.3996795773,67517.8804471799,58522.0101612551,69544.6902100678,27637.2685265448
8353260265,7686,2,0,57396.8510683409,61169.4454682940,40852.0686672819,59931.8446890389,57572.6012812514,63175.9716805781,67485.8063983546,58420.5437374486,69541.6117827716,27649.2780433091
8353260265,7686,2,0,57420.3955616932,61130.5696769447,40850.3043512426,59921.1857866220,57503.5374340844,63219.8240599280,67509.5090717657,58383.1280697181,69576.1193709615,27662.7841867825
8353260265,7686,2,0,57448.1622458432,61201.8723803272,40903.1608262415,60001.5290887439,57569.9608910408,63221.3815251213,67563.8743411706,58475.3713793328,69602.6936208228,27660.5088274767
8353260265,7686,2,0,57449.3546801319,61285.8538237991,40938.5688239962,60063.0611315776,57679.6526778997,63182.6882492244,67576.1637149618,58569.9143836470,69589.6620175254,27658.0752881121
8353308047,7687,2,0,57423.9363614687,61279.3927767861,40914.3429396217,60031.2182689919,57691.2484929719,63154.8972296808,67537.5921160331,58549.3509760163,69556.2616897464,27652.8796815687
8353308047,7687,2,0,57403.1904383856,61194.2797375096,40860.4157073025,59950.4612651780,57591.2178573905,63162.2830216523,67493.3625380817,58443.4920136567,69540.5045223607,27648.7183292552
8353308047,7687,2,0,57409.1526098288,61130.2046460400,40839.5846103416,59913.3862929585,57498.4026660251,63188.0298681296,67490.2476076950,58368.3929888655,69557.7096456684,27647.0270193968
8353308047,7687,2,0,57429.7281851564,61167.0971028072,40874.7979249472,59966.3522772288,57528.0796785763,63205.7947054911,67530.9728889614,58416.0660250178,69582.5195794903,27644.6178154259
8353308047,7687,2,0,57441.5795218620,61261.6036040310,40928.3601263618,60049.7740066469,57650.7787333388,63189.4899917484,67566.1497004765,58532.8029083371,69587.4353290068,27649.4727264582
8353308047,7687,2,0,57420.3712262996,61277.9813239547,40919.5020430747,60038.7379056285,57691.8812132067,63157.6349614659,67539.2104197105,58546.6497473216,69558.7925706856,27651.5412349181
8353308047,7687,2,0,57402.5698858476,61195.3991656174,40865.8181646919,59955.4621885723,57599.1390280223,63167.8436591004,67495.5283881161,58442.6889456664,69547.6469603958,27657.8927726597
8353308047,7687,2,0,57404.4802142488,61119.5092405327,40839.2560825274,59906.4750411631,57490.8708616917,63190.5607490688,67491.0750110790,58355.3248824776,69563.8299971703,27655.5687425665
8353341872,7688,2,0,57414.7375826706,61144.9275591958,40867.0836051614,59950.9966438383,57508.2828358454,63193.5661701841,67523.4410846280,58396.9384056121,69581.7895176810,27638.6799793763
8353341872,7688,2,0,57416.8182588273,61227.7287360759,40907.9062280024,60018.6612058706,57616.8430268996,63175.0956064068,67544.7102186745,58494.9735389145,69576.5087372598,27631.9025722459
8353341872,7688,2,0,57405.8429962930,61256.1524758543,40904.7547945253,60021.6666269859,57672.8874384661,63161.7111399016,67528.7340327460,58522.7158876709,69557.0525900399,27632.0242492141
8353341872,7688,2,0,57401.6086377986,61201.9940572954,40868.7384119294,59969.4915430091,57617.8042749487,63168.0505099464,67501.1620317452,58454.7958040052,69549.7033011589,27647.2582056365
8353341872,7688,2,0,57411.8903416140,61129.9977951940,40838.2096606006,59923.1934565978,57518.4063596020,63191.6436740860,67497.5360580919,58372.9193720836,69564.1098541972,27656.4569844346
8353341872,7688,2,0,57432.5145877289,61147.0690738366,40861.6324769848,59956.7397967387,57516.7150497437,63208.5202695795,67531.4230937438,58396.1231699250,69589.3821604985,27656.9436923075
8353341872,7688,2,0,57435.7146919933,61239.0325264244,40909.9504010687,60029.0767543511,57621.9777949589,63180.2668775566,67560.0415166714,58499.5364252232,69588.8467818383,27650.2392913581
8353341872,7688,2,0,57417.6699976049,61278.3828579498,40911.4591954747,60037.5576390367,57685.7973647953,63146.0634817873,67540.6948787229,58533.2531131195,69557.8191549398,27646.3456283747
8353352025,7689,2,0,57399.0534214658,61210.5601158587,40861.2796137769,59961.5338692869,57617.1837224107,63141.1477322708,67494.3846246148,58442.2995793680,69535.6739467220,27641.3082018900
8353352025,7689,2,0,57400.7690667178,61123.1595495795,40824.4966662811,59905.1000914221,57502.6735276100,63172.6012285581,67482.0465800363,58351.0783562864,69546.2355075643,27646.4673053430
8353352025,7689,2,0,57420.5780771456,61128.9757086609,40847.1529177655,59941.2138155926,57493.7789412324,63192.4710774700,67520.1801418794,58379.4169221871,69570.7290812689,27650.0811112994
8353352025,7689,2,0,57428.5235831710,61208.7349613353,40896.1278974778,60013.8427979288,57591.7775714444,63177.6994935270,67552.0108367682,58485.3732261212,69575.7056692695,27648.4871430156
8353352025,7689,2,0,57413.5451483819,61252.0641297218,40909.4636931957,60031.7414799553,57668.9451046955,63147.3775930442,67540.8773941753,58536.8425836823,69555.9209942354,27647.4163856952
8353352025,7689,2,0,57395.5734601744,61204.0625657553,40874.5424033139,59975.0035096699,57629.6556116542,63142.2184895913,67499.5802311582,58470.9301699924,69538.4360139008,27649.4240556710
8353352025,7689,2,0,57395.9871618664,61116.2969685714,40833.3790849619,59907.0469229138,57517.8709809418,63172.6985701327,67477.2403397913,58361.4208985859,69546.0651598088,27653.7192526495
8353352025,7689,2,0,57418.9476057713,61110.4199710059,40846.4715267434,59923.6679967739,57487.0137017989,63198.1047210990,67509.0223638928,58355.0328577539,69576.5574080471,27651.6750795832
8353411076,7690,2,0,57439.2311563752,61203.1986592809,40903.1121554542,60014.7797105841,57587.7135607055,63193.5540024872,67557.1091017371,58472.2077781588,69589.8932037650,27647.6840750253
8353411076,7690,2,0,57435.2766549077,61271.1674137338,40926.6566488066,60052.0737013464,57683.9478748782,63157.6592968596,67552.9964202109,58548.3775602704,69570.0355225500,27646.3456283747
8353411076,7690,2,0,57410.0773547874,61224.5529672051,40880.4194008794,59983.8859283507,57642.4681964088,63137.9719634000,67502.3179629434,58478.6079866877,69537.8884675438,27638.4852962271
8353411076,7690,2,0,57397.0457514900,61130.5453415511,40824.8130263985,59906.2681903171,57521.3022714459,63150.7358773673,67468.4552626851,58358.8291791626,69530.6486879341,27636.9156633370
8353411076,7690,2,0,57407.6924862101,61106.6358172940,40824.0586291955,59910.6850642638,57472.2786209463,63177.2006179572,67486.6459694354,58327.9353969292,69549.2044255891,27637.1833526671
8353411076,7690,2,0,57429.1563034058,61185.6893435527,40876.9516072848,59990.3469753637,57555.2379778851,63189.5264948389,67529.2572437093,58410.4567167824,69566.4825550777,27645.6155665654
8353411076,7690,2,0,57433.0377986923,61264.9618883541,40916.2167649325,60044.5662324067,57661.5958158144,63164.7408964105,67541.0234065371,58488.1839640873,69561.5546378644,27653.3542217448
8353411076,7690,2,0,57407.7898277847,61241.2957180335,40888.9367886554,59998.5723384160,57651.2411058181,63139.3590808379,67501.4905595594,58453.4086865674,69535.8807975680,27650.9328500770
8353413799,7691,2,0,57395.8654848982,61145.3899316751,40839.0492316814,59914.2988702203,57537.7408298537,63159.6061283512,67468.2119087486,58351.4920579784,69533.6662767462,27650.6408253532
8353413799,7691,2,0,57409.3716283717,61103.8250793279,40836.3723383803,59902.8490675099,57470.8306650243,63188.0420358265,67484.7478087310,58327.1444966357,69558.6465583237,27644.0946044625
