steady_timestamp,sequence,battery,flags,EEG-ch1,EEG-ch2,EEG-ch3,EEG-ch4,EEG-ch5,EEG-ch6,EEG-ch7,EEG-ch8,EEG-ch9,EEG-ch10
5351279321,3945,-2,0,-6717.3352111638,-80264.6257942289,-33238.7529328639,-12651.0950823238,-80531.0740192577,-50920.4484219681,-80471.0386031333,-80457.2526026329,-80501.5551867652,-2414.5334221510
5351279321,3945,-2,0,-6719.2698749587,-80264.8204773780,-33219.2846179472,-12651.2045915952,-80535.0528561188,-51006.1576783889,-80471.9025096077,-80458.8344032199,-80502.2244100905,-2416.2247320094
5351279321,3945,-2,0,-6718.4546392715,-80265.3801914319,-33225.6848264761,-12650.8395606906,-80535.0771915124,-50834.5809854886,-80472.3892174806,-80458.7005585548,-80501.6038575525,-2416.7966137600
5351279321,3945,-2,0,-6718.2842915160,-80264.6379619257,-33250.2270709680,-12651.7156348618,-80529.6260633357,-50633.5949693672,-80472.3040436029,-80457.6541366280,-80501.0684788923,-2415.1418069921
5351279321,3945,-2,0,-6718.6493224207,-80264.4067756861,-33262.0297368862,-12651.1072500207,-80528.2024428075,-50669.1246440902,-80471.2332862824,-80457.3499442075,-80500.8007895622,-2413.8155280384
5351279321,3945,-2,0,-6718.8318378731,-80264.6622973193,-33246.0170478672,-12651.5087840158,-80529.4678832770,-50899.3253002835,-80471.5131433094,-80457.5202919630,-80501.1414850732,-2414.5820929383
5351279321,3945,-2,0,-6717.7489128558,-80263.4698630307,-33224.7114107303,-12650.9734053556,-80534.0429372825,-51019.8950081020,-80471.6348202776,-80458.9317447944,-80500.6791125939,-2417.0764707870
5351279321,3945,-2,0,-6717.6150681908,-80263.7862231481,-33226.4392236791,-12650.3406851208,-80534.0672726761,-50869.4657722800,-80471.3427955538,-80456.9362425155,-80499.3771690339,-2416.3707443712
5351289906,3946,-2,0,-6718.5641485429,-80264.2242602337,-33252.0278900978,-12651.7886410427,-80530.5629759911,-50654.6450848709,-80471.3671309475,-80457.3864472979,-80500.8981311368,-2415.3608255349
5351289906,3946,-2,0,-6718.5641485429,-80264.0539124782,-33267.7972251803,-12651.9833241919,-80526.9370023379,-50660.3152315904,-80470.6127337445,-80456.9970809996,-80499.7421999386,-2413.4748325274
5351289906,3946,-2,0,-6718.0409375796,-80263.2873475784,-33253.3176659610,-12650.5718713605,-80528.2632812916,-50876.0119931707,-80470.2233674461,-80455.6342989554,-80499.6935291513,-2414.1562235495
5351289906,3946,-2,0,-6718.5276454525,-80263.2995152752,-33229.5541540658,-12651.8859826173,-80533.5805648032,-51018.9702631435,-80471.4523048252,-80457.0335840901,-80500.4600940511,-2416.9426261219
5351289906,3946,-2,0,-6717.6637389780,-80261.9489009278,-33226.9746023393,-12650.2068404558,-80533.0086830525,-50898.1572013885,-80470.3085413239,-80456.2670191902,-80498.7201134055,-2416.6262660045
5351289906,3946,-2,0,-6718.5398131493,-80262.4964472849,-33249.3388290999,-12651.6304609840,-80530.2344481769,-50672.0327236309,-80469.9800135097,-80456.6807208822,-80499.7787030291,-2415.6893533491
5351289906,3946,-2,0,-6718.3086269097,-80262.9223166737,-33264.9864872142,-12651.0707469302,-80526.7179837951,-50638.1091848886,-80469.8096657541,-80455.9141559823,-80499.6935291513,-2413.2436462877
5351289906,3946,-2,0,-6718.1261114573,-80262.5694534658,-33253.2811628705,-12650.8030576001,-80527.8617472964,-50842.5021561203,-80469.3594609717,-80456.3521930680,-80499.6813614545,-2414.1683912463
5351320100,3947,-2,0,-6718.2112853351,-80263.0683290355,-33228.1548689312,-12650.9855730524,-80532.4124659082,-51014.0058428397,-80471.1481124047,-80457.0944225742,-80500.6791125939,-2416.6871044886
5351320100,3947,-2,0,-6718.6371547239,-80263.7497200576,-33221.4626356785,-12651.2289269889,-80535.3327131457,-50919.4750062223,-80472.3283789965,-80457.7879812931,-80501.4821805843,-2417.8917064741
5351320100,3947,-2,0,-6718.8805086603,-80264.6014588352,-33241.2838138031,-12651.2045915952,-80531.7189071893,-50687.0233261168,-80472.3040436029,-80459.1385956404,-80501.8228760953,-2416.1638935252
5351320100,3947,-2,0,-6718.6736578144,-80264.7109681066,-33260.0950730914,-12651.2167592921,-80527.8860826900,-50620.9770677619,-80471.7564972458,-80457.6663043249,-80502.2852485746,-2413.6086771924
5351320100,3947,-2,0,-6717.5420620098,-80264.0295770846,-33249.3996675840,-12650.3528528176,-80528.1659397170,-50802.0688995777,-80471.2089508888,-80456.9362425155,-80500.6669448971,-2413.5843417988
5351320100,3947,-2,0,-6718.4668069684,-80264.1755894464,-33223.8110011654,-12650.9490699620,-80532.9965153557,-50991.1549082062,-80472.6447391139,-80458.8100678262,-80501.6160252493,-2416.2368997062
5351320100,3947,-2,0,-6718.3694653938,-80264.6866327130,-33214.8190732132,-12651.1802562016,-80536.1357811360,-50931.9103923753,-80472.0728573632,-80458.8709063103,-80501.3970067065,-2417.8795387773
5351320100,3947,-2,0,-6718.1991176383,-80264.2850987178,-33231.1846254401,-12650.0364927002,-80531.6824040988,-50698.3149487685,-80472.0363542728,-80458.0313352295,-80501.6890314303,-2415.2756516572
5351366306,3948,-2,0,-6717.9922667923,-80264.0660801750,-33251.8210392518,-12650.5475359668,-80527.7035672377,-50600.1824738914,-80471.9268450013,-80457.3012734202,-80499.9733861782,-2412.3797398133
5351366306,3948,-2,0,-6718.5641485429,-80265.6843838525,-33248.4749226255,-12651.3871070476,-80529.6625664262,-50765.4319644438,-80472.3040436029,-80457.8001489899,-80502.3460870587,-2414.6307637255
5351366306,3948,-2,0,-6717.7245774622,-80263.7497200576,-33223.5311441384,-12650.2798466367,-80532.1812796686,-50970.7983514214,-80472.6690745075,-80458.1895152882,-80500.3384170829,-2415.2391485667
5351366306,3948,-2,0,-6717.6272358876,-80264.8813158622,-33211.6919751297,-12650.6448775414,-80535.3327131457,-50942.6909717604,-80472.4987267520,-80458.7979001294,-80502.7354533570,-2416.7844460632
5351366306,3948,-2,0,-6718.0044344891,-80265.0029928304,-33227.6316579678,-12651.0464115365,-80531.6337333115,-50717.1870465409,-80472.2188697251,-80457.9096582613,-80501.3240005256,-2416.0057134665
5351366306,3948,-2,0,-6716.4348015989,-80263.3481860625,-33250.6772757504,-12650.3041820303,-80526.3894559808,-50589.6817515332,-80469.8461688446,-80455.5977958650,-80499.7543676354,-2412.4770813879
5351366306,3948,-2,0,-6717.1526957115,-80262.4599441944,-33250.4947602981,-12649.1482508322,-80526.3894559808,-50724.6701800870,-80470.4058828985,-80456.4008638553,-80499.4866783053,-2412.4892490847
5351366306,3948,-2,0,-6718.1017760637,-80263.8835647227,-33227.7655026328,-12650.0486603971,-80530.1249389055,-50942.7274748509,-80470.9534292555,-80457.5446273566,-80500.8981311368,-2415.2756516572
5351421299,3949,-2,0,-6718.1991176383,-80264.7718065908,-33213.0425894771,-12650.9247345683,-80534.9798499378,-50954.7613270088,-80471.1967831920,-80457.5446273566,-80500.3262493861,-2417.7335264154
5351421299,3949,-2,0,-6717.5542297066,-80264.5527880479,-33226.7434160997,-12650.4258589986,-80531.9622611257,-50737.3854232669,-80471.4036340380,-80457.0944225742,-80500.2775785988,-2416.5532598236
5351421299,3949,-2,0,-6718.0531052764,-80263.6523784830,-33250.8476235059,-12650.6570452382,-80527.2290270616,-50580.0692710431,-80470.0651873874,-80456.0723360410,-80500.3505847797,-2413.2314785909
5351421299,3949,-2,0,-6718.4911423620,-80264.0539124782,-33254.8021249734,-12651.9711564951,-80526.9370023379,-50690.1869272907,-80471.3914663411,-80457.5689627503,-80500.7886218654,-2413.6451802829
5351421299,3949,-2,0,-6718.2234530319,-80264.2972664147,-33233.2287985063,-12650.9247345683,-80529.9302557563,-50917.9662118162,-80470.7222430159,-80457.6176335376,-80499.8152061195,-2414.3509066986
5351421299,3949,-2,0,-6718.4546392715,-80263.3725214561,-33216.1696875606,-12650.7543868128,-80533.3372108667,-50958.9470147159,-80470.8195845905,-80458.1286768041,-80500.6547772003,-2416.9182907283
5351421299,3949,-2,0,-6717.4082173448,-80262.6546273436,-33224.7357461239,-12650.0973311844,-80531.5242240401,-50759.7253146339,-80470.1260258715,-80455.7559759237,-80499.3041628530,-2415.7866949237
5351421299,3949,-2,0,-6718.5033100588,-80261.6690439009,-33250.1053939997,-12650.5840390573,-80526.3286174967,-50582.2837918649,-80469.6879887859,-80455.5004542904,-80498.7687841928,-2413.7546895543
5351445835,3950,-2,0,-6718.3694653938,-80262.1679194707,-33256.7976272524,-12650.6935483287,-80523.7368980734,-50659.6825113556,-80468.8362500083,-80455.0989202952,-80498.5497656499,-2413.4018263464
5351445835,3950,-2,0,-6718.8196701762,-80262.9588197641,-33238.8381067417,-12651.2897654730,-80529.0420138882,-50891.8178313437,-80470.3328767175,-80456.0480006474,-80499.3163305498,-2415.0931362048
5351445835,3950,-2,0,-6718.8075024794,-80262.7398012213,-33218.5788915315,-12650.1946727589,-80532.4733043923,-50970.2264696708,-80470.2355351430,-80456.2183484029,-80498.5132625595,-2416.4437505522
5351445835,3950,-2,0,-6717.9435960050,-80263.1169998228,-33226.4148882855,-12650.4380266954,-80533.0695215366,-50787.5650049648,-80470.9777646492,-80455.8289821046,-80499.0243058260,-2416.6262660045
5351445835,3950,-2,0,-6717.5663974035,-80262.7641366150,-33249.9715493347,-12650.5597036636,-80528.0685981424,-50586.5546534497,-80471.3792986443,-80455.8898205887,-80499.8030384227,-2413.8520311289
5351445835,3950,-2,0,-6718.1626145478,-80263.4820307275,-33260.4844393897,-12650.0851634875,-80525.7932388365,-50633.1325968880,-80469.7488272700,-80456.1818453125,-80499.8517092100,-2412.2823982387
5351445835,3950,-2,0,-6718.0896083669,-80263.1169998228,-33243.1698068107,-12650.7908899033,-80528.9081692232,-50859.1110622836,-80470.1625289620,-80456.4982054299,-80499.4015044275,-2413.4018263464
5351445835,3950,-2,0,-6717.1526957115,-80262.6424596467,-33220.1241890280,-12650.6448775414,-80532.1447765781,-50963.2908824817,-80470.2842059302,-80457.0092486964,-80499.4258398212,-2416.5775952172
5351455054,3951,-2,0,-6717.9922667923,-80264.7109681066,-33222.9835977814,-12651.7034671650,-80533.5318940159,-50807.8728909622,-80471.9998511823,-80457.6419689312,-80500.4965971416,-2417.2589862393
5351455054,3951,-2,0,-6718.6493224207,-80263.8592293290,-33246.9539605226,-12651.6791317713,-80529.2732001279,-50591.5069060567,-80471.2697893729,-80457.3621119043,-80500.2045724179,-2414.9106207525
5351455054,3951,-2,0,-6717.9314283082,-80262.4477764976,-33258.2212477806,-12650.5962067541,-80524.1627674622,-50596.3253139986,-80468.9214238861,-80454.7947278746,-80499.5596844862,-2412.5987583561
5351455054,3951,-2,0,-6719.2577072619,-80262.7641366150,-33242.4397450013,-12651.7278025586,-80528.3849582598,-50814.4799503371,-80470.7830815000,-80456.9849133028,-80500.2410755083,-2415.1296392953
5351455054,3951,-2,0,-6718.2721238192,-80262.0219071088,-33217.3377864556,-12650.1825050621,-80531.4755532528,-50949.3710373162,-80469.4081317590,-80455.6342989554,-80498.4524240754,-2415.7988626206
5351455054,3951,-2,0,-6717.7124097653,-80261.2066714216,-33214.7217316386,-12651.2654300794,-80531.9865965194,-50814.0054101610,-80470.1746966588,-80456.2061807061,-80498.5862687404,-2416.3950797649
5351455054,3951,-2,0,-6718.4303038779,-80262.2774287420,-33236.5505797390,-12650.9490699620,-80528.1537720202,-50585.3257160706,-80470.2842059302,-80455.8654851951,-80500.5817710194,-2413.9858757939
5351455054,3951,-2,0,-6717.8340867336,-80262.1679194707,-33251.6993622836,-12650.8395606906,-80524.1384320686,-50562.6207937990,-80468.9335915829,-80455.7681436205,-80499.4501752148,-2412.5014167815
5351467620,3952,-2,0,-6718.2234530319,-80262.4477764976,-33238.8867775290,-12651.3627716539,-80527.3750394235,-50770.4693909285,-80469.8583365414,-80455.6951374395,-80500.3870878702,-2414.7524406938
5351467620,3952,-2,0,-6719.1725333841,-80262.7276335245,-33213.4197880786,-12651.9346534046,-80532.0596027003,-50933.2731744195,-80471.0386031333,-80457.6541366280,-80499.4866783053,-2416.5167567331
5351467620,3952,-2,0,-6717.0796895305,-80261.4256899645,-33207.4576166353,-12650.0486603971,-80532.8261676002,-50834.4106377331,-80470.1503612652,-80456.7658947600,-80499.7787030291,-2416.1030550411
5351467620,3952,-2,0,-6716.7511617163,-80260.6712927614,-33227.1814531853,-12650.3650205145,-80528.2997843820,-50602.2874854418,-80468.8849207956,-80454.6487155128,-80498.8661257673,-2414.3630743954
5351467620,3952,-2,0,-6717.9192606113,-80260.7077958519,-33244.7516073977,-12649.9513188225,-80524.5156306701,-50540.7797780018,-80468.4833868004,-80454.7460570874,-80498.5984364372,-2411.9903735150
5351467620,3952,-2,0,-6717.7002420685,-80260.9876528788,-33234.7740960028,-12650.6813806319,-80526.3042821031,-50732.3358290854,-80468.8605854020,-80454.8555663588,-80498.0387223834,-2412.2580628451
5351467620,3952,-2,0,-6718.3086269097,-80261.9610686247,-33209.9276590904,-12651.0220761429,-80530.8063299276,-50918.8909567748,-80470.1381935684,-80455.7438082268,-80499.5718521831,-2416.1395581316
5351467620,3952,-2,0,-6717.2865403765,-80261.4500253581,-33200.9844019255,-12649.9634865193,-80532.4246336050,-50847.3448994559,-80469.7123241796,-80456.3278576743,-80499.1459827943,-2417.2346508457
5351518996,3953,-2,0,-6718.1991176383,-80262.2044225611,-33220.2215306026,-12650.4015236049,-80529.7842433944,-50614.9418901377,-80469.9921812065,-80456.0601683442,-80499.4258398212,-2415.5068378968
5351518996,3953,-2,0,-6719.0386887190,-80262.5816211626,-33242.4397450013,-12651.4966163190,-80525.7445680492,-50527.6873362204,-80469.1282747321,-80455.6099635618,-80499.3284982466,-2413.6330125861
5351518996,3953,-2,0,-6717.6515712812,-80261.5108638422,-33237.2198030643,-12650.8152252969,-80525.1726862985,-50694.3482796042,-80469.0065977638,-80455.7803113173,-80499.0121381292,-2412.9881246545
5351518996,3953,-2,0,-6718.1869499414,-80261.4743607517,-33211.9474967630,-12650.6327098446,-80529.9910942404,-50896.3320468650,-80469.3959640622,-80455.0502495079,-80498.2820763198,-2414.8862853588
5351518996,3953,-2,0,-6719.4888935015,-80262.6667950404,-33201.4102713143,-12651.5209517126,-80533.5197263191,-50865.9979786854,-80470.3815475048,-80457.2769380265,-80499.6691937577,-2418.5487621025
5351518996,3953,-2,0,-6718.2599561224,-80261.7663854755,-33217.6541465730,-12650.4258589986,-80530.4047959324,-50640.1898610453,-80469.9191750256,-80456.4130315521,-80499.4866783053,-2415.9570426792
5351518996,3953,-2,0,-6717.9557637018,-80261.8272239596,-33239.5925039447,-12649.3916047686,-80525.6472264746,-50519.8391717696,-80469.4811379399,-80454.5635416350,-80498.5254302563,-2412.3067336324
5351518996,3953,-2,0,-6717.0553541369,-80261.7055469914,-33237.8768586927,-12649.1969216195,-80524.7346492129,-50666.8614524812,-80468.5442252846,-80454.8312309651,-80498.8904611610,-2412.0025412118
5351531268,3954,-2,0,-6718.5884839366,-80263.2265090942,-33214.7825701227,-12651.0464115365,-80529.6990695167,-50888.3743731428,-80471.0021000428,-80457.2282672392,-80499.3284982466,-2416.1273904348
5351531268,3954,-2,0,-6717.9192606113,-80263.0074905514,-33198.9523965561,-12651.0464115365,-80533.1790308080,-50888.3743731428,-80470.9169261650,-80456.3278576743,-80499.3284982466,-2417.0521353933
5351531268,3954,-2,0,-6719.1968687777,-80262.5816211626,-33212.8235709343,-12650.2920143335,-80532.0596027003,-50669.2463210585,-80470.8682553777,-80457.7271428090,-80499.9490507846,-2415.8718688015
5351531268,3954,-2,0,-6718.2599561224,-80263.2508444879,-33236.4410704676,-12650.9003991747,-80528.4457967439,-50523.2217914863,-80472.4622236616,-80457.5689627503,-80501.0806465891,-2414.0710496717
5351531268,3954,-2,0,-6717.4933912225,-80262.7884720086,-33237.9742002673,-12650.2433435462,-80526.6936484014,-50638.0970171917,-80470.8925907714,-80456.3521930680,-80500.1315662369,-2412.7082676275
5351531268,3954,-2,0,-6718.0896083669,-80263.4455276371,-33215.0259240592,-12650.2798466367,-80530.5873113847,-50866.4725188615,-80470.8074168936,-80457.2039318456,-80500.1193985401,-2414.3022359113
5351531268,3954,-2,0,-6718.1626145478,-80263.6158753926,-33197.9303100230,-12650.9247345683,-80534.3592973999,-50904.7399253697,-80472.1458635442,-80458.1408445009,-80501.3118328288,-2416.3950797649
5351531268,3954,-2,0,-6717.8462544304,-80262.7398012213,-33207.3967781512,-12649.9756542161,-80531.9744288226,-50698.5948057954,-80470.7709138032,-80456.2426837966,-80499.4745106085,-2415.4216640190
5351577340,3955,-2,0,-6718.5519808461,-80263.2386767911,-33232.1215380954,-12650.9247345683,-80528.1416043233,-50524.6819151051,-80470.4058828985,-80456.7172239727,-80500.8859634399,-2413.7911926448
5351577340,3955,-2,0,-6718.0774406700,-80262.8006397054,-33237.3901508198,-12650.8152252969,-80527.0586793061,-50614.1144867537,-80470.0530196906,-80456.5468762172,-80500.7277833812,-2413.8398634321
5351577340,3955,-2,0,-6718.2112853351,-80262.9344843705,-33217.0214263382,-12651.4844486222,-80529.3097032183,-50844.8505216072,-80471.7930003363,-80457.2404349361,-80500.4479263543,-2414.8862853588
5351577340,3955,-2,0,-6718.2356207287,-80263.3725214561,-33196.0199816218,-12650.4866974827,-80534.2619558253,-50911.2009723827,-80471.9025096077,-80457.2891057234,-80500.3262493861,-2417.4901724789
5351577340,3955,-2,0,-6717.5785651003,-80263.6158753926,-33202.9555688108,-12649.9756542161,-80532.5584782701,-50726.6656823659,-80471.3306278570,-80457.6176335376,-80499.8517092100,-2416.2977381903
5351577340,3955,-2,0,-6717.2378695892,-80262.3382672262,-33226.4148882855,-12649.0144061671,-80528.0685981424,-50533.9050292969,-80470.3937152017,-80456.0723360410,-80498.5132625595,-2413.9128696130
5351577340,3955,-2,0,-6717.0066833496,-80262.4842795880,-33235.6866732646,-12649.6836294924,-80526.1461020444,-50586.9196843544,-80469.8340011478,-80456.3035222807,-80499.7056968481,-2412.8786153830
5351577340,3955,-2,0,-6717.7854159463,-80261.9854040183,-33217.5446373016,-12650.4623620890,-80529.6625664262,-50817.5340422397,-80471.1846154951,-80457.2282672392,-80500.5817710194,-2414.7767760874
5351597401,3956,-2,0,-6718.8683409635,-80264.4676141702,-33196.6283664629,-12650.2798466367,-80534.4931420649,-50922.3830857629,-80471.7808326395,-80458.1165091073,-80500.6182741098,-2417.2589862393
5351597401,3956,-2,0,-6718.5519808461,-80263.0804967324,-33199.6946260623,-12650.9247345683,-80533.3737139572,-50758.0340047755,-80471.2576216761,-80457.2282672392,-80500.6304418067,-2417.1859800584
5351597401,3956,-2,0,-6719.3428811396,-80262.7519689181,-33222.5942314831,-12650.6570452382,-80529.1515231596,-50545.9997199389,-80470.5518952603,-80456.9362425155,-80499.7908707259,-2415.2513162635
5351597401,3956,-2,0,-6718.7588316921,-80264.5771234416,-33234.9931145457,-12651.7643056491,-80527.4237102108,-50566.1129227872,-80471.6591556712,-80456.7658947600,-80500.7886218654,-2414.1805589431
5351597401,3956,-2,0,-6718.1869499414,-80263.8957324195,-33218.0070097808,-12651.1802562016,-80529.6990695167,-50787.0417940014,-80472.1336958473,-80457.8244843836,-80499.9490507846,-2415.1053039016
5351597401,3956,-2,0,-6718.0166021859,-80262.6181242531,-33193.4039268048,-12649.1725862258,-80533.7265771651,-50915.0459645787,-80470.7830815000,-80457.7514782026,-80500.0463923592,-2416.2125643125
5351597401,3956,-2,0,-6717.7124097653,-80262.6302919499,-33192.2966663940,-12650.2676789399,-80533.7630802555,-50778.6095801031,-80470.7587461063,-80457.5446273566,-80499.9368830878,-2416.3585766744
5351597401,3956,-2,0,-6718.9535148413,-80263.6402107862,-33216.2791968320,-12651.7521379523,-80529.4070447929,-50556.9141439891,-80471.5739817935,-80456.9240748187,-80500.5939387162,-2416.4315828553
5351636325,3957,-2,0,-6717.7610805526,-80262.4234411039,-33229.5176509753,-12650.4988651795,-80525.9149158047,-50540.6459333368,-80469.8218334510,-80456.0358329506,-80499.7056968481,-2413.1828078036
5351636325,3957,-2,0,-6718.6858255112,-80263.0074905514,-33216.5347184652,-12650.0729957907,-80528.8960015264,-50754.3836957286,-80471.8051680331,-80457.0335840901,-80499.9125476941,-2414.7646083906
5351636325,3957,-2,0,-6717.7124097653,-80262.7884720086,-33191.9803062766,-12649.6957971892,-80532.7166583288,-50911.8458603143,-80470.3085413239,-80456.9727456059,-80500.2289078115,-2416.2612350998
5351636325,3957,-2,0,-6718.0652729732,-80262.5694534658,-33187.2714076061,-12649.7201325828,-80534.1281111602,-50802.4826012697,-80471.8416711236,-80458.0069998359,-80500.8129572590,-2417.3198247234
5351636325,3957,-2,0,-6717.6759066749,-80262.1557517738,-33208.1755107479,-12649.6592940987,-80529.3340386120,-50570.4811259466,-80470.5032244731,-80456.7658947600,-80500.4722617480,-2414.5090867573
5351636325,3957,-2,0,-6718.0652729732,-80262.3139318325,-33225.9525158062,-12649.7444679765,-80525.4403756286,-50523.2947976673,-80469.6393179986,-80455.1232556889,-80498.4645917722,-2413.4991679210
5351636325,3957,-2,0,-6717.8827575209,-80262.0340748056,-33217.1796063969,-12650.1460019717,-80527.0708470029,-50719.0365364579,-80469.8948396319,-80455.2327649603,-80499.2798274593,-2414.0102111876
5351636325,3957,-2,0,-6716.9701802591,-80261.7663854755,-33192.1141509416,-12649.0265738639,-80531.2687024068,-50898.8264247137,-80469.7244918764,-80456.2913545839,-80499.3771690339,-2415.0809685080
5351654765,3958,-2,0,-6718.1869499414,-80262.9466520673,-33186.1398118015,-12650.5718713605,-80534.3592973999,-50829.0325157373,-80471.2089508888,-80458.4328692247,-80501.3118328288,-2417.6848556281
5351654765,3958,-2,0,-6719.0630241127,-80263.5063661212,-33207.7618090559,-12650.6935483287,-80531.5972302211,-50600.1581384978,-80471.6226525808,-80457.7393105058,-80500.2289078115,-2416.1395581316
5351654765,3958,-2,0,-6718.2112853351,-80262.8493104927,-33226.4757267696,-12650.1946727589,-80526.2069405285,-50515.9820118767,-80469.5663118177,-80456.4617023394,-80499.3163305498,-2413.8885342193
5351654765,3958,-2,0,-6718.0896083669,-80262.4234411039,-33220.2580336931,-12650.6327098446,-80526.9248346410,-50691.2698523080,-80469.8948396319,-80456.2791868870,-80499.4866783053,-2414.9592915398
5351654765,3958,-2,0,-6717.4568881321,-80262.7641366150,-33196.2511678614,-12650.1581696685,-80531.4633855560,-50890.9174217788,-80470.1625289620,-80456.7658947600,-80499.6691937577,-2416.0787196475
5351654765,3958,-2,0,-6718.7223286016,-80263.2630121847,-33186.6265196745,-12651.3506039571,-80534.3349620062,-50847.8802781161,-80471.3549632507,-80457.8488197772,-80500.2654109020,-2417.9038741709
5351654765,3958,-2,0,-6717.7367451590,-80262.0584101992,-33204.3670216423,-12649.8783126415,-80530.1249389055,-50619.2370871162,-80470.4423859890,-80455.3301065348,-80499.9368830878,-2415.4825025032
5351654765,3958,-2,0,-6718.1747822446,-80262.6059565563,-33228.2278751121,-12649.2820954972,-80526.6814807046,-50515.7021548498,-80469.9070073287,-80456.0480006474,-80498.9026288578,-2413.1463047131
5351689213,3959,-2,0,-6718.7466639953,-80264.2242602337,-33227.4126394250,-12651.3019331698,-80528.7864922549,-50675.2814986826,-80471.8538388204,-80458.6397200707,-80501.0684788923,-2414.4725836668
5351689213,3959,-2,0,-6718.5763162398,-80264.9786574367,-33204.3791893391,-12650.5110328763,-80533.6779063778,-50892.1950299452,-80472.9610992313,-80458.7005585548,-80502.0297269413,-2416.6992721854
5351689213,3959,-2,0,-6719.3307134428,-80264.8934835590,-33190.5810211419,-12650.4258589986,-80535.9654333805,-50886.5127155289,-80473.2166208646,-80460.1241790831,-80501.8593791858,-2417.3806632075
5351689213,3959,-2,0,-6717.5055589194,-80263.7618877545,-33205.0605803612,-12649.8783126415,-80532.8383352970,-50662.3229015662,-80471.5861494903,-80457.7028074153,-80500.4357586575,-2416.1517258284
5351689213,3959,-2,0,-6717.4933912225,-80263.5793723021,-33227.9845211756,-12649.9513188225,-80528.8594984359,-50517.9288433684,-80471.5374787030,-80457.2282672392,-80501.1293173764,-2414.1197204590
5351689213,3959,-2,0,-6718.5154777557,-80264.3581048988,-33228.9822723151,-12650.1216665780,-80529.3705417024,-50642.9397605273,-80471.8051680331,-80458.1043414105,-80501.9445530635,-2414.1927266399
5351689213,3959,-2,0,-6717.6880743717,-80264.1877571433,-33206.0461638039,-12649.7931387638,-80532.5098074828,-50871.8871439477,-80471.9876834855,-80458.1773475914,-80501.0806465891,-2415.4338317159
5351689213,3959,-2,0,-6717.8462544304,-80264.2729310210,-33189.8752947262,-12650.1094988812,-80535.0406884219,-50897.7313319997,-80472.0363542728,-80458.7248939485,-80501.5186836747,-2417.2711539361
5351745125,3960,-2,0,-6718.3329623033,-80263.6767138767,-33200.8748926541,-12649.9513188225,-80534.5783159427,-50690.1382565035,-80472.3162112997,-80459.0655894595,-80501.8107083985,-2417.0156323028
5351745125,3960,-2,0,-6719.3307134428,-80264.5527880479,-33226.5122298601,-12650.7178837223,-80529.0541815851,-50523.3069653641,-80471.2697893729,-80457.6176335376,-80501.1901558605,-2415.4946702000
5351745125,3960,-2,0,-6718.1382791541,-80263.4455276371,-33230.7344206576,-12649.7201325828,-80527.8495795996,-50611.6931150859,-80471.1724477983,-80456.9849133028,-80500.8007895622,-2413.8155280384
5351745125,3960,-2,0,-6717.4812235257,-80263.8470616322,-33208.1998461415,-12649.9269834288,-80531.1835285291,-50838.7180024084,-80470.9412615587,-80457.7271428090,-80500.9954727114,-2415.8110303174
5351745125,3960,-2,0,-6718.0531052764,-80263.0439936419,-33186.8820413077,-12650.1338342748,-80534.3227943094,-50902.7200876971,-80470.6492368349,-80457.1065902710,-80499.8395415132,-2416.7357752759
5351745125,3960,-2,0,-6717.7610805526,-80263.1778383069,-33195.5576091425,-12649.6836294924,-80532.9356768716,-50716.7368417584,-80470.5883983508,-80457.1674287551,-80499.8273738164,-2415.9570426792
5351745125,3960,-2,0,-6717.4325527384,-80262.1435840770,-33220.6108969009,-12649.5376171305,-80527.8617472964,-50528.0401994282,-80469.9921812065,-80456.1575099188,-80499.7178645449,-2413.6451802829
5351745125,3960,-2,0,-6717.5298943130,-80261.8272239596,-33229.7975080023,-12648.5276982942,-80525.5377172032,-50592.5898310739,-80469.9313427224,-80455.2084295666,-80499.8760446036,-2413.3896586496
5351759209,3961,-2,0,-6718.8926763572,-80263.5672046053,-33212.2638568804,-12650.2433435462,-80529.6260633357,-50824.6399771843,-80470.3328767175,-80456.6320500949,-80500.9589696209,-2415.8718688015
5351759209,3961,-2,0,-6718.8926763572,-80262.2530933484,-33190.2281579340,-12650.9247345683,-80533.8847572238,-50916.1897280801,-80471.0629385269,-80457.1917641488,-80500.0463923592,-2417.2468185425
5351759209,3961,-2,0,-6717.8097513399,-80263.1535029133,-33193.7202869222,-12649.6836294924,-80533.3615462604,-50747.8739779283,-80470.5397275635,-80456.3886961585,-80499.1824858847,-2417.0399676965
5351759209,3961,-2,0,-6718.4424715747,-80263.3360183656,-33219.5644749742,-12650.1946727589,-80530.2101127832,-50545.5008443691,-80470.7222430159,-80457.0335840901,-80500.5331002321,-2415.5676763809
5351759209,3961,-2,0,-6718.2964592128,-80263.2143413974,-33231.0021099877,-12649.9269834288,-80526.9856731251,-50573.4378762746,-80470.6735722286,-80456.2548514934,-80500.1437339337,-2413.4383294369
5351759209,3961,-2,0,-6718.7588316921,-80263.8470616322,-33216.1088490764,-12650.3893559081,-80529.8937526658,-50798.6011059832,-80470.9534292555,-80456.9240748187,-80500.7642864717,-2416.0787196475
5351759209,3961,-2,0,-6717.4690558289,-80263.0196582482,-33193.2457467461,-12649.8296418543,-80533.9334280111,-50923.0158059977,-80470.8074168936,-80457.2039318456,-80499.9977215719,-2416.4437505522
5351759209,3961,-2,0,-6718.2721238192,-80262.9588197641,-33193.9514731619,-12650.3406851208,-80534.7486636982,-50778.9016048268,-80470.8195845905,-80457.4351180852,-80499.6935291513,-2416.9791292124
5351786355,3962,-2,0,-6718.3572976970,-80263.0196582482,-33217.4837988174,-12650.9125668715,-80529.2732001279,-50559.6153726838,-80470.4788890794,-80456.7293916695,-80500.5574356257,-2416.0665519507
5351786355,3962,-2,0,-6718.9778502349,-80263.2630121847,-33232.5474074842,-12650.3893559081,-80526.6084745236,-50557.5103611334,-80470.3328767175,-80456.4373669457,-80500.3627524766,-2413.9372050066
5351786355,3962,-2,0,-6718.3572976970,-80262.8128074023,-33219.7104873360,-12650.2068404558,-80529.4678832770,-50771.1264465570,-80469.8096657541,-80456.7172239727,-80500.9954727114,-2415.6771856523
5351786355,3962,-2,0,-6717.6880743717,-80262.7154658277,-33194.1948270983,-12649.3185985877,-80532.4368013018,-50917.6741870925,-80470.6735722286,-80457.2039318456,-80499.9003799973,-2416.3342412808
5351786355,3962,-2,0,-6718.2112853351,-80264.0295770846,-33190.9947228339,-12649.9026480352,-80534.7973344855,-50802.0932349713,-80471.6834910649,-80457.6541366280,-80500.3870878702,-2417.3684955107
5351786355,3962,-2,0,-6718.4546392715,-80263.9322355100,-33211.9596644598,-12649.7201325828,-80530.9645099863,-50574.8493291061,-80471.3062924634,-80457.6541366280,-80500.8251249558,-2414.9714592366
5351786355,3962,-2,0,-6717.5420620098,-80263.0196582482,-33227.3639686377,-12649.4159401623,-80527.3872071203,-50531.5688315069,-80470.8074168936,-80457.2160995424,-80501.1658204669,-2414.5942606351
5351786355,3962,-2,0,-6718.9778502349,-80264.0660801750,-33217.4229603333,-12650.7057160255,-80529.0541815851,-50730.0848051732,-80470.9290938619,-80457.3499442075,-80501.5065159779,-2415.5676763809
5351815620,3963,-2,0,-6718.4303038779,-80263.7862231481,-33192.1019832448,-12649.1360831353,-80534.0307695856,-50906.3338936535,-80472.5352298425,-80457.9704967454,-80500.9102988336,-2416.4680859458
5351815620,3963,-2,0,-6718.1139437605,-80263.7375523608,-33184.5701789114,-12650.1216665780,-80535.6612409599,-50820.9896681374,-80472.9610992313,-80458.3233599533,-80501.6403606430,-2417.1251415743
5351815620,3963,-2,0,-6717.4690558289,-80263.0804967324,-33203.0042395981,-12649.7444679765,-80531.2565347100,-50584.0237725106,-80470.8074168936,-80457.1552610583,-80500.0463923592,-2415.9692103761
5351815620,3963,-2,0,-6718.8561732667,-80262.2165902579,-33221.9006727642,-12650.3893559081,-80526.9856731251,-50511.2122747221,-80471.3427955538,-80457.1795964519,-80499.8638769068,-2414.5699252414
5351815620,3963,-2,0,-6717.3473788607,-80261.2553422089,-33211.9353290662,-12649.2699278004,-80526.7544868855,-50689.3108531195,-80469.6028149082,-80455.7681436205,-80499.4258398212,-2413.8276957352
5351815620,3963,-2,0,-6718.1382791541,-80261.6325408104,-33186.1763148920,-12649.9878219130,-80532.0352673067,-50880.6965564475,-80470.9169261650,-80457.2404349361,-80499.3406659434,-2417.5875140535
5351815620,3963,-2,0,-6718.7466639953,-80262.8858135832,-33176.2474742845,-12649.5862879178,-80535.4057193266,-50830.4561362656,-80471.7930003363,-80458.5180431025,-80500.7642864717,-2418.3419112565
5351815620,3963,-2,0,-6718.6858255112,-80262.6424596467,-33191.7612877337,-12649.8174741574,-80531.4998886465,-50599.0508780869,-80469.9800135097,-80457.6419689312,-80499.5961875767,-2416.5532598236
5351877030,3964,-2,0,-6718.4546392715,-80261.9123978374,-33212.1665153058,-12650.6327098446,-80527.6062256631,-50494.2140022604,-80470.6492368349,-80456.1575099188,-80499.6570260608,-2414.5820929383
5351877030,3964,-2,0,-6717.9922667923,-80262.5086149817,-33208.0051629924,-12649.4402755559,-80527.5940579663,-50652.7834272570,-80470.0043489033,-80455.7924790141,-80499.4623429117,-2414.1075527622
5351877030,3964,-2,0,-6718.4424715747,-80262.9588197641,-33183.7427755274,-12649.7931387638,-80531.8527518543,-50867.0687360059,-80471.9025096077,-80458.2503537724,-80499.9247153909,-2416.1517258284
5351877030,3964,-2,0,-6717.7975836431,-80262.8979812800,-33171.0640354379,-12649.4159401623,-80535.1136946029,-50849.3525694316,-80471.0872739206,-80458.2138506819,-80500.0950631465,-2417.9768803519
5351877030,3964,-2,0,-6718.0896083669,-80263.2265090942,-33186.0546379238,-12649.9026480352,-80532.4489689987,-50625.6859664323,-80471.2576216761,-80457.1552610583,-80501.2023235573,-2416.7966137600
5351877030,3964,-2,0,-6718.1261114573,-80263.2143413974,-33209.0029141319,-12649.3551016782,-80528.1659397170,-50494.1653314732,-80470.2355351430,-80456.9849133028,-80501.0198081050,-2414.2535651240
5351877030,3964,-2,0,-6718.6493224207,-80264.0782478718,-33210.1101745427,-12650.6327098446,-80529.0298461914,-50626.8297299337,-80471.3062924634,-80457.4594534789,-80500.8129572590,-2414.7524406938
5351877030,3964,-2,0,-6718.3207946065,-80263.4455276371,-33185.7747808969,-12649.4281078591,-80531.4512178592,-50847.0893778226,-80471.5131433094,-80457.3621119043,-80499.8760446036,-2415.9935457697
5351885068,3965,-2,0,-6718.5519808461,-80262.8979812800,-33170.3826444158,-12651.0099084461,-80535.5395639917,-50869.3440953117,-80472.0120188791,-80457.8488197772,-80500.9224665304,-2418.6339359803
5351885068,3965,-2,0,-6718.5276454525,-80262.8736458864,-33182.0636333659,-12649.8783126415,-80533.5075586223,-50658.6482571257,-80470.6735722286,-80456.8875717282,-80500.4235909607,-2417.1616446647
5351885068,3965,-2,0,-6718.2721238192,-80261.9610686247,-33206.3016854372,-12649.6714617956,-80527.6305610568,-50493.7881328716,-80470.1503612652,-80455.7073051364,-80499.1824858847,-2414.8497822684
5351885068,3965,-2,0,-6717.5785651003,-80262.3626026198,-33209.8668206063,-12650.0121573066,-80525.9879219857,-50596.3739847859,-80469.9191750256,-80456.4495346426,-80500.0463923592,-2414.6550991192
5351885068,3965,-2,0,-6718.1626145478,-80263.9444032068,-33187.6364385108,-12649.5984556146,-80530.8306653212,-50826.3921255268,-80471.4401371284,-80456.6807208822,-80499.7300322418,-2415.5068378968
5351885068,3965,-2,0,-6718.1869499414,-80262.7276335245,-33169.8594334524,-12650.2190081526,-80535.6977440504,-50878.1048370243,-80471.7686649426,-80458.8344032199,-80501.2509943446,-2418.3905820438
5351885068,3965,-2,0,-6718.0774406700,-80263.2630121847,-33177.9022810524,-12649.8053064606,-80533.7509125587,-50682.9106445906,-80471.3306278570,-80457.8609874740,-80500.7156156844,-2416.5654275204
5351885068,3965,-2,0,-6717.5663974035,-80261.8515593533,-33202.0673269428,-12649.1604185290,-80528.1902751106,-50500.5533723052,-80469.4933056368,-80456.0480006474,-80499.9368830878,-2414.1075527622
5351902478,3966,-2,0,-6719.2698749587,-80262.5329503753,-33210.7307270807,-12650.4866974827,-80527.6062256631,-50570.1282627388,-80470.3693798080,-80455.8411498014,-80499.7421999386,-2414.8984530557
5351902478,3966,-2,0,-6719.7930859221,-80262.5329503753,-33190.3498349023,-12650.7908899033,-80530.7698268371,-50797.6885287214,-80470.4667213826,-80456.2670191902,-80499.8030384227,-2416.2003966157
5351902478,3966,-2,0,-6718.8440055699,-80262.2895964389,-33168.2898005623,-12650.2676789399,-80533.9820987984,-50881.5361275283,-80471.0264354364,-80456.8389009409,-80500.3384170829,-2417.0886384838
5351902478,3966,-2,0,-6718.3086269097,-80261.4743607517,-33172.1834635456,-12649.8904803384,-80532.3759628177,-50705.5182252877,-80470.3328767175,-80457.3986149947,-80500.0342246623,-2417.0034646060
5351902478,3966,-2,0,-6718.4303038779,-80262.6059565563,-33196.6040310693,-12649.5376171305,-80530.2344481769,-50501.7093035034,-80470.2233674461,-80455.9871621633,-80499.9490507846,-2415.1053039016
5351902478,3966,-2,0,-6717.2622049829,-80261.3040129962,-33205.6689652024,-12649.5497848273,-80526.5354683427,-50539.8306976497,-80470.3815475048,-80455.7316405300,-80498.5010948626,-2413.7303541607
5351902478,3966,-2,0,-6718.3694653938,-80263.4455276371,-33190.0821455722,-12649.6349587051,-80530.0884358150,-50769.0336027034,-80470.8439199841,-80456.8023978504,-80500.1315662369,-2415.6406825619
5351902478,3966,-2,0,-6718.4424715747,-80262.6302919499,-33166.4889814325,-12649.1725862258,-80534.0916080697,-50882.4973755773,-80471.0386031333,-80457.7028074153,-80500.4600940511,-2416.7479429727
5351932289,3967,-2,0,-6717.6029004939,-80262.9588197641,-33167.6935834180,-12648.9535676830,-80534.2741235221,-50734.5868529977,-80470.5397275635,-80457.0457517869,-80500.3019139924,-2417.3928309044
5351932289,3967,-2,0,-6718.6249870271,-80262.7276335245,-33192.4670141495,-12650.2190081526,-80529.6747341230,-50520.9585998773,-80471.2454539793,-80456.9362425155,-80500.7521187749,-2415.4459994127
5351932289,3967,-2,0,-6717.9435960050,-80262.4964472849,-33206.0461638039,-12649.0630769544,-80526.9491700347,-50520.3015442488,-80469.3107901844,-80455.8046467110,-80499.9247153909,-2413.5600064051
5351932289,3967,-2,0,-6718.3451300001,-80263.2386767911,-33190.7757042911,-12649.7931387638,-80530.0275973309,-50736.0226412228,-80471.2576216761,-80456.4982054299,-80499.9003799973,-2415.0931362048
5351932289,3967,-2,0,-6718.3572976970,-80263.1048321260,-33166.6714968848,-12650.2676789399,-80533.5075586223,-50881.2441028046,-80470.8804230746,-80457.6419689312,-80500.5331002321,-2416.8817876378
5351932289,3967,-2,0,-6717.9922667923,-80262.5937888594,-33164.9680193296,-12649.9148157320,-80535.1988684806,-50759.2872775482,-80470.9412615587,-80457.3134411170,-80499.6326906672,-2417.1738123615
5351932289,3967,-2,0,-6717.7124097653,-80262.3139318325,-33187.1497306378,-12649.4767786464,-80530.6116467784,-50533.0289551256,-80470.6005660476,-80456.4617023394,-80499.5231813958,-2416.4315828553
5351932289,3967,-2,0,-6717.9679313986,-80262.9101489769,-33203.5396182583,-12649.2699278004,-80526.2312759221,-50504.4348675917,-80469.4933056368,-80455.2692680507,-80499.6083552735,-2414.0345465812
5351999197,3968,-2,0,-6718.0287698827,-80261.9975717151,-33192.9658897192,-12650.0486603971,-80528.9811754041,-50710.2879624422,-80470.5275598667,-80456.4738700362,-80500.2410755083,-2415.7623595301
5351999197,3968,-2,0,-6717.4568881321,-80262.5451180722,-33169.1780424304,-12649.2577601036,-80532.6071490574,-50878.5428741099,-80470.1016904779,-80456.6442177917,-80500.0950631465,-2417.4415016916
5351999197,3968,-2,0,-6718.2477884255,-80262.3504349230,-33164.4934791535,-12649.8783126415,-80533.8239187397,-50788.4289114392,-80470.5762306540,-80457.3621119043,-80499.6448583640,-2417.2589862393
5351999197,3968,-2,0,-6718.1991176383,-80262.4599441944,-33185.7382778064,-12650.5962067541,-80531.1956962259,-50559.4328572314,-80470.7587461063,-80456.5468762172,-80499.6935291513,-2416.3099058871
5351999197,3968,-2,0,-6717.9800990954,-80262.0340748056,-33205.1944250263,-12649.9391511257,-80527.1195177902,-50495.4064365491,-80469.6879887859,-80456.1088391315,-80500.0707277528,-2413.7303541607
5351999197,3968,-2,0,-6718.7344962985,-80262.7276335245,-33198.0641546880,-12649.3307662845,-80528.3606228662,-50682.9228122874,-80471.1237770110,-80457.6906397185,-80500.1315662369,-2414.8011114811
5351999197,3968,-2,0,-6717.5907327971,-80261.7177146882,-33173.2420531692,-12648.6980460497,-80531.9500934289,-50875.3427698455,-80469.8096657541,-80456.6807208822,-80499.3284982466,-2415.3973286254
5351999197,3968,-2,0,-6717.3352111638,-80262.1800871675,-33164.6029884249,-12649.6592940987,-80534.9433468474,-50818.2641040490,-80470.5275598667,-80456.6563854885,-80499.7178645449,-2416.6627690950
5352035256,3969,-2,0,-6718.7344962985,-80263.1291675197,-33183.6697693465,-12649.5619525241,-80532.2177827590,-50589.0611989953,-80471.4279694316,-80456.6320500949,-80500.4235909607,-2416.4802536426
5352035256,3969,-2,0,-6719.9512659808,-80264.8569804685,-33206.5937101609,-12651.0342438397,-80529.3583740056,-50499.1905902610,-80472.3527143901,-80458.5180431025,-80501.5186836747,-2416.5897629140
5352035256,3969,-2,0,-6718.0287698827,-80263.2386767911,-33201.4346067080,-12649.8661449447,-80528.5188029249,-50663.8195282754,-80471.0872739206,-80457.0092486964,-80500.0463923592,-2414.4360805764
5352035256,3969,-2,0,-6717.8584221272,-80262.6911304340,-33177.4277408763,-12649.4037724654,-80532.6558198446,-50870.5365296004,-80471.9633480918,-80458.0556706232,-80501.1049819828,-2417.0764707870
5352035256,3969,-2,0,-6718.0044344891,-80264.3946079892,-33165.4425595057,-12649.1604185290,-80535.2110361775,-50848.7563522873,-80472.6569068107,-80458.5423784961,-80500.7886218654,-2417.4536693885
5352035256,3969,-2,0,-6717.6029004939,-80263.0683290355,-33180.1168018742,-12648.3330151450,-80532.2421181527,-50625.1140846816,-80471.5009756125,-80458.0313352295,-80500.5574356257,-2415.3121547476
5352035256,3969,-2,0,-6718.6736578144,-80263.8835647227,-33204.1966738868,-12650.9977407493,-80528.8838338295,-50498.9837394150,-80470.6005660476,-80457.8366520804,-80500.7034479876,-2414.8862853588
5352035256,3969,-2,0,-6717.9435960050,-80261.9123978374,-33203.3327674124,-12649.2820954972,-80527.9590888710,-50636.0163410350,-80470.5032244731,-80456.2061807061,-80499.1703181879,-2414.1075527622
5352053701,3970,-2,0,-6718.5641485429,-80262.4356088007,-33181.4552485247,-12649.6836294924,-80531.6824040988,-50860.5711859024,-80470.7344107127,-80457.9461613518,-80500.4479263543,-2416.4559182490
5352053701,3970,-2,0,-6717.6029004939,-80261.5960377200,-33165.9779381659,-12649.4646109496,-80535.2597069648,-50871.5951192240,-80471.1602801015,-80456.2183484029,-80499.0364735229,-2417.8308679900
5352053701,3970,-2,0,-6718.4303038779,-80261.7177146882,-33179.3015661870,-12649.6957971892,-80533.7387448619,-50656.1782146706,-80470.9412615587,-80457.1674287551,-80500.5574356257,-2417.5875140535
5352053701,3970,-2,0,-6718.4303038779,-80262.6911304340,-33202.8217241458,-12649.7688033701,-80529.1028523724,-50503.2789363935,-80471.2697893729,-80456.8754040314,-80500.3384170829,-2415.1539746889
5352053701,3970,-2,0,-6717.8949252177,-80261.4135222676,-33205.6081267182,-12649.1604185290,-80527.8860826900,-50611.2794133940,-80470.0895227811,-80456.3643607648,-80499.4623429117,-2414.6307637255
5352053701,3970,-2,0,-6717.6394035844,-80262.3991057103,-33183.1952291704,-12649.1969216195,-80531.7067394925,-50833.5588989555,-80471.3792986443,-80457.7879812931,-80499.9490507846,-2415.1174715985
5352053701,3970,-2,0,-6717.5663974035,-80263.2265090942,-33164.9923547233,-12649.0022384703,-80535.5273962949,-50878.2143462957,-80471.6591556712,-80457.8731551708,-80501.9080499731,-2417.1616446647
5352053701,3970,-2,0,-6717.1770311051,-80262.8736458864,-33174.4344874579,-12648.1991704800,-80534.1889496443,-50680.6961237689,-80470.7709138032,-80457.7758135963,-80500.8616280463,-2416.2247320094
5352063331,3971,-2,0,-6718.3086269097,-80262.9223166737,-33199.3539305513,-12649.6227910083,-80529.9302557563,-50502.9869116698,-80471.5374787030,-80457.4594534789,-80501.2509943446,-2415.4825025032
5352063331,3971,-2,0,-6718.4911423620,-80263.7010492703,-33205.3404373881,-12650.7178837223,-80528.9446723136,-50582.9286797965,-80471.6104848839,-80458.0556706232,-80502.2730808778,-2415.3851609286
5352063331,3971,-2,0,-6718.7953347826,-80262.9831551578,-33184.6310173955,-12649.9026480352,-80532.7896645097,-50813.6525469531,-80471.9146773045,-80458.2990245596,-80501.4456774938,-2416.4802536426
5352063331,3971,-2,0,-6718.2477884255,-80262.0584101992,-33162.3032937254,-12649.4159401623,-80534.5053097617,-50888.5447208983,-80472.0971927569,-80458.0435029264,-80499.9977215719,-2417.0277999997
5352063331,3971,-2,0,-6717.8462544304,-80263.0804967324,-33167.2798817260,-12648.7710522307,-80535.4908932044,-50707.2095351460,-80472.6934099012,-80458.3111922565,-80501.0441434986,-2417.3441601171
5352063331,3971,-2,0,-6719.2090364746,-80263.1048321260,-33190.8487104720,-12649.8783126415,-80531.3660439814,-50510.6890637587,-80471.4279694316,-80458.1286768041,-80501.2266589510,-2415.5798440777
5352063331,3971,-2,0,-6717.1283603178,-80262.1314163802,-33199.1592474021,-12648.1018289054,-80527.9834242646,-50552.5581085264,-80469.9800135097,-80456.3886961585,-80500.2167401147,-2414.1440558526
5352063331,3971,-2,0,-6718.3572976970,-80263.3846891529,-33181.3579069501,-12649.8661449447,-80531.5242240401,-50776.9791087288,-80471.4766402189,-80458.1895152882,-80501.5916898557,-2416.3829120681
5352114223,3972,-2,0,-6718.4668069684,-80264.4797818670,-33158.8111647372,-12649.5984556146,-80536.1479488328,-50886.0990138369,-80472.7055775980,-80459.5279619388,-80502.2852485746,-2417.1738123615
5352114223,3972,-2,0,-6719.0386887190,-80263.8713970259,-33160.6484869575,-12650.3163497272,-80536.4886443439,-50729.3790787574,-80473.2044531678,-80458.8709063103,-80501.8472114890,-2418.0377188360
5352114223,3972,-2,0,-6719.4645581078,-80263.6402107862,-33183.1708937767,-12650.7300514192,-80531.5728948274,-50511.9666719251,-80471.6713233681,-80457.7149751121,-80500.8859634399,-2416.3464089776
5352114223,3972,-2,0,-6719.0021856286,-80264.0782478718,-33195.3385905997,-12650.1216665780,-80529.3948770961,-50522.1510341659,-80472.2067020283,-80458.1408445009,-80502.0540623350,-2416.1152227379
5352114223,3972,-2,0,-6717.1891988020,-80263.2021737006,-33177.3912377858,-12649.0874123481,-80530.9401745926,-50742.6297005976,-80471.4036340380,-80457.2647703297,-80499.8882123005,-2414.4847513637
5352114223,3972,-2,0,-6717.5420620098,-80262.7154658277,-33154.2847815191,-12649.8418095511,-80534.6269867300,-50880.4897056016,-80471.9998511823,-80458.6032169802,-80500.7764541685,-2416.4924213395
5352114223,3972,-2,0,-6717.9314283082,-80263.2508444879,-33152.6299747512,-12648.8562261084,-80536.2087873170,-50754.0064971271,-80472.5960683266,-80458.3720307406,-80500.8616280463,-2417.3684955107
5352114223,3972,-2,0,-6718.3938007874,-80263.2143413974,-33174.2398043087,-12649.2455924068,-80531.1956962259,-50532.2380548321,-80471.5253110062,-80457.9704967454,-80500.5696033226,-2415.7015210460
5352130145,3973,-2,0,-6718.7466639953,-80263.4820307275,-33191.3354183449,-12649.6592940987,-80529.7842433944,-50511.3339516903,-80471.8660065172,-80457.9583290486,-80501.8228760953,-2415.7745272269
5352130145,3973,-2,0,-6719.0873595063,-80263.8470616322,-33176.9653683970,-12650.4988651795,-80531.1226900450,-50717.5155743551,-80472.0606896664,-80458.3476953469,-80501.5795221588,-2416.1517258284
5352130145,3973,-2,0,-6718.8075024794,-80263.5428692116,-33151.4983789466,-12650.0608280939,-80534.6878252141,-50881.6213014061,-80472.5717329330,-80458.3720307406,-80501.3240005256,-2417.7213587186
5352130145,3973,-2,0,-6718.8805086603,-80263.8348939354,-33147.2640204522,-12650.7057160255,-80536.3426319820,-50783.3184787735,-80472.4865590552,-80458.9439124913,-80502.2365777873,-2417.8673710805
5352130145,3973,-2,0,-6718.2599561224,-80262.7154658277,-33166.4159752516,-12649.5376171305,-80531.9135903384,-50553.3490088199,-80471.9146773045,-80457.4959565693,-80500.9102988336,-2417.2833216329
5352130145,3973,-2,0,-6717.5542297066,-80262.0340748056,-33184.7526943637,-12649.2942631940,-80527.5940579663,-50498.5578700262,-80471.4279694316,-80457.5324596598,-80500.4600940511,-2415.8718688015
5352130145,3973,-2,0,-6717.8097513399,-80262.9953228546,-33176.9775360939,-12649.6592940987,-80530.1371066023,-50691.5740447286,-80470.8682553777,-80457.8244843836,-80501.3361682224,-2415.2999870508
5352130145,3973,-2,0,-6718.2356207287,-80263.9200678131,-33151.9729191227,-12649.8418095511,-80535.2232038743,-50876.5230364373,-80472.8394222631,-80458.8830740072,-80501.1171496796,-2416.8574522441
5352165119,3974,-2,0,-6719.5618996824,-80265.4653653097,-33143.9179038259,-12649.6349587051,-80537.9366002658,-50811.2920137695,-80473.5329809820,-80460.5987192592,-80502.3460870587,-2418.7799483422
5352165119,3974,-2,0,-6717.7489128558,-80264.5649557448,-33163.2523740776,-12649.2820954972,-80534.1037757666,-50582.7461643442,-80472.8029191726,-80458.7370616453,-80503.4776828632,-2416.4802536426
5352165119,3974,-2,0,-6719.0021856286,-80264.0904155687,-33183.0005460212,-12649.9878219130,-80530.4534667197,-50492.6322016735,-80472.6812422044,-80458.3233599533,-80502.0905654254,-2415.6163471682
5352165119,3974,-2,0,-6718.6979932080,-80264.4189433829,-33177.1600515462,-12649.0387415608,-80531.1348577418,-50660.7532686760,-80473.0341054122,-80458.4937077088,-80501.2753297383,-2416.1882289189
5352165119,3974,-2,0,-6717.1040249242,-80263.5063661212,-33151.3888696752,-12647.9923196340,-80533.5683971064,-50865.1827429983,-80471.2454539793,-80457.4229503884,-80501.4456774938,-2415.2634839603
5352165119,3974,-2,0,-6717.1161926210,-80263.3846891529,-33140.3892717473,-12648.1504996927,-80536.3426319820,-50833.4250542904,-80471.8781742141,-80459.0169186722,-80500.7156156844,-2417.7335264154
5352165119,3974,-2,0,-6717.5785651003,-80263.9079001163,-33156.2924514949,-12648.4425244164,-80534.3106266126,-50604.0639691780,-80472.3892174806,-80458.1895152882,-80501.9080499731,-2415.7501918333
5352165119,3974,-2,0,-6717.7002420685,-80263.1291675197,-33177.1600515462,-12648.7953876243,-80530.2222804801,-50487.0228934381,-80471.0751062237,-80456.5833793076,-80499.3163305498,-2414.7159376033
5352184619,3975,-2,0,-6718.2356207287,-80262.7519689181,-33176.4056543432,-12649.4402755559,-80530.0032619373,-50635.0794283796,-80471.4888079157,-80458.1043414105,-80500.8251249558,-2415.6771856523
5352184619,3975,-2,0,-6718.9413471445,-80263.5185338180,-33152.4839623893,-12649.4889463432,-80534.3714650967,-50851.4940840725,-80472.5108944488,-80458.8465709167,-80501.6890314303,-2417.1373092711
5352184619,3975,-2,0,-6718.6614901175,-80263.6280430894,-33137.4690245098,-12649.7079648860,-80537.3403831215,-50851.7009349185,-80471.8903419109,-80459.0290863690,-80502.2365777873,-2417.5996817503
5352184619,3975,-2,0,-6718.9778502349,-80264.7718065908,-33150.7318140468,-12649.4281078591,-80535.9776010773,-50635.1159314701,-80473.1801177741,-80459.8078189657,-80502.5529379047,-2416.6140983077
5352184619,3975,-2,0,-6718.0409375796,-80265.2706821605,-33173.5827486803,-12649.4402755559,-80531.9500934289,-50485.5262667289,-80473.1192792900,-80459.6374712102,-80501.9202176699,-2415.2391485667
5352184619,3975,-2,0,-6718.2112853351,-80265.3680237351,-33175.1280461768,-12649.2334247099,-80531.6580687052,-50600.9855418818,-80473.6303225565,-80459.3089433960,-80503.3073351077,-2416.1152227379
5352184619,3975,-2,0,-6717.1405280147,-80264.6744650162,-33152.3501177242,-12648.5642013847,-80534.6756575173,-50829.7017390626,-80473.0949438963,-80459.8443220562,-80501.8472114890,-2416.6384337013
5352184619,3975,-2,0,-6718.0287698827,-80265.2950175541,-33135.3396775658,-12648.6980460497,-80537.7540848135,-50865.3409230570,-80474.0926950358,-80459.7956512689,-80502.2244100905,-2416.9182907283
5352226823,3976,1,0,-6718.3329623033,-80265.5140360970,-33145.8525676208,-12649.6714617956,-80536.7806690676,-50664.9267886863,-80473.5573163756,-80459.0534217627,-80502.5164348142,-2417.1129738774
5352226823,3976,1,0,-6718.1626145478,-80264.3581048988,-33169.9932781175,-12649.4159401623,-80532.0596027003,-50496.9760694392,-80472.9489315345,-80458.6275523739,-80502.0662300318,-2415.7866949237
5352226823,3976,1,0,-6718.3086269097,-80265.5018684001,-33177.3547346954,-12649.7809710670,-80531.3295408909,-50584.7538343200,-80473.5329809820,-80459.1994341245,-80502.9909749903,-2416.7357752759
5352226823,3976,1,0,-6718.0896083669,-80265.7573900334,-33156.4141284631,-12649.0630769544,-80534.5418128522,-50810.6349581410,-80474.0805273390,-80460.3553653227,-80502.8571303253,-2417.1981477552
5352226823,3976,1,0,-6718.3086269097,-80265.1490051923,-33135.8263854387,-12648.3938536291,-80537.8392586912,-50880.4775379047,-80473.6059871629,-80460.5987192592,-80503.0274780808,-2417.7091910218
5352226823,3976,1,0,-6718.2234530319,-80264.1390863560,-33142.8349788087,-12648.7710522307,-80536.8171721581,-50699.9089170523,-80473.4356394074,-80460.3188622323,-80503.4046766823,-2416.7601106696
5352226823,3976,1,0,-6718.0044344891,-80265.1490051923,-33167.8517634767,-12648.7467168370,-80532.7044906319,-50510.0806789176,-80473.4599748010,-80459.3941172737,-80501.3361682224,-2416.6019306109
5352226823,3976,1,0,-6717.7124097653,-80263.7375523608,-33176.6733436733,-12649.3794370718,-80530.2831189642,-50564.3364390511,-80472.7299129917,-80458.9925832786,-80501.9932238508,-2415.0322977207
5352252369,3977,1,0,-6718.0166021859,-80263.9930739941,-33157.9594259596,-12648.6615429593,-80532.3637951209,-50794.8899584522,-80471.9755157886,-80459.0290863690,-80502.0053915477,-2416.2612350998
5352252369,3977,1,0,-6718.6493224207,-80264.2850987178,-33136.9458135464,-12649.5497848273,-80535.7707502313,-50895.1882833637,-80472.0850250600,-80458.7735647357,-80502.0418946381,-2417.9768803519
5352252369,3977,1,0,-6717.9557637018,-80263.9200678131,-33139.4401913951,-12649.8174741574,-80536.4278058598,-50729.1235571242,-80473.2409562582,-80459.5522973324,-80501.5795221588,-2417.9525449582
5352252369,3977,1,0,-6718.3451300001,-80264.6014588352,-33164.0189389774,-12649.4281078591,-80532.3881305145,-50519.2672900189,-80471.8173357299,-80458.1651798946,-80501.9323853667,-2416.2977381903
5352252369,3977,1,0,-6718.1382791541,-80264.6257942289,-33176.4786605241,-12649.1969216195,-80531.1348577418,-50538.4070771214,-80472.6325714171,-80458.7735647357,-80502.0297269413,-2415.6041794714
5352252369,3977,1,0,-6717.8340867336,-80265.1611728891,-33160.1131082973,-12649.1604185290,-80533.0451861430,-50759.6036376656,-80472.4500559647,-80459.1872664277,-80502.2974162714,-2415.9570426792
5352252369,3977,1,0,-6718.7466639953,-80266.4509487523,-33139.8295576934,-12649.7809710670,-80537.6810786325,-50894.8475878526,-80475.0904461753,-80461.5477996114,-80504.1225707948,-2418.4514205280
5352252369,3977,1,0,-6717.9679313986,-80265.6965515493,-33140.2554270822,-12648.9048968957,-80537.9852710531,-50765.7118214707,-80474.1413658231,-80460.5257130782,-80502.8936334157,-2417.2589862393
5352281440,3978,1,0,-6717.8584221272,-80266.4387810555,-33165.5399010803,-12648.9657353798,-80535.0528561188,-50551.2074941791,-80474.4455582437,-80460.3675330196,-80504.2199123694,-2417.1738123615
5352281440,3978,1,0,-6718.0531052764,-80267.5582091632,-33182.5868443292,-12649.2699278004,-80533.2885400794,-50543.5296774838,-80474.7254152706,-80460.5378807751,-80504.4024278218,-2415.8231980142
5352281440,3978,1,0,-6719.2455395650,-80266.9863274125,-33171.2100477998,-12649.6227910083,-80534.6269867300,-50754.8947389951,-80475.8448433783,-80461.1706010099,-80504.9499741788,-2416.2247320094
5352281440,3978,1,0,-6718.1991176383,-80266.2319302095,-33147.2883558459,-12649.6106233114,-80539.3602207941,-50907.6966756977,-80475.2607939308,-80461.2071041003,-80504.2929185504,-2417.2711539361
5352281440,3978,1,0,-6717.6150681908,-80265.1733405859,-33143.2000097134,-12648.4181890228,-80538.3137988673,-50798.4307582276,-80474.5794029087,-80460.5865515624,-80503.5263536505,-2417.2224831488
5352281440,3978,1,0,-6717.4447204352,-80266.3536071777,-33165.1505347820,-12648.5398659910,-80534.2376204316,-50572.1967711987,-80473.5329809820,-80460.3797007164,-80503.0518134744,-2415.6406825619
5352281440,3978,1,0,-6718.4668069684,-80266.6943026888,-33185.5922654445,-12649.8296418543,-80531.7189071893,-50529.0622859614,-80474.5550675151,-80460.5378807751,-80504.8769679979,-2415.8353657110
5352281440,3978,1,0,-6717.5907327971,-80265.3315206446,-33175.7242633211,-12649.2820954972,-80532.1326088813,-50721.2510572797,-80473.2166208646,-80459.3576141832,-80502.3339193619,-2415.3243224445
5352303672,3979,1,0,-6719.0630241127,-80265.9277377889,-33153.9197506144,-12649.7201325828,-80537.1943707596,-50902.2577152178,-80474.1170304295,-80460.1363467799,-80503.4776828632,-2417.3806632075
5352303672,3979,1,0,-6718.2112853351,-80265.5505391874,-33147.4952066919,-12648.7467168370,-80537.4863954834,-50826.5259701918,-80473.5694840724,-80460.8055701052,-80503.0153103840,-2417.2711539361
5352303672,3979,1,0,-6717.7002420685,-80265.5627068842,-33166.8783477308,-12648.7223814434,-80534.9920176346,-50589.3045529317,-80473.3626332265,-80460.3310299291,-80503.0031426871,-2416.1638935252
5352303672,3979,1,0,-6718.1017760637,-80265.4531976128,-33187.2227368188,-12649.2090893163,-80531.2321993164,-50509.4966294701,-80472.3892174806,-80458.8344032199,-80502.8327949316,-2415.5190055936
5352303672,3979,1,0,-6718.2599561224,-80264.8204773780,-33181.5404224025,-12649.2455924068,-80530.6116467784,-50685.7943887377,-80472.8637576567,-80458.2381860755,-80501.6038575525,-2415.5676763809
5352303672,3979,1,0,-6717.2865403765,-80264.4554464734,-33156.8521655487,-12648.1139966022,-80535.4178870235,-50883.3369466581,-80473.2166208646,-80459.1872664277,-80501.8228760953,-2416.1030550411
5352303672,3979,1,0,-6719.0873595063,-80265.1003344050,-33147.7993991125,-12648.8562261084,-80538.1434511118,-50840.2754676017,-80473.7398318280,-80459.6009681197,-80502.4190932396,-2417.4049986012
5352303672,3979,1,0,-6717.7002420685,-80264.1390863560,-33164.6638269090,-12647.8219718785,-80534.1646142507,-50610.3425007386,-80472.1823666346,-80458.1651798946,-80501.9810561540,-2416.2977381903
5352345538,3980,1,0,-6717.8949252177,-80265.0759990113,-33186.6508550681,-12648.9535676830,-80529.8207464849,-50497.5114480995,-80471.9511803950,-80459.0534217627,-80501.8472114890,-2415.2391485667
5352345538,3980,1,0,-6718.9656825381,-80264.9056512558,-33183.1587260799,-12649.3064308909,-80531.3660439814,-50644.4363872365,-80473.1071115932,-80458.5910492834,-80502.2730808778,-2416.4680859458
5352345538,3980,1,0,-6718.4303038779,-80264.5162849575,-33158.0932706247,-12649.2090893163,-80534.4444712776,-50856.4950074667,-80472.4987267520,-80459.3941172737,-80502.3460870587,-2416.4437505522
5352345538,3980,1,0,-6719.1481979904,-80265.0759990113,-33144.5384563639,-12649.2820954972,-80537.3403831215,-50846.5053283751,-80473.3748009233,-80460.1606821736,-80502.7476210539,-2417.9403772614
5352345538,3980,1,0,-6718.3694653938,-80263.4455276371,-33157.4362149962,-12649.4037724654,-80534.7243283046,-50620.7337138254,-80472.8150868694,-80459.2602726087,-80501.8107083985,-2416.4924213395
5352345538,3980,1,0,-6717.3717142543,-80263.5672046053,-33179.8369448473,-12648.0409904213,-80529.4800509739,-50477.6294314908,-80471.6956587617,-80457.8731551708,-80500.3505847797,-2414.0467142780
5352345538,3980,1,0,-6717.1161926210,-80262.5451180722,-33181.5404224025,-12647.9801519372,-80528.2389458979,-50600.1824738914,-80471.1967831920,-80457.1917641488,-80500.0463923592,-2414.6794345128
5352345538,3980,1,0,-6716.9945156528,-80262.4964472849,-33157.7282397200,-12648.1870027832,-80531.3782116782,-50818.5196256823,-80470.6979076222,-80457.0700871805,-80500.2045724179,-2414.8862853588
5352378845,3981,1,0,-6719.1725333841,-80263.8470616322,-33141.7155507010,-12649.2212570131,-80536.9023460359,-50844.2299690692,-80472.2067020283,-80458.7127262516,-80501.9323853667,-2417.8552033836
5352378845,3981,1,0,-6718.0774406700,-80263.1656706101,-33152.6543101448,-12648.7345491402,-80533.7387448619,-50636.7585705412,-80472.3162112997,-80458.2016829851,-80501.0198081050,-2416.6506013982
5352378845,3981,1,0,-6718.5033100588,-80263.6158753926,-33176.5516667051,-12649.0995800449,-80530.0275973309,-50464.7316728585,-80471.5861494903,-80457.5202919630,-80500.6182741098,-2415.5920117746
5352378845,3981,1,0,-6719.0143533254,-80263.8105585418,-33179.2163923093,-12649.2820954972,-80529.8937526658,-50553.0691517930,-80472.1580312410,-80458.6518877675,-80501.8715468826,-2415.0079623271
5352378845,3981,1,0,-6718.4059684842,-80263.8592293290,-33157.2171964534,-12648.8197230179,-80532.7653291161,-50779.6925051203,-80472.2310374219,-80458.4085338311,-80501.3726713129,-2416.0908873443
5352378845,3981,1,0,-6718.5519808461,-80263.4576953339,-33137.3838506320,-12649.2942631940,-80536.0627749551,-50835.5544012344,-80471.7930003363,-80459.5401296356,-80502.2365777873,-2418.5122590121
5352378845,3981,1,0,-6717.2378695892,-80262.6911304340,-33144.0760838846,-12648.4425244164,-80534.4323035808,-50640.1898610453,-80471.8051680331,-80457.6663043249,-80500.7764541685,-2415.9813780729
5352378845,3981,1,0,-6719.6105704697,-80263.8105585418,-33168.5696575892,-12648.9779030766,-80530.8671684117,-50451.9677588912,-80472.2675405124,-80457.9461613518,-80501.8715468826,-2416.0665519507
5352411421,3982,1,0,-6718.8075024794,-80262.6667950404,-33175.2375554482,-12650.1825050621,-80528.6039768026,-50512.3073674362,-80471.2576216761,-80457.7271428090,-80501.2023235573,-2414.4360805764
5352411421,3982,1,0,-6718.1869499414,-80262.2774287420,-33155.5258865950,-12649.5497848273,-80531.6580687052,-50736.4485106116,-80471.5983171871,-80457.6906397185,-80499.8517092100,-2416.0908873443
5352411421,3982,1,0,-6717.9192606113,-80262.9223166737,-33132.6262811742,-12649.5254494337,-80534.6026513363,-50825.8932499570,-80472.3892174806,-80458.8344032199,-80501.9932238508,-2417.2103154520
5352411421,3982,1,0,-6718.6614901175,-80264.6501296225,-33138.1869186223,-12648.6737106561,-80536.1844519233,-50655.5333267390,-80472.7177452948,-80459.2967756991,-80502.6259440856,-2416.8331168505
5352411421,3982,1,0,-6718.8926763572,-80264.8326450749,-33162.5344799650,-12649.4402755559,-80532.0352673067,-50447.3927048858,-80473.1922854709,-80459.1264279436,-80501.5308513716,-2415.8110303174
5352411421,3982,1,0,-6719.2577072619,-80264.0660801750,-33174.1667981278,-12649.3064308909,-80529.5773925484,-50473.7114331138,-80472.8880930504,-80458.1651798946,-80502.1392362127,-2414.8132791779
5352411421,3982,1,0,-6717.1526957115,-80263.2751798815,-33156.4262961599,-12647.9436488467,-80530.6846529593,-50696.0517571594,-80471.1359447079,-80457.3134411170,-80500.7764541685,-2414.6429314224
5352411421,3982,1,0,-6718.2964592128,-80262.8736458864,-33133.9890632184,-12648.0166550276,-80535.1380299965,-50817.4001975746,-80471.3306278570,-80458.6032169802,-80500.6912802908,-2415.5555086841
5352458101,3983,1,0,-6718.0166021859,-80263.6280430894,-33134.4757710913,-12648.7832199275,-80536.5494828280,-50671.3513326088,-80472.3648820870,-80458.4085338311,-80501.9445530635,-2417.6970233249
5352458101,3983,1,0,-6718.9656825381,-80264.4797818670,-33159.3830464879,-12649.8053064606,-80531.9500934289,-50455.6545710285,-80473.4478071042,-80459.1994341245,-80501.4700128875,-2416.5167567331
5352458101,3983,1,0,-6718.2356207287,-80262.8493104927,-33173.3393947438,-12649.5254494337,-80527.8617472964,-50450.2642813360,-80471.1359447079,-80457.5932981439,-80501.0928142859,-2415.1418069921
5352458101,3983,1,0,-6719.2212041714,-80263.1291675197,-33159.8940897545,-12648.1748350863,-80530.3926282356,-50661.8970321774,-80471.4644725221,-80457.3621119043,-80501.0319758018,-2414.7646083906
5352458101,3983,1,0,-6717.3352111638,-80262.7154658277,-33135.6682053800,-12648.1748350863,-80533.8360864365,-50811.6083738869,-80471.4036340380,-80457.3012734202,-80499.9612184814,-2416.6749367918
5352458101,3983,1,0,-6718.5276454525,-80263.0926644292,-33134.5122741818,-12648.7467168370,-80535.2962100552,-50699.1058490620,-80472.0606896664,-80458.8100678262,-80501.7133668239,-2418.2932404693
5352458101,3983,1,0,-6718.6006516334,-80263.7010492703,-33157.3753765121,-12649.1482508322,-80532.6679875415,-50469.8299378273,-80473.0219377154,-80458.0921737137,-80500.4722617480,-2416.1638935252
5352458101,3983,1,0,-6717.7489128558,-80263.0074905514,-33173.8991087977,-12648.5520336878,-80528.3971259566,-50429.0438180768,-80470.2963736271,-80456.3156899775,-80499.7665353322,-2413.6816833734
5352463476,3984,1,0,-6719.3063780491,-80263.8470616322,-33165.8684288945,-12648.6250398688,-80530.6846529593,-50633.8991617878,-80472.0850250600,-80458.2016829851,-80500.7764541685,-2414.8741176620
5352463476,3984,1,0,-6718.8805086603,-80263.4455276371,-33141.9589046374,-12649.8783126415,-80534.9555145442,-50806.7169597641,-80472.4743913584,-80458.2138506819,-80501.3726713129,-2417.3319924202
5352463476,3984,1,0,-6717.4812235257,-80262.1922548643,-33134.4027649104,-12648.9657353798,-80534.0429372825,-50718.6715055533,-80470.5518952603,-80457.0092486964,-80499.6691937577,-2416.7114398823
5352463476,3984,1,0,-6718.0896083669,-80262.9101489769,-33155.3312034459,-12648.5763690815,-80531.4147147687,-50486.7673718048,-80470.5032244731,-80457.5567950534,-80500.2654109020,-2415.6163471682
5352463476,3984,1,0,-6718.4424715747,-80263.5550369085,-33174.8725245435,-12649.0630769544,-80528.2024428075,-50412.5079180944,-80471.7686649426,-80457.5689627503,-80500.9346342272,-2414.2657328209
5352463476,3984,1,0,-6718.2599561224,-80263.4698630307,-33167.4745648751,-12648.8562261084,-80530.3682928419,-50590.6186641886,-80471.8051680331,-80458.1530121978,-80501.1171496796,-2414.5334221510
5352463476,3984,1,0,-6718.6979932080,-80263.8835647227,-33140.8273088329,-12648.9535676830,-80534.2011173412,-50784.3040622162,-80472.1458635442,-80458.3111922565,-80501.8472114890,-2416.3585766744
5352463476,3984,1,0,-6719.0386887190,-80263.7497200576,-33131.6406977316,-12649.5741202210,-80536.0749426519,-50734.5381822104,-80473.2287885614,-80459.3576141832,-80502.4677640269,-2418.8772899168
5352521311,3985,1,0,-6719.4158873206,-80264.0904155687,-33150.2086030834,-12649.0630769544,-80534.1524465539,-50503.1085886380,-80472.9610992313,-80459.3332787896,-80501.5430190684,-2416.7357752759
5352521311,3985,1,0,-6717.4203850416,-80263.1656706101,-33171.0397000443,-12648.3330151450,-80528.0564304456,-50397.9066819069,-80470.0043489033,-80456.8267332441,-80500.3627524766,-2413.8763665225
5352521311,3985,1,0,-6718.5884839366,-80262.8614781896,-33168.3384713496,-12648.5763690815,-80528.2632812916,-50555.8068835782,-80471.0507708301,-80457.1917641488,-80500.0585600560,-2414.2900682145
5352521311,3985,1,0,-6717.1891988020,-80261.8880624437,-33144.0882515815,-12647.3352640056,-80532.4368013018,-50763.2296113189,-80469.6028149082,-80457.2769380265,-80499.5961875767,-2415.3364901413
5352521311,3985,1,0,-6718.3572976970,-80262.0584101992,-33131.5311884602,-12648.1626673895,-80535.2110361775,-50745.4891093510,-80471.4523048252,-80458.0069998359,-80500.4600940511,-2416.9304584251
5352521311,3985,1,0,-6717.2500372861,-80263.1778383069,-33145.7552260462,-12648.1018289054,-80532.7774968129,-50523.2582945768,-80470.7587461063,-80457.8001489899,-80500.7642864717,-2415.8718688015
5352521311,3985,1,0,-6717.4447204352,-80262.7398012213,-33170.6138306555,-12647.8341395753,-80528.6648152867,-50388.4402137786,-80470.8317522873,-80457.0092486964,-80501.2266589510,-2414.7281053001
5352521311,3985,1,0,-6717.8097513399,-80263.6888815735,-33170.4069798095,-12647.8706426658,-80528.3727905630,-50515.5439747911,-80471.9146773045,-80456.8023978504,-80500.2532432052,-2413.6938510702
5352532576,3986,1,0,-6718.7344962985,-80263.4941984243,-33147.2153496649,-12649.0265738639,-80532.6314844510,-50737.1420693305,-80472.0241865759,-80458.0435029264,-80500.7277833812,-2416.2247320094
5352532576,3986,1,0,-6718.0044344891,-80262.7884720086,-33131.2513314332,-12648.0166550276,-80535.1867007838,-50753.0452490781,-80470.9655969523,-80457.6663043249,-80500.7034479876,-2416.9547938187
5352532576,3986,1,0,-6718.1991176383,-80262.6911304340,-33141.8615630629,-12649.0509092576,-80533.2520369890,-50536.0343762409,-80471.1359447079,-80457.3864472979,-80501.1171496796,-2416.9791292124
5352532576,3986,1,0,-6717.3230434670,-80261.7298823850,-33165.1870378724,-12648.7102137465,-80527.7035672377,-50375.0314118797,-80470.1990320525,-80455.6951374395,-80499.5475167894,-2413.9372050066
5352532576,3986,1,0,-6718.0652729732,-80261.9489009278,-33169.0076946748,-12648.1870027832,-80527.4967163917,-50478.2256486351,-80471.0386031333,-80456.4738700362,-80500.7399510781,-2413.9128696130
5352532576,3986,1,0,-6718.9656825381,-80264.1390863560,-33148.0305853521,-12649.5741202210,-80532.0109319130,-50704.7151572973,-80471.5983171871,-80458.2016829851,-80502.1149008191,-2415.7988626206
5352532576,3986,1,0,-6717.2257018924,-80263.3968568498,-33128.2094072275,-12648.0653258149,-80535.9045948964,-50752.2908518750,-80471.8173357299,-80457.8731551708,-80501.5065159779,-2416.8209491537
5352532576,3986,1,0,-6718.6493224207,-80263.2873475784,-33137.5298629939,-12648.0166550276,-80535.3083777521,-50555.2106664338,-80471.7078264585,-80459.4914588483,-80501.8472114890,-2416.2734027966
5352580444,3987,1,0,-6718.9291794476,-80263.7862231481,-33163.4592249236,-12649.4037724654,-80530.6968206562,-50370.5293640552,-80472.1336958473,-80458.3841984374,-80501.4821805843,-2415.0809685080
5352580444,3987,1,0,-6718.5033100588,-80263.0561613387,-33170.0419489048,-12648.6980460497,-80527.0465116093,-50440.3476084253,-80472.0606896664,-80457.3012734202,-80500.1559016306,-2413.9493727035
5352580444,3987,1,0,-6719.1603656873,-80263.5307015148,-33152.3136146338,-12649.4767786464,-80531.6337333115,-50673.3224994941,-80471.7808326395,-80458.0069998359,-80500.8981311368,-2415.8840364983
5352580444,3987,1,0,-6717.9922667923,-80262.5694534658,-33130.1805741128,-12647.7489656975,-80535.1501976934,-50755.8073162569,-80471.7199941554,-80458.0921737137,-80501.0806465891,-2416.1638935252
5352580444,3987,1,0,-6718.0652729732,-80263.5793723021,-33137.0066520305,-12648.9413999862,-80535.7220794440,-50578.2927873070,-80473.0341054122,-80458.8344032199,-80502.0297269413,-2418.0377188360
5352580444,3987,1,0,-6717.6029004939,-80263.3846891529,-33160.8796731971,-12648.6615429593,-80530.0154296341,-50375.6641321145,-80471.5009756125,-80457.8123166867,-80501.6403606430,-2415.4216640190
5352580444,3987,1,0,-6716.9458448655,-80262.3626026198,-33171.9766126996,-12647.7246303039,-80527.2898655457,-50412.5444211849,-80470.5762306540,-80456.7050562758,-80499.9368830878,-2413.0489631386
5352580444,3987,1,0,-6716.9336771687,-80261.8880624437,-33154.2604461254,-12648.1626673895,-80529.7112372135,-50636.2596949715,-80470.7830815000,-80456.9605779091,-80499.9003799973,-2413.8155280384
5352589340,3988,1,0,-6718.7831670858,-80263.1291675197,-33132.0300640299,-12649.7079648860,-80535.1258622997,-50753.3251061050,-80472.9732669281,-80459.2116018214,-80502.1027331222,-2417.9160418677
5352589340,3988,1,0,-6717.6029004939,-80262.4964472849,-33133.7822123724,-12648.5276982942,-80534.2862912189,-50603.3582427622,-80470.9899323460,-80457.0944225742,-80500.7521187749,-2417.3563278139
5352589340,3988,1,0,-6718.2112853351,-80263.2630121847,-33156.9616748201,-12649.3429339813,-80530.9401745926,-50383.3906195971,-80472.4743913584,-80458.2260183787,-80500.9711373177,-2414.9836269334
5352589340,3988,1,0,-6718.4668069684,-80262.3991057103,-33169.0198623717,-12648.3208474482,-80526.4746298586,-50383.5853027463,-80471.2211185856,-80456.1696776156,-80500.4479263543,-2414.0588819749
5352589340,3988,1,0,-6718.3207946065,-80262.0827455929,-33154.7593216952,-12648.5398659910,-80530.2952866610,-50603.5285905178,-80472.1580312410,-80457.4229503884,-80501.5673544620,-2415.2391485667
5352589340,3988,1,0,-6718.2112853351,-80262.6302919499,-33130.4725988366,-12648.6980460497,-80533.8847572238,-50747.1439161189,-80471.6104848839,-80457.1917641488,-80500.0098892687,-2416.4072474617
5352589340,3988,1,0,-6719.8660921030,-80263.1900060038,-33130.0588971446,-12649.3064308909,-80535.2840423584,-50624.0554950581,-80471.8903419109,-80459.0899248531,-80501.4091744033,-2418.4149174375
5352589340,3988,1,0,-6717.2135341956,-80261.9367332310,-33150.8534910150,-12647.2257547341,-80529.7720756976,-50395.4609748454,-80470.2111997493,-80455.3422742317,-80498.8539580705,-2414.5577575446
5352628011,3989,1,0,-6717.7367451590,-80261.6690439009,-33168.4723160146,-12647.6637918198,-80526.5476360395,-50363.7762923185,-80470.6127337445,-80455.6221312586,-80498.9147965546,-2413.6938510702
5352628011,3989,1,0,-6719.2698749587,-80261.8880624437,-33158.1054383215,-12649.1360831353,-80528.4944675312,-50564.5797929875,-80470.3572121112,-80456.7172239727,-80499.9003799973,-2415.1053039016
5352628011,3989,1,0,-6717.6394035844,-80262.4112734071,-33133.2224983186,-12649.3185985877,-80532.2907889400,-50733.3822510122,-80470.6857399254,-80456.8875717282,-80499.5231813958,-2416.0543842538
5352628011,3989,1,0,-6718.4303038779,-80262.1435840770,-33128.8056243718,-12648.5276982942,-80535.0771915124,-50644.8379212316,-80472.0728573632,-80457.6784720217,-80500.7277833812,-2417.2833216329
5352628011,3989,1,0,-6718.5398131493,-80262.6059565563,-33149.5393797581,-12649.0630769544,-80531.6215656147,-50413.4083276593,-80470.9899323460,-80457.3986149947,-80501.3240005256,-2415.4825025032
5352628011,3989,1,0,-6717.8949252177,-80261.4865284486,-33168.3993098337,-12648.0409904213,-80527.5575548758,-50346.3156473776,-80470.7222430159,-80456.6928885790,-80499.6813614545,-2413.5235033147
5352628011,3989,1,0,-6718.2477884255,-80262.3504349230,-33160.3929653242,-12647.7854687880,-80528.2632812916,-50531.2889744799,-80470.7830815000,-80456.4982054299,-80500.1072308433,-2414.0102111876
5352628011,3989,1,0,-6717.1648634083,-80261.9489009278,-33135.6073668959,-12647.6637918198,-80531.3782116782,-50715.8729352840,-80470.2598705366,-80456.7780624568,-80499.8395415132,-2415.2999870508
5352703748,3990,1,0,-6717.9557637018,-80261.6933792945,-33125.9827187089,-12648.0409904213,-80534.2376204316,-50654.0610354234,-80470.5032244731,-80457.5811304471,-80499.7787030291,-2417.2954893298
5352703748,3990,1,0,-6719.2212041714,-80262.5816211626,-33144.8061456940,-12649.1482508322,-80532.1569442749,-50425.7220368441,-80470.8195845905,-80457.8244843836,-80500.6426095035,-2417.0643030901
5352703748,3990,1,0,-6718.5641485429,-80262.4599441944,-33165.5764041708,-12648.2965120546,-80527.3263686362,-50329.3538780064,-80471.2819570697,-80456.8510686377,-80500.7399510781,-2414.4239128796
5352703748,3990,1,0,-6717.9557637018,-80262.6181242531,-33161.1473625272,-12649.1847539226,-80528.4944675312,-50490.1621592184,-80471.0872739206,-80456.9970809996,-80500.1193985401,-2414.0467142780
5352703748,3990,1,0,-6717.9314283082,-80261.9854040183,-33136.2157517370,-12648.2843443577,-80531.3173731941,-50697.9985886511,-80470.9899323460,-80457.3012734202,-80499.8030384227,-2415.9083718920
5352703748,3990,1,0,-6717.5420620098,-80261.8028885660,-33125.0093029631,-12647.8463072721,-80534.1281111602,-50674.0768966972,-80470.9290938619,-80457.9461613518,-80500.0463923592,-2415.8840364983
5352703748,3990,1,0,-6718.6006516334,-80262.5937888594,-33142.8593142023,-12648.3330151450,-80531.7919133702,-50449.4612133457,-80471.4888079157,-80458.1895152882,-80500.9102988336,-2416.4315828553
5352703748,3990,1,0,-6717.4933912225,-80262.5451180722,-33165.0410255106,-12647.7611333944,-80527.5210517854,-50323.2943649886,-80470.0408519938,-80456.6563854885,-80500.2654109020,-2414.0588819749
5352706313,3991,1,0,-6717.9314283082,-80262.1192486834,-33164.8463423614,-12648.3816859323,-80527.2168593648,-50465.6929209075,-80470.9899323460,-80456.4251992489,-80499.3650013371,-2413.8520311289
5352706313,3991,1,0,-6719.7809182252,-80263.1900060038,-33142.9809911706,-12648.5642013847,-80532.5341428764,-50684.4924451776,-80471.3427955538,-80458.7005585548,-80501.1293173764,-2416.9061230314
5352706313,3991,1,0,-6719.1725333841,-80262.9101489769,-33126.7614513056,-12648.3330151450,-80536.4886443439,-50688.6172944006,-80472.0363542728,-80459.1872664277,-80501.3605036160,-2418.0498865328
5352706313,3991,1,0,-6719.2333718682,-80263.4820307275,-33140.6934641679,-12648.5276982942,-80532.9600122652,-50472.6285080965,-80471.8173357299,-80458.4815400120,-80501.2509943446,-2416.8452845473
5352706313,3991,1,0,-6718.7466639953,-80263.1048321260,-33164.1284482488,-12648.2235058736,-80528.3119520789,-50317.4051997263,-80470.7952491968,-80457.1309256646,-80500.4844294448,-2414.4725836668
5352706313,3991,1,0,-6717.3230434670,-80261.8880624437,-33164.8828454519,-12647.5299471547,-80526.8518284601,-50423.4831806287,-80469.7123241796,-80456.4251992489,-80500.4357586575,-2412.8542799894
5352706313,3991,1,0,-6717.3717142543,-80262.5329503753,-33141.1680043439,-12647.7002949102,-80530.5021375070,-50653.2457997363,-80471.3549632507,-80456.7780624568,-80499.6326906672,-2415.0931362048
5352706313,3991,1,0,-6717.5907327971,-80262.4112734071,-33124.3400796378,-12647.6881272134,-80534.8703406664,-50695.7597324357,-80471.6104848839,-80457.8488197772,-80499.9247153909,-2416.4072474617
5352718693,3992,1,0,-6717.9557637018,-80262.1192486834,-33133.8673862502,-12648.6493752624,-80533.6657386810,-50493.9949837176,-80472.1336958473,-80457.9704967454,-80500.7642864717,-2417.0764707870
5352718693,3992,1,0,-6718.1504468510,-80261.7907208691,-33156.6331470059,-12648.3573505387,-80529.1271877660,-50313.1951766255,-80470.5397275635,-80456.5468762172,-80499.9247153909,-2414.1440558526
5352718693,3992,1,0,-6718.0896083669,-80261.6082054168,-33161.3542133732,-12648.8318907148,-80526.8153253696,-50391.9810135541,-80470.1746966588,-80455.9506590728,-80499.5840198799,-2413.3653232560
5352718693,3992,1,0,-6717.7854159463,-80261.3405160867,-33140.6326256837,-12647.9679842403,-80530.4899698102,-50621.1717509110,-80470.8682553777,-80456.6563854885,-80499.4866783053,-2415.1174715985
5352718693,3992,1,0,-6717.7489128558,-80261.9489009278,-33119.2418146690,-12647.5907856388,-80533.9455957079,-50694.0197517900,-80471.3184601602,-80457.9704967454,-80500.3262493861,-2416.2855704935
5352718693,3992,1,0,-6718.5763162398,-80262.2774287420,-33125.6541908947,-12648.5398659910,-80533.9699311015,-50513.8648326295,-80472.3527143901,-80457.1795964519,-80500.5696033226,-2417.0034646060
5352718693,3992,1,0,-6717.8340867336,-80261.3040129962,-33148.8579887360,-12648.6858783529,-80528.4214613503,-50312.7936426304,-80470.5032244731,-80456.3643607648,-80499.1946535816,-2414.6185960287
5352718693,3992,1,0,-6717.9557637018,-80261.4743607517,-33156.9251717297,-12648.4911952037,-80525.7445680492,-50353.7987809237,-80469.9191750256,-80456.0601683442,-80499.9490507846,-2412.9759569576
5352742160,3993,1,0,-6719.0873595063,-80261.7542177787,-33138.5032787397,-12649.4646109496,-80529.8085787881,-50582.6609904664,-80470.9655969523,-80457.0214163932,-80500.5574356257,-2415.7623595301
5352742160,3993,1,0,-6718.8805086603,-80261.8515593533,-33115.1169654460,-12649.0995800449,-80533.9942664952,-50689.3716916036,-80470.9899323460,-80457.0700871805,-80500.4235909607,-2417.1859800584
5352742160,3993,1,0,-6719.1968687777,-80262.4599441944,-33116.5405859743,-12648.3816859323,-80534.3227943094,-50528.7580935408,-80471.2332862824,-80457.9461613518,-80500.7642864717,-2417.4658370853
5352742160,3993,1,0,-6718.1261114573,-80262.9223166737,-33139.2941790332,-12648.6615429593,-80530.7333237466,-50313.8035614667,-80471.1846154951,-80457.7758135963,-80502.1757393032,-2416.3099058871
5352742160,3993,1,0,-6718.1139437605,-80262.2409256516,-33150.7074786531,-12648.2721766609,-80527.0465116093,-50323.5985574091,-80471.2454539793,-80457.0700871805,-80500.6426095035,-2412.8786153830
5352742160,3993,1,0,-6716.7876648068,-80261.2188391185,-33133.8065477661,-12647.6516241229,-80527.9834242646,-50539.7090206814,-80470.3572121112,-80454.9164048429,-80500.3019139924,-2413.8763665225
5352742160,3993,1,0,-6717.7610805526,-80261.4743607517,-33108.4977383743,-12648.1626673895,-80533.3372108667,-50674.2107413622,-80471.2454539793,-80457.9826644423,-80500.0707277528,-2416.4680859458
5352742160,3993,1,0,-6717.9800990954,-80261.9610686247,-33107.3174717825,-12648.0896612086,-80534.3349620062,-50546.5716016896,-80471.5618140967,-80457.3864472979,-80500.5574356257,-2416.7966137600
5352818705,3994,1,0,-6718.2964592128,-80262.2530933484,-33129.6208600590,-12648.2113381768,-80530.8184976244,-50322.7711540252,-80472.0485219696,-80457.6054658407,-80500.3505847797,-2415.5068378968
5352818705,3994,1,0,-6718.6006516334,-80262.4599441944,-33145.6943875621,-12649.1360831353,-80527.0830146997,-50299.2509960664,-80471.8051680331,-80457.2282672392,-80500.4479263543,-2415.0079623271
5352818705,3994,1,0,-6718.3086269097,-80261.2796776026,-33132.8574674139,-12648.2356735704,-80527.4115425140,-50507.7444811275,-80469.2377840035,-80455.6951374395,-80498.3794178944,-2413.6938510702
5352818705,3994,1,0,-6718.6614901175,-80261.4743607517,-33108.8627692790,-12648.3330151450,-80532.3637951209,-50670.7429477677,-80470.2233674461,-80456.5225408235,-80500.1315662369,-2416.9061230314
5352818705,3994,1,0,-6719.1847010809,-80262.2530933484,-33105.5044849559,-12648.7467168370,-80534.8095021823,-50571.0286723037,-80471.8173357299,-80457.7758135963,-80500.8737957431,-2417.5510109631
5352818705,3994,1,0,-6717.9435960050,-80262.8858135832,-33126.3234142200,-12648.6250398688,-80531.8162487639,-50342.7626799053,-80471.0872739206,-80458.1773475914,-80501.4213421002,-2415.2634839603
5352818705,3994,1,0,-6717.7367451590,-80263.4333599402,-33145.6457167748,-12647.8584749689,-80528.6039768026,-50288.9814599479,-80471.4523048252,-80457.7636458994,-80501.4943482811,-2413.2314785909
5352818705,3994,1,0,-6717.4568881321,-80262.6789627372,-33136.3009256148,-12647.8098041816,-80528.1537720202,-50477.6537668844,-80470.7465784095,-80456.7780624568,-80500.4235909607,-2413.9128696130
5352827810,3995,1,0,-6718.5763162398,-80262.8858135832,-33111.3084763404,-12648.7710522307,-80534.2984589157,-50662.6392616836,-80471.5983171871,-80458.7979001294,-80501.7133668239,-2416.2247320094
5352827810,3995,1,0,-6718.7344962985,-80263.3968568498,-33104.0321936403,-12648.0531581181,-80535.8924271995,-50597.2013881698,-80472.9854346249,-80458.7370616453,-80502.2122423937,-2417.8065325963
5352827810,3995,1,0,-6717.6515712812,-80263.7497200576,-33122.2715711779,-12648.2600089641,-80532.2664535463,-50362.7542057854,-80472.7299129917,-80458.6032169802,-80502.1270685159,-2416.7114398823
5352827810,3995,1,0,-6717.9192606113,-80263.3846891529,-33142.9079849896,-12647.8341395753,-80528.8351630422,-50272.7619200829,-80471.8903419109,-80458.5545461929,-80501.5673544620,-2413.4018263464
5352827810,3995,1,0,-6718.7223286016,-80263.9565709036,-33138.8074711603,-12648.3451828419,-80529.4435478834,-50446.3706183526,-80471.5374787030,-80458.4693723152,-80502.5772732983,-2413.9615404003
5352827810,3995,1,0,-6718.0044344891,-80263.0683290355,-33113.2431401353,-12647.9558165435,-80532.6558198446,-50648.9019319705,-80471.4888079157,-80458.7735647357,-80500.3505847797,-2414.9592915398
5352827810,3995,1,0,-6717.6759066749,-80262.0949132897,-33101.3796357329,-12647.1284131596,-80534.4688066713,-50612.5935246508,-80471.7321618522,-80457.4959565693,-80500.6182741098,-2415.7501918333
5352827810,3995,1,0,-6718.0896083669,-80262.8614781896,-33120.0083795688,-12648.5642013847,-80532.5584782701,-50388.2576983263,-80471.7443295490,-80457.9948321391,-80500.9711373177,-2417.1738123615
5352841339,3996,1,0,-6718.0531052764,-80262.5329503753,-33143.1026681388,-12648.7832199275,-80528.9690077073,-50271.6668273688,-80470.8682553777,-80457.3621119043,-80501.3605036160,-2413.9615404003
5352841339,3996,1,0,-6717.9922667923,-80262.5937888594,-33140.6082902901,-12648.5033629006,-80528.4944675312,-50417.2533198553,-80471.3427955538,-80457.3621119043,-80499.9612184814,-2414.5455898478
5352841339,3996,1,0,-6717.7245774622,-80262.0097394120,-33117.3436539646,-12647.5786179420,-80530.8550007149,-50633.5097954895,-80470.7100753190,-80456.6685531854,-80500.4722617480,-2415.4216640190
5352841339,3996,1,0,-6719.0873595063,-80263.3116829720,-33105.1759571417,-12647.5786179420,-80535.4300547203,-50633.1812676753,-80472.0728573632,-80458.4328692247,-80500.3992555670,-2417.1616446647
5352841339,3996,1,0,-6718.2721238192,-80262.1557517738,-33118.9862930357,-12647.9193134531,-80531.4390501624,-50410.0013725489,-80470.3085413239,-80457.0335840901,-80500.0342246623,-2415.8597011047
5352841339,3996,1,0,-6718.7223286016,-80262.2530933484,-33143.0661650483,-12648.6372075656,-80528.9081692232,-50260.3508693235,-80471.9268450013,-80457.5567950534,-80501.3848390097,-2415.2269808699
5352841339,3996,1,0,-6717.7975836431,-80261.9245655342,-33144.6723010290,-12647.3109286119,-80526.8518284601,-50381.2004341690,-80470.3815475048,-80456.0480006474,-80499.5353490926,-2413.7060187670
5352841339,3996,1,0,-6717.6637389780,-80262.1070809865,-33124.0723903077,-12647.7976364848,-80530.8550007149,-50614.1509898442,-80470.6492368349,-80457.2769380265,-80499.8030384227,-2414.9592915398
5352870130,3997,1,0,-6718.6858255112,-80263.6645461799,-33108.2543844379,-12648.1626673895,-80535.8924271995,-50655.5089913454,-80472.5230621457,-80458.7005585548,-80501.7863730048,-2417.6240171440
5352870130,3997,1,0,-6718.3451300001,-80262.9223166737,-33120.2517335053,-12648.5033629006,-80534.3714650967,-50457.5527317329,-80472.8515899599,-80459.1994341245,-80500.9589696209,-2417.1251415743
5352870130,3997,1,0,-6717.2135341956,-80262.9101489769,-33143.7597237672,-12646.7025437708,-80528.8229953454,-50281.7051772478,-80470.6857399254,-80456.5468762172,-80500.4965971416,-2414.7037699065
5352870130,3997,1,0,-6717.5298943130,-80261.0728267566,-33148.6268024964,-12647.1649162500,-80526.1704374380,-50362.3526717902,-80471.1116093142,-80456.3765284616,-80499.6570260608,-2413.3774909528
5352870130,3997,1,0,-6718.3572976970,-80262.5572857690,-33127.5401839023,-12648.1261642990,-80529.9302557563,-50588.8665158461,-80471.1846154951,-80457.1187579678,-80500.5087648384,-2415.5433409873
5352870130,3997,1,0,-6717.1040249242,-80260.4157711281,-33105.8938512542,-12647.9558165435,-80533.0208507493,-50655.3751466803,-80470.3572121112,-80457.0092486964,-80499.0973120070,-2416.4924213395
5352870130,3997,1,0,-6717.4933912225,-80261.2796776026,-33113.3161463162,-12647.5299471547,-80532.4611366955,-50469.2580560766,-80470.3450444144,-80456.6198823981,-80499.5596844862,-2415.7015210460
5352870130,3997,1,0,-6717.9557637018,-80260.9268143947,-33138.5154464365,-12647.8463072721,-80527.5088840885,-50273.8813481906,-80469.7244918764,-80454.7703924810,-80499.4623429117,-2414.1440558526
5352929879,3998,1,0,-6718.2721238192,-80260.9146466979,-33147.5682128728,-12648.2965120546,-80526.3407851935,-50328.5264746224,-80469.3229578812,-80456.3035222807,-80499.6205229704,-2413.9737080971
5352929879,3998,1,0,-6718.2477884255,-80261.4135222676,-33129.9250524795,-12648.1991704800,-80529.2001939469,-50552.8379655534,-80470.0895227811,-80456.8875717282,-80500.2045724179,-2415.1053039016
5352929879,3998,1,0,-6718.6006516334,-80261.7542177787,-33107.1592917238,-12647.9193134531,-80533.7022417714,-50645.7870015838,-80471.1724477983,-80457.5932981439,-80500.6669448971,-2417.2103154520
5352929879,3998,1,0,-6718.8075024794,-80264.0417447814,-33110.5540791374,-12649.1969216195,-80535.8559241091,-50482.4235040390,-80472.4257205711,-80459.1994341245,-80501.3361682224,-2417.4415016916
5352929879,3998,1,0,-6718.7101609048,-80262.8614781896,-33133.3563429836,-12648.3451828419,-80531.0618515608,-50273.5771557700,-80471.3427955538,-80458.3720307406,-80501.6646960366,-2414.6429314224
5352929879,3998,1,0,-6718.2234530319,-80263.1900060038,-33144.7939779972,-12647.1162454627,-80527.4480456044,-50293.3983338946,-80471.9390126982,-80456.9484102123,-80501.0441434986,-2412.4770813879
5352929879,3998,1,0,-6717.8705898240,-80262.2774287420,-33130.0954002351,-12647.2865932183,-80529.8572495754,-50519.2186192316,-80471.1967831920,-80457.8609874740,-80501.6403606430,-2414.1440558526
5352929879,3998,1,0,-6718.2234530319,-80263.9444032068,-33108.5464091616,-12647.9923196340,-80534.9555145442,-50648.8045903959,-80471.9390126982,-80458.2746891660,-80501.5430190684,-2416.6627690950
5352942509,3999,1,0,-6718.6249870271,-80262.6789627372,-33108.5829122521,-12648.0288227245,-80534.3714650967,-50509.7034803160,-80471.9390126982,-80458.2625214692,-80501.5551867652,-2417.4901724789
5352942509,3999,1,0,-6718.2112853351,-80262.3747703166,-33130.3874249588,-12648.8075553211,-80530.7333237466,-50287.9715411116,-80471.1359447079,-80457.4107826916,-80500.1802370242,-2415.5433409873
5352942509,3999,1,0,-6718.0531052764,-80263.3725214561,-33146.0837538604,-12647.6394564261,-80527.8739149932,-50276.4000614330,-80471.9876834855,-80457.5446273566,-80500.4235909607,-2413.1098016227
5352942509,3999,1,0,-6719.2333718682,-80264.2485956274,-33134.3054233358,-12649.5011140400,-80530.8793361085,-50487.1445704063,-80472.4257205711,-80458.8587386135,-80502.3095839682,-2415.7623595301
5352942509,3999,1,0,-6718.3938007874,-80262.8736458864,-33108.6072476458,-12647.9071457562,-80535.8194210186,-50641.5648107863,-80472.9610992313,-80459.4062849705,-80501.6768637334,-2415.7136887428
5352942509,3999,1,0,-6718.3451300001,-80263.2630121847,-33105.6870004083,-12647.5421148515,-80535.4178870235,-50533.7833523286,-80472.3405466933,-80459.4427880610,-80501.7863730048,-2417.3928309044
5352942509,3999,1,0,-6718.3451300001,-80263.0561613387,-33127.1021468166,-12647.6272887293,-80531.3295408909,-50301.7453739151,-80470.9047584682,-80457.5811304471,-80501.2874974351,-2415.1904777794
5352942509,3999,1,0,-6718.2964592128,-80262.4721118912,-33144.6601333321,-12647.1162454627,-80527.5575548758,-50251.8091461538,-80470.6492368349,-80456.2305160997,-80499.9612184814,-2413.4261617401
5352965009,4000,1,0,-6718.9656825381,-80262.0584101992,-33134.9989820547,-12648.0166550276,-80529.1636908565,-50451.6757341674,-80471.0142677396,-80457.3377765106,-80501.2509943446,-2414.8132791779
5352965009,4000,1,0,-6717.8949252177,-80261.8637270501,-33110.6879238025,-12648.1748350863,-80532.6558198446,-50632.9865845261,-80470.9169261650,-80457.8488197772,-80500.6547772003,-2416.2490674030
5352965009,4000,1,0,-6718.4059684842,-80261.6568762041,-33103.8983489753,-12647.4812763674,-80534.5418128522,-50552.4729346487,-80471.5009756125,-80457.7758135963,-80501.3483359192,-2416.8209491537
5352965009,4000,1,0,-6718.8075024794,-80261.9854040183,-33122.4175835398,-12648.2965120546,-80531.5242240401,-50317.4903736040,-80470.8195845905,-80457.4716211757,-80500.8494603495,-2416.3950797649
5352965009,4000,1,0,-6718.6128193302,-80262.2165902579,-33142.5672894786,-12648.5276982942,-80527.1681885775,-50236.7820405775,-80471.2454539793,-80456.9970809996,-80500.2045724179,-2413.6938510702
5352965009,4000,1,0,-6718.4546392715,-80261.9123978374,-33134.5852803627,-12647.8341395753,-80527.0343439125,-50409.3564846172,-80469.8705042383,-80456.0601683442,-80499.6448583640,-2413.8520311289
5352965009,4000,1,0,-6718.1017760637,-80262.2287579548,-33110.2255513232,-12647.8706426658,-80531.9135903384,-50608.8580417262,-80472.1215281505,-80456.7902301536,-80500.2897462956,-2416.2247320094
5352965009,4000,1,0,-6717.3838819511,-80260.7564666392,-33098.2403699526,-12646.6903760739,-80533.1911985049,-50566.6239660538,-80469.7609949669,-80455.8898205887,-80499.5353490926,-2416.6992721854
5352995598,4001,1,0,-6718.3938007874,-80261.4500253581,-33116.2972320379,-12647.3474317024,-80530.9645099863,-50335.7784219289,-80470.3937152017,-80456.7415593663,-80499.8273738164,-2415.4703348063
5352995598,4001,1,0,-6718.3938007874,-80261.9975717151,-33137.5541983875,-12648.0166550276,-80527.7400703282,-50220.0149543554,-80470.2963736271,-80457.1187579678,-80500.6669448971,-2414.1805589431
5352995598,4001,1,0,-6718.2721238192,-80262.2409256516,-33133.9525601279,-12648.7102137465,-80528.1902751106,-50370.5780348425,-80470.9655969523,-80457.1795964519,-80500.5939387162,-2415.1783100826
5352995598,4001,1,0,-6718.2842915160,-80262.3991057103,-33108.9722785504,-12647.8828103626,-80532.1934473654,-50583.3423814885,-80471.5861494903,-80459.2237695182,-80501.2509943446,-2416.2612350998
5352995598,4001,1,0,-6718.4668069684,-80263.0683290355,-33095.0037625977,-12647.6881272134,-80536.8050044613,-50571.9655849590,-80471.8416711236,-80458.8222355230,-80501.0319758018,-2417.6118494472
5352995598,4001,1,0,-6718.9535148413,-80264.1877571433,-33109.2034647901,-12648.4060213260,-80533.9699311015,-50352.1804772462,-80472.1823666346,-80459.0534217627,-80502.1757393032,-2416.4802536426
5352995598,4001,1,0,-6717.6029004939,-80262.0949132897,-33132.0543994236,-12646.6173698930,-80528.0199273551,-50211.3880573080,-80471.1359447079,-80455.9506590728,-80499.7543676354,-2413.4018263464
5352995598,4001,1,0,-6718.0166021859,-80262.4599441944,-33133.1616598344,-12647.6516241229,-80527.3385363330,-50332.3714668185,-80471.2211185856,-80457.2647703297,-80500.4722617480,-2413.8641988257
5353057419,4002,1,0,-6718.7588316921,-80262.3869380135,-33110.7730976802,-12648.2478412673,-80530.8063299276,-50557.5833673143,-80471.5496463998,-80457.8366520804,-80500.7642864717,-2416.0057134665
5353057419,4002,1,0,-6718.4181361811,-80262.0097394120,-33095.6243151357,-12647.8341395753,-80535.8680918059,-50585.9341009118,-80471.4158017348,-80457.4837888725,-80500.5087648384,-2418.3054081661
5353057419,4002,1,0,-6716.9945156528,-80260.8416405169,-33107.3053040857,-12647.2500901278,-80532.4611366955,-50376.6618832540,-80470.3328767175,-80456.5347085203,-80498.7687841928,-2416.7966137600
5353057419,4002,1,0,-6717.6880743717,-80262.6789627372,-33131.8962193649,-12647.4691086706,-80528.6891506804,-50209.6480766623,-80470.5275598667,-80457.2404349361,-80500.5696033226,-2414.1075527622
5353057419,4002,1,0,-6718.3694653938,-80263.3481860625,-33137.4446891161,-12647.9314811499,-80528.1051012329,-50305.7972169572,-80471.9390126982,-80457.7758135963,-80501.3605036160,-2414.3144036082
5353057419,4002,1,0,-6718.0652729732,-80262.6059565563,-33116.2728966442,-12648.2843443577,-80531.7189071893,-50533.4304891208,-80471.4766402189,-80457.3134411170,-80501.2144912542,-2414.4969190605
5353057419,4002,1,0,-6718.1991176383,-80263.0804967324,-33097.9483452289,-12647.8098041816,-80534.9311791505,-50590.3023040712,-80472.2918759060,-80459.2602726087,-80502.3582547555,-2416.7114398823
5353057419,4002,1,0,-6717.4568881321,-80262.6667950404,-33106.2467144621,-12646.4956929248,-80533.9455957079,-50398.3203835988,-80472.1215281505,-80457.4837888725,-80500.4357586575,-2415.6285148650
5353063751,4003,1,0,-6719.4280550174,-80263.3846891529,-33131.7015362157,-12649.1117477417,-80528.7986599518,-50211.4732311857,-80471.5253110062,-80457.8001489899,-80501.5673544620,-2415.8110303174
5353063751,4003,1,0,-6718.2234530319,-80262.0949132897,-33138.4424402556,-12648.0896612086,-80527.3507040298,-50271.8371751244,-80471.1359447079,-80456.3765284616,-80499.3893367307,-2414.4239128796
5353063751,4003,1,0,-6719.5984027729,-80262.9831551578,-33118.8037775834,-12648.7588845338,-80530.8915038053,-50499.5434534689,-80471.9146773045,-80457.3864472979,-80501.0928142859,-2415.4581671095
5353063751,4003,1,0,-6718.5398131493,-80261.9854040183,-33097.8388359575,-12647.5177794579,-80534.5174774586,-50591.0688689711,-80470.5518952603,-80457.4229503884,-80501.3118328288,-2416.9426261219
5353063751,4003,1,0,-6718.0287698827,-80262.1557517738,-33102.3043806915,-12647.8706426658,-80533.9577634047,-50418.4214187503,-80471.9146773045,-80457.6906397185,-80501.0806465891,-2417.1373092711
5353063751,4003,1,0,-6717.6637389780,-80261.1093298471,-33124.1818995791,-12646.6052021962,-80529.2853678247,-50207.9689345007,-80471.2089508888,-80456.8997394250,-80500.6669448971,-2413.3774909528
5353063751,4003,1,0,-6717.9070929145,-80261.8637270501,-33135.5100253213,-12646.8485561326,-80526.5233006459,-50237.7919594138,-80470.9777646492,-80456.9240748187,-80500.0707277528,-2413.0367954417
5353063751,4003,1,0,-6717.8584221272,-80262.1314163802,-33118.1102188645,-12647.5299471547,-80529.6503987294,-50461.3977239290,-80470.6492368349,-80457.2647703297,-80500.4722617480,-2414.3265713050
5353103601,4004,1,0,-6718.1626145478,-80262.3260995293,-33095.4661350770,-12647.8584749689,-80534.3836327935,-50581.9552640507,-80471.1846154951,-80458.7492293421,-80501.7377022175,-2417.4658370853
5353103601,4004,1,0,-6718.9656825381,-80262.7032981309,-33096.7072401529,-12648.3086797514,-80535.0285207251,-50437.9262367575,-80472.0606896664,-80457.7149751121,-80502.3460870587,-2416.7114398823
5353103601,4004,1,0,-6717.4325527384,-80262.4234411039,-33119.8258641165,-12646.9702331009,-80530.5143052038,-50217.1312102084,-80471.8781742141,-80457.8001489899,-80501.3970067065,-2414.1805589431
5353103601,4004,1,0,-6719.3063780491,-80263.7983908449,-33133.9038893407,-12647.8341395753,-80528.7743245581,-50210.0131075670,-80472.5352298425,-80458.8344032199,-80501.5916898557,-2413.4870002242
5353103601,4004,1,0,-6718.6493224207,-80264.3216018083,-33120.8722860433,-12648.1991704800,-80531.1348577418,-50425.1379873966,-80473.5938194661,-80459.6618066038,-80503.4168443791,-2414.7159376033
5353103601,4004,1,0,-6718.7953347826,-80265.2220113732,-33096.6707370624,-12647.8706426658,-80536.1844519233,-50576.0539310915,-80474.7254152706,-80460.3918684132,-80503.5385213473,-2416.3342412808
5353103601,4004,1,0,-6718.1626145478,-80264.0904155687,-33093.0204280156,-12647.3352640056,-80536.6711597962,-50456.5428128966,-80473.3261301360,-80459.3089433960,-80501.7133668239,-2417.0277999997
5353103601,4004,1,0,-6716.8363355941,-80263.1169998228,-33113.4378232845,-12646.6173698930,-80531.0740192577,-50224.5778406640,-80471.8416711236,-80458.2503537724,-80500.8494603495,-2413.9007019162
5353133182,4005,1,0,-6718.0409375796,-80262.8371427959,-33130.8132943476,-12647.7124626071,-80528.1659397170,-50187.1865083271,-80472.5960683266,-80457.2526026329,-80501.8228760953,-2412.7934415053
5353133182,4005,1,0,-6717.4082173448,-80261.9123978374,-33119.9110379943,-12647.4204378833,-80529.1393554628,-50383.0620917829,-80470.2842059302,-80456.9119071218,-80500.6304418067,-2414.2048943367
5353133182,4005,1,0,-6719.1603656873,-80263.4333599402,-33095.4174642897,-12648.5520336878,-80534.3349620062,-50556.8533055049,-80473.3504655296,-80459.1629310341,-80501.8837145794,-2416.7601106696
5353133182,4005,1,0,-6718.6858255112,-80263.2630121847,-33088.6522248561,-12648.3816859323,-80535.8559241091,-50472.9448682139,-80473.9588503708,-80459.2967756991,-80501.5186836747,-2417.3319924202
5353133182,4005,1,0,-6717.5542297066,-80262.1070809865,-33108.0718689855,-12646.7633822549,-80532.0230996099,-50239.6049462404,-80472.1336958473,-80458.2503537724,-80501.2388266478,-2414.9471238429
5353133182,4005,1,0,-6718.7588316921,-80263.2873475784,-33129.4870153939,-12648.1018289054,-80528.3119520789,-50164.6032630238,-80472.1215281505,-80458.3841984374,-80501.9688884572,-2413.9250373098
5353133182,4005,1,0,-6718.6736578144,-80263.2508444879,-33120.5559259259,-12647.8463072721,-80529.7720756976,-50345.6585917491,-80471.7321618522,-80458.3476953469,-80501.5430190684,-2414.3022359113
5353133182,4005,1,0,-6718.3816330906,-80263.2751798815,-33096.8654202116,-12646.7268791644,-80534.0064341920,-50540.8284487891,-80471.8781742141,-80458.5302107993,-80501.2996651319,-2415.3486578381
5353171438,4006,1,0,-6718.2234530319,-80262.7519689181,-33087.0825919660,-12646.7877176485,-80536.0384395614,-50487.5704397951,-80472.5960683266,-80460.0025021149,-80502.2122423937,-2417.1738123615
5353171438,4006,1,0,-6717.3960496479,-80262.5937888594,-33104.1903736990,-12647.5786179420,-80532.6801552383,-50255.9461630736,-80471.6591556712,-80458.6883908580,-80501.6281929461,-2415.9083718920
5353171438,4006,1,0,-6718.6614901175,-80262.8128074023,-33126.5546004596,-12647.8584749689,-80528.0442627488,-50153.2994726753,-80472.3162112997,-80457.9704967454,-80502.9544718999,-2414.7037699065
5353171438,4006,1,0,-6718.0774406700,-80262.7884720086,-33120.9817953147,-12647.3109286119,-80528.5309706217,-50306.6489557348,-80471.9633480918,-80457.6054658407,-80501.0319758018,-2413.1098016227
5353171438,4006,1,0,-6718.2477884255,-80263.6037076958,-33096.0745199181,-12647.1527485532,-80533.9212603142,-50515.5074717006,-80472.7420806885,-80459.7834835720,-80502.2974162714,-2415.2148131730
5353171438,4006,1,0,-6718.5398131493,-80264.0782478718,-33083.1524258922,-12647.3109286119,-80536.6589920994,-50499.0202425055,-80473.3869686201,-80459.2967756991,-80502.2365777873,-2416.7601106696
5353171438,4006,1,0,-6718.1626145478,-80262.6181242531,-33099.1286118207,-12646.8485561326,-80533.3493785636,-50275.6943350172,-80472.4378882679,-80457.8488197772,-80501.4091744033,-2415.7988626206
5353171438,4006,1,0,-6717.7245774622,-80263.1900060038,-33121.2251492511,-12647.2379224310,-80528.1416043233,-50139.9150061700,-80471.7199941554,-80457.8244843836,-80501.5795221588,-2413.5478387083
5353202599,4007,1,0,-6718.4789746652,-80262.8128074023,-33121.7970310018,-12647.2987609151,-80528.1416043233,-50273.4068080145,-80471.1481124047,-80457.6784720217,-80501.4821805843,-2413.2314785909
5353202599,4007,1,0,-6718.7101609048,-80262.4842795880,-33099.9316798110,-12647.5056117611,-80531.7919133702,-50496.2825107203,-80472.4865590552,-80458.5667138898,-80500.8981311368,-2416.1152227379
5353202599,4007,1,0,-6717.7732482495,-80261.6812115977,-33082.8725688652,-12646.8607238295,-80534.5053097617,-50508.7787353575,-80470.5883983508,-80457.6784720217,-80499.9977215719,-2416.8087814569
5353202599,4007,1,0,-6718.4668069684,-80262.3626026198,-33094.6752347835,-12648.2478412673,-80532.5584782701,-50297.1338168193,-80472.2432051187,-80458.1286768041,-80502.0175592445,-2416.3585766744
5353202599,4007,1,0,-6718.1261114573,-80260.8416405169,-33117.6235109916,-12647.8706426658,-80527.3872071203,-50137.8464977101,-80471.7686649426,-80456.7537270631,-80500.0098892687,-2414.3144036082
5353202599,4007,1,0,-6717.3108757702,-80261.7298823850,-33121.3833293098,-12647.1892516437,-80526.8396607633,-50239.4345984849,-80470.4667213826,-80456.0114975569,-80499.7543676354,-2412.8786153830
5353202599,4007,1,0,-6717.0431864401,-80260.4766096123,-33098.0821898939,-12646.6417052866,-80529.6382310326,-50468.3454788149,-80469.4811379399,-80455.7559759237,-80499.6691937577,-2414.8497822684
5353202599,4007,1,0,-6718.2112853351,-80262.0584101992,-33081.8504823321,-12647.8949780594,-80535.1867007838,-50522.8689282785,-80472.5595652361,-80458.1651798946,-80500.8616280463,-2417.2346508457
5353222843,4008,0,0,-6717.9070929145,-80262.8128074023,-33090.5260501669,-12647.2500901278,-80533.5440617127,-50327.1636925783,-80470.9412615587,-80458.1895152882,-80500.5696033226,-2416.5897629140
5353222843,4008,0,0,-6718.9291794476,-80262.5329503753,-33115.7496856808,-12648.1870027832,-80529.3583740056,-50144.1980354517,-80471.0751062237,-80456.4130315521,-80500.4722617480,-2414.9227884493
5353222843,4008,0,0,-6718.7223286016,-80261.5595346295,-33122.5757635985,-12647.4569409738,-80525.4403756286,-50217.2528871766,-80469.4568025463,-80456.1088391315,-80500.2167401147,-2413.1949755004
5353222843,4008,0,0,-6718.6371547239,-80261.1701683312,-33105.3706402909,-12647.7854687880,-80529.3218709152,-50448.8893315950,-80470.7952491968,-80456.7293916695,-80500.6912802908,-2414.6550991192
5353222843,4008,0,0,-6717.7002420685,-80262.5937888594,-33085.2696051394,-12647.0189038882,-80534.5418128522,-50530.4250680055,-80471.5618140967,-80458.0191675327,-80500.9954727114,-2416.5167567331
5353222843,4008,0,0,-6718.4303038779,-80261.8515593533,-33090.7085656192,-12647.0432392818,-80535.0163530283,-50356.6216865866,-80470.9777646492,-80457.9948321391,-80501.8107083985,-2416.1152227379
5353222843,4008,0,0,-6717.4933912225,-80262.6789627372,-33116.0295427078,-12647.7002949102,-80529.4435478834,-50156.2805583969,-80470.2233674461,-80457.5932981439,-80500.4235909607,-2414.9471238429
5353222843,4008,0,0,-6718.2964592128,-80262.6059565563,-33127.2116560880,-12647.8706426658,-80527.2533624553,-50192.6498042006,-80470.9899323460,-80457.1430933615,-80500.6669448971,-2413.3774909528
5353252069,4009,0,0,-6719.4888935015,-80262.8006397054,-33109.8848558122,-12648.5885367783,-80530.7941622307,-50420.6359395721,-80470.6857399254,-80457.5081242662,-80501.2388266478,-2416.3099058871
5353252069,4009,0,0,-6718.6006516334,-80261.9123978374,-33087.3746166897,-12648.5398659910,-80534.0551049793,-50537.0686304708,-80470.9412615587,-80457.6663043249,-80500.3019139924,-2416.7601106696
5353252069,4009,0,0,-6718.2356207287,-80261.1214975439,-33088.6765602498,-12648.0409904213,-80534.5174774586,-50383.4392903844,-80471.8416711236,-80458.0069998359,-80500.4600940511,-2417.0034646060
5353252069,4009,0,0,-6718.1139437605,-80262.3991057103,-33112.5982522037,-12647.9801519372,-80530.3439574483,-50163.9948781826,-80471.8903419109,-80457.3012734202,-80501.2996651319,-2415.1661423858
5353252069,4009,0,0,-6718.2842915160,-80262.2044225611,-33125.7393647725,-12646.9702331009,-80526.6693130078,-50167.7060257136,-80471.2332862824,-80458.0313352295,-80501.7011991271,-2412.7691061116
5353252069,4009,0,0,-6718.2112853351,-80262.5086149817,-33110.9799485262,-12647.2135870373,-80529.4070447929,-50385.2401095142,-80471.2697893729,-80457.5324596598,-80500.9589696209,-2414.7281053001
5353252069,4009,0,0,-6717.2500372861,-80261.5351992358,-33086.0970085233,-12647.6881272134,-80533.8239187397,-50526.4705665381,-80471.0386031333,-80457.9704967454,-80500.8372926526,-2415.5676763809
5353252069,4009,0,0,-6717.1891988020,-80262.3260995293,-33084.7950649633,-12646.9093946167,-80535.1988684806,-50404.9031075800,-80471.8781742141,-80458.4207015279,-80501.2266589510,-2417.1129738774
5353290279,4010,0,0,-6718.4424715747,-80264.1512540528,-33107.2444656016,-12648.1504996927,-80532.2542858495,-50181.7840509378,-80472.6325714171,-80459.1385956404,-80502.0783977286,-2415.7380241364
5353290279,4010,0,0,-6717.9679313986,-80263.6280430894,-33123.4153346793,-12647.8463072721,-80527.6427287536,-50149.6491636284,-80471.7686649426,-80457.9218259581,-80501.3240005256,-2413.0246277449
5353290279,4010,0,0,-6718.5763162398,-80263.3846891529,-33110.4567375628,-12647.0675746754,-80529.3705417024,-50353.9082901951,-80472.1336958473,-80458.2138506819,-80501.5916898557,-2414.5577575446
5353290279,4010,0,0,-6717.7854159463,-80262.3139318325,-33086.6932256676,-12647.2500901278,-80533.8117510428,-50521.3114630851,-80471.8660065172,-80458.7613970389,-80501.3726713129,-2416.2490674030
5353290279,4010,0,0,-6717.3838819511,-80262.0827455929,-33080.6215449530,-12646.7147114676,-80534.6634898204,-50426.3912601694,-80471.2454539793,-80458.0191675327,-80500.6912802908,-2416.5654275204
5353290279,4010,0,0,-6718.0531052764,-80262.9709874610,-33101.6473250630,-12647.9923196340,-80531.5485594338,-50194.0977601226,-80472.3162112997,-80458.5667138898,-80500.1680693274,-2416.1638935252
5353290279,4010,0,0,-6717.9557637018,-80262.3869380135,-33120.5437582291,-12647.3961024897,-80527.2168593648,-50131.8721585700,-80471.1481124047,-80456.7050562758,-80499.7908707259,-2413.5235033147
5353290279,4010,0,0,-6718.6371547239,-80262.5937888594,-33112.2575566926,-12648.1870027832,-80528.9446723136,-50318.0379199611,-80470.8439199841,-80457.2769380265,-80500.5817710194,-2415.0322977207
5353323681,4011,0,0,-6717.8584221272,-80260.9146466979,-33086.7905672422,-12647.7489656975,-80532.9478445684,-50506.0896743596,-80471.0507708301,-80456.8389009409,-80500.3992555670,-2416.2125643125
5353323681,4011,0,0,-6718.3816330906,-80261.6933792945,-33078.1636701948,-12647.8949780594,-80534.6634898204,-50447.9037481523,-80471.5009756125,-80458.7613970389,-80500.6669448971,-2417.2468185425
5353323681,4011,0,0,-6718.2842915160,-80261.7907208691,-33096.9992648767,-12647.6029533357,-80531.6337333115,-50217.5814149909,-80471.1602801015,-80457.7271428090,-80500.8737957431,-2416.4194151585
5353323681,4011,0,0,-6718.0896083669,-80261.7907208691,-33117.4288278424,-12648.1139966022,-80527.1925239711,-50118.5728659426,-80470.6614045318,-80456.8145655472,-80499.7056968481,-2414.8862853588
5353323681,4011,0,0,-6718.1139437605,-80261.7785531723,-33111.2963086436,-12647.8949780594,-80528.2632812916,-50286.4140759182,-80471.2941247665,-80456.5468762172,-80499.8273738164,-2414.5212544541
5353323681,4011,0,0,-6717.7124097653,-80261.6447085073,-33087.0704242691,-12647.2014193405,-80532.4976397859,-50495.4551073364,-80470.3693798080,-80457.1552610583,-80500.8251249558,-2415.9083718920
5353323681,4011,0,0,-6717.1526957115,-80263.0439936419,-33075.1217459890,-12646.2523389883,-80535.2962100552,-50469.1850498956,-80471.7199941554,-80458.9925832786,-80501.6160252493,-2417.0156323028
5353323681,4011,0,0,-6719.3185457460,-80264.0417447814,-33091.9861737856,-12648.2478412673,-80534.8703406664,-50243.5229446174,-80473.4964778915,-80459.9659990244,-80502.6746148729,-2416.5289244299
5353345385,4012,0,0,-6718.9048440540,-80262.8249750991,-33113.3769848004,-12648.3086797514,-80529.9180880595,-50119.5949524757,-80472.3040436029,-80457.5932981439,-80502.1270685159,-2414.7281053001
5353345385,4012,0,0,-6718.4911423620,-80263.1900060038,-33112.4279044482,-12647.7611333944,-80529.9180880595,-50257.4549574796,-80472.5473975393,-80459.1994341245,-80501.9688884572,-2414.8741176620
5353345385,4012,0,0,-6717.8705898240,-80262.9466520673,-33088.8590757021,-12646.6538729835,-80532.8139999033,-50473.1517190599,-80471.7930003363,-80457.8244843836,-80501.3483359192,-2415.6528502587
5353345385,4012,0,0,-6718.2356207287,-80263.3725214561,-33073.3452622529,-12647.3474317024,-80537.3282154247,-50481.6326037455,-80472.6325714171,-80459.3089433960,-80502.0297269413,-2417.4415016916
5353345385,4012,0,0,-6718.2234530319,-80263.4455276371,-33086.0726731297,-12647.3230963087,-80534.3227943094,-50263.2954519546,-80472.6934099012,-80458.4328692247,-80502.2365777873,-2417.2711539361
5353345385,4012,0,0,-6718.0409375796,-80262.9831551578,-33107.6825026872,-12647.8341395753,-80529.2975355215,-50105.7724488848,-80472.4013851774,-80458.2016829851,-80501.0441434986,-2414.0223788844
5353345385,4012,0,0,-6717.5420620098,-80262.2895964389,-33109.5928310884,-12647.8098041816,-80527.8374119028,-50216.2308006435,-80470.8560876809,-80457.7879812931,-80501.3970067065,-2414.3265713050
5353345385,4012,0,0,-6719.1603656873,-80263.9200678131,-33088.4210386165,-12648.3208474482,-80533.6657386810,-50446.0542582352,-80473.4113040137,-80459.4306203642,-80502.6746148729,-2416.0422165570
5353374308,4013,0,0,-6718.1747822446,-80262.3260995293,-33069.1717422426,-12648.5885367783,-80535.6247378694,-50485.5506021225,-80472.8394222631,-80457.8123166867,-80500.7521187749,-2417.5145078726
5353374308,4013,0,0,-6718.7223286016,-80262.4112734071,-33077.9811547424,-12648.2843443577,-80534.1646142507,-50285.6596787152,-80472.4257205711,-80458.7127262516,-80501.3240005256,-2417.4901724789
5353374308,4013,0,0,-6717.4690558289,-80260.9511497884,-33100.4062199871,-12646.9458977072,-80528.1537720202,-50107.0013862640,-80470.4910567762,-80456.4860377330,-80500.0342246623,-2413.9372050066
5353374308,4013,0,0,-6716.9336771687,-80260.3305972504,-33105.0664478703,-12646.9337300104,-80526.2069405285,-50181.9057279060,-80468.9700946734,-80456.0480006474,-80499.5718521831,-2412.8664476862
5353374308,4013,0,0,-6717.7002420685,-80261.6690439009,-33083.3957798286,-12647.4204378833,-80530.4047959324,-50409.7580186124,-80471.3549632507,-80457.6784720217,-80499.9733861782,-2414.9106207525
5353374308,4013,0,0,-6718.7101609048,-80263.9687386004,-33063.3920862517,-12648.1018289054,-80536.5859859185,-50486.6335271397,-80473.1314469868,-80460.0146698117,-80501.8593791858,-2418.1107250169
5353374308,4013,0,0,-6717.0796895305,-80262.5816211626,-33067.1397368732,-12646.9702331009,-80535.1258622997,-50302.9256405070,-80472.2432051187,-80458.6275523739,-80501.3361682224,-2416.6871044886
5353374308,4013,0,0,-6718.5033100588,-80263.0318259451,-33091.0492611302,-12646.4105190470,-80530.6724852625,-50101.9396243856,-80471.8538388204,-80458.2016829851,-80501.3848390097,-2414.7402729970
5353408354,4014,0,0,-6718.2721238192,-80262.7519689181,-33098.4472207986,-12647.1770839469,-80528.7378214677,-50149.0407787872,-80472.4135528743,-80457.5446273566,-80501.6038575525,-2414.0467142780
5353408354,4014,0,0,-6718.6249870271,-80263.9444032068,-33079.8306446595,-12647.9071457562,-80531.2565347100,-50377.5257897284,-80471.5861494903,-80457.8853228677,-80501.2996651319,-2415.8353657110
5353408354,4014,0,0,-6718.0287698827,-80261.6203731136,-33056.4930021531,-12647.8463072721,-80535.0163530283,-50479.5397598920,-80471.8173357299,-80458.2746891660,-80500.9346342272,-2416.9791292124
5353408354,4014,0,0,-6718.3938007874,-80262.0340748056,-33057.3325732339,-12647.6151210325,-80534.1889496443,-50318.4151185626,-80471.0021000428,-80457.8974905645,-80500.8859634399,-2417.1738123615
5353408354,4014,0,0,-6717.8219190367,-80262.2774287420,-33078.8693966105,-12647.3961024897,-80529.9180880595,-50103.8621204836,-80470.6249014413,-80456.3035222807,-80501.0684788923,-2414.9836269334
5353408354,4014,0,0,-6718.6614901175,-80262.3991057103,-33091.6698136682,-12648.2721766609,-80527.8860826900,-50114.5331905974,-80470.9047584682,-80457.2039318456,-80500.3992555670,-2414.5699252414
5353408354,4014,0,0,-6717.1770311051,-80261.9245655342,-33074.2943426051,-12646.8242207390,-80528.8960015264,-50335.5229002956,-80470.8439199841,-80455.9993298601,-80499.5353490926,-2413.9980434908
5353408354,4014,0,0,-6718.4911423620,-80262.3504349230,-33052.6236745634,-12647.7489656975,-80534.7729990918,-50478.1039716669,-80471.8903419109,-80458.4450369215,-80500.5696033226,-2416.6992721854
5353441432,4015,0,0,-6717.8949252177,-80261.9123978374,-33051.2973956097,-12646.4470221375,-80534.4688066713,-50348.2503111724,-80471.5131433094,-80458.8709063103,-80500.5939387162,-2416.6627690950
5353441432,4015,0,0,-6718.8805086603,-80262.4842795880,-33074.8175535684,-12646.9093946167,-80531.2078639227,-50123.4886154590,-80471.2819570697,-80457.4229503884,-80500.4235909607,-2416.1152227379
5353441432,4015,0,0,-6719.0630241127,-80263.5428692116,-33091.6698136682,-12648.1139966022,-80528.2024428075,-50103.8134496963,-80472.7420806885,-80457.7514782026,-80501.5795221588,-2414.3630743954
5353441432,4015,0,0,-6718.4789746652,-80262.2409256516,-33080.3781910165,-12648.2356735704,-80529.7964110913,-50312.3921086352,-80471.6348202776,-80457.4229503884,-80500.4235909607,-2415.3121547476
5353441432,4015,0,0,-6717.7367451590,-80262.3869380135,-33056.6876853023,-12647.5542825484,-80534.5174774586,-50474.7943581310,-80471.6469879744,-80457.3864472979,-80500.5574356257,-2416.6871044886
5353441432,4015,0,0,-6718.4668069684,-80263.2630121847,-33054.2419782408,-12648.2600089641,-80536.4886443439,-50378.7790625012,-80471.9511803950,-80459.0169186722,-80501.3483359192,-2418.5122590121
5353441432,4015,0,0,-6718.2964592128,-80262.5937888594,-33076.2046710063,-12646.5078606216,-80531.6824040988,-50150.6347470710,-80471.0021000428,-80457.4594534789,-80500.4235909607,-2416.0300488602
5353441432,4015,0,0,-6718.6736578144,-80263.2873475784,-33097.7901651702,-12647.5177794579,-80528.1659397170,-50095.3325650108,-80472.1093604537,-80456.8997394250,-80500.9346342272,-2413.8520311289
5353474273,4016,0,0,-6719.1725333841,-80262.6059565563,-33090.1001807781,-12648.2965120546,-80529.6017279421,-50287.8376964465,-80472.3040436029,-80457.7879812931,-80501.0198081050,-2415.9813780729
5353474273,4016,0,0,-6717.6759066749,-80262.1192486834,-33067.4439292937,-12646.8728915263,-80532.8139999033,-50477.2765682829,-80471.3914663411,-80456.5955470044,-80499.2676597625,-2416.2003966157
5353474273,4016,0,0,-6718.1382791541,-80262.7884720086,-33062.4551735963,-12647.0554069786,-80534.7364960014,-50414.1627248623,-80471.1481124047,-80458.2625214692,-80501.6160252493,-2418.1472281074
5353474273,4016,0,0,-6717.9435960050,-80262.1922548643,-33082.7630595938,-12647.6881272134,-80531.9500934289,-50186.2739310654,-80470.4788890794,-80457.1795964519,-80500.3749201734,-2416.0543842538
5353474273,4016,0,0,-6718.4424715747,-80262.2165902579,-33103.5211503738,-12646.6538729835,-80527.4480456044,-50105.1518963469,-80470.7952491968,-80457.3742796011,-80499.7665353322,-2414.1927266399
5353474273,4016,0,0,-6718.7344962985,-80262.8736458864,-33100.5400646521,-12647.9436488467,-80529.4192124897,-50278.7849300103,-80471.2089508888,-80457.6541366280,-80501.3970067065,-2415.7501918333
5353474273,4016,0,0,-6719.6105704697,-80263.4820307275,-33075.6449569524,-12648.1018289054,-80533.6900740746,-50477.9701270018,-80472.8150868694,-80458.5423784961,-80502.3582547555,-2416.5289244299
5353474273,4016,0,0,-6718.3207946065,-80263.6767138767,-33065.7404517385,-12648.1383319959,-80537.4863954834,-50443.1948494818,-80472.4378882679,-80459.5279619388,-80502.2122423937,-2417.1373092711
5353530108,4017,0,0,-6717.9192606113,-80263.8227262386,-33083.0915874080,-12647.5664502452,-80533.6900740746,-50215.8049312547,-80472.1945343314,-80458.7005585548,-80501.2996651319,-2416.2977381903
5353530108,4017,0,0,-6718.6736578144,-80261.7055469914,-33106.6847515477,-12647.6151210325,-80528.8960015264,-50094.3834846586,-80471.0872739206,-80456.9970809996,-80501.1536527701,-2414.7281053001
5353530108,4017,0,0,-6719.2820426555,-80261.8272239596,-33104.7987585402,-12647.5664502452,-80528.3971259566,-50239.7266232086,-80470.9047584682,-80457.2039318456,-80500.0828954496,-2415.0079623271
5353530108,4017,0,0,-6718.3938007874,-80261.5230315390,-33080.9622404640,-12647.5177794579,-80532.7166583288,-50455.4112170921,-80471.4158017348,-80456.8754040314,-80500.8616280463,-2415.8962041951
5353530108,4017,0,0,-6717.4690558289,-80261.3040129962,-33064.7061975086,-12646.4713575311,-80533.9577634047,-50447.7455680936,-80469.4568025463,-80456.5833793076,-80499.4380075180,-2416.1152227379
5353530108,4017,0,0,-6717.7002420685,-80260.8416405169,-33077.8473100774,-12647.2744255214,-80531.7554102797,-50224.9063684783,-80470.6614045318,-80457.2282672392,-80500.8616280463,-2416.3220735839
5353530108,4017,0,0,-6718.2234530319,-80261.8028885660,-33102.0610267550,-12647.1527485532,-80527.8252442059,-50078.7479942411,-80470.9777646492,-80456.1575099188,-80500.1437339337,-2415.0201300239
5353530108,4017,0,0,-6718.3572976970,-80261.4013545708,-33103.3751380119,-12647.7124626071,-80528.2754489884,-50200.3276208959,-80470.1868643557,-80456.7293916695,-80500.7156156844,-2414.4847513637
5353532510,4018,0,0,-6717.6515712812,-80262.2409256516,-33081.0717497354,-12647.0919100691,-80532.0230996099,-50428.0704023309,-80471.2819570697,-80457.5446273566,-80500.3262493861,-2416.0057134665
5353532510,4018,0,0,-6718.2112853351,-80261.4378576613,-33064.0126387897,-12647.0310715850,-80534.9190114537,-50464.8290144330,-80470.6127337445,-80457.7028074153,-80500.5331002321,-2417.3684955107
5353532510,4018,0,0,-6718.1869499414,-80261.6812115977,-33075.7788016175,-12647.4569409738,-80533.2033662017,-50258.3797024382,-80471.0386031333,-80457.2282672392,-80499.5353490926,-2417.0886384838
5353532510,4018,0,0,-6719.0021856286,-80261.8637270501,-33100.0411890824,-12647.9801519372,-80528.4214613503,-50082.4834771657,-80470.9169261650,-80456.4617023394,-80500.3627524766,-2415.4703348063
5353532510,4018,0,0,-6717.7367451590,-80260.9633174852,-33103.2169579532,-12647.1040777659,-80527.0830146997,-50169.0079692737,-80469.8461688446,-80455.9263236792,-80499.0608089165,-2414.4604159700
5353532510,4018,0,0,-6717.8827575209,-80261.3040129962,-33083.8338169142,-12646.8607238295,-80530.6603175657,-50401.7638417997,-80469.8583365414,-80456.5590439140,-80499.9003799973,-2415.3121547476
5353532510,4018,0,0,-6718.6736578144,-80261.8758947469,-33063.3069123739,-12646.7268791644,-80533.8117510428,-50469.8421055241,-80471.2454539793,-80457.3742796011,-80499.9125476941,-2417.1129738774
5353532510,4018,0,0,-6718.1382791541,-80261.6568762041,-33071.4836046390,-12647.1527485532,-80533.3493785636,-50281.8633573065,-80471.9268450013,-80457.4716211757,-80500.0707277528,-2417.2954893298
5353568931,4019,0,0,-6718.2112853351,-80260.7321312455,-33096.5977308815,-12646.8120530422,-80529.6382310326,-50088.9688595724,-80470.3207090207,-80456.5225408235,-80499.3528336403,-2415.0688008112
5353568931,4019,0,0,-6718.4668069684,-80262.4842795880,-33106.6604161541,-12647.6029533357,-80527.5818902695,-50142.7257441361,-80470.9047584682,-80456.4251992489,-80500.6791125939,-2414.4847513637
5353568931,4019,0,0,-6718.6736578144,-80262.3382672262,-33089.2484420005,-12647.5177794579,-80530.7819945339,-50370.0913269696,-80471.4888079157,-80457.9339936550,-80500.8737957431,-2415.0322977207
5353568931,4019,0,0,-6719.0630241127,-80263.5672046053,-33069.0622329712,-12648.0409904213,-80535.3935516298,-50473.5289176614,-80472.5839006298,-80458.5423784961,-80501.9323853667,-2416.9182907283
5353568931,4019,0,0,-6718.8805086603,-80262.8249750991,-33072.4935234753,-12647.2865932183,-80534.6026513363,-50309.6543768501,-80472.4378882679,-80458.3111922565,-80501.5916898557,-2416.8087814569
5353568931,4019,0,0,-6718.7709993889,-80263.0074905514,-33097.4373019623,-12647.8828103626,-80531.4268824655,-50097.9972906150,-80472.1458635442,-80457.7514782026,-80501.3240005256,-2415.8475334078
5353568931,4019,0,0,-6717.3717142543,-80262.2530933484,-33107.4756518412,-12646.3375128661,-80527.3507040298,-50117.9158103141,-80470.9655969523,-80457.3134411170,-80500.7156156844,-2412.4527459942
5353568931,4019,0,0,-6717.5663974035,-80263.5428692116,-33094.4805516343,-12647.1284131596,-80531.6459010083,-50342.4949905752,-80472.7907514758,-80458.6640554643,-80501.7498699144,-2415.2999870508
5353606224,4020,0,0,-6717.2257018924,-80263.3846891529,-33071.0090644629,-12647.0067361913,-80535.0771915124,-50469.1607145020,-80472.2188697251,-80459.5522973324,-80501.6646960366,-2416.5775952172
