steady_timestamp,sequence,battery,flags,EEG-ch1,EEG-ch2,EEG-ch3,EEG-ch4,EEG-ch5,EEG-ch6,EEG-ch7,EEG-ch8,EEG-ch9,EEG-ch10
9301869072,17401,-2,0,22773.3290631484,47335.1270438168,53679.1208133623,60111.5372357201,71533.2325664476,57040.9094331793,59375.1725593893,60407.7476471779,66125.0320241609,11263.7342905720
9301869072,17401,-2,0,22645.8967743217,47297.2611713038,53650.0156825619,60111.7927573534,71513.0341897215,57046.0685366323,59379.8206195757,60402.1748420329,66133.0018655799,11268.7473816630
9301869072,17401,-2,0,22623.1310135660,47301.7632191283,53653.8120039706,60121.4904117213,71524.9828680016,57048.1857158795,59387.3280885155,60417.2384506997,66139.3290679279,11262.9312225817
9301869072,17401,-2,0,22745.8665714190,47351.8211238579,53693.9775711831,60137.9046347355,71564.5157149794,57043.3429725439,59398.2546802625,60450.3467537550,66143.8311157523,11255.5089275197
9301869072,17401,-2,0,22879.0055100556,47390.6117413294,53728.5094947667,60145.2295882229,71587.9020282730,57034.5213923473,59397.8288108737,60464.8628160647,66141.8842842607,11254.7180272262
9301869072,17401,-2,0,22815.1981079161,47353.3420859608,53697.2506816285,60118.3998167283,71547.7729641510,57043.1117863043,59372.6051753597,60416.3745442253,66129.7895936187,11256.7622002924
9301869072,17401,-2,0,22633.4370527750,47294.8032965456,53642.9584184045,60099.5642220464,71505.4780499944,57063.2128214558,59359.6344105465,60378.4356655314,66135.5449142159,11258.7211994809
9301869072,17401,-2,0,22600.6451098372,47299.6703752748,53649.0787699065,60116.1122897256,71522.7440117862,57047.6260018256,59376.7421922795,60411.4466270120,66149.9027964670,11259.6459444395
9301887051,17402,-2,0,22746.2437700205,47348.9860504982,53694.5737883275,60137.6612807990,71563.8586593509,57020.4068640327,59393.5579492888,60456.9903162203,66143.8919542365,11255.6671075784
9301887051,17402,-2,0,22852.2974155292,47369.5494581289,53708.2137764660,60134.8262074393,71569.7964954005,57017.9368215776,59383.1789038988,60448.9718040140,66125.6647443957,11252.7103572504
9301887051,17402,-2,0,22805.2692673086,47345.8224493242,53685.5696926785,60120.5778344596,71544.5850275834,57035.7259943328,59369.9404497555,60419.5503130961,66120.9923488157,11258.4048393635
9301887051,17402,-2,0,22676.4376933473,47308.4797877746,53656.1603694574,60114.5061537450,71519.2518827980,57047.4921571605,59365.7425943516,60403.2455993534,66129.9477736774,11263.8681352370
9301887051,17402,-2,0,22606.9358090946,47297.7113760863,53643.7979894853,60115.6377495495,71519.9454415169,57046.2510520846,59369.1252140683,60406.2266850750,66138.1609690329,11265.6811220637
9301887051,17402,-2,0,22702.0263597659,47341.1378860474,53679.8873782622,60131.8694571113,71557.8478171204,57034.2902061077,59380.7453645343,60440.2962361792,66145.2304008870,11257.3097466495
9301887051,17402,-2,0,22857.7363760091,47385.5499794511,53720.4788148635,60141.4089314205,71585.1764641847,57023.6799744780,59384.4565120653,60462.7091337271,66138.1366336392,11251.3840782967
9301887051,17402,-2,0,22838.4627442416,47366.3128507740,53703.3345300400,60124.0334603573,71557.2759353697,57041.1527871158,59366.8863578529,60425.4394783584,66129.4245627140,11256.3606662973
9301945392,17403,-2,0,22664.5255181576,47308.4554523809,53652.7412466502,60105.1248594945,71509.7975823666,57058.5890966631,59356.2031200424,60385.8944636838,66132.2109652864,11261.7752913835
9301945392,17403,-2,0,22594.9992985113,47301.1304988935,53647.8985033147,60116.8058484445,71517.8525976634,57045.9590273609,59370.3176483570,60409.6458078822,66147.0798908041,11262.9190548849
9301945392,17403,-2,0,22706.0538674143,47341.7949416758,53684.1582398470,60133.9136301775,71553.7594709879,57027.5614697646,59380.9522153802,60448.0713944491,66145.3520778552,11260.9235526059
9301945392,17403,-2,0,22833.5226593314,47373.5161272932,53706.8509944218,60135.1060644662,71568.1295209358,57024.8602410699,59372.6660138438,60447.6941958476,66132.3569776483,11259.0740626888
9301945392,17403,-2,0,22836.1022110579,47362.0663245828,53696.3624397604,60121.6120886895,71548.4300197794,57025.7849860284,59361.0093602874,60420.8644243530,66123.5475651485,11256.8838772607
9301945392,17403,-2,0,22708.0858727837,47311.5095442835,53656.2455433352,60102.8860032790,71508.4348003224,57027.5006312804,59348.0142600805,60386.9408856106,66120.0311007667,11253.4525867566
9301945392,17403,-2,0,22595.4860063842,47280.5427558691,53630.3161814055,60098.0189245499,71495.1598430886,57044.3528913802,59348.7808249804,60375.9656230763,66127.0883649240,11254.4746732897
9301945392,17403,-2,0,22671.2420868039,47323.3122102018,53670.2018915911,60128.3773281231,71541.9933081601,57042.3452214044,59379.1148931600,60422.3853864558,66145.7536118504,11257.6261067669
9301949061,17404,-2,0,22852.5164340721,47383.1164400865,53726.9033587860,60153.0534172800,71584.6410855245,57027.3911220090,59394.9937375139,60467.6857217277,66144.2326497475,11260.6680309726
9301949061,17404,-2,0,22872.2037675316,47375.4142879976,53716.2201209755,60137.3327529848,71561.7293124069,57029.3866242880,59375.0873855116,60434.5287478851,66127.1005326208,11261.2034096328
9301949061,17404,-2,0,22715.1188015474,47321.6330680402,53666.3203963046,60114.9320231338,71516.7210018589,57049.4754917427,59357.0791942136,60389.0824002515,66128.8040101760,11263.7342905720
9301949061,17404,-2,0,22616.6334634625,47301.4468590109,53653.7024946992,60121.8797780197,71513.7642515309,57046.3848967497,59367.6164196623,60401.4447802236,66144.7193576204,11261.9699745327
9301949061,17404,-2,0,22688.4350424147,47334.6038328534,53685.8617174022,60137.8924670386,71547.2984239749,57030.8345802099,59381.9256311261,60436.7311010101,66146.5323444470,11258.0033053684
9301949061,17404,-2,0,22825.0174392522,47375.1100955770,53716.0254378263,60140.6910373079,71572.6924072444,57024.2396885319,59383.7994564368,60450.2250767867,66138.2704783043,11253.7324437835
9301949061,17404,-2,0,22875.1848532532,47375.3534495135,53713.5188922808,60128.4746696977,71564.8320750968,57015.3329344575,59372.1914736677,60434.3462324328,66125.3970550656,11246.6386765358
9301949061,17404,-2,0,22767.2695501305,47326.5488175567,53668.2428924026,60109.6269073189,71523.0725396004,57028.5835562977,59357.5415666929,60397.9161481449,66116.3321209325,11246.4439933866
9301986828,17405,-2,0,22627.5235521190,47288.8411251024,53632.2630128972,60107.2177033480,71502.5821381506,57049.1347962316,59359.8899321797,60379.4577520645,66126.9423525621,11255.8009522434
9301986828,17405,-2,0,22666.8860513413,47321.4140494974,53664.4100679034,60136.5418526913,71539.6327749764,57043.9270219914,59383.0693946274,60426.7414219185,66146.2159843296,11261.5197697502
9301986828,17405,-2,0,22849.6813607123,47382.3133720962,53721.2088766729,60159.8794951977,71585.0912903070,57025.7849860284,59397.4637799690,60472.6501420314,66145.3034070679,11262.0429807136
9301986828,17405,-2,0,22912.0529746267,47382.5688937295,53718.4468094941,60143.5017752740,71572.3638794302,57036.2127022057,59382.0594757911,60446.1123952606,66126.6138247479,11261.8361298676
9301986828,17405,-2,0,22787.0298897710,47335.6259193866,53671.8080275717,60122.3299828021,71535.6539381153,57054.8049429511,59365.3897311437,60401.1405878030,66128.4754823618,11267.7983013109
9301986828,17405,-2,0,22662.8707113897,47300.9844865317,53645.8421625516,60121.6607594768,71522.4398193656,57051.8116895327,59367.0932086989,60403.0022454169,66140.2659805832,11268.6257046948
9301986828,17405,-2,0,22680.1488408783,47317.3378710617,53664.7872665049,60134.3881703536,71546.1181573831,57049.5241625300,59381.7066125833,60432.1560470047,66148.5643498165,11266.8127178682
9301986828,17405,-2,0,22811.9493328644,47365.9599875662,53705.2570261380,60148.4175247905,71578.8492618368,57045.2411332483,59393.6066200761,60459.3508494039,66149.7689518019,11264.3426754131
9302007800,17406,-2,0,22908.7433610909,47390.1615365470,53726.1489615830,60146.7627180226,71587.0381217986,57037.2834595261,59393.5701169856,60463.4026924460,66143.1375570334,11266.0704883620
9302007800,17406,-2,0,22824.9809361617,47348.3289948697,53693.6490433689,60126.2601488759,71546.5561944687,57045.5939964562,59379.2487378250,60422.2880448813,66133.2695549100,11266.3746807826
9302007800,17406,-2,0,22654.7426899120,47293.2823344427,53647.4726339259,60110.5638199743,71510.3207933300,57063.8090386001,59370.3541514475,60388.3766738357,66137.9662858837,11266.4355192667
9302007800,17406,-2,0,22644.8990231822,47306.1557576814,53659.1536228759,60130.4701719767,71534.7778639441,57049.3781501681,59386.6345297966,60424.8554289109,66151.7279509904,11264.7928801956
9302007800,17406,-2,0,22809.0534210205,47362.5652001526,53708.9925090627,60153.7226406053,71581.6599998029,57026.5515509283,59397.4151091817,60473.9034148042,66149.7689518019,11260.8018756377
9302007800,17406,-2,0,22901.0168736083,47377.2029394306,53716.7554996357,60147.7117983748,71583.1687942089,57030.7980771195,59384.4078412780,60458.1827505089,66131.1645433597,11259.5972736522
9302007800,17406,-2,0,22812.9714193975,47339.6534270350,53680.6782785557,60129.6184331990,71548.6125352318,57036.6872423818,59367.2148856671,60415.2794515113,66123.5962359358,11261.2155773296
9302007800,17406,-2,0,22672.0938255815,47289.4373422467,53639.5149602037,60117.9131088554,71516.1977908955,57024.9575826445,59360.0237768448,60396.2370059833,66121.3452120235,11250.8243642429
9302036613,17407,-2,0,22632.6704878751,47280.5305881723,53631.3504356355,60116.8423515350,71516.3924740446,57022.0008323165,59359.6465782433,60402.2235128202,66121.1018580871,11242.8058520365
9302036613,17407,-2,0,22750.0522591261,47330.0166111512,53673.5845113079,60136.0794802120,71553.0659122690,57030.9319217845,59375.4280810226,60441.2574842282,66129.7409228314,11245.2880621884
9302036613,17407,-2,0,22890.6986667025,47374.5017107359,53714.5166434203,60148.3201832159,71578.9709388050,57026.4177062632,59380.5263459914,60464.8628160647,66131.2375495406,11249.1573897781
9302036613,17407,-2,0,22850.2410747662,47349.1563982537,53695.6688810415,60130.0077994974,71544.7067045516,57038.3663845433,59364.9395263613,60429.2114643735,66121.4425535981,11249.3885760177
9302036613,17407,-2,0,22672.6657073322,47292.3697571810,53644.3455358424,60110.4908137934,71502.6794797252,57049.3659824713,59355.0350211474,60387.5857735422,66122.4403047376,11250.2038117049
9302036613,17407,-2,0,22618.9453258589,47289.9240501196,53644.3333681455,60122.5368336481,71512.7056619073,57029.7273197991,59367.9814505670,60412.2618626992,66131.3835619025,11245.4949130344
9302036613,17407,-2,0,22755.8684182074,47341.4907492552,53691.4953610313,60143.4652721836,71553.1510861467,57008.9813967159,59380.3073274486,60455.7735465380,66126.2366261464,11244.4849941981
9302036613,17407,-2,0,22875.7445673071,47368.5517069895,53708.5666396739,60138.0506470973,71560.5490458151,57005.7326216642,59368.2978106844,60447.9132143904,66111.3555329319,11245.4462422471
9302070398,17408,-2,0,22833.9971995075,47343.1455560231,53680.0333906241,60119.5192448360,71532.5998462128,57019.3847774995,59351.0196811958,60411.4831301025,66104.4442811365,11245.4584099439
9302070398,17408,-2,0,22704.9466070034,47302.1890885171,53649.8453348063,60116.7815130508,71511.6227368900,57043.2456309693,59351.2386997386,60398.9017315876,66118.6439833289,11255.4967598229
9302070398,17408,-2,0,22633.6074005305,47294.1340732203,53647.1076030212,60128.5355081818,71520.7241741136,57061.0713068149,59364.1486260678,60411.8238256135,66136.1898021475,11261.1912419360
9302070398,17408,-2,0,22724.5731019788,47340.9066998077,53687.7355427130,60152.7492248595,71561.8753247688,57048.2587220604,59383.6047732876,60454.1795782542,66148.3818343641,11261.8604652613
9302070398,17408,-2,0,22888.9951891472,47390.5752382390,53731.3810712169,60164.9777601665,71593.9980443814,57030.0436799164,59388.6665351660,60482.8953427563,66142.5900106764,11259.2200750507
9302070398,17408,-2,0,22887.5228978317,47372.2628545204,53714.7721650536,60144.9253958023,71567.5454714883,57047.6746726129,59369.0278724938,60447.6455250603,66128.1226191539,11255.9591323021
9302070398,17408,-2,0,22716.7979437090,47315.9750890175,53661.4898206659,60125.4205777951,71524.5569986128,57071.4868552954,59355.5825675044,60403.4281148057,66134.7296785288,11257.2732435590
9302070398,17408,-2,0,22635.4203873571,47307.1413411241,53655.0287736529,60143.0637381884,71532.3199891859,57061.2416545705,59373.2500632913,60427.0456143390,66153.2367453965,11259.8527952855
9302103368,17409,-2,0,22742.1797592816,47349.4119198870,53692.4444413835,60167.6668211644,71574.4445555869,57035.0202679170,59391.3920992543,60475.3757061198,66153.8938010249,11256.8230387766
9302103368,17409,-2,0,22873.1406801869,47386.4625567128,53717.4855614451,60166.5717284503,71593.5721749925,57031.8079959558,59390.1753295720,60486.9958565857,66142.2006443781,11254.3043255342
9302103368,17409,-2,0,22878.2632805494,47376.8622439195,53702.5436297465,60148.5026986682,71575.3327974550,57037.3686334039,59377.4844217857,60464.2544312236,66133.3425610910,11254.8762072849
9302103368,17409,-2,0,22754.9436732489,47328.9945246181,53663.2541367052,60130.7135259131,71539.9978058811,57046.2388843878,59369.5145803667,60433.5431644425,66132.5029900102,11262.5905270706
9302103368,17409,-2,0,22638.7056654993,47299.5608660034,53638.2981905214,60130.7500290036,71525.7981036888,57061.0348037245,59374.4303298832,60424.7215842459,66143.3079047890,11269.4409403820
9302103368,17409,-2,0,22697.0741071590,47333.5209078362,53667.9508676789,60153.0777526737,71560.1475118199,57052.2983974056,59397.0014074897,60460.3364328466,66157.3737623163,11264.0384829926
9302103368,17409,-2,0,22878.0564297034,47391.3661385325,53719.7609207510,60170.3315467686,71601.1648178101,57034.0590198680,59410.5805571441,60501.5605896827,66156.1083218467,11254.8153688008
9302103368,17409,-2,0,22920.6677039774,47389.2976300726,53714.3219602711,60150.7415548837,71582.9376079693,57043.3186371503,59395.9428178661,60473.9885886819,66140.5701730038,11254.5841825611
9302182179,17410,-2,0,22768.2916366637,47333.5087401394,53660.4799018296,60123.4372432130,71533.4515849904,57056.9464575920,59377.3992479079,60422.0568586416,66136.0072866952,11260.0353107378
9302182179,17410,-2,0,22649.8756111828,47305.8028944735,53638.3711967023,60126.2236457854,71522.9021918449,57051.4101555375,59385.1744061778,60426.0235278059,66147.0068846231,11257.7477837351
9302182179,17410,-2,0,22705.1656255462,47332.2554673666,53663.8381861527,60144.2075016898,71554.5260358877,57037.9040120641,59396.4903642231,60462.4901151843,66146.5566798407,11250.0456316462
9302182179,17410,-2,0,22844.7534434990,47382.8365830596,53701.9109095117,60159.3684519311,71589.9340336425,57042.6980846123,59403.9004915883,60483.8565908054,66143.5999295127,11248.4759987560
9302182179,17410,-2,0,22911.7974529934,47402.0737117367,53716.7676673325,60164.4545492031,71595.0322986113,57046.8229338353,59402.5985480283,60478.8313320175,66140.5215022165,11255.3385797642
9302182179,17410,-2,0,22814.1395182925,47362.5530324557,53684.7666246882,60149.5491205950,71555.5481224208,57048.4899083000,59390.1996649657,60442.0727199154,66134.9608647684,11261.1304034519
9302182179,17410,-2,0,22659.5367624602,47312.3734507579,53644.1386849964,60136.9068835960,71521.7462606467,57059.0514691423,59383.1545685052,60413.7584894084,66136.7008454141,11265.2309172812
9302182179,17410,-2,0,22675.6832961442,47335.3095592692,53664.7507634144,60155.6573044001,71550.3768512711,57055.3281539145,59403.1095912948,60453.4373487480,66154.0519810836,11265.4012650367
9302190312,17411,-2,0,22855.5583582778,47396.5982481663,53719.1038651225,60179.2626362366,71596.7966146506,57034.3388768949,59420.1565345438,60505.4299172724,66155.5121047024,11259.3539197157
9302190312,17411,-2,0,22932.6285499543,47405.2981513947,53722.2918016901,60165.7321573695,71587.6100035493,57037.3564657070,59407.3561174860,60483.0291874214,66138.5138322407,11254.5841825611
9302190312,17411,-2,0,22804.9164041007,47352.9405519656,53671.8445306622,60133.2322391555,71537.6737757879,57049.9500319188,59384.6268598208,60427.2768005787,66128.1712899412,11249.4129114114
9302190312,17411,-2,0,22665.8274617177,47310.3171099949,53636.2905205456,60125.3597393110,71513.4478914135,57046.3727290528,59383.5195994099,60419.4408038247,66133.9631136289,11242.6720073715
9302190312,17411,-2,0,22673.7851354399,47320.2946213897,53648.6650682145,60138.9023858749,71530.9815425353,57037.4781426753,59393.3145953524,60448.1322329332,66135.6057527000,11233.2177069401
9302190312,17411,-2,0,22806.3278569322,47366.9699064025,53686.2389160038,60155.1219257399,71567.4602976105,57035.2514541567,59403.2556036567,60478.1012702081,66134.8513554970,11228.2411189395
9302190312,17411,-2,0,22918.5140216397,47399.4454892229,53713.5188922808,60165.2332817998,71586.1985507178,57032.7935793984,59408.7919057111,60487.2635459158,66132.1257914087,11233.3028808178
9302190312,17411,-2,0,22852.2974155292,47364.0131560745,53685.3750095293,60146.9330657781,71550.1578327283,57038.5002292084,59393.4606077142,60446.5260969526,66122.7688325518,11238.4619842707
9302218523,17412,-2,0,22675.5372837824,47304.7443048499,53632.8713977383,60123.6197586653,71507.0598505814,57054.3547381687,59380.2829920550,60402.0166619742,66123.2312050311,11245.6165900026
9302218523,17412,-2,0,22646.7971838866,47310.4387869631,53642.3256981698,60138.7198704226,71525.6885944174,57052.1402173469,59396.7458858564,60431.0244512001,66141.3975763878,11250.2646501890
9302218523,17412,-2,0,22814.3098660480,47370.5472092684,53699.0271653647,60162.4955500146,71574.0916923790,57030.6642324544,59412.7464071786,60483.2238705706,66144.3056559284,11252.2236493775
9302218523,17412,-2,0,22924.7560501099,47391.0132753246,53714.1881156060,60155.9979999112,71577.6081567608,57031.5281389288,59401.0289151381,60475.3270353325,66128.7431716919,11255.5210952165
9302218523,17412,-2,0,22839.5821723493,47352.3199994277,53675.8233675233,60131.5530969939,71537.6129373038,57046.8351015321,59382.2419912435,60430.3673955717,66124.6913286499,11258.4291747572
9302218523,17412,-2,0,22692.6694009091,47302.7853056615,53636.9840792645,60122.8653614623,71505.8674162928,57041.7368365633,59376.0486335606,60411.2762792565,66129.2420472616,11256.6526910210
9302218523,17412,-2,0,22651.3965732856,47293.5986945601,53630.4135229801,60127.7202724947,71509.4447191587,57033.3289580586,59379.4434209742,60422.2150387003,66128.1469545476,11250.9947119984
9302218523,17412,-2,0,22762.8526761838,47340.9797059887,53665.3104774683,60147.1642520177,71549.3912678284,57029.6908167086,59389.5061062468,60455.9682296872,66130.8603509391,11250.2038117049
9302223007,17413,-2,0,22910.1183108319,47386.6085690747,53702.9086606512,60158.7235639995,71575.2719589708,57019.2022620472,59396.4051903454,60478.5393072937,66126.3704708114,11252.2723201648
9302223007,17413,-2,0,22880.6724845203,47359.9126422452,53678.4272546434,60135.9334678501,71540.3019983017,57020.7962303310,59377.4965894825,60436.0253745944,66110.5524649416,11256.9568834416
9302223007,17413,-2,0,22696.6604054670,47296.3729294358,53621.5797750866,60106.0131013625,71487.5306971806,57038.4150553306,59358.9773549180,60381.4654220403,66108.8246519927,11263.4544335451
9302223007,17413,-2,0,22625.8565776543,47288.1110632930,53618.3431677317,60114.7373399846,71493.2008439001,57029.0094256865,59369.0643755842,60398.2690113528,66121.3817151140,11264.0019799021
9302223007,17413,-2,0,22761.3803848682,47339.1667191621,53665.0427881382,60140.1191555572,71537.2114033087,57003.1043991504,59386.3668404665,60447.8158728158,66120.7246594856,11258.2466593048
9302223007,17413,-2,0,22893.2173799448,47371.1190910191,53690.6071191632,60136.5540203881,71550.9243976281,57006.8763851656,59380.5750167787,60446.9519663414,66105.6002123347,11255.0587227372
9302223007,17413,-2,0,22861.6422066893,47353.5976075941,53670.8711149164,60119.9451142248,71528.3776554152,57024.9940857349,59367.7502643274,60413.6976509243,66102.6799650972,11257.1880696812
9302223007,17413,-2,0,22723.3441645997,47308.5162908651,53633.0904162811,60107.3758834067,71497.3986993040,57024.7263964048,59360.1454538130,60387.6101089359,66106.3789449313,11254.7788657103
9302264206,17414,-2,0,22636.4303061934,47286.6387719774,53610.6896864301,60106.1226106339,71489.3071809168,57018.0950016363,59361.4717327667,60388.1211522024,66110.3456140956,11250.8243642429
9302264206,17414,-2,0,22713.7803548969,47323.4338871700,53635.1467570442,60120.8576914865,71522.5006578497,57007.6794531559,59372.0211259122,60422.4583926368,66112.5601349174,11247.1132167119
9302264206,17414,-2,0,22878.6283114541,47374.7572323692,53679.5345150543,60129.9834641037,71553.4552785673,56993.3580739953,59378.6768560744,60451.1376540485,66105.7705600902,11245.9816209073
9302264206,17414,-2,0,22893.7649263018,47362.9910695414,53668.4010724613,60112.0117758962,71529.5822574007,57003.4207592679,59362.7736763268,60417.4209661521,66090.1837404600,11248.9627066289
9302264206,17414,-2,0,22719.8642033083,47302.0065730648,53613.6099336676,60086.2162586316,71476.5189315558,57027.4884635836,59347.0165089411,60360.7316666540,66091.9967272866,11257.0785604098
9302264206,17414,-2,0,22615.6965508071,47284.7041081826,53604.7883534710,60095.3055281583,71478.5387692285,57027.0017557107,59363.3212226838,60374.4568286703,66116.3442886293,11256.6283556274
9302264206,17414,-2,0,22712.9042807256,47324.7723338205,53648.2513665225,60121.8067718387,71524.1554646177,57005.7569570578,59382.4123389990,60429.4548183100,66124.4601424102,11250.1308055239
9302264206,17414,-2,0,22858.1744130947,47363.8671437126,53680.7512847366,60128.4259989104,71551.7761364057,57004.7835413120,59382.2906620308,60447.6211896666,66113.1806874554,11249.1938928686
9302284327,17415,-2,0,22881.9987634740,47363.7332990476,53674.7891132934,60121.5390825086,71542.8693823314,57018.2531816950,59374.3816590959,60429.3331413417,66108.1919317579,11256.7256972020
9302284327,17415,-2,0,22763.0838624234,47321.5600618593,53638.2130166436,60110.6611615489,71508.6294834716,57023.7164775685,59364.4406507915,60399.6926318811,66107.3888637676,11257.0542250162
9302284327,17415,-2,0,22636.0531075919,47287.1619829408,53606.2241416961,60105.4412196119,71489.1976716454,57028.8025748405,59366.1076252563,60385.2495757522,66111.2946944478,11254.7180272262
9302284327,17415,-2,0,22674.2840110096,47317.3135356680,53628.3936853075,60121.5634179023,71520.4929878740,57022.8890741846,59386.0504803491,60418.4795557757,66123.6935775104,11250.6783518810
9302284327,17415,-2,0,22854.0982346590,47379.7459880666,53682.5156007759,60141.1655774840,71565.5986399966,57007.5821115813,59400.3718595097,60464.4856174632,66124.9468502831,11249.0235451131
9302284327,17415,-2,0,22919.2562511459,47385.9636811431,53687.0298162972,60130.7378613068,71555.4507808463,57021.1734289325,59386.1356542268,60445.3458303607,66112.2559424968,11254.2313193533
9302284327,17415,-2,0,22775.0082053099,47332.7178398459,53636.6677191471,60109.0063547810,71505.3928761167,57037.5633165530,59367.3487303322,60388.7295370436,66107.6808884914,11261.7144528994
9302284327,17415,-2,0,22644.1324582824,47295.5576937486,53606.3093155738,60108.5683176954,71487.1169954886,57018.5695418124,59368.7115123764,60382.9498810527,66110.0535893719,11259.1835719602
9302346867,17416,-2,0,22691.7568236473,47314.2837791591,53624.2323329940,60123.0478769147,71509.9314270316,56995.5725948171,59378.3239928665,60417.9320094187,66105.4907030633,11249.5832591669
9302346867,17416,-2,0,22834.3987335027,47355.5809421762,53656.4280587875,60131.9059602018,71538.2699929323,56988.9777031390,59382.0229727007,60441.4034965901,66095.8417194827,11243.7184292983
9302346867,17416,-2,0,22902.2093078970,47362.8937279668,53656.9877728414,60126.3939935410,71536.7733662231,56991.9587888606,59374.9778762402,60431.3043082271,66087.7988718827,11242.5259950096
9302346867,17416,-2,0,22810.9880848154,47320.5866461134,53620.4603469789,60107.3758834067,71499.0778414656,57002.7150328521,59360.4496462336,60395.6286211422,66082.6641038234,11244.4241557140
9302346867,17416,-2,0,22653.0027092663,47271.4291509487,53579.4795440793,60094.7458141045,71467.9893760830,57020.9300749961,59355.9719338027,60367.9836139605,66088.5289336921,11244.4728265013
9302346867,17416,-2,0,22654.2559820390,47290.2769133275,53597.4877353772,60113.3137194563,71497.3013577294,57015.4789468194,59376.3771613748,60399.8386442429,66106.8413174106,11246.3709872057
9302346867,17416,-2,0,22832.7074236443,47352.9527196624,53656.8904312668,60140.7397080952,71548.8923922587,56993.5649248413,59396.0401594407,60451.5270203468,66109.9319124036,11247.4052414356
9302346867,17416,-2,0,22929.2459302375,47367.6999682118,53668.1942216153,60130.6161843385,71547.0672377353,56992.8713661224,59380.8305384120,60434.0420400122,66092.0819011644,11246.1763040565
9302371135,17417,-2,0,22810.9150786344,47320.6231492039,53620.7645393995,60099.9414206479,71499.7714001845,57015.1747543988,59357.7240821453,60373.5199160149,66083.7226934470,11245.0325405551
9302371135,17417,-2,0,22668.2366656886,47285.7261947157,53590.1019434057,60100.0752653129,71482.1769105785,57026.4420416569,59365.2315510850,60369.4072344888,66098.7619667202,11247.4052414356
9302371135,17417,-2,0,22674.9045635476,47302.7974733583,53604.8005211678,60118.4241521219,71508.2887879605,57018.0098277586,59380.4776752042,60404.9247415149,66110.0414216750,11247.1253844087
9302371135,17417,-2,0,22807.1187572257,47350.0811432122,53642.8124060427,60131.6017677812,71543.5872764439,57003.6884485980,59388.9585598897,60436.7189333133,66110.1630986433,11245.1907206138
9302371135,17417,-2,0,22918.2219969159,47377.9695043304,53663.3393105830,60132.7698666762,71556.7892274968,57001.2184061429,59386.2329958014,60448.8744624394,66105.7462246965,11249.2425636559
9302371135,17417,-2,0,22862.5061131637,47348.1343117206,53639.3446124481,60112.4498129819,71526.1753022903,57011.3297622028,59372.3739891201,60416.6178981618,66100.1734195516,11253.6959406931
9302371135,17417,-2,0,22685.2957766344,47287.6608585105,53590.9050113960,60088.3334378788,71482.8096308133,57024.7872348889,59355.4487228394,60373.9701207974,66099.4433577423,11252.9537111869
9302371135,17417,-2,0,22634.9093440906,47282.0272148815,53589.2137015376,60097.3983720119,71493.9309057095,57016.4645302620,59366.2779730118,60395.2757579343,66113.6552276314,11249.0113774162
9302384475,17418,-2,0,22790.8262111797,47335.4190685406,53638.9795815434,60124.9582053159,71544.3295059501,56997.2639046754,59383.2640777766,60453.7172057749,66116.2469470547,11240.8590205449
9302384475,17418,-2,0,22913.4279243677,47363.1979203874,53660.6624172819,60123.2547277606,71554.8788990956,57007.3995961289,59380.7818676247,60455.2990063619,66106.4397834155,11239.4475677134
9302384475,17418,-2,0,22838.6452596939,47333.3262246870,53629.6104549898,60102.2897861347,71523.7539306225,57028.3036992708,59367.4947426941,60415.2064453303,66106.2816033568,11244.3146464426
9302384475,17418,-2,0,22689.0555949527,47290.9339689559,53593.7765878462,60094.9161618600,71494.9651599394,57024.1058438668,59368.2126368066,60395.2757579343,66114.9450034947,11244.4484911076
9302384475,17418,-2,0,22639.6669135483,47282.7572766909,53586.3177896938,60100.0022591320,71497.6542209373,57015.7344684527,59371.4005733742,60406.1901819845,66119.8972561016,11242.7571812492
9302384475,17418,-2,0,22746.1707638395,47325.6119049013,53619.3044157808,60118.0956243077,71537.3695833674,57012.9237304866,59382.7895376005,60437.1813057925,66124.8008379213,11246.7968565945
9302384475,17418,-2,0,22893.2903861257,47366.5075339232,53654.8340905037,60128.2434834580,71564.3818703143,57002.5081820061,59387.6687840265,60458.9736508024,66120.9680134220,11247.8797816117
9302384475,17418,-2,0,22881.1591923933,47345.5669276909,53637.0327500518,60110.6489938521,71536.5178445898,57006.6451989259,59370.6461761712,60427.1186205200,66107.7782300660,11248.3664894846
9302414276,17419,-2,0,22697.8406720588,47278.6080920743,53577.3623648321,60082.7484650371,71483.1016555371,57019.3482744091,59346.4932979777,60371.6582584010,66099.5772024073,11243.4385722713
9302414276,17419,-2,0,22607.3373430898,47265.3696379309,53566.9224809580,60089.6840522261,71483.6370341973,57010.3928495474,59352.8691711129,60383.4365889256,66112.8764950348,11233.9964395367
9302414276,17419,-2,0,22739.2351766505,47318.2139452329,53613.4030828216,60116.9640285032,71527.5502520313,56983.7577612020,59371.2302256187,60437.5463366972,66112.9251658221,11225.8684180590
9302414276,17419,-2,0,22886.3791343303,47356.3718424697,53643.3356170061,60117.2317178333,71544.1469904978,56980.4724830598,59364.5014892756,60445.0173025465,66095.1238253701,11224.9071700100
9302414276,17419,-2,0,22863.8080567237,47338.9720360129,53626.1426613952,60098.7611540561,71519.3978951599,56996.1444765677,59347.8804154155,60411.1789376819,66089.5753556188,11232.0739434387
9302414276,17419,-2,0,22722.6992766681,47292.6009434206,53587.6927394347,60086.0215754824,71487.7618834202,56997.7019417611,59343.4635414688,60386.0283083489,66094.2599188957,11233.8747625685
9302414276,17419,-2,0,22626.5014655859,47269.7256733935,53568.7233000878,60086.6664634141,71480.8384639280,57001.1575676588,59350.1679424182,60388.3645061389,66101.6335431704,11233.9234333558
9302414276,17419,-2,0,22699.5684850077,47307.6158813002,53603.0483728253,60108.1059452161,71517.3293867000,57003.0313929695,59366.4726561609,60423.9063485587,66111.0635082082,11234.8481783143
9302462342,17420,-2,0,22877.1438524417,47365.0109072140,53658.5087349443,60128.1704772771,71560.4152011500,56996.0714703868,59375.6349318686,60461.8695626463,66113.8742461743,11237.5372393122
9302462342,17420,-2,0,22920.1444930140,47361.7499644654,53660.7597588565,60119.0690400536,71549.0262369238,57002.6663620648,59364.1851291582,60440.2232299983,66103.7020516303,11240.4939896402
9302462342,17420,-2,0,22754.1527729554,47300.1327477541,53603.3769006395,60091.4362005686,71496.4374512550,57020.6502179691,59345.1183482367,60382.3049931211,66099.4433577423,11245.1177144329
9302462342,17420,-2,0,22628.2049431411,47269.8108472713,53575.6102164896,60090.9859957862,71485.6690395667,57010.7822158457,59352.6136494796,60384.0449737668,66110.1996017337,11244.1199632934
9302462342,17420,-2,0,22717.5645086088,47308.0295829921,53611.2372327871,60116.5503268112,71523.5957505638,56992.8105276382,59373.2743986850,60435.2709773913,66116.2956178420,11240.6886727893
9302462342,17420,-2,0,22871.6683888714,47350.6651926597,53646.4140443023,60122.2448089243,71548.7463798968,56988.4058213883,59374.3573237022,60452.2205790657,66102.0229094687,11232.0739434387
9302462342,17420,-2,0,22902.9880404936,47349.4727583711,53639.4662894164,60110.8558446981,71536.3839999247,57000.5370151208,59363.1508749283,60429.1384581926,66094.8804714336,11233.0716945782
9302462342,17420,-2,0,22790.9965589353,47308.0417506890,53603.4134037300,60097.7025644325,71504.2126095249,57012.4856934009,59351.8714199734,60399.8873150302,66095.6713717271,11241.2118837527
9302479415,17421,-2,0,22662.4083389104,47271.9766973058,53573.6877203915,60093.5777152095,71485.8880581095,57028.8147425373,59350.4964702324,60390.0071452100,66106.1599263885,11248.5246695433
9302479415,17421,-2,0,22689.5544705224,47300.4612755683,53600.6878396417,60116.6841714763,71522.0747884609,57026.4542093537,59370.7435177458,60428.3232225054,66126.3583031146,11250.4228302477
9302479415,17421,-2,0,22858.4907732121,47357.6737860297,53653.4956438532,60133.2809099427,71564.6982304317,56993.4675832667,59384.1158165542,60472.7474836060,66123.4502235739,11243.7062616014
9302479415,17421,-2,0,22928.3333529758,47359.2434189199,53652.9602651930,60115.5890787622,71550.4741928457,56990.2188082150,59366.0467867721,60452.1597405816,66099.4555254391,11239.2772199579
9302479415,17421,-2,0,22787.2732437074,47304.4157770357,53600.5296595829,60086.8246434728,71499.7470647908,57016.8538965604,59345.4590437477,60390.0923190878,66092.3982612818,11243.3899014840
9302479415,17421,-2,0,22645.7142588693,47270.4922382934,53571.8503981713,60086.3866063871,71484.5131083685,57021.8426522578,59352.0661031226,60386.8800471265,66107.7782300660,11243.7549323887
9302479415,17421,-2,0,22688.6418932607,47298.3684317147,53599.8361008640,60107.9599328542,71518.2906347490,57007.9593101828,59369.1617171588,60435.1979712104,66119.6052313779,11241.5404115669
9302479415,17421,-2,0,22839.6673462270,47349.3389137060,53644.4063743265,60124.4593297461,71557.1299230078,57009.9183093713,59378.7376945585,60467.7587279086,66118.3032878178,11242.2096348922
9302500505,17422,-2,0,22919.5726112633,47363.6116220793,53655.6736615845,60120.8698591833,71558.8090651694,57006.5356896545,59370.8895301077,60461.0543269592,66112.4019548587,11244.2051371712
9302500505,17422,-2,0,22836.4064034785,47323.6407380160,53620.2534961329,60103.4578850297,71519.5682429154,57009.5776138603,59358.1499515341,60422.8477589351,66104.9066536157,11247.6120922816
9302500505,17422,-2,0,22676.1456686235,47268.6549160731,53575.5615457023,60086.6177926268,71479.8650481822,57020.8814042088,59348.8903342518,60387.8169597819,66105.4176968823,11249.8874515875
9302500505,17422,-2,0,22654.8643668802,47278.4499120156,53581.7549033852,60100.0874330098,71499.1995184338,57013.9336493229,59361.7759251873,60410.3028635107,66117.7679091576,11248.6341788147
9302500505,17422,-2,0,22821.6713226259,47339.1910545557,53632.5185345305,60122.6706783131,71547.1889147035,56991.4599132909,59375.3915779322,60463.0133261477,66118.1451077591,11241.7837655034
9302500505,17422,-2,0,22931.4969541498,47360.6548717514,53647.6794847718,60114.9441908306,71554.7450544305,56994.6113467680,59363.1387072315,60459.4603586754,66102.9111513368,11237.6710839773
9302500505,17422,-2,0,22825.2121224014,47317.6055603918,53605.7374338232,60087.6763822504,71511.0508551394,57017.4866167952,59341.2611883438,60404.6083813975,66098.4334389060,11240.2749710974
9302500505,17422,-2,0,22669.5021061582,47276.3083973747,53571.5097026602,60085.6687122746,71486.6546230094,57019.9079884629,59343.8772431607,60390.9440578654,66110.5281295480,11243.3168953031
9302564797,17423,-2,0,22661.8486248566,47285.2029837523,53580.7084814584,60102.4357984966,71503.5555538964,57004.3455042264,59358.4541439546,60420.0978594531,66117.8652507322,11241.4187345987
9302564797,17423,-2,0,22790.0231431894,47329.2743816450,53616.6640255702,60118.8621892076,71539.4989303114,57002.8367098203,59368.8210216478,60448.8987978330,66115.5898914263,11237.6467485836
9302564797,17423,-2,0,22912.3693347441,47362.1880015511,53644.0048403313,60124.2524789001,71558.1520095410,57004.7713736152,59370.6705115649,60456.2359190173,66111.9152469858,11240.3479772783
9302564797,17423,-2,0,22875.6715611261,47338.7895205605,53627.1647479284,60107.9721005510,71533.5002557777,57014.1283324720,59359.4762304878,60427.9460239039,66106.2937710536,11246.8090242913
9302564797,17423,-2,0,22704.1313713163,47285.1056421777,53580.3921213410,60085.1089982207,71492.6046267558,57033.3289580586,59349.4378806088,60387.3667549994,66109.4330368339,11253.7567791772
9302564797,17423,-2,0,22637.4888958170,47281.0903022261,53576.3524459958,60094.4537893807,71500.3189465415,57026.7340663806,59363.3455580774,60402.1870097298,66123.0851926692,11253.1970651233
9302564797,17423,-2,0,22784.7666981619,47335.9301118071,53627.9556482219,60121.7946041419,71546.3980144100,56996.4973397756,59382.0959788816,60454.3012552224,66123.2555404248,11246.5169995675
9302564797,17423,-2,0,22926.0701613667,47361.8838091305,53652.5587311979,60121.6729271737,71557.4219477316,56992.2629812812,59376.2554844066,60457.5256948805,66104.7119704666,11242.8301874302
9302624454,17424,-2,0,22864.2582615062,47321.1341924704,53616.7005286606,60098.5421355132,71517.9012684507,57008.1661610288,59353.6844068000,60408.9035783760,66093.6028632672,11240.2263003101
9302624454,17424,-2,0,22709.5581640993,47269.7743441808,53575.3181917658,60091.1685112385,71488.1999205059,57012.4735257041,59351.1900289513,60389.7759589704,66100.8304751801,11240.0316171609
9302624454,17424,-2,0,22650.7638530509,47259.9550128447,53569.8427281955,60098.8584956306,71493.0304961446,57008.3121733907,59361.0945341652,60406.9080760971,66107.6322177041,11235.6877493951
9302624454,17424,-2,0,22749.3343650135,47303.6735475295,53602.7928511920,60116.2339666938,71530.8720332639,57006.0733171753,59374.3329883086,60438.7022678954,66110.6376388194,11234.0451103240
9302624454,17424,-2,0,22901.2723952416,47350.7747019311,53641.5834686636,60127.7324401915,71560.5368781183,56998.0913080594,59382.0959788816,60462.0885811891,66106.7561435328,11235.8946002411
9302624454,17424,-2,0,22907.4170821372,47337.9986202670,53629.9633181976,60110.6611615489,71537.8927943308,57002.9705544854,59367.5069103909,60433.9812015281,66093.9557264751,11246.2614779342
9302624454,17424,-2,0,22731.3870121997,47275.9798695605,53573.5903788170,60081.8602231690,71482.3107552436,57023.9111607177,59349.3770421247,60378.1436408076,66088.6992814476,11256.8838772607
9302624454,17424,-2,0,22621.9507469741,47253.5791397095,53558.6971179057,60085.6078737905,71478.1250675365,57023.8016514463,59357.9917714754,60386.4906808282,66105.0161628872,11258.4413424540
9302635671,17425,-2,0,22736.7286311049,47300.7654679888,53607.0272096864,60113.5449056959,71522.4033162752,56993.7961110809,59376.9490431255,60445.5283458131,66110.6254711225,11250.1916440081
9302635671,17425,-2,0,22889.0316922377,47338.7165143796,53639.1742646926,60116.7815130508,71543.9523073486,56982.8330162434,59371.0598778632,60458.4747752327,66093.3108385435,11244.9960374647
9302635671,17425,-2,0,22878.5918083636,47321.0490185927,53619.1584034189,60096.4492916597,71519.2640504948,57004.9173859771,59353.6965744969,60421.2537906513,66085.3166617308,11248.5733403306
9302635671,17425,-2,0,22743.6398829004,47275.8581925923,53581.1951893313,60086.9098173505,71486.3382628920,57015.0652451274,59347.5762229949,60394.5213607313,66095.2941731256,11250.4106625509
9302635671,17425,-2,0,22644.1932967665,47251.6931467019,53561.0454833925,60091.1928466322,71478.9038001331,57015.1017482179,59349.9367561786,60396.8940616118,66105.1621752490,11248.3299863941
9302635671,17425,-2,0,22696.4292192274,47280.2263957517,53583.1785239134,60105.1126917976,71506.7799935545,57006.7790435910,59360.0602799353,60426.8509311899,66109.1531798070,11244.9838697678
9302635671,17425,-2,0,22860.8878094862,47335.2487207851,53630.5473676452,60120.3831513104,71546.0694865958,56991.5329194718,59366.8255193688,60460.6649606608,66109.1775152006,11242.9640320952
9302635671,17425,-2,0,22907.5874298927,47330.3938097527,53629.3549333565,60104.2001145359,71530.9085363544,56984.5729968891,59351.4090474941,60435.2588096945,66090.3054174282,11241.0780390877
9302642150,17426,-2,0,22749.1153464707,47264.3962221851,53573.2253479123,60073.0264752755,71472.2602376678,57008.4825211462,59329.1664977018,60371.5852522201,66082.5667622488,11245.0812113424
9302642150,17426,-2,0,22617.8867362353,47237.0919105144,53549.9850469805,60078.1247402444,71459.7396776370,57017.3284367365,59337.9880778984,60370.4049856282,66100.1490841580,11250.0212962525
9302642150,17426,-2,0,22697.1957841272,47276.5395836144,53586.4638020556,60106.2077845117,71500.5379650843,56995.1953962155,59359.1963734608,60422.4097218495,66107.8512362469,11249.3642406241
9302642150,17426,-2,0,22857.3835128012,47326.2811282266,53625.1205748621,60114.3723090799,71532.2591507017,56985.0597047620,59363.3455580774,60445.8203705368,66094.8439683432,11249.8266131034
9302642150,17426,-2,0,22894.5193235049,47328.9701892244,53617.5279320446,60100.9148363937,71522.7196763926,56987.4080702489,59350.7763272594,60420.7792504752,66081.2039802047,11251.4084136904
9302642150,17426,-2,0,22778.1961418775,47281.3944946467,53576.3037752085,60081.0449874819,71480.7897931407,56987.9191135154,59335.0799983578,60384.5925201238,66077.2616464340,11249.7779423161
9302642150,17426,-2,0,22640.8715155338,47239.8418099964,53544.3879064419,60073.1481522438,71457.6346660866,57007.5699438845,59330.4927766555,60368.4338187429,66083.0169670313,11251.1042212698
9302642150,17426,-2,0,22659.9626318490,47267.0487800925,53571.2420133301,60098.1040984276,71492.2030927606,57017.5352875825,59351.3847121005,60405.1559277546,66105.5393738506,11255.0952258277
9302689260,17427,-2,0,22836.0778756643,47331.5497409509,53632.6645468923,60122.2691443180,71544.0496489232,56995.2197316092,59369.4172387921,60457.0389870076,66108.5204595722,11255.1560643118
9302689260,17427,-2,0,22930.0124951374,47347.8422869968,53649.3099561461,60113.9829427816,71544.6458660675,56991.3139009290,59360.9363541065,60448.1687360237,66092.6294475214,11256.0564738767
9302689260,17427,-2,0,22794.8050480408,47288.6099388627,53591.4403900562,60077.5163554032,71487.5550325743,56998.1521465435,59336.1507556782,60382.9985518400,66076.4099076564,11254.1704808692
9302689260,17427,-2,0,22629.2026942806,47237.9314815952,53542.8182735517,60064.2779012598,71455.2376298125,56994.0151296237,59332.9871545042,60360.1597849033,66082.5545945520,11249.2303959590
9302689260,17427,-2,0,22654.7305222151,47253.2627795921,53560.8386325465,60083.3325144846,71480.1205698154,56978.0754467857,59346.6758134300,60397.6971296021,66087.7988718827,11244.0469571125
9302689260,17427,-2,0,22802.1421692251,47300.1935862382,53601.5030753288,60098.2136076990,71514.7741703672,56975.1065287609,59352.7961649320,60425.3664721775,66084.3067428945,11240.8346851512
9302689260,17427,-2,0,22887.7054132840,47320.8908385340,53616.5301809051,60098.7976571465,71520.0184476979,56981.1417063850,59348.6834834058,60421.3267968323,66079.3788256812,11243.5845846332
9302689260,17427,-2,0,22815.1251017352,47288.0745602025,53591.1727007261,60082.7728004307,71489.0759946771,56989.5009141024,59337.8907363239,60392.0513182763,66077.0547955880,11247.7824400371
9302709534,17428,-2,0,22654.8400314865,47234.4271849102,53548.1598924570,60063.0002930934,71452.0496932449,56997.9452956975,59324.2750835790,60360.8533436222,66077.6875158228,11247.3200675578
9302709534,17428,-2,0,22616.8038112180,47237.6272891746,53548.1355570634,60072.2355749820,71466.6874325229,56993.2972355112,59333.0601606851,60377.8394483871,66090.5001005774,11243.1222121539
9302709534,17428,-2,0,22778.2326449680,47294.6207810933,53597.4512322867,60099.4182096845,71513.6912453499,56968.7184879288,59349.6447314548,60428.6274149260,66093.1769938784,11234.2519611700
9302709534,17428,-2,0,22907.6847714673,47321.6939065243,53618.2093230667,60100.0752653129,71523.6809244416,56972.3079584916,59343.2931937132,60431.0001158065,66077.7240189133,11230.4556397612
9302709534,17428,-2,0,22819.7853296183,47283.2926553511,53578.2992774874,60079.2806714425,71482.7122892387,57002.2526603728,59329.3855162446,60377.4379143919,66071.0561210543,11236.7706744124
9302709534,17428,-2,0,22664.9270521528,47245.2077642953,53546.5537564764,60079.2806714425,71459.8613546052,57015.4667791226,59338.9249905538,60364.8686835738,66087.4946794621,11245.6774284867
9302709534,17428,-2,0,22651.2383932270,47256.1343560423,53565.1825003123,60101.2798672984,71481.0696501676,57006.5843604418,59359.5735720623,60399.0477439494,66101.3536861435,11247.2592290737
9302709534,17428,-2,0,22773.3777339356,47299.2931766733,53601.5395784193,60114.9320231338,71514.5551518244,56989.4035725278,59368.8210216478,60426.7292542216,66096.0972411159,11241.6012500511
9302739332,17429,-2,0,22888.7274998171,47323.8962596493,53617.7469505874,60109.9067643459,71523.1333780845,56973.9992683500,59359.0016903117,60427.0577820359,66080.6077630603,11236.9896929552
9302739332,17429,-2,0,22860.4741077943,47301.1791696808,53596.6116612060,60094.4172862903,71496.6077990105,56987.0552070410,59343.3661998942,60399.2302594018,66072.7717663064,11241.5160761733
9302739332,17429,-2,0,22694.7135739753,47248.4930424375,53550.0215500709,60076.9444736525,71456.9167719741,57010.0643217332,59326.8424676086,60358.9673506147,66074.7064301012,11246.0059563010
9302739332,17429,-2,0,22614.9543213009,47241.1680889501,53546.0670486035,60083.7827192670,71463.5481667426,57010.1373279141,59334.7636382404,60371.8042707629,66092.2522489199,11246.5656703548
9302739332,17429,-2,0,22753.9215867158,47298.1615808687,53602.0506216858,60112.8513469770,71516.9521880985,56988.9168646549,59357.2495419692,60434.5044124915,66101.3658538403,11245.4827453376
9302739332,17429,-2,0,22904.9957104694,47333.3140569902,53632.0561620512,60108.4466407271,71532.9892125111,56984.3174752558,59348.7443218899,60444.7131101260,66087.7745364891,11241.0293683004
9302739332,17429,-2,0,22857.9432268551,47304.7686402436,53602.0384539890,60081.8358877753,71498.8223198323,57006.6330312291,59328.9961499463,60398.4880298956,66079.5856765272,11245.8721116359
9302739332,17429,-2,0,22702.6712476975,47259.3222926099,53561.2036634512,60071.3473331140,71466.8821156721,57017.2067597682,59323.9343880679,60374.4689963671,66088.5411013889,11254.3286609279
9302756289,17430,-2,0,22635.1526980270,47248.8945764326,53553.2094866385,60081.4343537802,71469.5468412763,57010.1494956109,59331.4296893109,60390.4938530829,66095.9268933604,11255.4602567324
9302756289,17430,-2,0,22724.5487665852,47285.4585053856,53586.0987711509,60098.5421355132,71504.2004418280,57004.5888581628,59341.8695731850,60421.0712751990,66101.8160586227,11251.0677181793
9302756289,17430,-2,0,22870.4759545827,47328.3253012928,53622.0421475659,60107.0473555925,71531.6994366479,56989.6834295547,59345.6658945937,60438.4832493526,66099.1269976249,11244.6675096504
9302756289,17430,-2,0,22887.7905871618,47319.6497334580,53611.7117729632,60092.2757716494,71514.8350088513,56987.3350640679,59337.5743762065,60416.1068548952,66084.9759662198,11246.0789624819
9302756289,17430,-2,0,22725.2788283946,47261.1109440429,53555.3631689762,60068.3054089082,71466.9186187625,57005.8664663293,59324.8591330265,60364.3089695199,66077.7970250942,11252.4670033139
9302756289,17430,-2,0,22609.1138268259,47236.5686995510,53533.2787992426,60075.1193191291,71459.5084913974,57008.9692290191,59335.2381784165,60368.4094833493,66090.5244359710,11254.6450210453
9302756289,17430,-2,0,22711.8213557084,47281.7108547641,53576.1942659371,60106.8283370497,71503.5798892901,56989.4522433151,59355.8989276218,60426.0113601091,66101.0008229356,11252.8807050059
9302756289,17430,-2,0,22876.6814799624,47326.8895130677,53615.0943926800,60118.1199597014,71532.5268400318,56985.5464126349,59358.0282745658,60447.4508419111,66094.2842542893,11251.2137305412
9302823012,17431,-2,0,22879.0541808429,47316.6929831301,53599.6779208053,60096.6683102025,71511.7444138583,56999.7461148273,59339.0101644316,60410.6192236281,66084.3675813786,11252.9293757932
9302823012,17431,-2,0,22741.8512314674,47270.6017475648,53558.9648072358,60077.3095045572,71477.0543102161,57000.4031704558,59326.1610765865,60376.0507969541,66087.6771949145,11254.3164932310
9302823012,17431,-2,0,22631.1130226818,47237.3474321477,53535.8826863627,60070.5199297300,71456.2840517393,56991.2043916576,59322.0362273636,60367.6064153590,66084.3310782882,11247.2835644674
9302823012,17431,-2,0,22672.8968935718,47260.9770993778,53550.7637795771,60083.7705515702,71478.1250675365,56985.1692140334,59335.5545385338,60389.9828098164,66083.7470288407,11238.7540089945
9302823012,17431,-2,0,22839.6673462270,47319.1143547978,53596.5629904187,60110.0041059205,71522.9265272385,56982.3341406737,59356.9453495486,60430.8906065351,66086.6064375940,11237.2695499821
9302823012,17431,-2,0,22914.8637125928,47336.7331797975,53612.6973564059,60112.9000177643,71525.9927868379,56997.1422277072,59360.7051678669,60429.9536938797,66085.6330218482,11245.5679192153
9302823012,17431,-2,0,22776.6265089874,47288.1962371707,53570.9378209096,60092.6773056446,71482.4932706959,57023.3149435734,59344.6073049701,60382.6456886321,66086.1684005084,11251.2258982380
9302823012,17431,-2,0,22630.5776440216,47256.9860948199,53543.9255339626,60093.8575722364,71469.1331395843,57029.2041088357,59348.8781665550,60379.6889383041,66105.4907030633,11253.0997235487
9302839481,17432,2,0,22688.9947564685,47287.6486908137,53575.5980487927,60117.4507363761,71502.3752873046,57004.6861997374,59365.7182589579,60426.3277202265,66112.6939795824,11248.3543217878
9302839481,17432,2,0,22848.2820755777,47334.0927895869,53615.9339637608,60127.8419494629,71534.8630378219,56994.1246388951,59369.4050710953,60448.5946054125,66100.3802703976,11243.3899014840
9302839481,17432,2,0,22894.2638018716,47333.2897215966,53609.7771091684,60110.2596275537,71520.6998387199,56993.2850678143,59352.9665126875,60416.5570596777,66082.6276007329,11241.6012500511
9302839481,17432,2,0,22784.9248782206,47287.6730262074,53571.5097026602,60084.1355824749,71478.9281355268,56992.6280121859,59334.6419612721,60376.0751323477,66073.6965112649,11241.4065669019
9302839481,17432,2,0,22645.5317434170,47243.8206468575,53535.2134630374,60071.5541839600,71449.9933524818,56996.3513274137,59326.0393996183,60354.2949550347,66073.5991696903,11243.3168953031
9302839481,17432,2,0,22640.5308200228,47252.0581776066,53541.7718516250,60078.6357835109,71465.7991906548,56994.8547007045,59332.0624095457,60373.8606115260,66080.3400737302,11242.2339702859
9302839481,17432,2,0,22806.8389001987,47314.6609777606,53599.4467345657,60107.3272126194,71518.2419639617,56987.0430393442,59349.3162036406,60427.6539991802,66090.1715727632,11245.0568759488
9302839481,17432,2,0,22919.7916298061,47339.7020978223,53623.2102464609,60106.6823246878,71527.7327674836,56987.4202379457,59346.8339934887,60432.4967425157,66081.4716695348,11245.9694532105
9302854304,17433,2,0,22812.6915623706,47297.5896991181,53581.0735123631,60083.0526574576,71486.4599398602,57016.7200518953,59329.2273361859,60383.4122535320,66077.7848573974,11253.2457359106
9302854304,17433,2,0,22650.8003561413,47254.1388537633,53540.1048771602,60080.6921242740,71462.3435647571,57017.0364120127,59333.3035146216,60369.8817746649,66094.0774034433,11255.3872505515
9302854304,17433,2,0,22659.9261287585,47266.5377368259,53550.3622455820,60098.7246509656,71484.5496114590,56987.9921196964,59347.1746889998,60405.6061325370,66097.4235200696,11247.8067754308
9302854304,17433,2,0,22803.2372619391,47313.4685434720,53586.2082804223,60117.1465439555,71517.7187529983,56984.9380277938,59352.0539354258,60434.8937787898,66088.5045982984,11242.6841750683
9302854304,17433,2,0,22899.0092036325,47342.8778666930,53606.3579863611,60122.7801875845,71530.8476978703,57001.6564432285,59352.5284756019,60432.4237363348,66086.1805682053,11248.0501293672
9302854304,17433,2,0,22842.1373886821,47319.9052550913,53587.9969318553,60113.2772163658,71506.6339811926,57011.7434638947,59346.2377763444,60407.2609393049,66087.5555179462,11256.3606662973
9302854304,17433,2,0,22692.4017115790,47267.0366123956,53547.4785014349,60097.5078812833,71470.3134061761,57020.2121808835,59341.2855237375,60379.1413919471,66089.3928401665,11258.6846963905
9302854304,17433,2,0,22637.3793865456,47258.9450940084,53541.7718516250,60100.1847745843,71474.0245537071,57018.8737342330,59350.5816441102,60391.6497842811,66099.4311900454,11254.6936918325
9302884593,17434,2,0,22780.2159795501,47313.8214066799,53594.7378358952,60123.6684294526,71524.0946261335,57007.1927452830,59369.6362573349,60449.5436857647,66107.4131991613,11248.6828496020
9302884593,17434,2,0,22922.9065601928,47353.6219429877,53632.0561620512,60129.0465514484,71546.7508776179,57003.1165668473,59370.0012882396,60461.0178238687,66101.1224999038,11250.4715010350
9302884593,17434,2,0,22848.8661250252,47319.2116963724,53596.0762825457,60100.0752653129,71506.5244719212,57020.7232241501,59346.3959564031,60406.3240266496,66090.0742311886,11253.8784561454
9302884593,17434,2,0,22682.7283926047,47270.3583936283,53550.4595871565,60085.4740291254,71474.7424478197,57022.9985834560,59337.7812270524,60376.0021261668,66096.9611475904,11254.5476794707
9302884593,17434,2,0,22647.1135440040,47271.5994987043,53554.3654178367,60095.9017453027,71490.9741553815,57009.4802722857,59346.4567948872,60399.8994827271,66103.9454055667,11245.7626023645
9302884593,17434,2,0,22759.4700564670,47313.3103634133,53587.3398762269,60109.6999134999,71525.8102713856,56999.9407979765,59355.3148781743,60428.4448994737,66097.6060355220,11240.2019649164
9302884593,17434,2,0,22881.6337325694,47349.3024106156,53613.6829398485,60117.1100408651,71544.6702014611,56996.3634951105,59361.5325712508,60435.2101389072,66088.8209584158,11244.8135220123
9302884593,17434,2,0,22863.4673612127,47329.0918661927,53594.6648297143,60104.2001145359,71520.2131308470,56998.4441712673,59349.9854269659,60409.1347646157,66077.0912986785,11249.3764083209
9302937171,17435,2,0,22704.4112283432,47272.4999082692,53544.2053909896,60082.4564403133,71472.9537963867,57014.1648355625,59335.5180354434,60365.7934285323,66074.7551008885,11253.7567791772
9302937171,17435,2,0,22608.3229265324,47254.7472386045,53529.7988379512,60085.8633954237,71470.3255738730,57021.3072735976,59341.0908405883,60366.2071302243,66091.5830255946,11253.1727297297
9302937171,17435,2,0,22727.9070509083,47306.9831610654,53582.2172758644,60112.3281360136,71519.1788766171,56997.4829232183,59358.7340009816,60421.3146291354,66104.2982687746,11249.1330543845
9302937171,17435,2,0,22889.7252509566,47350.4826772074,53619.6572789886,60116.7815130508,71543.3804255979,56989.1480508945,59359.4397273973,60440.5517578125,66089.5510202252,11244.3511495330
9302937171,17435,2,0,22861.6908774766,47324.2491228571,53591.5133962371,60092.0689208034,71507.5708938480,57011.0499051758,59341.2976914343,60395.5069441740,66076.5072492310,11245.1420498265
9302937171,17435,2,0,22712.1498835226,47272.3173928168,53544.3149002610,60076.8958028652,71469.0601334034,57013.9823201102,59334.1917564897,60364.0047770994,66079.9993782192,11246.8576950786
9302937171,17435,2,0,22641.8936020669,47257.2416164532,53535.5906616389,60087.0071589251,71472.8077840248,57010.8187189362,59343.9502493417,60378.2653177759,66090.9138022694,11247.8797816117
9302937171,17435,2,0,22724.1472325900,47294.9371412107,53570.3537714621,60108.5804853922,71511.2577059854,57011.9868178312,59356.2274554360,60413.8558309830,66099.5772024073,11252.9902142773
9302966030,17436,2,0,22871.5710472968,47346.1266417448,53614.6441878976,60122.7193491004,71543.8062949867,57004.9295536739,59362.0192791237,60439.1038018906,66099.0418237471,11258.0033053684
9302966030,17436,2,0,22903.5112514570,47343.9729594071,53615.5567651593,60113.3988933341,71530.6773501148,57001.0602260842,59350.8615011371,60424.0766963142,66086.5090960195,11259.9501368601
9302966030,17436,2,0,22747.9715829693,47280.8347805929,53557.1274850155,60085.2306751889,71475.9592175020,57015.8196423304,59330.4197704746,60372.4248233008,66074.6942624044,11256.3363309036
9302966030,17436,2,0,22614.8691474232,47247.6291359631,53524.7735791633,60084.3424333209,71462.3070616667,57022.9377449718,59334.4837812134,60366.3166394957,66087.4825117653,11255.1073935245
9302966030,17436,2,0,22702.5130676388,47289.0723113420,53564.6227862584,60112.6444961310,71506.4149626498,57000.9142137223,59359.2815473386,60422.8599266319,66098.2144203631,11254.3286609279
9302966030,17436,2,0,22872.7878169791,47338.4488250495,53610.1786431635,60124.7148513794,71539.2799117686,56990.5716714228,59364.5379923661,60449.6410273392,66091.3153362645,11253.3430774852
9302966030,17436,2,0,22888.8735121790,47331.9634426429,53598.4368157294,60105.9400951816,71519.7020875805,57006.1828264467,59351.3360413132,60416.0946871984,66080.0237136128,11253.1727297297
9302966030,17436,2,0,22757.7057404277,47287.5635169360,53558.3564223946,60089.5380398643,71484.3792637035,57015.2599282766,59342.8186535371,60381.9156268227,66084.7326122833,11254.0609715978
9302976853,17437,2,0,22645.3978987519,47259.3344603067,53534.6537489835,60088.8201457517,71470.5202570221,57005.7326216642,59344.7533173320,60378.0584669299,66090.9868084503,11251.2989044189
9302976853,17437,2,0,22671.6801238895,47276.8194406413,53548.2815694252,60097.6417259483,71490.8646461101,56999.0403884116,59353.5140590445,60398.2933467464,66091.2179946899,11244.1808017775
9302976853,17437,2,0,22822.6082352813,47329.1283692831,53592.9856875527,60114.4088121704,71528.3898231120,56986.1547974761,59364.4406507915,60430.8906065351,66091.5465225042,11242.0271194399
9302976853,17437,2,0,22904.9957104694,47344.0946363753,53608.6941841511,60111.0870309377,71528.4993323834,56987.4080702489,59358.2716285023,60423.3588022017,66079.1476394416,11246.0181239978
9302976853,17437,2,0,22780.2768180343,47294.2922532790,53564.5011092902,60087.7615561281,71483.9777297083,57013.8728108388,59338.4626180745,60372.9967050515,66073.7695174458,11252.1506431966
9302976853,17437,2,0,22626.6474779478,47254.2605307316,53528.6550744498,60084.4397748955,71461.8811922778,57025.3712843364,59338.8398166760,60358.2737918958,66089.3320016824,11253.1362266392
9302976853,17437,2,0,22675.3669360268,47285.5923500506,53559.9382229816,60111.4033910551,71500.1120956955,57003.2017407250,59362.5181546935,60411.4222916184,66105.5880446378,11248.8653650544
9302976853,17437,2,0,22840.3974080364,47336.6723413133,53602.8171865857,60127.3309061963,71537.1992356119,56983.2953887227,59369.9161143618,60446.0515567765,66096.4257689302,11243.4507399681
9303009708,17438,2,0,22898.1696325517,47342.5128357884,53599.5562438371,60115.0780354956,71531.6994366479,56987.7244303663,59358.6244917101,60422.3610510622,66077.1643048594,11244.4849941981
9303009708,17438,2,0,22801.3756043252,47301.8727283997,53563.7467120872,60095.7192298503,71496.4617866487,56989.4035725278,59346.2864471317,60389.1675741292,66072.3945677048,11247.7702723403
9303009708,17438,2,0,22661.6296063137,47255.2582818710,53523.2526170604,60084.4884456827,71469.5225058826,56994.5018374966,59339.6915554536,60368.2756386842,66073.1002941206,11248.9992097194
9303009708,17438,2,0,22644.8868554854,47260.8067516223,53527.3896339802,60093.8697399332,71484.3305929162,56995.3414085774,59345.4468760509,60383.5339305002,66080.8024462095,11244.6918450441
9303009708,17438,2,0,22795.2430851265,47316.0602628953,53577.0338370179,60115.7594265177,71530.1298037577,56978.2822976316,59357.4077220279,60429.8441846083,66082.1043897696,11239.5327415912
9303009708,17438,2,0,22917.6014443780,47342.0504633091,53603.6445899696,60115.2605509480,71540.4601783604,56974.4129700420,59351.3360413132,60436.9501195529,66068.0750353327,11240.3966480656
9303009708,17438,2,0,22824.5550667729,47299.1349966146,53568.0784121562,60089.3190213215,71497.4352023945,57003.0070575759,59328.6676221321,60385.5659358696,66061.7600006816,11250.6053457000
9303009708,17438,2,0,22654.8765345770,47250.5372155037,53528.4847266943,60078.2707526062,71465.7261844739,57011.1472467504,59325.8082133787,60360.8898467127,66076.9574540135,11253.9392946295
9303047335,17439,2,0,22654.9373730611,47263.5079803170,53549.0481343251,60100.2091099780,71490.3536028435,57002.8002067299,59346.8461611855,60402.4668667567,66093.7975464164,11252.4791710108
9303047335,17439,2,0,22801.3512689316,47320.7448261721,53598.7166727563,60121.7215979610,71531.1640579877,57003.3355853901,59364.6231662439,60443.4598373532,66097.1071599523,11248.4759987560
9303047335,17439,2,0,22895.6630870062,47345.1897290894,53614.2913246897,60117.7549287967,71537.8319558466,57002.4473435220,59361.7637574905,60438.5805909272,66087.8475426700,11241.2118837527
9303047335,17439,2,0,22838.7547689653,47313.4807111688,53583.4462132435,60100.7688240318,71505.8917516864,56994.8668684013,59348.9998435232,60402.3086866980,66076.7749385611,11234.3493027446
9303047335,17439,2,0,22689.7734890652,47256.3290391915,53531.0521107240,60083.5758684210,71465.9817061072,56998.7483636878,59337.7568916588,60367.3022229384,66069.2187988341,11231.9644341673
9303047335,17439,2,0,22625.5280498401,47245.5971305936,53515.3192787319,60086.1432524507,71465.1786381169,56993.7352725968,59342.3441133610,60369.0665389777,66074.4265730743,11226.7931630175
9303047335,17439,2,0,22750.7214824513,47294.0245639489,53556.2879139347,60105.5507288833,71506.8529997354,56968.2317800559,59350.9831781053,60412.2740303960,66077.1156340721,11216.2194344784
9303047335,17439,2,0,22896.4053165124,47330.6980021733,53587.2790377428,60106.6214862037,71525.1897188476,56964.1434339234,59347.3450367553,60424.9771058791,66065.9091852982,11215.0391678866
9303079460,17440,2,0,22841.1031344521,47299.5243629129,53555.3631689762,60083.6367069051,71489.6113733373,56997.3369108564,59329.0326530368,60378.1071377172,66059.6549891312,11229.1901992917
9303079460,17440,2,0,22682.7040572111,47256.6575670057,53521.2327793878,60083.1986698195,71464.4607440043,57022.0495031038,59332.3909373599,60358.8456736465,66081.1674771142,11248.9627066289
9303079460,17440,2,0,22645.1545448155,47257.9108397784,53532.1958742253,60106.1104429371,71481.8848858548,57008.5433596303,59351.7984137925,60395.2635902375,66097.8007186712,11257.7842868256
9303079460,17440,2,0,22753.3253695714,47296.7257926436,53568.2609276085,60120.0059527089,71515.1392012719,56993.1390554525,59359.2207088545,60429.4791537036,66092.4225966754,11257.3949205272
9303079460,17440,2,0,22873.5300464853,47328.7511706816,53594.5796558365,60121.2105546944,71533.0378832984,56992.0439627384,59359.0990318862,60433.8473568631,66082.4937560679,11257.1515665908
9303079460,17440,2,0,22867.6408812230,47315.5370519319,53583.7017348768,60108.5804853922,71512.0851093693,56993.8569495650,59349.3648744279,60407.3704485763,66072.1998845557,11254.1704808692
9303079460,17440,2,0,22716.2382296551,47257.8134982039,53529.8840118290,60084.8778119811,71466.6874325229,57006.6330312291,59332.6586266900,60360.5369835048,66065.2277942761,11246.6386765358
9303079460,17440,2,0,22611.2066706795,47235.4249360496,53507.2764311319,60088.5159533311,71461.9298630651,57010.2225017919,59337.5135377223,60357.9939348688,66075.9597028740,11244.8743604964
9303113102,17441,2,0,22714.7294352491,47281.9785440942,53550.2405686137,60115.5039048844,71507.9967632368,56984.1836305908,59353.5018913477,60407.8206533588,66083.3941656328,11239.6787539530
9303113102,17441,2,0,22879.5165533222,47330.3573066622,53593.6062400907,60122.9992061274,71539.1338994067,56977.1263664335,59353.2342020176,60432.9712826918,66077.5415034610,11236.2474634490
9303113102,17441,2,0,22862.0680760781,47313.4685434720,53577.2406878638,60099.4790481686,71511.0508551394,57000.0746426415,59332.8776452328,60393.9008081933,66065.9335206919,11242.3313118604
9303113102,17441,2,0,22712.7461006669,47272.5607467533,53541.5650007790,60092.2757716494,71479.2444956442,57025.5172966983,59331.0646584062,60372.0597923962,66076.9939571039,11254.2313193533
9303113102,17441,2,0,22641.5772419495,47268.9226054032,53543.6578446325,60113.9829427816,71490.3536028435,57026.1986877204,59351.0561842863,60398.6340422575,66096.6082843825,11263.8681352370
9303113102,17441,2,0,22715.2526462124,47300.4491078714,53572.8116462203,60131.7599478399,71521.8679376150,57012.6560411565,59366.3266437991,60430.1118739384,66097.8980602457,11259.6702798331
9303113102,17441,2,0,22851.6525275976,47339.5560854604,53608.4386625179,60138.2940010338,71549.6224540681,57000.3179965780,59371.1328840441,60445.0416379402,66091.5465225042,11252.7225249472
9303113102,17441,2,0,22887.2187054111,47332.6813367554,53604.2651425076,60123.3155662448,71534.0112990442,56990.8393607529,59357.3347158469,60421.4119707100,66075.0349579154,11248.4638310592
9303138311,17442,2,0,22745.1730127001,47273.9235287974,53551.8467045944,60093.6507213904,71482.1160720944,57010.6362034839,59333.2305084407,60367.8497692954,66066.2742162029,11249.7657746193
9303138311,17442,2,0,22609.1381622196,47244.1248392780,53525.2237839458,60092.9084918842,71468.5977609241,57029.9220029482,59337.6352146906,60360.4883127175,66087.3121640098,11254.4990086834
9303138311,17442,2,0,22682.4728709714,47287.8677093565,53564.2942584442,60121.2957285721,71510.0652716967,57006.9980621338,59359.8534290893,60415.6566501128,66102.8259774590,11252.3453263457
9303138311,17442,2,0,22854.1347377495,47341.4785815584,53613.2935735502,60133.4390900014,71543.0153946932,56991.0583792957,59367.4339042100,60449.3490026155,66090.9624730567,11248.6828496020
9303138311,17442,2,0,22881.4268817234,47339.0207068002,53605.5670860676,60114.7495076814,71523.8756075907,57008.5433596303,59353.0881896557,60415.7539916874,66079.4518318622,11251.9072892601
9303138311,17442,2,0,22753.3132018746,47291.8952170049,53564.2090845665,60097.5078812833,71483.9168912242,57013.2035875135,59341.1151759819,60377.7542745093,66079.9993782192,11253.2700713043
9303138311,17442,2,0,22641.8936020669,47257.2781195436,53537.9268594289,60097.6903967356,71466.7117679166,57013.0819105453,59342.9890012927,60377.1945604554,66085.5721833641,11253.0510527614
9303138311,17442,2,0,22667.4822684856,47272.1227096676,53552.8322880370,60113.0095270357,71489.6843795183,57015.9048162082,59353.1976989271,60404.4502013388,66091.4613486264,11251.9316246537
9303175622,17443,2,0,22814.3828722290,47323.6164026223,53598.3516418516,60134.0961456299,71534.4128330394,57001.7659524999,59363.2968872902,60439.7121867317,66092.8971368515,11253.1240589424
9303175622,17443,2,0,22902.8906989190,47339.3735700080,53609.4485813542,60129.9347933164,71535.7756150836,56985.5342449381,59356.2517908297,60436.3417347118,66077.2738141309,11251.8342830792
9303175622,17443,2,0,22783.6959408415,47281.1633084071,53551.4208352056,60093.0180011556,71476.5676023431,56989.2697278628,59328.4851066797,60372.8871957801,66055.8951708129,11245.0082051615
9303175622,17443,2,0,22617.6555499956,47230.5091865332,53500.0244838255,60077.9178893984,71440.8189090773,57003.3720884806,59324.3845928504,60342.4557860259,66061.1881189309,11244.7526835282
9303175622,17443,2,0,22650.6543437794,47259.1032740671,53528.2048696674,60105.8427536070,71476.3729191940,56998.0304695753,59352.4919725114,60390.9562255622,66080.9362908746,11247.9406200958
9303175622,17443,2,0,22816.5365545666,47316.6443123428,53582.2659466517,60126.3209873600,71519.9089384265,56995.4874209393,59368.6020031050,60434.6139217629,66081.1066386301,11247.9649554895
9303175622,17443,2,0,22889.2020399932,47332.7056721491,53595.8937670934,60123.0113738242,71521.2960558643,57003.4694300551,59361.6664159159,60423.6994977127,66073.4044865412,11251.7247738077
9303175622,17443,2,0,22799.8303068287,47297.6262022085,53563.8805567523,60105.2222010690,71490.5117829022,57002.7758713362,59351.1778612545,60390.3721761147,66070.8736056020,11253.2944066979
9303220596,17444,2,0,22663.1749038103,47253.1167672302,53523.8244988111,60091.2293497227,71458.2552186246,56994.3071543475,59344.6316403638,60369.4559052761,66070.0827053085,11247.4174091324
9303220596,17444,2,0,22631.3807120119,47248.5295455280,53517.0835947712,60088.1874255169,71462.5504156031,56989.1845539850,59343.3418645005,60378.1436408076,66072.9542817587,11237.9387733074
9303220596,17444,2,0,22767.9022703653,47303.0164919011,53563.6128674221,60106.6579892942,71506.5488073149,56988.8195230803,59352.2364508781,60421.3876353164,66078.7217700528,11235.2983830968
9303220596,17444,2,0,22902.1971402001,47340.0549610301,53598.7166727563,60112.3524714073,71526.6255070727,56985.0718724589,59347.1503536061,60433.7135121980,66071.1777980226,11239.5692446816
9303220596,17444,2,0,22828.2053758198,47303.1990073534,53565.2311710996,60090.5722940942,71486.7519645839,57010.3441787601,59324.3724251536,60382.3536639084,66061.5409821388,11249.2303959590
9303220596,17444,2,0,22658.6850236826,47253.6156427999,53520.4905498816,60086.5569541427,71454.3980587317,57019.9201561598,59323.0339785030,60352.9930114746,66071.2629719003,11255.4845921260
9303220596,17444,2,0,22643.4632349571,47259.5169757591,53531.5753216873,60111.3790556615,71475.3143295704,57001.5225985635,59346.1039316793,60386.4785131313,66083.4550041169,11253.7811145708
9303220596,17444,2,0,22780.4593334866,47302.0795792457,53572.6656338584,60130.8352028813,71512.7908357850,56988.3449829042,59358.6123240133,60422.9085974192,66077.1278017690,11247.7216015530
9303232004,17445,2,0,22879.8572488332,47324.1517812825,53588.9095091170,60124.3619881715,71521.1865465929,56995.5239240298,59353.7209098905,60414.8779175161,66068.1358738168,11247.5755891911
9303232004,17445,2,0,22838.3532349702,47306.4842854956,53572.6534661616,60110.1622859792,71500.0877603019,57006.3045034149,59343.9380816449,60390.8345485940,66071.2751395971,11255.1438966150
9303232004,17445,2,0,22696.5022254083,47260.6850746541,53534.3495565630,60094.8309879823,71467.0281280340,57011.2202529314,59335.6518801084,60364.4914849723,66077.2616464340,11256.3363309036
9303232004,17445,2,0,22624.7979880307,47248.7485640708,53521.7194872608,60098.2744461831,71467.8433637211,57011.5122776551,59340.6771388963,60371.1472151344,66085.9007111783,11251.9924631379
9303232004,17445,2,0,22740.2572631836,47296.8718050055,53562.3595946494,60120.5291636723,71511.0751905330,56991.5694225623,59359.5614043655,60421.4728091941,66093.0796523039,11246.0302916946
9303232004,17445,2,0,22892.0006102625,47336.6966767070,53599.6900885022,60124.4714974429,71535.6539381153,56983.0885378767,59359.0868641894,60441.9875460376,66079.1354717448,11242.8423551270
9303232004,17445,2,0,22848.9999696902,47310.5361285377,53575.5737133991,60098.5299678164,71502.0345917935,57013.0332397580,59341.3585299184,60394.9228947265,66068.9876125944,11249.2547313527
9303232004,17445,2,0,22681.4751198320,47260.6729069573,53532.1837065285,60084.0747439908,71466.4197431928,57029.9220029482,59338.9614936443,60361.0358590746,66079.8046950700,11254.7666980135
9303254471,17446,2,0,22626.3554532240,47254.8324124822,53532.5852405236,60098.6638124815,71474.9006278784,57017.7421384285,59354.8281703014,60381.9277945196,66093.6880371450,11252.7346926441
9303254471,17446,2,0,22737.7993884254,47300.7167972016,53574.5516268660,60122.7801875845,71513.7885869245,57009.1030736842,59371.2302256187,60421.2416229545,66097.2653400109,11255.0587227372
9303254471,17446,2,0,22868.6386323625,47336.7696828879,53599.6414177149,60126.6495151742,71530.5800085402,56997.1422277072,59372.2158090614,60429.4304829163,66085.8520403910,11253.6472699058
9303254471,17446,2,0,22872.9094939473,47324.4924767936,53588.0090995521,60113.1433717008,71511.3307121663,56997.6532709738,59362.2626330602,60407.7963179651,66075.6311750598,11252.2114816807
9303254471,17446,2,0,22733.5650299310,47271.3683124646,53543.7673539039,60086.4717802649,71468.7072701955,57014.4325248926,59345.4347083541,60369.0665389777,66074.2075545315,11251.0677181793
9303254471,17446,2,0,22620.0769216634,47243.8693176448,53518.9574200819,60080.4487703375,71456.2232132552,57020.2851870644,59339.5942138791,60360.0746110256,66082.9682962440,11247.5147507070
9303254471,17446,2,0,22712.7704360606,47289.2426590975,53559.0499811135,60104.4921392597,71502.3996226982,57003.7614547789,59357.5415666929,60410.2785281170,66091.6925348660,11242.2583056795
9303254471,17446,2,0,22893.4120630940,47345.4452507227,53607.2097251387,60124.3133173842,71539.9369673970,56995.2440670028,59367.1175440926,60446.4895938621,66081.1431417205,11243.3168953031
9303288191,17447,2,0,22901.7591031145,47336.0152856849,53595.2732145554,60107.0716909861,71520.3469755121,57018.9102373234,59354.3901332158,60412.5173843324,66070.6910901496,11252.2723201648
9303288191,17447,2,0,22751.2446934147,47288.1962371707,53551.4816736897,60090.3532755514,71482.3594260309,57029.7151521022,59348.5861418312,60377.2919020300,66079.6951857986,11257.6747775542
9303288191,17447,2,0,22658.0888065383,47265.0897809040,53536.7465928371,60094.2712739284,71475.2656587831,57017.4501137047,59355.1323627220,60386.6975316742,66091.1328208122,11252.7711957345
9303288191,17447,2,0,22717.4671670342,47288.1719017771,53560.6439493973,60104.6381516215,71497.9584133579,57006.8763851656,59358.6974978911,60413.9045017703,66093.5906955704,11244.9230312837
9303288191,17447,2,0,22852.8814649767,47332.2432996698,53599.2520514165,60113.8977689038,71526.3699854394,57004.4550134978,59361.8367636714,60431.5963329508,66093.0796523039,11243.5237461491
9303288191,17447,2,0,22907.6361006800,47339.6412593381,53607.1367189578,60109.6512427126,71521.4907390134,56999.2715746512,59354.0129346142,60419.7693316389,66086.5455991099,11246.4196579929
9303288191,17447,2,0,22781.5422585038,47284.3999157620,53559.9260552848,60085.8268923333,71472.4792562106,57004.5036842851,59336.9173205780,60371.1107120440,66073.3436480570,11248.7558557830
9303288191,17447,2,0,22633.5708974400,47238.2478417126,53520.3688729134,60079.1468267775,71448.6427381345,57015.5276176067,59338.0367486857,60355.1710292059,66081.2161479015,11252.2601524680
9303322965,17448,2,0,22685.9771676565,47267.6084941463,53548.2937371221,60104.8206670739,71487.3968525156,56997.5315940055,59363.6862535885,60402.9779100233,66094.1625773211,11251.2380659348
9303322965,17448,2,0,22860.9243125767,47320.3797952674,53594.3606372937,60122.5976721322,71528.5723385644,56976.8708448002,59375.9999627733,60441.6833536170,66087.6285241272,11246.4561610834
9303322965,17448,2,0,22899.3742345372,47314.8799963035,53581.8157418693,60103.0563510346,71510.2356194522,56986.7266792268,59358.4054731673,60409.0739261316,66066.8947687409,11246.0424593914
9303322965,17448,2,0,22775.6287578479,47268.4602329239,53535.8218478785,60083.7948869638,71472.7469455407,57004.8200444025,59346.4932979777,60372.8871957801,66065.9943591760,11249.8509484970
9303322965,17448,2,0,22660.4006689346,47237.1040782112,53512.5207084626,60084.5736195605,71459.1556281895,57010.9160605108,59352.7109910542,60376.5253371302,66079.5248380431,11251.6517676268
9303322965,17448,2,0,22677.0582458852,47250.1600169022,53530.1395334622,60094.6119694394,71480.9723085930,57008.0566517574,59361.3987265858,60404.8030645467,66091.6560317756,11252.5765125854
9303322965,17448,2,0,22812.4482084341,47298.5509471671,53574.0040805089,60106.2077845117,71518.6434979569,56995.2562346997,59366.4483207673,60438.0573799638,66093.0674846070,11246.6630119294
9303322965,17448,2,0,22907.6847714673,47320.6109815071,53593.9956063890,60100.4159608240,71524.1067938304,56985.3882325762,59357.4928959056,60442.4742539105,66083.0047993345,11242.5624981001
9303380693,17449,2,0,22812.8862455197,47280.2507311454,53558.2225777296,60079.7917147091,71481.4468487691,57012.1449978899,59339.9957478742,60396.1396644088,66074.3170638029,11249.5224206828
9303380693,17449,2,0,22649.7661019114,47236.7147119129,53520.5757237594,60078.8548020537,71454.1790401889,57027.1599357694,59341.2976914343,60373.6172575895,66086.4969283226,11259.0497272952
9303380693,17449,2,0,22661.3010784995,47257.7769951134,53542.5505842216,60105.2708718563,71480.4004268424,57003.7492870821,59360.6686647764,60412.3348688801,66098.6159543583,11258.1736531239
9303380693,17449,2,0,22821.3427948117,47308.6623032269,53587.5710624665,60121.2348900880,71520.4808201771,56980.4846507566,59368.0301213543,60447.3413326397,66088.3829213302,11250.4593333382
9303380693,17449,2,0,22896.4661549965,47319.3090379470,53591.5498993276,60104.3582945946,71516.1369524113,56990.0849635499,59350.5086379292,60424.8919320014,66070.6789224528,11248.7680234798
9303380693,17449,2,0,22815.5631388208,47285.8357039871,53560.5952786101,60085.9972400888,71486.4356044665,57006.0368140848,59335.4085261720,60391.3334241637,66069.6933390102,11254.5233440770
9303380693,17449,2,0,22685.0889257884,47244.6237148478,53529.9691857067,60081.3491799024,71461.2484720431,57008.2148318161,59334.2404272770,60379.2022304312,66075.6676781502,11257.6139390701
9303380693,17449,2,0,22646.5659976469,47240.2068409011,53525.0656038871,60086.0215754824,71465.2516442978,56997.0813892231,59337.8664009302,60391.3334241637,66075.9718705708,11252.0533016220
9303411033,17450,2,0,22766.8801838322,47287.0646413662,53563.3573457889,60101.0608487556,71502.3996226982,56982.3706437642,59350.8615011371,60427.6418314834,66077.2616464340,11243.4750753618
9303411033,17450,2,0,22906.2733186358,47325.1738678157,53597.4512322867,60110.5029814902,71525.8467744761,56976.9803540716,59354.2076177634,60443.4841727468,66071.2508042035,11242.1366287113
9303411033,17450,2,0,22848.9634665998,47293.6595330442,53568.5042815450,60088.7593072676,71489.5261994596,56996.7771968025,59333.9970733405,60394.4726899440,66060.5553986961,11249.1452220813
9303411033,17450,2,0,22677.8004753914,47243.3339389846,53519.5171341358,60081.1666644501,71456.3935610107,57016.9390704381,59330.7239628951,60363.2503798964,66070.0462022180,11259.3660874126
9303411033,17450,2,0,22650.0094558478,47251.3159481004,53528.5942359657,60104.6259839247,71478.4779307443,57008.3486764811,59352.3459601495,60400.9945754411,66087.8110395795,11260.2056584933
9303411033,17450,2,0,22789.4390937419,47302.2012562139,53578.7859853604,60124.7270190762,71522.2451362165,56996.3999982010,59368.3586491685,60443.3016572945,66090.5001005774,11260.9357203027
9303411033,17450,2,0,22903.5112514570,47333.1923800220,53603.2430559745,60121.4052378436,71536.2623229565,56998.5050097514,59364.9395263613,60439.1768080715,66081.1918125078,11260.9843910900
9303411033,17450,2,0,22867.3001857119,47309.4897066109,53582.7283191310,60101.6448982031,71508.2644525669,56995.7307748757,59349.1093527946,60405.8251510798,66073.7816851427,11257.8329576129
9303418141,17451,2,0,22723.4901769616,47252.5205500859,53535.8461832722,60080.5096088217,71468.1110530512,56996.3391597169,59332.6586266900,60372.8141895992,66070.8492702083,11249.3885760177
9303418141,17451,2,0,22640.3118014800,47231.4947699758,53520.4783821848,60081.6533723230,71464.2660608551,57013.6051215086,59338.0975871698,60377.4744174824,66080.1453905811,11248.2691479100
9303418141,17451,2,0,22744.1752615606,47279.7883586661,53565.1825003123,60107.2055356512,71511.6227368900,57005.4649323341,59360.3279692654,60431.9735315523,66092.4956028564,11249.6319299542
9303418141,17451,2,0,22902.6108418921,47325.5510664172,53605.3967383121,60117.1952147428,71538.2091544482,56988.1381320582,59362.8466825077,60458.7911353501,66083.7956996280,11247.4904153134
9303418141,17451,2,0,22878.6891499382,47303.6857152263,53580.8909969107,60095.5367143980,71505.6240623563,57007.1075714052,59342.5752996007,60417.0194321569,66072.1755491620,11252.6008479790
9303418141,17451,2,0,22712.5514175178,47254.1145183697,53530.4802289733,60082.8944773989,71468.0502145671,57022.4997078862,59332.1475834234,60378.5086717123,66081.1553094174,11257.2367404685
9303418141,17451,2,0,22642.1734590939,47240.9490704073,53519.2737801993,60093.3343612730,71471.4571696775,56999.2837423480,59339.0710029157,60397.5024464529,66090.1107342791,11249.7536069224
9303418141,17451,2,0,22735.1468305180,47270.9059399853,53546.9187873811,60105.5750642769,71499.0656737688,56984.9501954906,59344.2909448527,60429.5643275814,66085.5356802736,11241.0780390877
9303450489,17452,2,0,22860.2307538578,47302.2499270012,53571.3028518142,60105.8792566975,71513.2775436580,56990.9610377212,59344.8263235129,60435.4413251469,66074.8646101599,11238.4863196644
9303450489,17452,2,0,22882.1447758359,47301.2278404681,53571.5097026602,60104.0419344772,71503.8354109233,57000.0624749447,59344.9601681780,60422.7017465732,66074.8402747663,11244.3389818362
9303450489,17452,2,0,22761.8427573475,47258.6165661942,53534.6050781962,60091.0346665735,71467.3931589386,57014.1039970784,59340.3972818694,60391.0900702272,66075.5094980915,11251.5057552649
9303450489,17452,2,0,22646.3348114073,47233.4537691643,53510.6590508487,60088.4794502407,71457.8415169326,57018.3261878760,59342.1494302119,60380.0783046025,66081.9340420140,11253.7811145708
9303450489,17452,2,0,22712.4175728527,47271.0154492568,53543.5726707548,60106.4998092355,71495.8899048980,56993.3459062985,59355.4000520521,60420.9982690180,66085.9980527529,11248.0014585799
9303450489,17452,2,0,22885.2353708289,47324.9913523633,53594.0442771763,60121.8311072324,71532.7336908778,56989.1845539850,59364.3311415201,60457.4891917900,66081.2769863856,11247.6485953721
9303450489,17452,2,0,22907.4657529245,47317.4108772426,53585.8797526081,60105.6967412451,71512.1702832471,57003.0192252727,59345.2400252049,60423.0302743875,66069.1944634404,11251.1285566634
9303450489,17452,2,0,22757.2312002516,47259.6629881209,53535.3473077024,60082.8093035212,71464.3025639456,57006.5843604418,59330.6266213206,60375.3085674479,66067.3084704329,11252.5521771917
9303483142,17453,2,0,22654.3898267041,47228.7205351002,53514.6135523162,60083.6123715115,71455.5661576267,56995.4874209393,59335.7370539862,60380.7840310182,66071.4454873527,11250.8608673333
9303483142,17453,2,0,22705.7861780842,47254.4917169712,53542.4410749502,60097.1063472881,71483.1381586275,56989.8537773103,59346.2012732539,60411.8724964008,66073.2341387856,11244.9595343742
9303483142,17453,2,0,22837.8178563099,47299.7433814557,53580.4042890378,60105.9035920911,71514.9201827291,56986.4103191094,59350.8006626530,60433.1294627505,66070.6424193624,11237.0018606520
9303483142,17453,2,0,22900.9073643369,47312.5316308166,53589.5422293518,60100.3916254303,71514.2144563133,56985.6437542095,59346.1647701635,60430.1727124225,66065.6658313618,11235.5052339428
9303483142,17453,2,0,22792.0064777716,47266.9636062147,53548.6100972395,60079.6578700440,71473.6351874088,56999.8921271892,59329.0448207336,60390.3843438115,66060.2512062756,11240.1654618260
9303483142,17453,2,0,22642.0152790352,47223.5127608600,53506.6802139876,60076.3725919018,71448.0708563838,57009.1882475619,59330.0669072667,60367.1197074860,66067.0651164964,11245.4584099439
9303483142,17453,2,0,22677.6787984232,47252.9585871715,53532.8650975506,60104.9180086485,71486.8249707649,56993.7109372031,59353.6844068000,60412.4930489388,66082.7006069139,11244.3024787458
9303483142,17453,2,0,22852.8206264926,47313.2616926260,53588.5809813028,60126.2844842696,71531.5047534987,56978.5499869618,59366.7281777942,60457.4161856091,66080.3522414271,11239.0460337182
9303523433,17454,2,0,22911.9799684458,47320.0147643627,53590.6859928532,60112.7905084929,71523.5957505638,56992.1656397066,59354.3292947317,60434.3827355233,66068.7442586580,11241.5890823542
9303523433,17454,2,0,22797.2142520118,47277.5981732380,53551.7736984134,60092.7868149160,71484.7077915177,57002.4230081284,59342.8794920213,60391.8079643398,66073.2584741793,11244.5093295917
9303523433,17454,2,0,22673.6512907748,47240.9125673168,53523.3864617255,60089.3676921088,71466.0547122881,57000.8412075414,59346.2499440412,60387.5127673613,66081.3134894761,11247.3809060420
9303523433,17454,2,0,22675.8049731125,47251.7783205797,53536.3328911451,60100.0387622225,71481.7997119770,56998.3103266022,59356.1057784678,60408.8062368015,66084.8299538579,11248.8166942671
9303523433,17454,2,0,22803.3711066042,47301.3373497395,53574.3934468073,60116.8180161413,71517.7795914824,56989.4522433151,59365.9251098039,60441.5981797393,66083.0534701218,11246.1276332692
9303523433,17454,2,0,22905.8961200343,47321.3653787101,53586.0744357573,60113.1920424881,71526.1631345934,56973.9262621690,59358.0891130499,60443.5328435341,66069.0849541690,11242.1001256208
9303523433,17454,2,0,22823.8615080540,47274.3372304894,53541.7231808377,60083.5271976337,71481.3738425882,56987.9556166059,59334.2890980643,60392.1243244572,66054.9217550671,11240.8346851512
9303523433,17454,2,0,22653.6354295011,47221.3955816128,53496.1794916294,60068.6339367225,71447.3407945744,57008.1418256351,59328.5581128607,60359.6609093336,66063.1349504226,11244.4484911076
9303543170,17455,2,0,22648.1843013244,47238.2843448030,53514.9420801304,60091.4483682655,71475.2413233894,56995.4630855456,59349.1580235819,60398.8652284971,66082.6276007329,11247.9406200958
9303543170,17455,2,0,22810.8420724535,47299.6217044875,53571.4245287825,60116.5624945080,71520.5416586613,56986.4833252903,59367.5069103909,60448.2660775983,66083.3333271487,11246.6508442326
9303543170,17455,2,0,22909.7897830176,47325.7822526568,53592.3529673179,60115.7837619114,71525.1045449699,57000.7195305732,59361.3987265858,60439.9798760618,66073.9155298077,11248.3543217878
9303543170,17455,2,0,22834.9462798597,47295.5090229613,53564.5862831680,60100.3186192494,71491.4000247703,57006.1706587498,59348.2089432297,60403.7688103168,66070.0218668244,11248.6341788147
9303543170,17455,2,0,22699.0696094379,47251.0482587703,53529.2391238973,60090.2802693705,71461.9663661556,57005.4040938500,59341.1395113756,60384.1301476445,66073.1246295142,11247.7094338562
9303543170,17455,2,0,22652.3456536378,47244.6480502414,53522.0480150750,60096.2546085105,71467.5878420878,57010.0156509459,59347.0286766379,60394.6917084868,66080.6320984540,11243.6210877237
9303543170,17455,2,0,22767.5737425511,47293.5378560760,53563.4303519698,60120.0424557994,71510.3816318141,57002.9948898790,59364.7448432121,60432.0465377333,66090.0620634918,11242.1974671954
9303543170,17455,2,0,22910.1426462255,47333.6912555917,53599.5562438371,60128.7788621183,71533.2203987508,56987.8947781218,59367.3487303322,60450.7117846597,66082.8952900631,11243.6454231173
9303574984,17456,2,0,22863.9662367824,47299.9623999985,53572.9698262790,60099.7467374987,71495.0990046045,56999.6122701623,59341.2611883438,60401.9193203997,66065.5684897872,11246.9428689563
9303574984,17456,2,0,22687.0844280673,47242.0684985150,53523.3864617255,60080.0715717360,71452.8040904479,57022.8769064877,59326.5991136722,60360.6951635635,66070.2287176704,11249.7779423161
9303574984,17456,2,0,22639.5209011865,47240.9247350136,53528.5455651784,60095.9990868773,71468.1962269290,57010.5266942124,59340.8596543486,60392.0148151858,66087.0079715892,11246.8455273817
9303574984,17456,2,0,22768.3889782382,47286.9429643980,53575.6710549737,60116.6598360826,71507.0598505814,56995.7186071789,59352.8813388097,60437.3759889417,66086.4604252322,11243.0370382762
9303574984,17456,2,0,22887.4985624380,47318.2626160202,53602.0019508985,60118.2781397601,71522.8656887544,57000.8777106319,59349.8029115135,60439.4079943112,66079.0502978670,11249.4859175923
9303574984,17456,2,0,22859.2086673247,47299.9502323017,53582.3754559231,60103.5795619979,71500.2459403606,57004.6375289501,59337.8298978397,60408.6358890459,66073.5018281157,11254.2191516565
9303574984,17456,2,0,22728.5641065367,47253.2019411080,53541.2243052679,60088.2725993947,71465.9330353199,57010.3563464569,59329.7748825430,60382.9863841432,66075.2418087614,11256.7013618083
9303574984,17456,2,0,22640.2631306927,47230.5091865332,53519.9916743119,60085.9242339079,71459.9343607862,57016.2211763256,59334.4716135166,60381.6479374926,66082.3477437060,11255.5089275197
9303608116,17457,2,0,22725.8507101452,47270.4679028997,53555.7403675777,60106.2929583895,71498.8588229228,57006.3896772926,59352.1269416067,60421.8743431893,66092.3252551008,11252.7103572504
9303608116,17457,2,0,22891.3313869372,47321.8764219766,53605.7982723073,60122.9992061274,71535.7147765995,56997.7627802452,59363.2360488060,60454.2404167383,66089.0643123523,11253.5864314217
9303608116,17457,2,0,22886.4399728144,47303.4910320772,53587.5467270729,60102.9833448536,71508.2522848701,57002.9705544854,59341.5288776739,60412.5538874229,66070.0583699149,11251.7977799887
9303608116,17457,2,0,22712.4175728527,47241.2897659183,53526.3797151439,60076.8958028652,71454.7387542428,57008.0444840606,59321.3061655542,60362.0092748204,66064.7167510096,11247.8311108244
9303608116,17457,2,0,22621.8169023091,47219.5095886052,53505.1592518847,60079.6700377409,71448.0951917775,56988.0042873932,59323.0948169872,60369.8817746649,66068.3062215723,11240.3601449751
9303608116,17457,2,0,22706.9664446760,47252.7760717192,53534.1062026265,60096.6926455962,71477.4071734239,56975.4228888783,59330.0182364794,60402.0166619742,66064.5829063445,11231.8670925927
9303608116,17457,2,0,22837.1121298942,47292.3575894842,53565.0608233441,60101.9977614110,71502.0345917935,56978.6959993236,59333.7415517072,60415.0360975748,66057.8420023046,11232.7796698544
9303608116,17457,2,0,22866.2415960883,47293.4283468046,53566.3019284200,60101.7057366872,71496.8998237343,56991.6059256528,59337.5987116001,60407.6016348160,66058.7424118695,11241.8446039875
9303644477,17458,2,0,22755.0410148235,47250.6588924720,53533.1206191839,60095.0013357378,71465.7991906548,57006.0733171753,59339.6063815759,60383.2784088669,66062.0398577085,11250.6661841842
9303644477,17458,2,0,22633.9115929511,47219.8016133290,53505.7189659386,60098.6273093910,71451.6846623402,57017.2310951619,59347.6370614790,60375.7831076240,66073.7573497490,11251.0798858761
9303644477,17458,2,0,22689.9438368207,47255.8544990154,53537.3428099814,60122.9992061274,71488.9299823152,57006.4140126863,59368.5655000145,60416.7639105237,66088.6749460539,11248.3908248783
9303644477,17458,2,0,22865.8887328805,47315.3910395700,53589.2137015376,60140.7640434889,71533.7557774110,56993.3215709048,59379.5894333361,60457.9272288757,66085.3288294276,11246.1641363597
9303644477,17458,2,0,22902.5135003175,47314.4784623083,53584.0302626910,60124.6661805921,71518.3393055363,57005.7204539674,59365.3653957501,60428.6760857133,66072.5284123699,11249.3399052305
9303644477,17458,2,0,22754.4082945887,47264.2137067327,53535.6515001230,60103.4700527265,71472.9902994772,57020.8327334215,59350.0949362373,60378.9953795852,66074.4995792552,11252.0411339251
9303644477,17458,2,0,22641.1513725607,47235.8508054385,53512.6423854308,60105.9400951816,71459.6301683656,57006.7912112878,59353.0395188684,60382.2563223338,66083.6010164788,11247.0645459246
9303644477,17458,2,0,22683.5071252014,47253.8954998269,53532.4148927681,60113.8612658133,71480.1570729059,56992.0074596479,59355.3878843552,60410.7774036868,66079.3544902876,11237.2817176789
9303675718,17459,2,0,22811.9128297739,47293.6473653474,53565.1216618282,60115.1267062829,71506.9990120973,56984.0376182289,59349.4865513961,60426.8752665835,66068.2818861787,11230.6138198199
9303675718,17459,2,0,22884.8460045306,47309.6113835791,53579.9540842554,60112.5471545565,71512.7178296041,56988.8803615644,59341.2246852533,60422.8964297224,66061.8208391657,11232.8283406417
9303675718,17459,2,0,22793.8072969014,47271.6968402788,53548.7561096013,60096.7413163835,71481.2643333168,57012.7290473374,59328.7284606162,60387.5371027549,66060.5553986961,11241.5160761733
9303675718,17459,2,0,22645.6777557789,47232.7115396581,53515.2827756414,60094.9404972537,71460.1533793290,57029.8246613736,59332.2570926948,60367.5699122685,66074.3900699838,11253.1727297297
9303675718,17459,2,0,22658.5146759271,47254.1388537633,53532.5974082205,60115.7350911241,71485.7055426572,57003.9196348376,59350.6911533816,60405.7156418084,66088.4072567238,11250.5688426096
9303675718,17459,2,0,22826.0881965726,47307.9079060239,53580.2582766759,60133.7797855125,71523.3402289305,56977.9294344238,59362.2991361507,60448.4242576569,66080.2792352461,11244.1564663839
9303675718,17459,2,0,22898.6076696374,47316.4009584063,53583.0203438547,60119.8721080439,71514.3117978879,56987.0673747378,59347.4423783299,60424.9892735760,66062.6847456401,11246.0424593914
9303675718,17459,2,0,22787.1515667392,47273.0352869294,53544.3392356546,60095.1838511901,71476.0443913797,57010.9403959044,59332.0502418488,60377.5352559665,66062.2467085545,11252.0533016220
9303695630,17460,2,0,22660.7413644457,47236.3253456145,53518.2395259694,60091.0224988767,71459.5206590942,57010.2468371855,59332.5247820249,60371.9989539121,66072.7352632159,11255.1317289182
9303695630,17460,2,0,22654.0004604058,47243.4312805591,53526.9029261073,60100.0996007066,71473.5013427438,57002.0336418300,59342.3319456642,60392.6962062079,66076.3247337787,11248.5003341497
9303695630,17460,2,0,22771.2848900821,47286.6266042806,53560.5831109132,60110.3082983410,71504.0422617693,56994.2098127729,59347.9169185060,60419.2582883724,66071.5184935336,11238.6688351167
9303695630,17460,2,0,22881.5728940852,47317.2161940935,53584.3101197180,60114.5913276227,71517.9499392380,56986.3616483221,59345.0210066621,60427.5323222120,66063.2079566035,11236.9410221679
9303695630,17460,2,0,22822.8394215209,47287.5391815423,53556.9814726536,60099.1261849607,71487.0074862172,57001.1819030524,59328.2052496528,60392.2094983350,66056.8564188620,11243.8036031760
9303695630,17460,2,0,22654.2316466454,47232.2491671789,53506.2665122956,60081.1909998437,71446.0510187112,57013.9579847165,59316.7919500329,60357.4707239055,66060.4580571215,11248.9992097194
9303695630,17460,2,0,22631.8187490975,47240.5232010185,53515.1367632795,60099.3208681099,71465.8600291389,57006.4383480799,59334.1674210960,60394.2293360076,66075.5581688788,11249.2182282622
9303695630,17460,2,0,22790.1083170672,47296.6892895532,53567.7498843419,60124.2403112033,71512.8273388755,56992.0682981320,59353.8425868587,60445.9177121114,66079.0502978670,11248.8288619639
9303726695,17461,2,0,22897.5490800138,47323.3000425049,53587.7414102220,60121.8432749292,71523.7052598352,57007.5334407940,59350.6789856848,60439.9677083650,66068.7807617484,11254.2313193533
9303726695,17461,2,0,22834.2283857472,47297.9425623259,53561.3618435099,60106.0617721498,71497.9584133579,57020.1635100962,59344.0962617036,60403.6471333485,66069.6446682229,11261.2520804201
9303726695,17461,2,0,22700.5419007535,47252.7760717192,53520.6000591530,60095.3420312488,71466.7239356134,57006.1828264467,59343.1106782609,60380.3581616294,66068.0020291518,11256.7256972020
9303726695,17461,2,0,22646.8580223707,47235.9481470130,53507.8726482762,60095.5123790043,71461.7108445223,56999.3689162258,59345.7632361683,60382.4145023925,66065.7266698459,11246.8333596849
9303726695,17461,2,0,22750.2956130625,47278.8149429203,53545.6655146083,60117.5115748602,71499.0048352846,57003.4815977520,59359.9020998766,60420.2438718150,66073.6843435681,11244.5214972886
9303726695,17461,2,0,22897.9384463121,47325.0035200601,53587.6927394347,60132.9888852190,71528.5480031707,57000.8290398446,59365.7060912611,60448.2904129919,66074.9619517345,11246.2493102374
9303726695,17461,2,0,22873.9924189645,47303.7708891041,53567.5917042832,60116.4529852366,71499.4793754607,57011.6947931074,59345.3008636890,60412.8580798435,66064.4490616795,11251.0068796952
9303726695,17461,2,0,22698.5585661714,47247.0572542124,53513.8591551131,60094.3564478062,71455.5661576267,57031.5281389288,59325.4553501708,60368.5554957112,66067.9776937581,11254.2921578374
9303788491,17462,2,0,22637.7444174503,47245.4024474445,53514.9664155240,60108.7630008445,71469.2304811589,57027.1964388599,59339.3021891553,60395.9206458660,66087.3364994034,11257.3949205272
9303788491,17462,2,0,22764.6534953136,47297.6870406926,53565.9977359994,60134.5950211996,71516.9643557953,57006.8642174687,59356.1909523456,60447.6455250603,66092.0332303771,11255.9712999990
9303788491,17462,2,0,22888.0947795823,47327.5344009993,53590.7468313373,60133.6946116347,71529.1928911024,57003.5059331456,59351.7254076115,60449.6045242488,66075.6433427566,11249.2060605654
9303788491,17462,2,0,22863.8688952079,47304.8903172118,53569.1735048702,60112.7296700088,71502.5334673633,57006.2923357181,59338.3774441968,60415.6323147191,66066.3837254743,11249.0478805067
9303788491,17462,2,0,22735.3050105767,47258.1541937149,53528.4238882102,60098.7246509656,71470.2647353888,57014.4811956799,59332.7681359614,60389.7759589704,66066.0551976601,11253.9636300232
9303788491,17462,2,0,22639.6912489420,47236.1671655558,53507.5319527652,60097.2645273468,71461.5769998573,57017.5717906729,59340.2147664170,60386.9043825202,66073.6356727808,11255.3385797642
9303788491,17462,2,0,22710.9087784467,47273.8261872229,53539.3869830477,60117.9617796427,71497.9705810547,57008.1904964224,59356.3491324043,60425.0136089696,66081.3986633538,11249.4615821987
9303788491,17462,2,0,22870.3664453113,47320.3432921770,53584.1276042656,60125.8099440935,71527.2338919139,56983.8429350797,59359.4397273973,60453.1453240242,66071.4576550495,11238.7296736008
9303793121,17463,2,0,22878.8351623001,47301.8605607029,53570.8891501223,60101.2676996016,71496.2184327122,56994.3436574379,59336.1020848909,60414.0383464353,66053.3399544801,11237.2938853757
9303793121,17463,2,0,22715.4229939680,47241.4601136738,53516.6090545951,60075.7398716671,71449.5309800026,57010.9038928140,59317.4490056613,60361.1818714364,66052.1840232820,11241.6985916256
9303793121,17463,2,0,22622.4252871502,47222.1134757253,53499.6594529208,60084.9264827684,71451.7576685212,57005.9516402070,59327.4995232371,60376.3671570715,66066.2742162029,11245.3732360662
9303793121,17463,2,0,22712.2350574004,47261.3542979793,53534.1062026265,60108.6534915731,71491.6677141004,56991.4842486845,59343.5973861338,60422.7382496637,66071.0804564480,11243.3412306967
9303793121,17463,2,0,22847.3451629223,47303.5518705613,53565.4258542488,60115.8689357891,71519.3857274631,56997.3125754627,59347.7100676600,60438.7022678954,66064.4855647699,11241.8567716843
9303793121,17463,2,0,22880.0154288919,47308.0904214763,53566.9833194421,60110.8436770012,71514.5794872180,57002.0093064364,59345.7389007747,60424.4295595221,66061.8208391657,11243.0613736698
9303793121,17463,2,0,22768.2673012700,47265.0046070262,53532.4513958586,60095.3055281583,71478.8794647395,57010.3320110633,59339.8254001187,60396.2126705897,66059.8131691899,11244.3268141394
9303793121,17463,2,0,22635.9679337142,47226.0558094960,53496.2038270230,60086.8976496537,71455.9068531378,57022.5727140672,59339.5820461822,60378.9953795852,66064.3395524081,11245.2028883107
9303819739,17464,2,0,22672.8238873909,47253.5913074063,53519.8821650405,60105.5872319737,71488.6501252883,57010.3806818506,59356.5073124630,60418.9784313454,66077.0912986785,11243.9982863252
9303819739,17464,2,0,22847.4546721937,47311.6920597358,53575.2086824944,60125.0798822841,71536.1528136851,56993.8326141714,59365.1828802977,60466.7366413755,66075.6190073629,11241.4917407797
9303819739,17464,2,0,22901.3697368162,47311.0958425915,53575.0748378294,60110.0041059205,71523.5470797765,57002.2526603728,59346.2986148285,60440.8194471426,66057.5621452777,11243.3655660904
9303819739,17464,2,0,22762.0982789808,47254.1875245506,53525.0656038871,60082.5416141911,71474.3895846118,57019.7741437979,59329.4706901224,60384.3491661873,66053.7536561721,11242.7206781588
9303819739,17464,2,0,22644.1811290696,47220.4221658670,53501.1682473268,60087.3721898298,71461.3336459208,57020.4798702136,59339.9835801774,60384.7385324857,66067.6978367312,11238.6810028136
9303819739,17464,2,0,22689.6883151874,47247.2154342711,53525.9416780583,60112.8513469770,71493.6388809857,57018.4113617537,59363.7349243758,60422.2515417908,66078.2837329672,11238.1456241533
9303819739,17464,2,0,22826.0881965726,47298.7577980131,53566.7886362929,60127.4404154677,71528.2681461438,57010.8187189362,59373.3230694723,60445.7838674464,66075.5703365756,11238.4984873612
9303819739,17464,2,0,22907.4657529245,47320.3554598738,53583.4583809404,60128.6815205437,71536.8585401008,57010.4536880315,59370.5001638093,60445.3945011480,66070.8857732988,11242.1122933176
9303882505,17465,2,0,22825.9300165139,47283.1466429892,53552.4672571323,60109.3227148984,71501.5478839206,57018.6790510838,59356.1179461646,60410.3758696916,66063.2931304813,11249.6927684383
9303882505,17465,2,0,22667.5309392729,47231.9084716678,53507.6292943398,60093.5412121190,71466.7604387038,57029.2649473198,59345.2521929017,60379.9322922406,66065.8970176014,11255.0343873436
9303882505,17465,2,0,22658.8675391349,47242.5308709942,53516.7672346538,60104.0175990836,71486.2774244078,57013.0819105453,59354.5969840618,60407.2001008208,66075.3513180328,11249.0113774162
9303882505,17465,2,0,22818.3982121805,47296.4824387072,53566.1680837550,60120.2736420390,71527.1487180361,56992.2508135844,59362.3478069380,60456.2480867141,66070.9222763893,11242.4164857382
9303882505,17465,2,0,22907.4535852276,47312.8236555404,53578.5669668175,60114.3723090799,71525.3600666031,57006.9372236497,59351.1048550736,60445.1876503020,66059.8131691899,11243.7184292983
9303882505,17465,2,0,22809.9051597981,47277.6590117221,53543.4144906961,60100.0022591320,71488.8448084375,57029.1311026547,59337.1120037272,60401.5907925854,66062.8185903052,11249.9604577684
9303882505,17465,2,0,22677.0339104916,47235.7777992575,53507.5441204620,60096.4614593565,71462.4409063317,57016.3428532938,59333.2791792280,60384.9818864221,66069.6325005260,11251.8951215633
9303882505,17465,2,0,22664.6350274290,47233.7701292817,53507.7874743985,60104.0784375677,71473.3066595946,57009.4194338016,59335.1530045387,60401.5664571918,66072.5284123699,11250.9338735143
9303900642,17466,2,0,22778.4029927235,47276.0893788319,53541.3094791457,60114.9806939210,71508.9823466794,57004.1751564709,59338.6694689205,60429.3453090386,66070.7519286338,11244.7040127409
9303900642,17466,2,0,22892.6941689814,47307.7740613589,53567.6282073737,60121.7459333546,71527.5259166376,56994.2828189538,59341.2246852533,60444.5427623704,66065.0696142174,11244.1199632934
9303900642,17466,2,0,22845.7390269417,47281.1511407103,53544.3027325641,60108.1302806097,71496.4739543455,57000.9993876001,59329.0448207336,60410.8017390804,66050.9915889933,11249.0235451131
9303900642,17466,2,0,22676.4620287409,47226.5790204594,53493.6851137807,60093.0545042461,71453.8748477684,57018.1680078173,59321.4886810065,60371.0498735599,66051.2227752329,11253.4647544534
9303900642,17466,2,0,22629.9692591804,47228.4771811637,53495.5346036978,60103.2632018806,71464.3025639456,57010.7213773616,59336.8686497907,60395.6164534454,66066.6635825012,11251.2745690253
9303900642,17466,2,0,22774.3268142878,47278.7054336489,53540.5915850331,60118.2659720632,71504.5533050359,56986.2034682634,59345.6902299874,60442.8027817247,66063.6094905987,11243.9982863252
9303900642,17466,2,0,22891.6842501451,47306.9101548844,53558.9891426294,60113.5692410896,71514.2631271006,56996.9353768612,59336.9903267590,60436.3660701054,66050.9672535997,11243.1343798508
9303900642,17466,2,0,22841.5655069314,47284.0470525541,53534.0210287487,60100.2334453716,71487.9078957821,57010.5631973029,59324.4332636377,60396.7115461594,66047.8644909098,11247.6607630689
9303912298,17467,2,0,22712.3932374591,47241.4722813706,53498.3088385734,60093.3708643635,71460.7495964733,57011.2810914155,59322.4499290555,60381.7452790672,66053.7779915658,11253.8297853581
9303912298,17467,2,0,22661.7147801915,47235.4857745338,53495.9118022993,60104.2244499296,71468.6099286209,57016.7200518953,59334.7149674531,60399.7656380620,66066.4810670489,11260.0596461315
9303912298,17467,2,0,22759.8715904622,47276.2840619811,53530.6384090320,60126.8320306266,71508.0454340241,57010.3198433665,59352.9056742034,60437.7531875432,66075.0592933091,11256.7135295052
9303912298,17467,2,0,22905.6040953106,47319.8809196977,53568.4069399704,60136.4080080262,71535.5079257535,56991.2652301417,59357.9917714754,60459.7158803086,66067.9046875772,11249.9482900716
9303912298,17467,2,0,22893.4607338813,47297.8695561450,53548.9507927505,60114.5426568354,71507.7777446940,56992.2021427971,59337.3431899668,60417.9685125091,66045.5769639071,11248.2691479100
9303912298,17467,2,0,22717.9052041199,47235.4371037465,53491.1785682352,60088.8688165390,71455.5661576267,57010.7578804521,59316.9257946979,60360.3423003557,66039.0794138036,11250.1186378271
9303912298,17467,2,0,22631.5267243738,47218.4753343753,53479.8139394025,60096.8264902612,71455.8581823505,57005.3067522754,59326.5017720976,60372.7533511151,66054.1551901673,11245.9937886041
9303912298,17467,2,0,22747.6187197615,47265.2114578722,53527.6329879167,60121.3200639658,71503.8962494075,56995.2318993060,59344.7776527256,60428.2258809309,66063.1227827258,11239.3745615325
9303943476,17468,2,0,22875.2456917373,47299.9502323017,53553.3189959099,60117.9374442490,71523.1455457814,56989.3305663469,59339.8254001187,60432.9712826918,66052.3422033406,11231.5872355658
9303943476,17468,2,0,22862.6277901319,47286.8942936107,53537.5739962211,60101.2798672984,71502.9958398426,57000.0746426415,59331.5391985823,60405.9589957449,66049.8964962792,11230.0297703724
9303943476,17468,2,0,22736.9841527382,47240.4866979280,53497.7247891259,60086.0824139666,71464.6919302439,56995.0250484600,59329.2395038827,60378.9588764948,66048.5702173255,11227.4015478587
9303943476,17468,2,0,22630.8331656549,47205.9426066477,53468.2302920271,60077.6258646746,71444.8342490289,56989.6590941611,59328.3390943178,60367.6550861463,66045.3822807579,11219.4073710460
9303943476,17468,2,0,22685.2471058471,47233.8553031595,53488.0393024549,60091.5213744464,71474.5477646705,56981.6527496516,59338.9979967347,60399.9238181207,66050.6873965727,11212.4231130696
9303943476,17468,2,0,22850.6669441550,47288.9141312833,53538.2067164558,60112.9973593389,71515.1270335750,56975.5689012401,59348.7078187994,60441.9997137344,66049.2637760444,11211.9850759840
9303943476,17468,2,0,22893.4120630940,47291.6883661589,53544.5217511069,60109.9189320427,71505.5997269627,56995.9497934186,59340.6041327154,60426.1938755614,66044.4332004057,11226.5619767779
9303943476,17468,2,0,22744.9783295509,47241.6426291262,53500.3773470333,60091.5822129305,71465.4219920533,57023.5461298130,59328.4729389829,60380.4920062945,66050.5535519077,11245.7139315772
9303988728,17469,2,0,22637.4158896361,47216.3581551281,53481.9067832561,60093.8697399332,71458.2552186246,57013.4347737531,59335.5910416243,60384.7628678793,66067.1016195869,11252.5643448885
9303988728,17469,2,0,22710.6532568134,47247.8603222027,53510.4400323059,60107.9964359447,71489.1003300708,56990.4134913641,59346.3107825253,60426.9726081581,66071.3238103844,11249.4129114114
9303988728,17469,2,0,22845.6051822766,47285.1421452682,53539.4599892286,60110.9896893631,71513.0585251151,56986.0696235983,59343.5243799529,60436.3417347118,66055.6396491797,11239.9829463736
9303988728,17469,2,0,22886.1479480907,47289.6198576990,53537.5983316147,60106.6944923846,71505.9160870801,56994.9277068854,59333.9240671596,60420.3412133896,66047.9496647876,11236.9045190774
9303988728,17469,2,0,22790.7532049988,47254.9175863600,53506.4003569607,60102.4114631029,71478.7091169840,57010.4658557283,59330.3467642936,60397.4416079688,66051.3809552916,11243.4994107554
9303988728,17469,2,0,22665.3407538447,47224.4740089090,53478.0496233632,60104.2244499296,71461.0659565907,57031.4794681416,59336.1264202845,60386.7827055519,66064.5585709509,11252.6860218568
9303988728,17469,2,0,22687.2912789133,47250.9509171957,53498.1993293020,60121.9771195942,71488.6257898947,57016.9999089222,59352.2364508781,60416.8247490078,66076.8114416516,11250.1186378271
9303988728,17469,2,0,22855.4123459159,47308.9786633443,53547.9652093078,60139.8392985303,71531.7602751320,56990.9853731148,59363.5524089234,60458.2800920835,66072.6257539445,11243.0613736698
9304009457,17470,2,0,22923.3445972784,47312.6168046944,53551.0558043009,60123.4372432130,71521.6489190721,56995.1345577314,59347.7952415377,60431.9370284619,66053.0479297564,11242.9275290048
9304009457,17470,2,0,22789.1957398055,47260.8554224096,53502.9690664566,60095.9747514836,71475.1074787244,57019.1657589567,59328.5216097702,60378.4965040155,66049.5558007682,11248.6341788147
9304009457,17470,2,0,22655.6309317800,47225.2649092025,53476.8328536809,60095.5002113075,71459.1069574022,57017.2554305555,59332.9871545042,60374.5906733353,66063.4026397527,11247.7581046435
9304009457,17470,2,0,22687.4129558816,47246.2298508284,53498.8077141432,60117.1465439555,71486.6059522221,57002.2526603728,59349.3405390342,60410.0473418774,66068.0872030295,11239.8977724958
9304009457,17470,2,0,22823.6059864207,47294.7059549710,53536.1868787832,60133.6459408474,71521.5150744071,56997.1787307977,59358.4663116514,60434.2975616455,66062.8915964861,11236.2961342363
9304009457,17470,2,0,22909.0110504210,47314.3811207337,53548.3059048189,60132.4535065588,71527.5137489408,56992.2873166749,59355.4973936266,60431.0609542906,66051.1010982647,11232.7918375513
9304009457,17470,2,0,22838.6209243003,47281.6865193705,53519.7848234659,60115.6012464590,71494.2594335237,57004.7592059184,59342.7213119626,60403.0387485074,66042.8879029092,11235.9311033316
9304009457,17470,2,0,22684.3953670695,47233.9039739468,53476.5286612603,60105.3438780373,71464.0470423123,57025.5781351824,59339.9714124806,60377.5230882697,66050.1885210030,11242.7815166429
9304035708,17471,2,0,22669.5264415518,47252.6787301446,53492.6508595507,60126.1263042109,71491.2661801052,57023.6556390844,59363.4428996520,60413.4664646846,66072.8812755778,11251.0433827857
9304035708,17471,2,0,22829.7871764068,47312.8601586309,53547.9530416110,60146.8235565067,71539.4380918273,56990.9367023275,59378.5308437125,60467.2598523389,66073.5626665999,11244.6675096504
9304035708,17471,2,0,22923.9651498164,47324.1761166762,53557.3100004679,60129.5332593213,71533.9747959538,56989.3549017405,59360.5104847177,60449.5436857647,66050.9794212965,11235.3470538841
9304035708,17471,2,0,22820.1381928262,47272.8041006897,53509.5396227410,60098.1040984276,71485.5473625985,57002.2161572824,59333.2426761375,60387.7804566914,66040.6490466938,11233.6314086320
9304035708,17471,2,0,22673.8946447113,47223.7804501901,53473.1460415436,60090.3654432482,71455.5904930204,57008.0688194542,59329.1299946113,60370.1129609045,66050.6387257854,11233.8747625685
9304035708,17471,2,0,22652.2604797601,47220.5925136225,53477.3317292507,60098.7003155720,71463.4751605616,56999.4662578004,59335.7978924703,60391.3820949510,66059.1682812583,11231.6480740499
9304035708,17471,2,0,22765.8215942086,47261.4273041603,53510.4400323059,60112.3768068009,71495.4640355092,56991.6545964401,59343.0741751704,60420.9495982307,66058.3287101775,11232.0861111355
9304035708,17471,2,0,22892.6333304973,47298.4901086830,53538.3527288177,60121.8311072324,71516.5993248906,56983.2710533291,59346.1160993762,60433.6648414107,66053.3399544801,11236.6489974441
9304073305,17472,2,0,22857.2618358330,47273.0109515357,53512.5815469467,60101.7179043840,71484.9876485446,56986.1182943856,59329.7262117557,60398.9869054653,66036.9865699501,11241.4552376892
9304073305,17472,2,0,22686.8045710404,47217.3315708739,53465.3830509705,60081.4343537802,71442.0965172437,57012.0354886185,59320.4300913829,60358.8700090401,66040.4178604542,11250.4471656413
9304073305,17472,2,0,22620.4419525681,47214.3626528491,53464.9450138849,60092.1905977717,71451.3439668292,57006.6451989259,59333.8267255850,60378.5695101964,66057.5621452777,11249.5102529860
9304073305,17472,2,0,22758.5574792053,47269.7743441808,53519.7239849818,60116.9761962000,71499.6375555194,56981.3850603215,59352.2607862717,60433.0442888727,66061.0299388722,11241.1510452686
9304073305,17472,2,0,22887.7662517681,47303.4666966835,53544.7164342561,60115.5282402781,71513.8007546213,56982.5409915197,59344.0354232194,60433.1537981442,66046.7693981957,11236.3813081140
9304073305,17472,2,0,22838.3045641829,47279.4476631550,53513.8834905068,60094.4172862903,71481.6658673120,57000.1354811257,59324.9929776915,60389.3987603689,66040.7220528747,11241.2362191464
9304073305,17472,2,0,22699.5441496140,47232.6020303867,53475.5430778177,60084.4397748955,71448.3507134107,56999.4540901036,59320.7829545908,60367.8497692954,66044.8955728850,11246.3344841152
9304073305,17472,2,0,22631.3198735278,47211.8561073036,53459.6885688574,60084.7926381033,71441.5489708867,56989.1602185914,59322.9244692316,60372.7046803278,66043.2894369044,11242.1852994986
9304115218,17473,2,0,22710.0570396691,47242.9932434735,53485.0338813396,60095.9747514836,71470.2403999952,56980.9591909327,59331.1254968903,60399.1450855240,66040.9775745080,11234.6534951652
9304115218,17473,2,0,22863.1753364890,47293.2336636554,53529.3851362592,60110.6246584584,71508.7024896525,56973.3178773279,59342.7943181435,60428.1772101436,66042.4011950363,11234.0086072335
9304115218,17473,2,0,22876.6206414783,47285.3854992046,53522.8389153685,60100.0387622225,71494.2350981301,56985.7289280873,59333.6563778295,60403.6714687422,66032.0343173432,11236.3448050236
9304115218,17473,2,0,22718.1972288436,47232.4560180248,53472.3064704628,60083.2351729100,71454.0938663112,57010.2468371855,59323.9465557648,60359.9529340573,66035.3682662726,11240.3479772783
9304115218,17473,2,0,22624.4572925197,47218.0859680769,53460.7228230873,60093.9670815078,71457.4643183311,57011.2202529314,59337.9150717175,60375.1017166019,66054.4837179815,11239.6544185594
9304115218,17473,2,0,22734.3680979213,47270.4922382934,53510.9997463597,60124.4228266556,71506.9381736132,56997.8114510325,59359.5614043655,60432.8982765109,66063.5364844178,11242.4651565255
9304115218,17473,2,0,22875.9879212435,47315.3788718732,53547.8557000364,60128.3773281231,71532.7336908778,56994.4896697998,59359.1233672799,60443.3016572945,66056.6617357128,11243.8766093570
9304115218,17473,2,0,22873.1650155806,47303.2598458376,53533.7776748123,60112.0482789867,71511.7079107678,57006.3410065054,59345.8605777429,60409.8526587282,66048.7892358683,11244.3389818362
9304135768,17474,2,0,22752.8386616985,47256.7914116707,53496.5688579277,60100.0144268288,71476.9448009446,57003.9683056249,59338.6086304364,60379.9444599374,66049.7748193110,11244.0226217188
9304135768,17474,2,0,22644.5461599743,47221.2130661604,53468.6804968096,60094.5389632585,71458.3647278960,57003.2017407250,59337.0024944558,60369.4194021856,66053.1574390278,11240.9685298163
9304135768,17474,2,0,22687.0357572800,47243.6868021924,53486.3723279901,60104.2122822327,71479.1958248569,56998.5901836291,59345.3495344763,60391.6984550684,66057.1119404952,11237.7805932487
9304135768,17474,2,0,22845.8972070004,47295.1926628439,53533.5586562695,60118.4484875156,71514.4943133402,56984.3053075590,59349.9002530881,60427.3619744564,66056.5400587446,11234.0086072335
9304135768,17474,2,0,22890.0902818613,47293.4283468046,53532.2202096190,60102.8251647949,71499.3455307957,56989.6225910706,59330.1277457508,60404.8273999403,66040.5517051192,11232.5728190084
9304135768,17474,2,0,22739.2960151346,47235.1694144164,53476.7233444095,60076.0805671781,71450.9546005308,57012.0111532248,59309.7468535724,60350.9975091957,66037.7774702436,11232.8648437322
9304135768,17474,2,0,22621.7073930377,47209.5807479977,53456.8169924072,60087.1410035901,71446.7324097333,57012.4978610978,59324.9443069042,60361.3643868888,66057.5378098840,11238.4619842707
9304135768,17474,2,0,22692.4260469726,47242.7012187498,53489.8766246751,60113.8125950260,71485.0484870287,56985.3030586985,59347.8195769314,60412.5295520293,66064.6437448286,11234.7873398302
9304169460,17475,2,0,22831.3324739033,47281.4309977372,53517.8623273679,60114.9320231338,71508.4348003224,56970.5679778459,59346.7001488237,60425.6463292044,66047.7793170320,11228.0342680935
9304169460,17475,2,0,22873.0555063092,47283.3899969257,53515.1002601891,60100.5619731859,71496.4252835582,56978.6594962332,59332.5004466313,60402.0531650647,66036.6702098327,11226.5619767779
9304169460,17475,2,0,22774.9960376131,47242.5187032974,53483.0018759702,60083.9652347194,71460.2993916909,56988.9412000485,59320.6126068353,60369.4315698824,66037.2177561897,11228.8981745679
9304169460,17475,2,0,22635.8097536555,47198.0092683191,53449.6745543721,60073.9998910214,71434.5160421231,57005.3919261532,59314.0663859445,60350.4864659291,66043.3624430853,11232.0009372578
9304169460,17475,2,0,22641.8936020669,47213.1215477732,53468.0842796652,60085.3158490667,71458.1213739596,57000.4275058494,59326.5626105817,60378.1558085045,66057.3309590381,11233.6435763289
9304169460,17475,2,0,22809.4062842284,47273.2908085626,53525.5158086695,60107.9964359447,71511.3185444695,56987.6149210948,59344.3882864273,60430.6107495082,66064.8262602810,11234.0086072335
9304169460,17475,2,0,22901.6860969336,47292.7226203889,53541.7596839281,60104.6381516215,71516.6601633747,56993.4554155699,59339.0223321284,60423.5656530477,66055.6518168765,11233.7165825098
9304169460,17475,2,0,22785.3507476094,47251.3281157972,53498.1506585147,60082.8701420053,71475.4846773259,57013.1062459389,59327.7550448703,60373.2035558975,66051.3687875948,11238.2916365152
9304199482,17476,2,0,22644.4123153093,47213.6569264334,53462.6574868822,60079.2806714425,71449.8838432104,57000.9628845096,59330.6022859269,60362.7271689330,66058.2070332093,11237.0870345297
9304199482,17476,2,0,22659.3177439174,47226.4330080975,53472.9026876071,60091.6065483242,71466.9794572467,56982.8573516371,59341.0300021042,60393.7547958315,66058.3530455712,11228.7156591156
9304199482,17476,2,0,22790.8383788766,47270.1515427823,53505.9866552687,60102.7034878267,71497.7758979055,56977.8807636365,59346.5784718554,60418.6499035312,66050.7238996632,11225.3695424893
9304199482,17476,2,0,22875.1605178596,47286.7726166425,53515.6234711525,60094.9891680409,71503.8475786202,56971.5778966822,59338.6086304364,60413.7584894084,66036.9622345564,11222.8995000342
9304199482,17476,2,0,22805.9506583307,47249.0040857041,53484.3646580143,60074.8272944053,71469.4981704890,56978.0754467857,59319.9068804195,60381.9277945196,66027.8486296361,11221.8774135011
9304199482,17476,2,0,22644.7043400330,47196.0259337370,53440.0985769725,60061.8808649857,71431.7904780347,57001.1819030524,59312.2412314211,60348.2719451073,66030.6106968149,11228.5574790569
9304199482,17476,2,0,22605.4026792949,47203.5942411608,53451.5483796828,60079.5118576822,71448.8495889805,57006.2923357181,59329.2030007923,60369.3950667919,66047.9861678780,11232.0009372578
9304199482,17476,2,0,22767.2938855242,47271.0884554377,53516.7550669570,60113.1677070944,71505.6240623563,56994.9033714918,59355.7285798663,60427.2889682755,66059.2899582265,11231.8792602895
9304228518,17477,2,0,22893.9109386637,47303.7587214073,53542.7574350676,60114.3723090799,71517.4875667587,56993.3459062985,59348.9876758264,60425.4881491457,66048.1930187240,11230.2852920057
9304228518,17477,2,0,22813.9691705370,47270.0298658141,53504.5143639531,60091.5578775369,71482.6271153610,57014.6880465259,59331.1376645871,60377.5960944506,66044.4332004057,11233.7287502066
9304228518,17477,2,0,22667.3362561237,47222.9895498966,53464.3001259533,60084.4154395018,71453.4733137732,57011.7069608043,59324.0925681266,60358.1886180180,66054.1065193800,11235.6634140015
9304228518,17477,2,0,22636.6736601299,47220.0571349623,53464.7990015230,60094.4781247744,71460.8956088352,56996.0471349931,59329.7140440588,60378.9953795852,66056.5400587446,11236.0649479966
9304228518,17477,2,0,22737.9332330904,47256.6088962184,53498.1506585147,60103.6038973916,71489.3923547945,56988.2963121169,59332.7438005677,60404.9612446054,66052.2326940692,11234.6656628620
9304228518,17477,2,0,22861.9342314130,47294.4747687314,53533.9480225678,60112.8513469770,71509.4690545524,56987.6149210948,59335.6275447148,60418.9297605581,66050.0181732475,11238.3768103930
9304228518,17477,2,0,22845.4713376116,47278.7297690425,53523.2526170604,60099.6737313178,71487.0804923982,56997.9817987880,59325.6500333200,60392.8543862666,66043.6179647186,11244.4606588045
9304228518,17477,2,0,22682.6310510301,47220.2639858083,53468.3398012985,60076.2995857209,71441.1352691947,57010.4536880315,59310.6472631373,60345.9114119237,66041.8658163761,11245.6165900026
9304263463,17478,2,0,22604.3684250650,47203.3265518307,53450.1977653355,60080.0472363424,71440.6728967155,57009.9669801586,59320.1258989624,60353.7352409808,66054.2768671355,11239.8612694054
9304263463,17478,2,0,22743.7737275654,47256.8157470644,53501.4846074442,60112.4984837692,71493.6875517730,56992.1048012225,59345.2765282954,60410.1203480583,66064.1570369557,11235.3713892777
9304263463,17478,2,0,22890.2606296168,47292.4427633619,53532.0133587730,60115.0658677988,71510.2842902395,56986.5076606840,59343.9867524321,60416.4597181031,66047.8158201225,11233.8869302653
9304263463,17478,2,0,22851.4335090548,47270.6017475648,53506.9114002272,60091.5335421432,71481.2034948327,57003.7371193852,59325.9663934374,60375.2720643574,66040.0284941558,11239.2650522611
9304263463,17478,2,0,22707.4166494585,47229.7426216333,53474.4723204973,60082.2739248610,71453.9843570397,57013.6781276896,59323.8857172806,60360.1719526001,66048.3755341764,11239.6057477721
9304263463,17478,2,0,22629.3608743393,47216.6866829423,53463.6187349312,60088.2847670915,71456.1867101647,57012.4126872200,59332.1475834234,60375.4910829002,66058.1583624220,11238.4741519676
9304263463,17478,2,0,22703.6324957465,47250.8535756211,53491.4949283526,60106.2807906926,71490.2197581785,57010.3806818506,59347.3085336648,60404.6935552753,66063.5364844178,11235.8702648475
