steady_timestamp,sequence,battery,flags,EEG-ch1,EEG-ch2,EEG-ch3,EEG-ch4,EEG-ch5,EEG-ch6,EEG-ch7,EEG-ch8,EEG-ch9,EEG-ch10
2938879389,6834,-2,0,58035.0345990073,49383.7413194115,71337.0649582681,73403.3710650433,66104.2374302905,77049.0320517395,76070.4937055417,80449.1489165488,80982.9092730808,65337.8428782007
2938879389,6834,-2,0,58050.9377787549,49412.0920530089,71343.9275392763,73414.9668801156,66113.9472523552,77051.1613986835,76083.5009734454,80459.2116018214,80990.7574375316,65338.2809152863
2938879389,6834,-2,0,58049.6723382853,49422.2399121593,71342.0902170560,73414.3828306681,66114.4947987122,77040.9892041396,76079.8871674890,80456.1331745252,80992.2175611503,65340.6536161668
2938879389,6834,-2,0,58028.5127135102,49363.7254581377,71339.2186406058,73403.2250526814,66108.0824224865,77059.2042462835,76078.8772486527,80457.0335840901,80990.7696052284,65337.2466610563
2938879389,6834,-2,0,58022.0760018909,49311.0393308944,71348.4782578880,73404.1254622463,66114.4582956218,77061.0415685038,76081.4689680760,80462.9105816555,81000.6741104423,65342.1989136633
2938879389,6834,-2,0,58037.6871569147,49365.1247432724,71347.1884820248,73410.2458137483,66119.1915296859,77041.0743780173,76077.5022989117,80459.8078189657,81000.3699180217,65346.6401230037
2938879389,6834,-2,0,58046.3870601431,49435.5878755740,71341.7130184545,73406.5103308236,66116.4903009912,77043.5200850787,76074.5942193710,80452.4706977815,80994.8944544514,65345.8492227102
2938879389,6834,-2,0,58038.4172187241,49407.6265082749,71346.4340848218,73408.9195347945,66116.3686240230,77063.1465800541,76083.1237748439,80458.5180431025,80998.9097944030,65342.2597521474
2938928054,6835,-2,0,58030.5812219701,49363.6159488663,71348.2957424357,73415.6482711376,66117.8774184290,77044.7733578515,76090.2905482726,80461.6329734891,81001.5988554008,65348.5261160112
2938928054,6835,-2,0,58022.3436912210,49357.2765788216,71338.6467588551,73405.8532751952,66107.7538946723,77034.8445172440,76076.7235663151,80449.8789783582,80992.5704243582,65344.1579128518
2938928054,6835,-2,0,58028.6587258721,49367.0472393704,71338.0262063171,73401.7649290627,66108.2771056357,77049.1902317982,76075.8231567502,80450.8037233167,80993.1423061089,65340.3129206557
2938928054,6835,-2,0,58045.5231536687,49404.8036026120,71344.6941041761,73413.6892719491,66117.9504246100,77049.9202936076,76087.7596673335,80459.0899248531,81000.3090795376,65346.2020859180
2938928054,6835,-2,0,58048.3338916348,49438.7393090512,71343.7815269144,73415.0642216901,66118.7413249034,77045.1262210594,76091.3248025026,80456.1696776156,81001.2824952834,65349.4265255761
2938928054,6835,-2,0,58027.5879685517,49386.5277219839,71343.2096451637,73406.2913122808,66111.3311975383,77056.2961667428,76096.3622289873,80456.5347085203,81001.3676691612,65344.5229437565
2938928054,6835,-2,0,58015.4081040319,49320.8586622305,71346.8112834233,73405.5734181682,66109.1775152006,77050.4191691773,76097.6033340632,80457.4594534789,81004.3365871860,65344.5716145438
2938928054,6835,-2,0,58025.6168016664,49359.1869072228,71339.2064729089,73405.3178965350,66105.6367154251,77027.4952283629,76082.6248992742,80448.2728423775,80995.5636777766,65345.5815333801
2938949526,6836,-2,0,58033.7934939314,49416.8861255572,71331.0176129471,73399.7085882996,66100.7696366960,77035.9396099580,76072.7203940603,80441.1304043425,80989.2486431256,65338.3052506799
2938949526,6836,-2,0,58032.4185441904,49398.5129033545,71336.6512565761,73404.4539900605,66106.8169820170,77054.7630369431,76086.3603821988,80452.7383871116,80996.1842303146,65337.6846981420
2938949526,6836,-2,0,58025.3004415490,49369.2860955858,71339.4011560581,73408.8221932200,66110.3699494892,77040.6606763254,76092.2495474611,80456.5712116108,80999.6033531219,65344.6446207247
2938949526,6836,-2,0,58020.5307043944,49364.0296505583,71335.6048346493,73405.5247473810,66107.0116651661,77040.9040302618,76086.8349223749,80450.9619033754,80996.7682797621,65343.5616957075
2938949526,6836,-2,0,58026.7118943804,49368.4586922018,71340.5205841658,73403.6995928575,66108.7759812055,77048.5453438666,76088.2707106000,80454.3445230922,80998.1432295031,65338.2565798927
2938949526,6836,-2,0,58041.6416583822,49412.6517670628,71342.6255957162,73410.0511305991,66113.7525692060,77039.3100619780,76087.7353319398,80455.4152804126,81000.1995702662,65340.6292807731
2938949526,6836,-2,0,58039.6461561032,49446.6118088956,71336.1888840969,73405.9871198602,66106.5492926868,77035.7935975962,76080.1061860318,80446.0461538589,80993.6046785882,65336.8694624548
2938949526,6836,-2,0,58017.4766124918,49381.6971463452,71340.1798886548,73398.3823093459,66099.5893701041,77055.4079248748,76083.5009734454,80448.5770347981,80996.8047828526,65335.6040219852
2938981062,6837,-2,0,58008.0101443636,49308.8369777694,71349.4151705434,73404.2958100018,66102.8868159431,77052.4390068499,76091.3856409867,80454.3201876985,81003.5700222861,65348.8546438254
2938981062,6837,-2,0,58018.6933821741,49343.4419075339,71345.0956381712,73408.9438701882,66101.8768971068,77029.4298921578,76088.6114061111,80449.5991213313,80998.9706328871,65356.6176343985
2938981062,6837,-2,0,58028.0990118183,49401.3358090174,71333.5849969767,73401.4729043389,66095.2941731256,77031.2672143780,76080.3860430588,80439.2930821222,80987.3869855116,65347.9420665637
2938981062,6837,-2,0,58026.3225280821,49397.0041089485,71333.1469598911,73400.4143147153,66092.7511244896,77038.0081184179,76084.1823644675,80439.7919576920,80987.6425071449,65344.9488131453
2938981062,6837,-2,0,58019.5816240422,49378.5335451712,71333.3538107371,73404.4783254542,66091.6195286851,77028.9918550721,76088.3802198714,80440.1448208998,80988.4820782257,65346.3480982799
2938981062,6837,-2,0,58004.5180153754,49351.1927304101,71326.3573850639,73396.0339438591,66085.9250465720,77028.3591348373,76083.1237748439,80437.2489090560,80983.4324840442,65338.0983998340
2938981062,6837,-2,0,57995.9397891152,49325.6283993851,71323.2424546772,73388.5994811002,66081.1188063269,77029.3933890673,76079.7168197335,80436.5553503370,80981.8750188508,65331.5643466400
2938981062,6837,-2,0,58008.1439890286,49372.0603304614,71320.8575860999,73391.4710575505,66084.6717737992,77014.5487989433,76077.6239758799,80435.7401146499,80980.0863674179,65336.7964562739
2939008928,6838,-2,0,58011.9889812247,49428.3602636612,71313.8124896395,73383.3430360727,66078.4540807227,77011.0688376520,76066.3810240156,80424.7648521156,80972.6884077495,65340.4102622303
2939008928,6838,-2,0,57991.1943873543,49379.7259794599,71314.0923466664,73374.1077541841,66070.0705376117,77027.3735513947,76063.4851121717,80426.9915406342,80975.2557917792,65333.9127121269
2939008928,6838,-2,0,57978.9658520472,49317.2570239709,71321.1374431269,73378.7679820673,66073.3558157539,77028.2982963532,76074.3995362219,80434.1339786693,80983.7245087679,65340.6292807731
2939008928,6838,-2,0,57990.0384561561,49347.0800488839,71320.2005304715,73388.6116487971,66075.5581688788,77019.1116852519,76078.1228514497,80431.6517685174,80983.1647947141,65346.0804089498
2939008928,6838,-2,0,58004.4815122849,49398.0870339657,71320.5290582857,73388.2587855892,66077.8213604879,77029.2595444022,76078.6703978067,80431.1650606445,80982.2400497555,65341.8217150618
2939008928,6838,-2,0,58012.9380615769,49403.8423545630,71326.7467513623,73391.1546974331,66082.9074577599,77035.3677282074,76082.7587439392,80437.8207908066,80988.0683765337,65345.5328625928
2939008928,6838,-2,0,58005.7834558450,49390.1293602435,71322.9991007408,73388.8671704303,66078.9407885956,77017.8584124792,76078.4270438703,80433.4647553440,80983.9678627044,65349.8158918744
2939008928,6838,-2,0,57988.3471462977,49336.1777925306,71316.0270104612,73380.4714596225,66069.6446682229,77020.3527903279,76074.6672255520,80427.6607639595,80975.1584502046,65342.5882799616
2939043177,6839,-2,0,57985.3173897888,49283.5403360745,71320.2978720461,73381.3231984001,66072.1025429811,77035.3312251169,76077.1737710975,80434.0001340042,80979.1007839752,65338.5729400100
2939043177,6839,-2,0,58011.1980809312,49332.1746202758,71325.4083047117,73394.0019384896,66086.1684005084,77018.9291697996,76076.4680446818,80437.7234492321,80983.4811548315,65343.8537204312
2939043177,6839,-2,0,58019.8371456755,49399.0847851052,71314.9197500504,73387.9545931686,66081.5568434125,77013.9769171926,76064.5558694921,80428.5733412212,80974.0633574905,65333.2556564984
2939043177,6839,-2,0,58007.3044179479,49367.7164626957,71317.8034941974,73381.4205399747,66080.6564338476,77037.6917583005,76067.0380796440,80431.9924640284,80975.6816611680,65329.7391921166
2939043177,6839,-2,0,58000.9163771158,49311.1488401658,71327.9391856509,73389.6702384207,66089.2954985919,77038.1541307798,76078.4270438703,80439.1714051540,80986.6082529150,65340.7874608318
2939043177,6839,-2,0,58005.4062572435,49325.1538592090,71327.0387760860,73394.8293418736,66090.5487713647,77023.6745715605,76077.6239758799,80436.9203812417,80983.4081486505,65343.2088324996
2939043177,6839,-2,0,58013.2909247847,49354.1129776476,71324.1306965453,73387.8815869877,66090.1229019759,77032.1432885493,76068.6198802310,80434.5233449676,80979.2346286403,65336.7842885771
2939043177,6839,-2,0,58023.3536100573,49376.9395768874,71329.9590233235,73391.3737159759,66095.8782225731,77031.6565806764,76070.4693701481,80439.9014669634,80981.8141803667,65336.3097484010
2939097161,6840,-2,0,58021.1147538419,49395.9576870217,71326.0288572497,73388.7454934621,66093.9192233846,77018.6371450758,76063.7041307145,80435.7887854372,80976.5455676424,65336.8816301517
2939097161,6840,-2,0,58003.0822271503,49359.2599134037,71322.9747653471,73380.4227888352,66087.1418162543,77035.7935975962,76063.5459506558,80435.6427730753,80974.8055869967,65329.2038134564
2939097161,6840,-2,0,58004.9438847642,49316.5878006456,71337.8558585616,73395.1335342942,66099.6258731946,77049.5674303997,76080.3252045746,80448.4310224362,80987.8736933846,65332.9879671683
2939097161,6840,-2,0,58025.8844909965,49368.3005121431,71340.8612796769,73405.8776105888,66106.8778205011,77032.8733503587,76081.0674340808,80449.3314320011,80988.1657181083,65340.3615914430
2939097161,6840,-2,0,58034.6330650122,49439.2746877114,71332.9522767420,73399.9032714488,66105.1986783395,77031.8755992192,76069.4837867054,80441.2155782202,80981.7290064890,65334.6671093299
2939097161,6840,-2,0,58023.1467592113,49413.8685367451,71334.3272264829,73393.0650258343,66105.5880446378,77047.1217233383,76072.2945246715,80444.6225333307,80984.6005829392,65330.1285584149
2939097161,6840,-2,0,58010.7600438456,49361.4257634382,71339.1821375153,73399.2948866076,66107.8147331564,77041.9261167949,76080.2156953032,80451.1079157373,80991.8281948520,65334.0830598824
2939097161,6840,-2,0,58006.1484867497,49354.5631824301,71334.6922573876,73396.7883410621,66104.3956103492,77028.4443087151,76074.6428901583,80445.9853153748,80986.4622405531,65332.6837747477
2939110617,6841,-2,0,58010.6140314837,49364.8570539423,71333.8891893973,73393.5882367976,66102.1324187401,77042.3033153964,76075.4216227550,80444.8780549639,80987.7276810227,65330.4084154419
2939110617,6841,-2,0,58027.8678255786,49397.7463384547,71340.9829566451,73405.6220889555,66109.6642230735,77044.7003516706,76088.0273566636,80453.1520888035,80994.7484420895,65339.8627158733
2939110617,6841,-2,0,58031.4207930509,49437.7172225180,71339.4133237549,73407.8244420805,66106.5736280805,77034.4064801584,76086.9322639495,80449.5869536344,80994.9187898450,65345.5450302896
2939110617,6841,-2,0,58010.2855036695,49393.6823277158,71333.3416430403,73392.5053117804,66095.2576700352,77039.6994282763,76079.7046520367,80445.1092412036,80990.6235928665,65339.8505481765
2939110617,6841,-2,0,57996.9618756484,49325.2998715709,71337.3448152950,73392.9311811692,66093.6515340545,77043.2523957486,76079.4369627066,80446.5815325192,80992.0593810916,65340.7144546509
2939110617,6841,-2,0,58007.6937842462,49358.0188083278,71333.7188416418,73397.7860922016,66096.3040919619,77022.6646527242,76076.6505601341,80437.9789708653,80987.4356562989,65346.8469738496
2939110617,6841,-2,0,58017.1967554649,49420.7432854500,71323.6926594597,73387.6260653544,66091.6438640788,77017.4933815745,76065.5536206316,80429.6319308448,80976.7524184884,65337.5995242642
2939110617,6841,-2,0,58009.5311064664,49403.7936837757,71325.8706771910,73380.7878197399,66090.5609390615,77033.1410396888,76064.8722296095,80433.9271278233,80978.6505791928,65330.2989061704
2939136281,6842,-2,0,58001.8776251648,49362.8250485728,71329.2167938173,73384.2069425472,66092.6051121278,77026.0959432283,76067.9384892089,80438.5021818287,80980.5852429876,65335.3119972615
2939136281,6842,-2,0,57995.3557396677,49346.4959994364,71323.0356038313,73383.3673714664,66089.3563370760,77016.7633197651,76065.1277512428,80434.3773326057,80973.2967925907,65333.6328550999
2939136281,6842,-2,0,57997.4485835213,49339.6577538219,71322.3542128092,73383.4647130410,66091.7777087438,77028.3469671405,76069.7028052482,80437.1150643909,80972.0800229084,65327.5611743853
2939136281,6842,-2,0,58013.7411295672,49380.3586996947,71327.4403100812,73392.7364980200,66101.2441768720,77023.6502361669,76075.6041382073,80440.8383796187,80976.7767538820,65333.8397059459
2939136281,6842,-2,0,58019.7519717977,49434.2372612267,71323.2789577677,73394.0627769737,66099.6623762851,77020.6813181421,76073.8519898648,80435.8861270118,80974.1606990651,65336.3097484010
2939136281,6842,-2,0,58004.4206738008,49395.3249667869,71325.5908201641,73391.0695235553,66096.4987751111,77039.6750928827,76078.8285778654,80442.0794846947,80978.8330946451,65332.6472716573
2939136281,6842,-2,0,57994.6135101615,49324.2047788568,71335.2398037447,73398.3579739522,66101.9864063782,77046.4281646194,76090.0350266394,80451.7893067594,80987.0827930911,65337.6725304451
2939136281,6842,-2,0,58008.0953182413,49356.5830201027,71334.3393941798,73408.1773052884,66109.8832416163,77029.3568859768,76092.3833921262,80450.0736615073,80988.9809537954,65341.8825535459
2939168127,6843,-2,0,58022.0760018909,49421.4246764721,71327.7323348049,73403.1155434100,66107.7660623691,77033.0802012046,76086.3725498956,80446.0218184653,80982.2643851492,65336.2489099169
2939168127,6843,-2,0,58028.5127135102,49425.7198734506,71335.3858161065,73404.2471392146,66112.2802778905,77046.5498415877,76090.4730637250,80453.2859334686,80989.4554939715,65336.3584191883
2939168127,6843,-2,0,58022.6843867320,49399.2916359512,71337.1136290554,73405.2813934445,66109.2140182911,77033.3600582316,76084.1701967707,80451.9839899085,80991.5361701283,65342.4666029934
2939168127,6843,-2,0,58007.9979766668,49367.9233135416,71332.4534011722,73395.1457019910,66101.5605369894,77032.4231455762,76079.0110933178,80446.5937002160,80986.5109113404,65341.5661934285
2939168127,6843,-2,0,58003.1552333312,49337.1512082764,71333.5849969767,73391.4832252473,66102.9476544273,77041.9017814013,76082.4058807314,80448.4431901331,80988.7497675558,65336.5044315501
2939168127,6843,-2,0,58017.3306001300,49371.5249518012,71333.7431770354,73395.9244345877,66106.0625848139,77025.4997260840,76076.8209078896,80442.2133293597,80985.1116262057,65336.6382762152
2939168127,6843,-2,0,58025.7993171187,49432.2174235541,71324.0211872739,73389.7310769048,66097.1314953459,77018.1139341124,76063.5946214431,80433.4282522536,80978.6384114959,65335.0078048409
2939168127,6843,-2,0,58009.9691435521,49393.5363153539,71322.2812066282,73378.3421126785,66088.2612443620,77034.2483000997,76060.6257034183,80432.3453272363,80976.8132569725,65329.2646519405
2939245904,6844,-2,0,57994.8933671885,49315.1033416332,71324.6539075087,73378.2447711039,66084.2824075009,77028.0914455072,76065.8578130522,80435.0465559310,80979.5874918481,65332.9879671683
2939245904,6844,-2,0,57996.0614660835,49321.2723639225,71315.7471534343,73377.9892494706,66079.9385397351,77006.0314111672,76061.3314298340,80427.3809069326,80970.6807377737,65334.6914447235
2939245904,6844,-2,0,58003.2404072090,49366.3171775610,71307.9963305581,73373.6453817048,66075.9718705708,77014.6583082147,76058.2408348410,80420.9076922228,80965.0227587511,65330.4692539260
2939245904,6844,-2,0,58009.9934789457,49381.6971463452,71313.0459247396,73377.6607216564,66080.0602167033,77026.4731418298,76068.0236630867,80427.8676148055,80969.7559928152,65334.0343890951
2939245904,6844,-2,0,58008.0709828477,49382.0865126435,71315.5524702851,73381.9924217254,66081.5690111094,77019.6592316090,76069.3377743435,80429.2912353338,80974.1241959746,65342.0042305141
2939245904,6844,-2,0,57999.6022658589,49355.1593995744,71317.1464385689,73380.7026458622,66079.9385397351,77027.2762098201,76070.9682457178,80430.7148558620,80976.7037477011,65341.2254979174
2939245904,6844,-2,0,57998.7870301718,49313.5337087431,71327.2091238415,73385.7279046500,66088.7844553254,77042.4736631520,76081.7488251029,80442.3715094184,80983.5663287092,65340.7387900445
2939245904,6844,-2,0,58018.4865313281,49355.4149212077,71331.7355070597,73397.5792413556,66097.8980602457,77023.6015653796,76085.0097678515,80445.8393030130,80987.4843270862,65345.4355210182
2939253357,6845,-2,0,58026.1035095393,49428.3359282675,71319.4583009653,73390.3637971396,66092.7024537023,77010.5334589917,76073.2557727205,80435.3629160484,80973.7104942827,65335.9568851931
2939253357,6845,-2,0,58010.9668946916,49403.5624975360,71316.9274200261,73383.8419116425,66087.2878286161,77028.7971719230,76075.9570014152,80436.7865365767,80970.9484271038,65329.2646519405
2939253357,6845,-2,0,57995.1975596090,49332.8438436011,71321.2712877919,73388.6481518875,66089.2954985919,77029.1743705245,76085.6546557831,80444.4035147878,80977.6893311437,65336.6869470025
2939253357,6845,-2,0,57997.4485835213,49332.6491604519,71319.8354995668,73394.3913047880,66087.2878286161,77014.2202711291,76085.9953512941,80440.4490133204,80973.7956681604,65344.5716145438
2939253357,6845,-2,0,58004.6396923436,49361.0120617462,71315.4794641042,73389.6093999365,66082.1652282537,77017.2743630317,76074.7889025202,80434.9735497501,80967.0304287269,65337.2709964500
2939253357,6845,-2,0,58011.4901056549,49378.8134021982,71316.2095259136,73388.6481518875,66085.3044940340,77017.7489032077,76071.3211089257,80436.4458410657,80965.4242927462,65333.2678241952
2939253357,6845,-2,0,58009.6162803442,49397.4543137309,71314.6277253266,73387.1393574815,66081.8610358331,77007.5888763606,76065.3102666951,80432.9780474711,80964.5482185750,65334.7766186013
2939253357,6845,-2,0,57994.0659638045,49363.2752533553,71313.5691357030,73381.7125646985,66079.2936518035,77020.0485979073,76066.3688563187,80434.8518727818,80963.3314488927,65330.8342848307
2939268914,6846,-2,0,57987.9577799994,49306.2452583461,71323.6439886724,73388.3561271638,66088.0300581223,77035.9882807453,76077.8916652101,80446.9708988175,80972.8952585955,65329.7513598134
2939268914,6846,-2,0,58007.7911258208,49340.8866912011,71326.7467513623,73399.5990790282,66097.4478554633,77013.0400045373,76083.6469858073,80447.2872589349,80972.4085507226,65336.2124068264
2939268914,6846,-2,0,58018.4986990250,49412.2015622803,71313.8489927299,73393.5273983135,66089.0521446555,77005.5933740816,76072.7690648476,80435.2290713833,80958.0385007747,65330.0677199308
2939268914,6846,-2,0,58012.3053413421,49395.5804884202,71315.3212840455,73391.5197283377,66088.6384429635,77028.8336750134,76081.0187632936,80437.8937969876,80958.5495440413,65325.8455291333
2939268914,6846,-2,0,58008.1196536350,49347.1287196712,71326.1140311275,73404.7338470875,66101.9985740751,77025.9620985632,76098.8322714423,80450.5360339866,80969.3057880327,65335.8960467090
2939268914,6846,-2,0,58003.7514504756,49341.9574485215,71321.9161757235,73401.1808796152,66103.6898839335,77013.1251784150,76089.0129401062,80447.3967682063,80967.8578321108,65334.5210969680
2939268914,6846,-2,0,58002.8632086075,49355.1593995744,71319.6651518113,73388.6846549780,66102.9476544273,77024.5506457318,76076.5897216500,80446.6545387001,80966.0813483747,65325.1154673239
2939268914,6846,-2,0,58014.2765082274,49382.6827297879,71327.6958317144,73392.1646162694,66112.8521596411,77028.6389918643,76075.2999457868,80453.9551567939,80971.4351349768,65327.5125035980
2939301055,6847,-2,0,58020.3481889421,49422.3494214307,71326.0288572497,73395.8149253162,66113.8985815679,77017.8219093887,76074.3386977378,80452.1421699672,80971.4473026736,65333.2434888016
2939301055,6847,-2,0,58005.5401019085,49392.0275209479,71323.4493055232,73390.0596047190,66107.7538946723,77027.1301974582,76076.5167154691,80453.7726413415,80972.8222524146,65327.9748760773
2939301055,6847,-2,0,57990.5738348163,49318.6319737119,71322.8774237726,73389.3052075160,66105.9165724521,77023.0783544162,76082.8074147265,80454.8312309651,80970.6442346833,65325.0911319302
2939301055,6847,-2,0,58001.4274203824,49340.9110265947,71315.3577871360,73395.5229005925,66108.0702547897,76999.2783394305,76081.0796017777,80451.1565865246,80963.4896289514,65323.3633189814
2939301055,6847,-2,0,58016.4666936555,49413.1628103293,71305.8426482204,73394.8536772672,66107.4131991613,76999.2053332496,76076.4680446818,80444.9145580544,80954.8018934198,65316.0383654940
2939301055,6847,-2,0,58019.5329532549,49411.8608667693,71306.1955114283,73394.6833295117,66110.7228126971,77016.3617857699,76081.9313405553,80452.6167101433,80956.7000541242,65305.6714878008
2939301055,6847,-2,0,58016.0651596604,49373.3987771120,71312.2306890525,73401.5702459135,66115.5047175485,77017.8949155696,76088.6114061111,80460.1728498704,80963.6113059196,65314.5539064816
2939301055,6847,-2,0,58011.7091241978,49358.2499945674,71311.3789502749,73402.9451956545,66115.8819161500,77011.8597379454,76089.5361510696,80461.5234642177,80963.5748028291,65319.4331529076
2939339684,6848,-2,0,58007.0610640114,49348.2116446885,71311.7318134827,73399.0150295807,66113.8864138711,77019.5253869439,76085.8371712354,80460.6352223497,80963.6478090101,65313.1424536501
2939339684,6848,-2,0,58018.5108667218,49376.7935645256,71314.9805885345,73403.9551144908,66121.1383611776,77016.0332579557,76089.5118156760,80462.2656937239,80966.8844163650,65318.6179172204
2939339684,6848,-2,0,58026.2860249916,49432.4364420969,71308.1788460104,73402.7018417180,66119.3253743509,77002.4054375140,76083.4401349613,80452.2516792386,80960.7153940757,65319.6886745408
2939339684,6848,-2,0,58012.3905152198,49406.0568753847,71303.7984751542,73392.3836348122,66111.5258806874,77014.9016621512,76080.3495399683,80450.2926800502,80959.2917735475,65317.2064643890
2939339684,6848,-2,0,57999.5292596780,49330.7509997475,71310.0161682307,73394.0384415801,66113.7160661156,77019.7687408804,76088.1490336318,80457.5689627503,80966.9209194554,65320.7107610740
2939339684,6848,-2,0,58008.8375477475,49347.7492722092,71308.9575786071,73402.1786307546,66119.6052313779,77003.4031886535,76087.0904440082,80456.8997394250,80965.2782803843,65326.1253861602
2939339684,6848,-2,0,58018.3891897536,49411.2281465345,71300.6835447675,73396.7153348811,66114.0932647171,77005.0214923310,76076.9182494642,80449.3679350916,80957.6369667795,65320.1267116265
2939339684,6848,-2,0,58017.9511526679,49414.4160831021,71305.4289465285,73393.3327151644,66115.2856990057,77023.6867392573,76079.5464719780,80453.7361382510,80962.9420825943,65318.7639295823
2939368618,6849,-2,0,58015.7244641493,49390.1780310308,71312.4375398985,73402.5558293562,66118.0599338813,77020.2919518437,76091.0327777788,80458.2381860755,80970.8024147420,65329.2281488500
2939368618,6849,-2,0,58003.9339659279,49358.2986653547,71305.9764928855,73396.5571548224,66110.2117694306,77007.5523732701,76085.4356372403,80450.4021893216,80965.7528205604,65325.5535044095
2939368618,6849,-2,0,57994.3336531346,49319.0091723134,71303.7498043669,73389.1348597605,66103.5803746621,77011.9205764296,76082.7709116361,80447.1899173603,80960.3868662615,65316.1235393717
2939368618,6849,-2,0,58007.1462378892,49341.0692066534,71302.8493948020,73389.8405861762,66102.6312943099,76998.8281346481,76075.5189643296,80443.5761114039,80958.3791962857,65317.9486938952
2939368618,6849,-2,0,58018.3040158758,49406.7991048909,71295.6339505860,73384.9126689629,66096.6934582603,76987.9988844757,76059.3237598582,80432.3696626300,80950.6648765000,65322.4264063260
2939368618,6849,-2,0,58003.6419412042,49386.3573742284,71295.1229073194,73375.6530516806,66091.3761747486,77008.8178137397,76058.4111825965,80431.5422592460,80950.0686593557,65319.5669975726
2939368618,6849,-2,0,57987.2642212805,49312.1952620926,71301.9733206307,73379.5588823608,66092.0575657707,77005.8367280181,76067.2327627932,80436.6161888212,80954.9114026912,65321.2948105215
2939368618,6849,-2,0,57989.5517482832,49310.2119275104,71296.3031739112,73382.6981481411,66089.8308772521,76984.6892709398,76063.8866461669,80431.8342839697,80948.0244862894,65323.2781451036
2939395294,6850,-2,0,58005.2602448816,49354.7335301856,71288.5401833382,73387.9789285623,66089.0034738682,76996.4432660708,76067.8411476343,80424.5093304823,80941.1010667972,65317.4011475381
2939395294,6850,-2,0,58015.6757933620,49371.5371194981,71294.8917210798,73392.7608334137,66092.3252551008,77001.1521647413,76076.1395168676,80430.7756943462,80948.0366539862,65318.8247680664
2939395294,6850,-2,0,58002.1088114045,49364.7597123677,71286.6176872402,73375.3975300474,66080.1940613684,76979.7370183329,76058.8005488949,80420.8711891323,80941.2105760686,65319.3358113330
2939395294,6850,-2,0,57978.7103304139,49337.2242144574,71277.2120575961,73357.4380095367,66063.7920060510,76979.7735214233,76039.9041157288,80413.0230246815,80934.4331689382,65312.6192426867
2939395294,6850,-2,0,57967.7107324860,49293.6638598312,71283.1012228584,73355.4060041672,66064.6802479191,76999.3635133083,76039.3444016750,80413.6679126131,80936.6233543663,65312.8017581391
2939395294,6850,-2,0,57985.1957128206,49328.1349449306,71293.0787342532,73370.5547867118,66078.2959006640,76994.5937761537,76046.6936905560,80420.8346860418,80945.1285744456,65320.9176119200
2939395294,6850,-2,0,58005.9051328132,49415.7423620558,71292.4460140184,73378.8288205514,66085.0611400975,76991.4788457670,76049.1759007079,80421.4795739734,80945.4692699566,65324.2515608494
2939395294,6850,-2,0,57999.3224088320,49408.3322346906,71292.7137033485,73376.2614365218,66083.1021409090,77005.4716971134,76055.9289724446,80427.8797825023,80947.2092506023,65318.0338677729
2939416124,6851,-2,0,57984.6359987667,49334.7176689118,71298.1161607379,73380.3862857448,66087.3730024939,77003.9385673137,76065.6144591157,80436.7622011830,80955.3494397768,65322.8036049275
2939416124,6851,-2,0,57977.7490823649,49314.7748138190,71289.3554190253,73375.7868963457,66081.1431417205,76979.3963228218,76057.1579098238,80427.2957330548,80945.8464685581,65323.9717038225
2939416124,6851,-2,0,57978.5643180521,49330.4103042365,71279.4752492051,73364.4466029067,66072.4310707953,76981.5865082500,76045.7202748102,80416.2596320364,80935.8567894665,65314.1402047896
2939416124,6851,-2,0,57987.0938735249,49336.3724756797,71281.4342483936,73364.1789135766,66072.7961017000,76992.2819137573,76049.6139377935,80419.0338669120,80936.8423729091,65314.3105525451
2939416124,6851,-2,0,57990.3548162735,49347.0922165808,71284.3179925407,73369.1433338804,66073.4044865412,76982.4747501180,76051.9744709772,80417.1722092981,80938.1443164692,65320.3092270788
2939416124,6851,-2,0,57974.2082825895,49312.5967960877,71280.4364972541,73364.7386276304,66066.0551976601,76986.4170838887,76053.2642468404,80414.8603469017,80934.6035166937,65317.2551351763
2939416124,6851,-2,0,57962.6733060013,49245.3581034441,71283.1377259488,73364.5196090876,66066.7487563790,76994.7519562124,76061.8303054038,80422.0636234209,80938.3024965279,65311.8891808773
2939416124,6851,-2,0,57979.3308829519,49263.9746795832,71283.3932475821,73370.1410850198,66070.5450777878,76978.2768947141,76059.4819399170,80423.9009456412,80938.1443164692,65317.0117812398
2939464970,6852,-2,0,57998.0934714529,49346.5081671333,71274.3404811458,73369.2041723645,66070.2530530640,76971.1587920727,76048.1903172653,80413.5827387353,80927.3759047809,65311.1712867648
2939464970,6852,-2,0,57994.6378455552,49349.9881284246,71274.5838350823,73364.1789135766,66071.1412949321,76988.9114617374,76049.5774347031,80418.0969542566,80926.7553522429,65298.5777205530
2939464970,6852,-2,0,57982.6283287909,49300.3317576902,71285.3400790738,73368.9121476407,66076.8722801357,76996.8691354596,76057.6446176967,80426.7603543946,80937.1222299361,65304.7467428423
2939464970,6852,-2,0,57976.7269958318,49299.8450498173,71288.4063386732,73373.1708415288,66083.2968240582,76990.5784362021,76062.8645596337,80430.7513589525,80939.1785706991,65316.2452163399
2939464970,6852,-2,0,57978.4669764775,49325.2512007836,71288.7470341842,73373.9009033381,66087.2999963130,77000.2152520859,76067.5126198201,80433.2335691044,80942.1109856335,65313.5804907357
2939464970,6852,-2,0,57992.1678031001,49356.6195231931,71295.4636028305,73378.1352618325,66093.6515340545,77002.3080959394,76068.1088369644,80440.3881748363,80946.6252011548,65316.6954211224
2939464970,6852,-2,0,57999.4562534971,49394.4002218284,71290.6938656759,73376.2736042186,66090.8772991789,76983.7766936781,76059.4941076138,80435.6184376817,80945.2380837170,65319.6765068440
2939464970,6852,-2,0,57980.4381433628,49360.5131861765,71282.0061301443,73366.4664405793,66080.0723844001,76990.5784362021,76052.1691541264,80430.3254895637,80939.6287754816,65311.9256839678
2939491232,6853,-2,0,57965.4232054833,49275.9720286507,71285.5712653134,73364.8481369019,66079.0137947765,77002.5514498759,76059.9929831835,80437.8937969876,80945.2015806265,65309.8206724174
2939491232,6853,-2,0,57974.9383443988,49280.9486166513,71286.0336377927,73375.6287162870,66082.4937560679,76984.9082894826,76064.9574034873,80433.8784570360,80946.1141578882,65317.8513523206
2939491232,6853,-2,0,57990.6103379068,49354.2589900095,71277.5527531071,73374.0469157000,66078.3689068449,76977.2304727874,76056.9023881905,80422.7815175335,80937.4385900535,65320.5404133184
2939491232,6853,-2,0,57986.7045072266,49354.6605240046,71276.4698280899,73364.7994661146,66072.2242199493,76989.8362066959,76054.0794825276,80420.6643382863,80935.5525970459,65315.4786514401
2939491232,6853,-2,0,57975.3885491813,49304.2375883704,71278.3679887942,73366.0284034937,66069.1822957436,76982.7181040545,76057.1092390365,80422.6720082621,80936.6963605473,65318.7639295823
2939491232,6853,-2,0,57966.0924288086,49281.7151815511,71274.2553072681,73366.1257450683,66066.4080608680,76975.4174859607,76056.5738603763,80418.1334573471,80932.8270329576,65320.4430717439
2939491232,6853,-2,0,57970.9716752345,49276.4830719172,71277.8812809213,73369.0094892153,66071.6645058955,76993.7298696793,76058.7518781076,80424.3268150300,80935.8446217696,65317.5349922032
2939491232,6853,-2,0,57990.0992946402,49307.2795125761,71284.5613464771,73379.1330129720,66082.4450852806,76992.0872306082,76067.0989181281,80433.1362275298,80941.7094516383,65319.6278360567
2939523934,6854,-2,0,57997.8866206069,49371.0990824124,71279.0493798163,73379.2790253339,66081.9340420140,76973.9086915547,76062.0979947339,80425.1055476267,80933.6909394320,65318.8856065505
2939523934,6854,-2,0,57980.7058326929,49360.8417139907,71274.3404811458,73369.3988555136,66074.6455916171,76986.6117670378,76063.3999382939,80423.2438900128,80930.5516736517,65310.6359081046
2939523934,6854,-2,0,57962.5759644267,49284.8544473314,71280.3999941637,73369.3623524232,66072.5040769763,76994.0949005840,76068.6320479278,80426.5291681549,80935.6134355300,65308.3118780114
2939523934,6854,-2,0,57966.1776026863,49288.2857378355,71278.4774980656,73371.4430285799,66071.0804564480,76974.7239272418,76059.6279522788,80421.7229279099,80933.6909394320,65313.4344783738
2939523934,6854,-2,0,57977.0798590397,49357.5442681517,71272.1989665050,73366.9896515427,66067.7586752153,76972.7527603565,76046.5233428005,80412.5119814149,80925.1492162623,65313.1302859533
2939523934,6854,-2,0,57981.3750560182,49375.5281240560,71276.1291325788,73364.5561121781,66068.7320909611,76990.7122808672,76046.9127090988,80414.3371359384,80928.4344944045,65308.5187288574
2939523934,6854,-2,0,57977.6395730935,49356.8507094328,71283.5757630345,73372.8666491082,66074.3657345902,76988.1327291407,76055.1137367575,80421.0780399783,80933.7639456129,65312.4853980217
2939523934,6854,-2,0,57971.7260724376,49337.4554006970,71284.2328186629,73378.9018267324,66076.3977399596,76991.8073735812,76063.5824537463,80424.2781442427,80936.5016773981,65314.5904095720
2939571330,6855,-2,0,57974.1231087117,49313.7283918923,71291.8984676613,73387.6260653544,66083.4793395106,77008.5379567128,76079.9480059731,80432.3209918427,80940.6021912274,65314.9067696894
2939571330,6855,-2,0,57990.7563502687,49336.8835189463,71297.9214775887,73395.8514284067,66094.0409003529,77001.3468478904,76084.1093582866,80437.8937969876,80947.3187598737,65322.0370400277
2939571330,6855,-2,0,57999.4805888907,49401.1776289587,71288.5888541255,73387.6990715353,66086.6186052909,76979.5666705773,76067.5369552137,80425.2515599885,80938.1321487724,65320.3335624725
2939571330,6855,-2,0,57982.2876332799,49387.7931624535,71282.4441672299,73374.2902696365,66076.6532615929,76996.2364152248,76059.9808154867,80421.7715986972,80935.0537214762,65309.7354985397
2939571330,6855,-2,0,57969.4385454349,49311.9032373688,71293.8452991530,73380.9946705859,66083.7105257502,77007.5280378765,76072.0998415223,80434.1218109725,80947.0023997563,65312.5219011121
2939571330,6855,-2,0,57973.6242331419,49304.7607993337,71293.8331314562,73389.3782136969,66087.2513255257,76990.5419331116,76074.0101699235,80435.2655744738,80948.7423804020,65318.8369357632
2939571330,6855,-2,0,57988.4566555691,49356.9967217946,71291.3265859107,73390.7409957411,66084.6839414960,76998.9254762226,76072.2215184906,80427.3565715389,80946.4791887929,65317.8513523206
2939571330,6855,-2,0,57998.6531855067,49381.0644261104,71301.2919296087,73393.8680938246,66089.5875233157,77016.7998228556,76083.2576195090,80435.2777421706,80954.9844088721,65317.9486938952
2939580948,6856,-2,0,57995.5139197264,49378.3388620221,71304.3703569049,73393.1015289247,66091.5343548073,77009.1463415539,76080.6902354793,80437.0177228163,80958.9267426428,65324.0568777003
2939580948,6856,-2,0,57978.8806781695,49349.9516253341,71300.2576753787,73381.9802540286,66082.9074577599,77008.3797766541,76070.7370594782,80433.2579044980,80958.1966808334,65324.2637285463
2939580948,6856,-2,0,57967.1753538258,49294.8319587262,71303.0197425575,73378.0500879547,66082.6641038234,77023.7232423478,76072.3066923683,80437.6139399606,80959.7784814204,65321.3191459151
2939580948,6856,-2,0,57983.8572661700,49306.9874878523,71312.3888691112,73389.0496858827,66092.6537829150,77019.6105608217,76078.5973916258,80441.0330627679,80967.6509812648,65331.3453280972
2939580948,6856,-2,0,58003.0335563630,49386.0896848983,71310.3325283481,73395.6202421671,66092.4469320691,77006.9074853385,76075.9204983247,80435.0830590215,80964.7429017241,65336.2245745232
2939580948,6856,-2,0,57994.2363115600,49384.2036918907,71305.7818097363,73383.5863900092,66083.7348611438,77016.0697610462,76073.2314373269,80431.0312159794,80957.2476004812,65327.4394974171
2939580948,6856,-2,0,57974.9018413084,49306.6589600381,71306.9742440250,73379.8874101750,66080.0845520970,77012.7601475103,76074.6793932488,80431.5422592460,80957.9046561096,65325.6995167714
2939580948,6856,-2,0,57971.7017370439,49286.3145709502,71301.3406003960,73381.5543846398,66076.1057152359,76993.6811988920,76072.0633384319,80424.5701689665,80953.9623223390,65327.3543235393
2939606089,6857,-2,0,57978.8076719885,49317.5368809978,71294.9525595639,73380.3132795638,66074.3657345902,77002.4662759981,76072.1485123096,80419.7030902373,80950.2146717175,65326.8067771823
2939606089,6857,-2,0,57989.4544067086,49338.1732948095,71297.6051174713,73379.6805593290,66078.0160436370,77012.9183275690,76071.8321521922,80422.5624989907,80955.6901352879,65328.1330561360
2939606089,6857,-2,0,57993.5792559316,49356.2058215011,71298.3838500680,73378.9748329133,66076.2882306882,76998.9011408290,76063.4851121717,80419.8247672055,80955.0817504467,65334.0708921856
2939606089,6857,-2,0,57978.9901874409,49334.9366874546,71292.9692249818,73368.9851538217,66068.9267741103,76998.4387683497,76054.4080103418,80414.4709806034,80950.0564916588,65331.5400112464
2939606089,6857,-2,0,57959.9599096098,49268.7809198283,71294.2468331482,73363.9598950338,66063.8041737479,77011.5555455249,76057.4986053348,80415.5174025302,80951.0664104952,65326.2105600379
2939606089,6857,-2,0,57971.4218800170,49276.7750966410,71298.0066514665,73374.1564249714,66071.3116426876,76999.3635133083,76063.1200812670,80419.3380593326,80956.2376816449,65335.0686433250
2939606089,6857,-2,0,57987.1912150995,49355.2080703617,71292.5798586834,73375.8720702234,66068.7320909611,76988.3639153803,76056.5251895890,80410.8571746470,80950.1781686271,65335.5431835011
2939606089,6857,-2,0,57982.0199439498,49364.5163584312,71291.9349707518,73371.4673639735,66066.3472223838,77012.4559550898,76066.2228439569,80412.4146398403,80950.6648765000,65329.7391921166
2939636078,6858,-2,0,57973.6850716261,49310.1754244200,71301.5839543324,73378.7071435832,66074.0372067759,77015.3275315400,76079.1692733765,80425.1055476267,80961.3724497042,65334.4480907871
2939636078,6858,-2,0,57967.9175833320,49291.2303204666,71294.9890626544,73377.2713553581,66072.4919092794,76991.9898890336,76069.1065881039,80421.6864248194,80958.2453516207,65335.1903202933
2939636078,6858,-2,0,57967.9662541193,49304.7607993337,71286.0944762768,73367.7805518362,66068.6104139929,76996.4310983740,76056.8293820095,80416.3083028237,80951.0907458888,65326.8189448791
2939636078,6858,-2,0,57980.2556279105,49336.7618419781,71291.0710642774,73371.8202271814,66076.1422183263,77002.6731268441,76061.2827590467,80421.4674062766,80952.3196832679,65327.9018698963
2939636078,6858,-2,0,57988.5783325373,49388.7300751089,71290.8763811282,73374.1929280619,66076.6289261992,76988.9114617374,76057.5959469094,80418.1577927408,80951.0299074047,65334.0952275792
2939636078,6858,-2,0,57975.0965244575,49392.2830425812,71285.6686068880,73367.5250302029,66071.1291272353,76991.1259825592,76056.3305064398,80416.7220045157,80946.9537289690,65327.9870437741
2939636078,6858,-2,0,57956.1392528074,49325.3242069645,71287.6884445606,73364.1180750925,66072.3824000080,77002.5392821791,76061.8668084942,80420.5548290149,80946.9415612722,65324.5435855732
2939636078,6858,-2,0,57962.6611383045,49318.9361661325,71288.0291400717,73370.7981406483,66074.4509084679,76990.2864114784,76061.9519823720,80421.0415368878,80948.1096601672,65329.0578010945
2939662465,6859,-2,0,57982.4093102481,49387.0387652505,71284.3179925407,73376.2127657345,66077.5658388546,76987.5851827837,76057.5594438189,80417.7197556551,80943.6562831300,65331.8685390606
2939662465,6859,-2,0,57985.8406007522,49394.4367249188,71285.9849670054,73372.6111274749,66078.5392546004,77001.6023695237,76059.0682382250,80421.9297787559,80946.5278595802,65328.3155715883
2939662465,6859,-2,0,57973.4173822960,49341.4829083454,71290.2923316807,73373.0978353478,66080.2062290652,76995.7740427455,76063.3512675066,80424.1442995776,80947.3430952673,65332.2944084494
2939662465,6859,-2,0,57963.8657402899,49318.2061043231,71284.6221849612,73372.2825996607,66079.0868009575,76985.2003142064,76059.8591385185,80421.1875492497,80947.7446292625,65337.2466610563
2939662465,6859,-2,0,57960.3492759081,49312.9374915988,71281.8844531761,73368.3159304964,66077.1643048594,76995.3725087504,76058.7032073203,80418.9486930343,80943.3399230126,65330.6396016815
2939662465,6859,-2,0,57975.7292446923,49338.2463009905,71287.8344569225,73376.5169581551,66087.2148224352,77000.2152520859,76067.2449304900,80427.8797825023,80949.3142621526,65330.0555522340
2939662465,6859,-2,0,57990.6346733004,49399.0482820147,71286.0823085800,73381.0555090700,66091.1084854185,76984.0687184018,76069.0579173166,80428.5246704339,80946.8077166071,65331.9172098479
2939662465,6859,-2,0,57978.8806781695,49393.2199552365,71279.2562306623,73372.3191027511,66088.1882381810,76991.3693364956,76066.0524962013,80425.9572864043,80943.0235628952,65325.7481875587
2939709944,6860,-2,0,57959.9234065193,49315.0303354523,71285.1940667119,73372.5016182035,66091.1328208122,77009.1341738571,76074.6307224615,80437.3462506305,80950.7013795905,65323.3389835877
2939709944,6860,-2,0,57971.0690168091,49314.8843230904,71294.4658516910,73390.7896665284,66103.0571636987,76996.0538997724,76087.6866611525,80443.9411423086,80959.2309350633,65334.4359230902
2939709944,6860,-2,0,57988.2498047231,49389.6183169769,71288.2238232208,73391.7630822742,66103.1180021828,76988.8871263437,76083.8781720469,80437.6261076575,80952.7820557472,65330.2745707768
2939709944,6860,-2,0,57992.9343680000,49419.0398078948,71288.4793448541,73386.2997864007,66100.2464257326,76998.9133085258,76083.3914641740,80437.1150643909,80949.8739762065,65321.2583074310
2939709944,6860,-2,0,57984.3683094366,49391.7598316178,71289.0512266048,73384.9248366597,66097.3991846760,76991.0408086814,76081.4568003792,80435.0830590215,80948.0853247735,65319.1776312743
2939709944,6860,-2,0,57971.9329232836,49362.0219805825,71283.5027568535,73382.9536697744,66093.0796523039,76985.4558358397,76080.7267385698,80431.8951224539,80942.7802089587,65317.9121908047
2939709944,6860,-2,0,57963.6588894440,49321.5157178589,71284.8290358072,73383.6958992806,66093.2378323626,77000.5802829906,76088.4532260524,80434.6206865422,80944.1429910029,65313.1181182564
2939709944,6860,-2,0,57973.1861960563,49320.0920973306,71289.1607358762,73388.8671704303,66096.8151352285,76992.9511370826,76088.7695861698,80438.1614863177,80947.4891076292,65312.8382612295
2939731098,6861,-2,0,57986.6923395298,49376.8057322224,71283.1620613425,73388.5873134034,66093.7732110228,76978.4350747728,76076.1516845644,80430.5080050160,80939.5679369975,65308.5795673415
2939731098,6861,-2,0,57978.1992871474,49377.5844648191,71281.1543913667,73379.2668576370,66086.8984623178,76998.7064576798,76069.6419667641,80428.0257948642,80939.5801046943,65303.6638178250
2939731098,6861,-2,0,57965.8004040848,49306.2817614366,71296.0476522780,73384.2677810313,66093.8218818101,77020.2676164501,76085.2044510007,80441.0452304647,80952.6360433853,65310.5872373173
2939731098,6861,-2,0,57974.2812887704,49297.7157028733,71305.3072695602,73395.8514284067,66103.9575732636,77006.7614729766,76092.7240876372,80445.2430858686,80958.4035316794,65322.5845863847
2939731098,6861,-2,0,57983.6017445368,49357.1305664597,71300.7322155548,73390.8870081030,66100.5627858500,77001.4685248586,76085.5086434212,80437.5531014765,80955.7631414688,65320.3457301693
2939731098,6861,-2,0,57986.5341594711,49383.0599283894,71302.0463268117,73386.2876187039,66097.6182032188,77011.5068747376,76085.0341032451,80437.5652691734,80955.0817504467,65314.9311050831
2939731098,6861,-2,0,57986.5828302584,49376.6475521637,71303.7741397605,73386.0442647674,66093.3960124212,76998.7551284671,76079.9723413668,80435.6306053785,80954.6558810579,65318.0947062570
2939731098,6861,-2,0,57969.1708561048,49344.1232985560,71289.1729035730,73374.1199218809,66077.3468203118,76984.5310908811,76064.3733540398,80422.5746666875,80946.6617042452,65311.4268083981
2939764661,6862,-2,0,57952.6836269097,49285.3046521139,71284.3301602375,73362.7552930483,66068.4035631469,76996.6744523104,76057.9366424204,80418.5228236455,80941.7216193351,65306.9369282704
2939764661,6862,-2,0,57963.2451877520,49288.9549611607,71290.0124746538,73372.2582642670,66075.8380259057,77001.5171956459,76062.8158888464,80422.7815175335,80948.9613989448,65315.6855022861
2939764661,6862,-2,0,57985.4268990602,49372.3036843979,71288.8322080620,73379.0478390942,66080.1818936715,76987.5000089059,76062.0006531593,80419.4962393913,80948.3895171941,65323.8013560670
2939764661,6862,-2,0,57977.7004115776,49386.4182127125,71283.9894647264,73369.2285077581,66071.9808660129,76996.7717938850,76058.5450272616,80414.2519620606,80940.7968743766,65315.6003284083
2939764661,6862,-2,0,57956.3339359566,49310.6256292024,71288.3941709763,73365.8945588286,66070.9101086924,77006.1044173482,76064.5437017953,80420.0681211420,80948.1583309545,65318.0338677729
2939764661,6862,-2,0,57951.9779004939,49284.1243855220,71289.6109406586,73372.7693075336,66072.1512137684,76988.8262878596,76066.6365456488,80418.6323329169,80948.6572065242,65324.7747718128
2939764661,6862,-2,0,57958.3172705387,49315.0546708460,71281.7384408142,73369.6422094501,66068.7199232643,76986.6969409156,76060.4066848755,80410.3582990773,80942.9383890174,65319.7373453281
2939764661,6862,-2,0,57970.3024519093,49338.9276920126,71284.0868063010,73371.1631715530,66071.9200275288,77000.0449043304,76064.9209003968,80412.5606522022,80944.2646679711,65316.1843778558
2939809996,6863,-2,0,57979.3795537392,49360.9512232621,71288.3455001890,73377.0888399057,66076.2760629914,76995.4698503249,76068.3156878104,80416.2352966427,80950.7135472873,65326.5512555490
2939809996,6863,-2,0,57965.3745346960,49346.2039747127,71282.5780118950,73365.9553973127,66068.6225816897,76990.9556348036,76061.2705913499,80410.2731251995,80945.6031146217,65327.6341805662
2939809996,6863,-2,0,57948.1937467820,49279.0626236437,71283.1377259488,73359.0684809110,66064.8384279778,77001.8700588538,76061.3801006213,80412.2686274785,80943.2790845285,65321.8666922721
2939809996,6863,-2,0,57957.7210533944,49272.6867505085,71288.0899785558,73370.2384265944,66071.7618474701,76993.2674972000,76067.2814335805,80417.3547247504,80944.8487174186,65324.2272254558
2939809996,6863,-2,0,57977.3962191571,49355.3175796331,71283.2350675234,73377.1131752994,66075.1201317932,76984.4215816097,76066.9407380694,80413.0108569847,80942.4030103572,65325.2249765953
2939809996,6863,-2,0,57977.6882438808,49378.7525637141,71282.6510180759,73374.2415988492,66073.5139958126,76999.8623888780,76067.1840920059,80415.2497132001,80938.8987136722,65320.2483885947
2939809996,6863,-2,0,57964.1942681042,49315.6143848998,71287.1287305068,73371.6133763354,66071.7983505605,76996.0904028629,76066.1620054727,80417.9752772884,80941.8189609097,65318.0217000761
2939809996,6863,-2,0,57954.7521353696,49285.9373723487,71280.9353728239,73372.3191027511,66068.3670600565,76978.9096149489,76058.1678286601,80413.8990988527,80941.0523960099,65319.9563638709
2939830790,6864,-2,0,57956.0297435360,49302.3394276660,71276.0682940947,73371.0414945847,66068.3792277533,76989.8848774832,76057.0118974619,80412.3172982658,80934.6278520874,65316.4885702764
2939830790,6864,-2,0,57973.6850716261,49331.5905708283,71286.6663580275,73381.9559186349,66079.0624655638,77003.5492010154,76069.5689605832,80421.1023753719,80943.4129291935,65320.7837672549
2939830790,6864,-2,0,57987.0938735249,49377.7791479682,71292.4216786247,73388.4047979511,66086.8619592273,76995.9565581979,76072.7568971508,80424.1929703649,80945.9438101327,65328.6684347962
2939830790,6864,-2,0,57980.9735220230,49379.1297623156,71294.3076716323,73382.3817880237,66086.5577668068,77005.5325355975,76070.8952395369,80424.4484919982,80949.0587405194,65328.2060623169
2939830790,6864,-2,0,57963.1600138742,49305.0163209670,71301.0972464595,73378.8531559451,66087.4703440685,77016.3982888604,76074.9957533662,80431.4814207619,80955.0087442658,65322.4994125069
2939830790,6864,-2,0,57965.0338391850,49287.9450423244,71305.4046111348,73390.7409957411,66096.3284273556,77006.0192434704,76085.0584386388,80436.1051455546,80957.5517929018,65327.1961434806
2939830790,6864,-2,0,57983.7720922923,49365.6601219326,71301.0607433690,73398.2484646808,66099.3095130772,76995.6158626868,76083.8781720469,80431.9072901507,80953.1105835614,65325.9793737983
2939830790,6864,-2,0,57986.2664701410,49394.7530850362,71299.0895764837,73385.9347554960,66095.5496947589,77004.4739459739,76073.6086359284,80432.3696626300,80947.6716230816,65311.8526777869
2939864592,6865,1,0,57979.6594107661,49353.9913006794,71305.8548159173,73382.8928312903,66096.7299613507,77009.4748693681,76071.9416614636,80436.6161888212,80951.1029135856,65309.9423493857
2939864592,6865,1,0,57971.5800600757,49328.5973174099,71304.0053260002,73380.4592919257,66092.8971368515,76993.4378449555,76065.8213099617,80431.5179238524,80948.7667157956,65309.9058462952
2939864592,6865,1,0,57969.9495887014,49321.8199102795,71302.4235254132,73378.0014171675,66091.0111438439,77005.9827403800,76068.5225386564,80430.6296819843,80946.3818472183,65305.8418355563
2939864592,6865,1,0,57986.8383518917,49336.7861773717,71311.4641241526,73390.0596047190,66101.9134001973,77016.8606613397,76080.2156953032,80439.6946161174,80955.5927937133,65310.5020634395
2939864592,6865,1,0,58007.9858089699,49395.3249667869,71314.9562531408,73399.7815944805,66109.3356952593,77008.1364227176,76085.6059849958,80443.7707945531,80955.4954521387,65319.3844821203
2939864592,6865,1,0,58003.4472580550,49404.2925593454,71313.3379494634,73392.7364980200,66104.9553244030,77012.9791660531,76079.6438135526,80441.3250874916,80954.1205023977,65313.8481800658
2939864592,6865,1,0,57986.0717869918,49325.3363746613,71319.3609593907,73389.6580707238,66104.5537904079,77028.2617932628,76086.9931024336,80448.1146623188,80961.0317541931,65309.3217968477
2939864592,6865,1,0,57988.0672892708,49300.4412669616,71323.3032931614,73400.3048054439,66110.4186202765,77012.6141351485,76090.4487283313,80449.9154814486,80961.4089527946,65315.2352975036
2939888156,6866,1,0,58003.7392827787,49368.9210646811,71317.8886680751,73405.0015364176,66111.2946944478,77006.3842743751,76090.3513867568,80446.2043339176,80959.0119165205,65316.0748685844
2939888156,6866,1,0,58008.1318213318,49400.7395918731,71317.1951093562,73399.1488742457,66113.0225073967,77020.0729333009,76086.9565993431,80443.9898130959,80956.7243895178,65311.4024730044
2939888156,6866,1,0,58005.2967479721,49378.2658558411,71322.6584052297,73398.0659492285,66110.5159618511,77018.8804990123,76085.7763327513,80446.7275448810,80959.3769474252,65315.1744590195
2939888156,6866,1,0,57996.4143292913,49357.3374173057,71318.9959284860,73396.4233101574,66105.6488831220,77006.6884667957,76079.5099688875,80442.7243726263,80955.7388060752,65317.0726197239
2939888156,6866,1,0,57988.7121772024,49329.5342300653,71314.3722036933,73391.8604238488,66098.7011282360,77011.3730300725,76079.4369627066,80440.3881748363,80953.0254096836,65304.5885627836
2939888156,6866,1,0,57998.2881546021,49333.1480360217,71318.8864192146,73397.7860922016,66105.8557339679,77012.5654643612,76087.1512824923,80446.4598555509,80955.1547566277,65306.3163757324
2939888156,6866,1,0,58013.6194525990,49401.7860137999,71318.8742515178,73401.3633950675,66111.3677006287,77001.8457234602,76084.2310352548,80445.2795889591,80954.2543470628,65311.0131067061
2939888156,6866,1,0,58011.4536025645,49421.0839809611,71317.2072770531,73394.9023480545,66108.8733227800,77017.1526860634,76080.6050616016,80443.9898130959,80952.8307265345,65307.8130024416
2939938781,6867,1,0,57994.8568640980,49345.1575527859,71329.4236446633,73393.2718766803,66111.5380483843,77036.2438023786,76089.3901387077,80454.9164048429,80962.0660084231,65310.1126971412
2939938781,6867,1,0,57996.2318138390,49316.8311545821,71336.0672071286,73401.6919228817,66116.6363133531,77020.3771257215,76090.8624300233,80458.9074094008,80967.1521056951,65318.3380601935
2939938781,6867,1,0,58008.0588151509,49367.7894688766,71330.7499236170,73402.3733139038,66116.8918349864,77015.3518669336,76086.2508729274,80451.5337851261,80960.0461707505,65314.1767078800
2939938781,6867,1,0,58012.7555461245,49400.3502255748,71330.0441972013,73400.2439669598,66118.6561510257,77028.1401162945,76086.0075189910,80453.1642565004,80958.5373763444,65305.3794630771
2939938781,6867,1,0,58010.6627022710,49396.6390780438,71333.3781461308,73403.0060341386,66120.2622870063,77021.6060631006,76088.9034308348,80456.6685531854,80963.7086474942,65310.4533926522
2939938781,6867,1,0,57996.4386646850,49372.0359950678,71328.2555457683,73396.2894654923,66110.9053281495,77013.4050354420,76080.3617076651,80447.3846005095,80957.0164142416,65314.7972604180
2939938781,6867,1,0,57982.0199439498,49313.6067149240,71325.9193479783,73388.6724872812,66104.9796597967,77023.5650622891,76078.8772486527,80446.3016754922,80957.1259235130,65312.4975657185
2939938781,6867,1,0,57989.8194376133,49301.0739871964,71328.3893904334,73395.7297514385,66108.0337516992,77018.2964495648,76083.9876813184,80448.3580162553,80962.4432070246,65316.5737441542
2939944841,6868,1,0,58009.7257896156,49375.8931549607,71322.5488959583,73402.5801647498,66110.8688250590,77004.4374428834,76082.1503590981,80446.9830665143,80957.5396252050,65318.3015571030
2939944841,6868,1,0,58007.4017595224,49406.8964464655,71317.9981773466,73394.4643109689,66107.8147331564,77023.0053482353,76081.9921790394,80446.2773400986,80954.7653903293,65312.4367272344
2939944841,6868,1,0,57996.7185217119,49351.2779042879,71333.1591275879,73398.7960110379,66114.3609540472,77040.9161979586,76097.0557877062,80459.9173282371,80967.7239874458,65319.3479790298
2939944841,6868,1,0,57991.1457165670,49319.8609110910,71335.8360208890,73402.2029661483,66115.6142268199,77015.0476745131,76097.0436200094,80459.0777571563,80968.1985276219,65327.5125035980
2939944841,6868,1,0,57987.4954075201,49342.5658333626,71321.3077908824,73391.2155359172,66104.6024611952,77000.9696492889,76081.7244897093,80441.2885844012,80957.3449420558,65320.2118855042
2939944841,6868,1,0,57989.7464314324,49356.5465170122,71317.8034941974,73384.6693150264,66101.3658538403,77013.5875508943,76077.4414604276,80437.4800952956,80950.5310318350,65315.1987944132
2939944841,6868,1,0,57992.4111570366,49364.8813893359,71319.1662762416,73388.1736117114,66103.1910083637,77008.4649505318,76079.0110933178,80437.0177228163,80953.4877821629,65319.7130099345
2939944841,6868,1,0,57983.0176950893,49354.8430394570,71314.0436758791,73385.6914015596,66098.2509234536,77005.2040077833,76077.6361435768,80433.8297862487,80951.7234661236,65316.7927626970
2939982220,6869,1,0,57964.7418144612,49292.9703011123,71314.0436758791,73381.7977385762,66093.5298570863,77021.5452246165,76080.6050616016,80436.2998287038,80952.2588447838,65311.2199575521
2939982220,6869,1,0,57971.0081783250,49282.5912557223,71320.4682198016,73391.2155359172,66102.2054249211,77015.0111714226,76088.4045552651,80442.8095465040,80958.2940224080,65315.7706761639
2939982220,6869,1,0,57992.1799707969,49364.1513275265,71314.3357006029,73391.8725915456,66104.1279210191,76998.2075821101,76076.4072061977,80438.2953309827,80952.6238756885,65318.5205756458
2939982220,6869,1,0,57994.6743486456,49404.2925593454,71309.5659634483,73381.3840368842,66101.6092077767,77012.0544210946,76068.3156878104,80436.8230396672,80949.6549576637,65312.5584042026
2939982220,6869,1,0,57982.1294532212,49350.4139978134,71318.3510405544,73382.6616450506,66105.6488831220,77024.5506457318,76076.2246907453,80445.3525951400,80957.2110973907,65314.8094281148
2939982220,6869,1,0,57979.5620691915,49324.0831018886,71326.2843788830,73394.4643109689,66114.1419355044,77018.1626048997,76083.7443273819,80450.0736615073,80964.5117154845,65327.4638328107
2939982220,6869,1,0,57977.1406975238,49331.1281983491,71318.1928604957,73384.2191102440,66106.1355909949,77007.2846839400,76074.5942193710,80442.8338818977,80958.3426931953,65321.6598414262
2939982220,6869,1,0,57981.1195343849,49340.2661386631,71314.9319177472,73380.2037702924,66105.8800693616,77014.2202711291,76078.8529132591,80441.9334723328,80957.7343083541,65315.9045208289
2940041291,6870,1,0,57991.8027721954,49372.0116596741,71313.7273157617,73385.4845507136,66106.3789449313,77001.3103447999,76082.6370669710,80442.3593417216,80954.2178439723,65317.7783461396
2940041291,6870,1,0,57984.0641170160,49372.8512307549,71305.4046111348,73378.3542803753,66098.0684080013,76996.0538997724,76070.6397179036,80434.7545312073,80947.6594553847,65312.3515533566
2940041291,6870,1,0,57964.2429388915,49293.1284811710,71303.0562456480,73370.5912898023,66090.1594050664,77010.6308005663,76065.9794900204,80435.5941022880,80944.3133387584,65302.3983773554
2940041291,6870,1,0,57967.4673785495,49256.8322415482,71308.1910137073,73380.9825028891,66097.5695324315,77003.0746608393,76067.8411476343,80441.7387891836,80947.0023997563,65304.6128981772
2940041291,6870,1,0,57986.5828302584,49323.6694001966,71303.5794566114,73387.2245313592,66101.0251583292,76992.7807893271,76066.6608810425,80435.1317298088,80944.9460589932,65305.9391771309
2940041291,6870,1,0,57990.1723008211,49357.3495850025,71301.3162650023,73382.8684958966,66101.5970400799,77007.7957272066,76067.9141538152,80435.7036115594,80943.9361401569,65301.7413217270
2940041291,6870,1,0,57979.9757708835,49313.9230750414,71309.5659634483,73385.1681905962,66103.5073684811,77013.4537062293,76080.3130368778,80445.2187504750,80953.3782728915,65308.1293625590
2940041291,6870,1,0,57967.6985647892,49276.9697797901,71306.1225052474,73383.0753467426,66099.2608422899,76995.4698503249,76077.8064913323,80441.2520813107,80951.0177397079,65315.7828438607
2940045739,6871,1,0,57956.2609297756,49264.2058658229,71298.6150363076,73375.2271822918,66091.2423300836,76998.9133085258,76071.9173260700,80433.1727306203,80943.1817429539,65312.5827395962
2940045739,6871,1,0,57964.6688082803,49278.2473879566,71302.3870223227,73378.6463050991,66097.4600231601,77008.9759937984,76076.0543429898,80438.2101571050,80946.4061826120,65312.0230255424
2940045739,6871,1,0,57982.4336456418,49338.5261580174,71303.7741397605,73388.6846549780,66106.9994974693,76996.5406076454,76080.9579248094,80441.0817335552,80945.9073070422,65316.1357070685
2940045739,6871,1,0,57977.8099208490,49358.1283175992,71299.6736259312,73384.6814827233,66106.0625848139,77003.8290580423,76078.0741806624,80441.8239630614,80944.8122143282,65312.3150502661
2940045739,6871,1,0,57961.8215672237,49283.8566961919,71306.9985794186,73384.9613397502,66107.0481682566,77024.4898072476,76088.1977044191,80451.2417604023,80955.3859428673,65312.9234351073
2940045739,6871,1,0,57963.1843492679,49244.6037062411,71313.3987879475,73394.7076649054,66109.3600306530,77007.6375471479,76098.3333958726,80457.4472857820,80959.9244937823,65323.0104557735
2940045739,6871,1,0,57971.6774016503,49302.3394276660,71299.3329304202,73389.3903813937,66102.5704558258,76982.9857933846,76084.9245939737,80441.4589321567,80948.4746910719,65318.6665880077
2940045739,6871,1,0,57972.0424325550,49344.1476339496,71291.3144182138,73377.3686969327,66094.5519436194,76992.8537955080,76070.7248917813,80433.1605629235,80939.3975892420,65307.2776237814
2940074236,6872,1,0,57962.8679891505,49327.4048831212,71292.1904923851,73375.9937471917,66093.2378323626,76997.8425512054,76071.4914566812,80434.9492143564,80940.8698805575,65303.7246563091
2940074236,6872,1,0,57953.4988625968,49308.2894314124,71291.7159522090,73380.7391489526,66090.6339452424,76989.8970451800,76074.9105794884,80435.4724253198,80940.2979988069,65310.5385665300
2940074236,6872,1,0,57944.0567298622,49280.3280641133,71289.8421268983,73374.5944620570,66086.8862946210,76998.6334514989,76076.2246907453,80433.4769230408,80939.3854215451,65308.7864181875
2940074236,6872,1,0,57952.2334221272,49273.8426817067,71294.5145224783,73375.9207410107,66091.5343548073,77003.4883625313,76078.6338947163,80439.4025913936,80945.1529098392,65308.7255797034
2940074236,6872,1,0,57968.0392603002,49329.3760500066,71291.5942752408,73375.4096977442,66091.8750503184,76984.2147307637,76072.1120092192,80436.0443070705,80942.6341965969,65312.9112674105
2940074236,6872,1,0,57961.6755548618,49356.9967217946,71284.5491787803,73365.0063169606,66085.7181957260,76990.7731193513,76065.1885897269,80430.6053465906,80938.2659934374,65311.6823300313
2940074236,6872,1,0,57942.9007986640,49293.2014873520,71288.1143139494,73361.3195048232,66086.6794437750,77007.4793670892,76068.8145633801,80437.5531014765,80941.4295946114,65308.2632072241
2940074236,6872,1,0,57942.9981402386,49266.5907344002,71293.7114544880,73370.2627619881,66095.5861978494,76996.3580921930,76073.4747912633,80442.0916523915,80949.0222374289,65318.1068739539
2940108165,6873,1,0,57954.7643030664,49326.2976227103,71286.3621656069,73370.6764636801,66095.6105332430,76982.4990855117,76064.3611863430,80434.5233449676,80942.1596564208,65315.3083036846
2940108165,6873,1,0,57958.2199289641,49369.8458096397,71281.8844531761,73363.6557026132,66091.4613486264,76992.8902985985,76063.9353169541,80431.9559609380,80934.0681380335,65305.5741462262
2940108165,6873,1,0,57957.2708486119,49368.6533753510,71283.5757630345,73363.0229823784,66091.3396716582,76986.8064501870,76064.5315340985,80432.2723210554,80933.6301009479,65306.6935743339
2940108165,6873,1,0,57947.6340327281,49349.2215635248,71279.1588890877,73358.9954747300,66085.7303634228,76977.4008205429,76056.1723263811,80425.4584108345,80929.5417548154,65308.9324305494
2940108165,6873,1,0,57936.8899564335,49298.7986278905,71277.1998898992,73355.7953704656,66081.1431417205,76987.3174934536,76055.2597491194,80426.4804973677,80928.3371528299,65304.3452088471
2940108165,6873,1,0,57943.1684879941,49273.9035201908,71283.1133905552,73363.8503857624,66086.1805682053,76987.6946920551,76063.8136399859,80430.2403156860,80930.7828598913,65306.2068664610
2940108165,6873,1,0,57961.9310764951,49334.8150104864,71281.7262731174,73368.3889366773,66087.5311825526,76976.3787340097,76062.6212056973,80428.0744656515,80930.6368475294,65313.5439876453
2940108165,6873,1,0,57963.5737155662,49365.2464202406,71277.1147160215,73361.1248216740,66080.4009122143,76983.8253644654,76059.8591385185,80423.0613745604,80925.4777440765,65312.2298763884
2940160252,6874,1,0,57946.5754431045,49292.5931025108,71282.3711610490,73359.4943502998,66078.2472298767,76997.6357003594,76071.0290842019,80432.5886811728,80934.8347029334,65308.5917350383
2940160252,6874,1,0,57939.4816758568,49243.1922534097,71284.1233093915,73365.3591801684,66079.2328133194,76980.2358939026,76075.5798028137,80431.1285575540,80936.3434973394,65309.5651507842
2940160252,6874,1,0,57944.0080590749,49266.4933928256,71276.8226912977,73359.2144932728,66073.6478404776,76970.7937611680,76062.1831686116,80419.9951149610,80923.7620988245,65304.3208734535
2940160252,6874,1,0,57948.8508024104,49290.9747988334,71275.4112384663,73355.2234887149,66073.1367972111,76983.7401905876,76056.6346988604,80416.6733337284,80923.4700741007,65297.1784354184
2940160252,6874,1,0,57952.0995774622,49304.4444392163,71275.0948783489,73356.8782954828,66074.0980452601,76970.5625749284,76056.3791772271,80415.5904087111,80922.0829566629,65297.7624848659
2940160252,6874,1,0,57939.9318806392,49300.6481178076,71268.3296389153,73348.8111124892,66068.3792277533,76964.5882357883,76048.3728327176,80409.7985850234,80915.5002326817,65298.7237329149
2940160252,6874,1,0,57924.2720548281,49249.0814186720,71268.1106203725,73341.4009851241,66064.6680802223,76981.7203529150,76047.8982925415,80411.8184226960,80917.0090270877,65294.1486789095
2940160252,6874,1,0,57933.7385229563,49232.3386678436,71277.2363929897,73351.6583535458,66073.9763682918,76984.3850785192,76058.0339839950,80420.0559534451,80926.4633275192,65301.2789492477
2940174246,6875,1,0,57955.7377188122,49312.7063053591,71273.3062269159,73360.9179708280,66076.7262677738,76963.7608324044,76054.2254948894,80416.0162780999,80922.0221181788,65305.8296678595
2940174246,6875,1,0,57963.8170695027,49363.8714704996,71270.0817872578,73359.7012011458,66073.3558157539,76979.9682045725,76053.8726316816,80410.5164791360,80918.3961445256,65300.0986826559
2940174246,6875,1,0,57952.9148131493,49309.6035426693,71279.0250444227,73361.5628587597,66075.8501936026,76993.9610559189,76063.2539259321,80419.5327424818,80925.2830609273,65300.0013410813
2940174246,6875,1,0,57943.0346433291,49258.7790730398,71282.6996888632,73360.6381138011,66076.5194169278,76982.8276133259,76061.1610820785,80420.4209843498,80931.9387910895,65311.3538022171
2940174246,6875,1,0,57945.5290211778,49261.3586247663,71281.0205467016,73359.4335118156,66076.9452863166,76982.5355886022,76056.2940033493,80418.1334573471,80928.9333699742,65312.7530873518
2940174246,6875,1,0,57955.2510109393,49271.8350117309,71283.2472352202,73357.8030404414,66079.7438565859,76990.6757777767,76056.7807112223,80421.6134186385,80930.0649657788,65305.3551276834
2940174246,6875,1,0,57964.9486653072,49301.2565026487,71282.9552104965,73359.7620396299,66078.9651239892,76976.9506157604,76054.0186440434,80418.8270160660,80929.1767239107,65304.7467428423
2940174246,6875,1,0,57954.0099058634,49306.5737861604,71272.4423204415,73349.0057956384,66066.4202285648,76967.8978493242,76043.0068784187,80408.4236352824,80919.7954296602,65299.2347761815
2940217187,6876,1,0,57930.0760462126,49238.0331499567,71269.6072470817,73340.0747061703,66060.1903677914,76985.4801712333,76041.5467547999,80410.0906097472,80917.8364304717,65293.6498033397
2940217187,6876,1,0,57931.8768653424,49203.0631892876,71278.7086843053,73352.8507878344,66069.7906805847,76988.7654493755,76050.5143473584,80419.1555438802,80924.9910362036,65300.7314028907
2940217187,6876,1,0,57951.3086771687,49276.0572025284,71277.4432438357,73359.1293193951,66076.4707461405,76975.6730075940,76048.6526897445,80417.4398986282,80923.6769249467,65304.8319167200
2940217187,6876,1,0,57959.3880278591,49334.0727809802,71276.2143064566,73356.9634693606,66079.7316888891,76989.4955111849,76047.9104602383,80417.9752772884,80923.5187448880,65302.5200543237
2940217187,6876,1,0,57955.5187002694,49307.0969971238,71285.1940667119,73359.8472135076,66086.6794437750,77004.1697535533,76057.6567853935,80429.0357137005,80932.5350082338,65303.8950040647
2940217187,6876,1,0,57947.8408835741,49280.0360393895,71287.5424321987,73365.9553973127,66088.9669707777,76988.4977600454,76061.4652744991,80433.2944075885,80935.4795908650,65311.7796716059
2940217187,6876,1,0,57944.5556054319,49278.2230525629,71282.3833287458,73366.3447636111,66087.0079715892,76989.0818094929,76067.4031105487,80429.5467569670,80933.7517779161,65307.9955178940
2940217187,6876,1,0,57953.3406825381,49287.9450423244,71286.0701408832,73371.7593886973,66094.0165649592,76997.9033896895,76073.6086359284,80435.9347977991,80935.8202863760,65300.2325273210
2940231381,6877,1,0,57967.9419187256,49336.7618419781,71288.0778108589,73377.3321938422,66097.2410046173,76988.2787415026,76070.5180409354,80435.8009531340,80935.2970754126,65299.8674964163
2940231381,6877,1,0,57963.1965169647,49364.9665632137,71283.2107321298,73372.3556058416,66091.4370132328,76986.5995993410,76064.8478942159,80428.3056518911,80930.0893011724,65296.1928519757
2940231381,6877,1,0,57938.3744154459,49292.2280716061,71282.4928380172,73359.9932258695,66082.7979484885,76996.7474584913,76060.3701817850,80427.8554471087,80926.8891969080,65294.7448960538
2940231381,6877,1,0,57934.2495662229,49242.3405146321,71288.2238232208,73366.7219622126,66084.0268858676,76995.5915272932,76064.7383849445,80431.3962468841,80933.0582191972,65309.6016538746
2940231381,6877,1,0,57951.2235032909,49299.9058883014,71282.8335335283,73374.8256482967,66083.3576625423,76975.9893677114,76061.3435975309,80425.1420507171,80929.2132270011,65315.9653593130
2940231381,6877,1,0,57956.5407868025,49343.5270814116,71274.6203381728,73367.1113285109,66075.3391503360,76979.7126829392,76057.2917544888,80418.5593267359,80919.4060633619,65303.5908116441
2940231381,6877,1,0,57948.0477344201,49313.8379011637,71271.3107246369,73359.1658224855,66067.8073460026,76976.4882432811,76052.0353094613,80413.4245586766,80918.6151630684,65295.1099269585
2940231381,6877,1,0,57934.5780940371,49279.8413562404,71264.8983484112,73351.9260428759,66059.6063183439,76964.3083787614,76045.7567779007,80405.4790526513,80912.8598424711,65297.8963295310
2940286233,6878,1,0,57924.3450610090,49255.9074965896,71262.5621506212,73345.2216419265,66057.0632697079,76981.0024588025,76042.0456303697,80403.0211778930,80913.0180225298,65300.4393781669
2940286233,6878,1,0,57935.8313668099,49254.9462485406,71275.1678845298,73359.2753317570,66068.4522339342,76995.2995025694,76060.2485048168,80416.4908182760,80927.3150662968,65306.8517543926
2940286233,6878,1,0,57955.9689050519,49319.3011970372,71277.4554115325,73371.2605131275,66074.4509084679,76979.0556273108,76062.0736593402,80413.7287510972,80926.6215075779,65314.7850927212
2940286233,6878,1,0,57955.3361848171,49361.4379311350,71272.9655314048,73362.8891377134,66070.6789224528,76980.1750554185,76053.4467622928,80406.7444931208,80925.2952286242,65312.6314103835
2940286233,6878,1,0,57936.0138822622,49298.1902430494,71279.9862924717,73355.3451656831,66068.6712524770,77003.9872381010,76052.5950235152,80413.0108569847,80932.1334742387,65311.2564606425
2940286233,6878,1,0,57933.6776844722,49247.9376551706,71290.0246423506,73360.7719584662,66074.0615421696,76994.6667823346,76058.8248842885,80420.4088166530,80939.7504524498,65319.7616807218
2940286233,6878,1,0,57944.7867916716,49289.5633460019,71284.0989739978,73363.4975225545,66071.8713567415,76977.6198390857,76053.1912406595,80412.7796707450,80933.1433930750,65315.7220053766
2940286233,6878,1,0,57957.0883331596,49329.9844348477,71280.6555157969,73362.1225728135,66070.7032578465,76991.9655536399,76053.8482962879,80411.9400996642,80930.2839843216,65306.6935743339
2940296131,6879,1,0,57965.4718762706,49330.9700182904,71287.3964198369,73370.4939482277,66078.1012175148,76994.5572730632,76064.3733540398,80419.0095315184,80935.6377709237,65309.5164799969
2940296131,6879,1,0,57956.6381283771,49313.4972056526,71280.5581742224,73369.2406754549,66073.1733003015,76975.0646227529,76061.6356222546,80412.6214906863,80929.7851087518,65308.9689336398
2940296131,6879,1,0,57934.6145971276,49261.9913450011,71270.9943645195,73357.5110157176,66060.0200200359,76980.2602292963,76055.4179291781,80404.4691338150,80921.5597456995,65298.8332421863
2940296131,6879,1,0,57937.0238010985,49231.7789537897,71275.5085800408,73363.1081562562,66063.3174658749,76989.0331387056,76062.8037211496,80408.8981754585,80926.5606690937,65299.1617700005
2940296131,6879,1,0,57960.8724868715,49293.2744935329,71274.3404811458,73372.6476305654,66066.5784086235,76968.7982588890,76061.5017775896,80405.8684189496,80925.6845949225,65304.4668858153
2940296131,6879,1,0,57966.9685029798,49341.7019268882,71268.5364897613,73368.0604088631,66062.9889380607,76978.0092053840,76060.9298958389,80401.9990913599,80922.6670061104,65299.8188256290
2940296131,6879,1,0,57953.3163471445,49287.3488251801,71274.9610336838,73366.5151113666,66064.9357695524,76999.0471531909,76071.0655872924,80409.7377465393,80927.8504449570,65299.3929562402
2940296131,6879,1,0,57943.4118419306,49237.9723114726,71283.6852723059,73371.3578547021,66070.4842393037,76989.8727097864,76075.8231567502,80415.7607564666,80935.7959509824,65311.0861128870
2940329047,6880,1,0,57946.1130706253,49265.6781571385,71278.6965166085,73370.1167496262,66065.9821914792,76975.9406969241,76064.1056647097,80408.8495046712,80930.0893011724,65309.4069707255
2940329047,6880,1,0,57949.8607212467,49293.6151890439,71273.7442640015,73362.9256408038,66062.3075470386,76982.3044023625,76061.1732497753,80405.2600341084,80925.5385825606,65297.6773109881
2940329047,6880,1,0,57952.9756516334,49305.8437243510,71274.9366982902,73361.8427157866,66060.8717588135,76977.3643174524,76060.7595480834,80406.0874374924,80922.7400122913,65299.1739376974
2940329047,6880,1,0,57941.1243149279,49301.6945397344,71268.6703344264,73356.5497676686,66054.6784011306,76963.4201368933,76055.6734508114,80400.1861045333,80918.5056537970,65299.9891733845
2940329047,6880,1,0,57918.4923988372,49244.6037062411,71262.5256475308,73346.7547717261,66045.2727714865,76975.2228028116,76054.7000350655,80400.6119739221,80916.6804992735,65292.5547106257
2940329047,6880,1,0,57917.2269583676,49207.7964233517,71268.1106203725,73353.7025266120,66052.0623463137,76982.6937686608,76059.9078093057,80406.3551268225,80921.5962487900,65296.9350814819
2940329047,6880,1,0,57935.3081558465,49274.2442157018,71265.8474287634,73362.0982374199,66057.4526360063,76962.0573548491,76057.2065806111,80403.6904012183,80919.5764111174,65302.6173958983
2940329047,6880,1,0,57944.1662391336,49336.7618419781,71262.5499829244,73360.8936354344,66060.7379141485,76977.6806775698,76057.0240651587,80402.7048177756,80915.1960402611,65300.0865149591
2940357313,6881,1,0,57931.4753313473,49293.1649842615,71268.9501914533,73358.9833070332,66063.8893476256,76988.0718906566,76064.9817388809,80413.6070741290,80923.7986019149,65300.1960242305
2940357313,6881,1,0,57917.3121322454,49245.3459357473,71270.1669611356,73357.5596865049,66064.1570369557,76972.3755617550,76067.6221290915,80416.0162780999,80924.0784589419,65303.6273147346
2940357313,6881,1,0,57916.7767535852,49261.9183388202,71262.5499829244,73354.7854516293,66060.2147031851,76964.2962110646,76062.3900194576,80409.1293616981,80917.1428717528,65298.1640188611
2940357313,6881,1,0,57925.9268615960,49287.7868622657,71262.2092874134,73354.2744083627,66058.7545795663,76975.1984674179,76058.9222258631,80410.1514482313,80917.5079026575,65288.6367122487
2940357313,6881,1,0,57941.3676688643,49319.1795200689,71266.4923166950,73360.4434306520,66063.8771799288,76970.9762766204,76058.8370519853,80412.4876460213,80921.1217086139,65291.6786364544
2940357313,6881,1,0,57938.9584648934,49326.6139828278,71263.4990632766,73358.5452699476,66060.8474234199,76968.4453956812,76050.7942043854,80407.1338594192,80918.0067782272,65291.6056302735
2940357313,6881,1,0,57920.8285966272,49261.3829601600,71264.5089821129,73353.7390297025,66058.5598964172,76985.4436681428,76054.7852089433,80412.7309999577,80920.7688454060,65286.6290422729
2940357313,6881,1,0,57917.1417844899,49210.3638073814,71271.8461032971,73357.9733881969,66065.8361791173,76985.6505189888,76061.8668084942,80418.9243576406,80928.4588297981,65293.7349772175
2940429560,6882,1,0,57935.4298328147,49273.4411477115,71271.8461032971,73365.1158262320,66070.7762640274,76968.5914080431,76060.8933927484,80413.0595277720,80926.2808120668,65304.5885627836
2940429560,6882,1,0,57943.5700219893,49335.4112276307,71267.4413970472,73359.1658224855,66066.9434395282,76978.2525593205,76055.2354137257,80406.7809962113,80922.8981923500,65301.2302784604
2940429560,6882,1,0,57938.2770738713,49307.4620280284,71276.0804617915,73362.3780944468,66070.2773884577,76999.5946995479,76067.2084273995,80415.5782410143,80928.9942084583,65305.4889723485
2940429560,6882,1,0,57935.7826960226,49271.7133347626,71285.9241285213,73375.0690022331,66078.7096023560,76992.1967398796,76078.8772486527,80423.2073869223,80939.9816386895,65316.2330486431
2940429560,6882,1,0,57930.3315678459,49261.2612831917,71279.8037770193,73372.7693075336,66073.7086789617,76977.4008205429,76074.1805176791,80419.1555438802,80933.3867470114,65308.2267041336
2940429560,6882,1,0,57925.3063090580,49260.7259045315,71270.9213583386,73363.9355596401,66071.7740151669,76981.9515391546,76065.7483037808,80416.7341722125,80927.7044325951,65293.5524617652
2940429560,6882,1,0,57931.4388282568,49307.1335002142,71266.6626644506,73360.8693000408,66072.5892508540,76970.9519412267,76055.5639415400,80413.5340679480,80922.6183353231,65292.7980645621
2940429560,6882,1,0,57929.7475183984,49350.4505009039,71263.7424172131,73354.5420976928,66066.4080608680,76974.3710640340,76049.7234470650,80407.8030827444,80919.3695602714,65295.6939764060
2940436168,6883,1,0,57918.6262435023,49302.0960737295,71273.1237114635,73354.9314639912,66065.5806574840,77004.1454181597,76057.6446176967,80414.9455207795,80927.7166002919,65301.8629986952
2940436168,6883,1,0,57921.1571244414,49251.8434858508,71289.6839468396,73366.5637821539,66075.3878211233,77004.8998153627,76072.0024999478,80423.4994116460,80939.5801046943,65316.0140301003
2940436168,6883,1,0,57942.5601031530,49299.6260312745,71288.5888541255,73374.1442572746,66079.6465150113,76983.3143211988,76069.1674265880,80420.6765059831,80938.2659934374,65320.9906181009
2940436168,6883,1,0,57952.1117451590,49345.9241176858,71279.1710567845,73368.6079552202,66073.7573497490,76986.7334440061,76065.6509622062,80413.0960308624,80930.5881767421,65308.9445982462
2940436168,6883,1,0,57942.0003890991,49316.8554899758,71279.6821000511,73361.5506910628,66068.2088799978,76987.3539965440,76068.5955448373,80413.9356019432,80929.2132270011,65300.8165767685
2940436168,6883,1,0,57922.7875958157,49275.5218238682,71274.5838350823,73352.5465954139,66057.9393438792,76973.4098159849,76057.6811207872,80407.6327349889,80925.8062718907,65302.3618742650
2940436168,6883,1,0,57904.6090567622,49245.0660787204,71269.5464085976,73345.1729711392,66051.5513030471,76984.3850785192,76050.9280490504,80402.6561469883,80920.0996220808,65302.4835512332
2940436168,6883,1,0,57911.2404515307,49240.1381615071,71284.4640049025,73352.6074338980,66066.4323962616,77006.6397960084,76061.5261129832,80412.7796707450,80930.2474812311,65311.9621870583
2940451035,6884,1,0,57935.6975221448,49298.2997523208,71291.1927412456,73363.0473177721,66077.4198264927,76990.6636100799,76058.2286671442,80415.7120856793,80935.6621063173,65321.0757919787
2940451035,6884,1,0,57937.9485460571,49344.7073480035,71280.7285219779,73351.9503782695,66067.4423150979,76979.6275090615,76045.5255916610,80404.9193385974,80926.3659859446,65314.2375463642
2940451035,6884,1,0,57917.7380016342,49283.7715223142,71276.9930390532,73341.6200036669,66057.3066236444,76996.4676014644,76047.3750815781,80406.3307914289,80922.8495215627,65305.1482768374
2940451035,6884,1,0,57910.0480172421,49217.8834440179,71281.8966208729,73350.2225653207,66058.9857658060,76990.0430575419,76057.2065806111,80411.1126962803,80930.4908351676,65313.1302859533
2940451035,6884,1,0,57920.2445471797,49245.3824388378,71275.9101140360,73353.9702159421,66057.6229837618,76972.8987727184,76054.4445134322,80404.7246554482,80928.0207927125,65312.4732303248
2940451035,6884,1,0,57927.8371899972,49285.1221366615,71270.3738119816,73348.1297214671,66053.0722651500,76981.0876326802,76050.8793782631,80399.0910118192,80922.2654721153,65303.7733270964
2940451035,6884,1,0,57928.5307487161,49284.2095593998,71274.0971272094,73349.8453667192,66057.5013067936,76985.1029726318,76055.7221215987,80403.7512397024,80925.4290732892,65303.1771099521
2940451035,6884,1,0,57923.1161236299,49272.8449305672,71271.4689046956,73351.0986394919,66055.7004876638,76974.3467286403,76054.4445134322,80403.5808919469,80922.1924659343,65310.1492002317
2940507812,6885,1,0,57907.7848256330,49236.7798771840,71267.1980431108,73346.3897408215,66050.5535519077,76979.7248506360,76053.7996255006,80401.4272096092,80918.1284551954,65307.5453131115
2940507812,6885,1,0,57906.8844160681,49208.8550129753,71272.5518297129,73350.9647948269,66055.2502828813,76988.8506232533,76064.1056647097,80409.2023678791,80923.0807078024,65308.7012443097
2940507812,6885,1,0,57928.2265562956,49267.6249886301,71276.4454926962,73363.7165410973,66066.3715577775,76980.7834402596,76067.7073029693,80413.6922480067,80927.5462525364,65319.1289604870
2940507812,6885,1,0,57939.2869927076,49327.8915909942,71273.7929347888,73361.7088711215,66065.4954836062,76978.0213730808,76060.7595480834,80407.9247597127,80924.3461482720,65320.1267116265
2940507812,6885,1,0,57923.9556947107,49274.5362404256,71272.3693142605,73350.6240993158,66058.8762565346,76988.8019524660,76057.4986053348,80408.5818153411,80924.4069867561,65311.0496097966
2940507812,6885,1,0,57913.7104939858,49210.2421304131,71274.8515244124,73352.4127507488,66057.3674621285,76979.7005152424,76057.9853132077,80411.9644350579,80929.0550469424,65311.4754791854
2940507812,6885,1,0,57911.2404515307,49230.6960287725,71264.5576529002,73345.2581450169,66053.0966005437,76963.2984599251,76047.0343860671,80403.9459228516,80919.6859203888,65304.7832459327
2940507812,6885,1,0,57916.6429089201,49271.5186516135,71263.2435416433,73339.9043584148,66054.1186870768,76979.3354843377,76044.3088219787,80401.3420357315,80915.8044251023,65297.8111556532
2940538383,6886,1,0,57929.2121397382,49298.9568079492,71273.2210530381,73348.6651001273,66065.5928251808,76990.9312994100,76055.5517738431,80414.0207758210,80926.2564766732,65305.9026740404
2940538383,6886,1,0,57929.7353507016,49310.3579398723,71275.5937539186,73355.3816687736,66068.1845446041,76976.9871188509,76059.3967660392,80415.6877502857,80926.4511598223,65313.8360123690
2940538383,6886,1,0,57911.8366686751,49261.6628171869,71271.0552030036,73348.8962863670,66060.7379141485,76984.7257740303,76059.0925736186,80411.5872364564,80921.1947147948,65308.7985858843
2940538383,6886,1,0,57909.8533340929,49209.8649318116,71275.2408907107,73354.1770667881,66064.2787139240,76994.1679067649,76068.1331723581,80417.1235385108,80926.1104643113,65314.6147449657
2940538383,6886,1,0,57930.7574372347,49260.3365382332,71276.8470266914,73364.4831059972,66069.9245252498,76976.1232123765,76070.4815378449,80417.8536003202,80931.0018784341,65324.5192501795
2940538383,6886,1,0,57938.0215522380,49326.6504859182,71270.5198243434,73360.2487475028,66066.9677749218,76981.6108436436,76064.3246832525,80412.8405092291,80925.5994210447,65320.8446057390
2940538383,6886,1,0,57922.3130556396,49289.5390106082,71275.0583752584,73353.6660235216,66062.2832116450,76997.6722034499,76067.0015765535,80416.9288553616,80931.3425739452,65317.0239489366
2940538383,6886,1,0,57907.7118194521,49231.1705689486,71279.3292368432,73356.5741030623,66061.4679759579,76990.7974547449,76071.9173260700,80420.2141335038,80935.5160939554,65322.1708846927
2940547188,6887,1,0,57912.3842150321,49237.5707774775,71280.2053110145,73362.4145975373,66064.7654217969,76991.5275165543,76075.8109890533,80420.1289596261,80937.5967701122,65328.3277392851
2940547188,6887,1,0,57919.0399451942,49258.6938991621,71282.6023472886,73363.3880132831,66069.0849541690,76997.9033896895,76078.5973916258,80422.1731326923,80935.7472801951,65320.4795748343
2940547188,6887,1,0,57926.1580478357,49290.1595631462,71285.1332282278,73363.3636778895,66073.8303559300,76989.0818094929,76074.2291884664,80421.1145430687,80934.9928829921,65319.5548298758
2940547188,6887,1,0,57922.9579435712,49319.4350417022,71281.4829191809,73357.0608109352,66068.9997802913,76984.5310908811,76062.4508579417,80413.9964404273,80931.5372570943,65320.7107610740
2940547188,6887,1,0,57905.1201000288,49275.1932960540,71284.3423279343,73348.1783922544,66064.2908816208,77006.5181190402,76060.6500388119,80415.6025764079,80934.8225352365,65319.5548298758
2940547188,6887,1,0,57900.5815491138,49220.3048156857,71295.8773045225,73353.7998681866,66069.8271836752,77014.2567742196,76068.8145633801,80423.5480824333,80944.3133387584,65327.2204788742
2940547188,6887,1,0,57917.5554861818,49267.6614917206,71296.9480618429,73362.1347405103,66074.7916039790,76993.3891741682,76068.8145633801,80422.0636234209,80945.2259160201,65333.7301966745
2940547188,6887,1,0,57928.7741026526,49331.1403660459,71288.9417173334,73359.1779901824,66072.4919092794,76992.4400938160,76067.3301043677,80416.1622904618,80937.4750931439,65326.0767153729
2940574389,6888,1,0,57920.7069196590,49301.9622290645,71288.1508170399,73353.0454709836,66068.5252401152,77005.2283431769,76066.4053594092,80417.5007371123,80938.9108813690,65321.5138290643
2940574389,6888,1,0,57915.4504746315,49257.3676202084,71290.6695302822,73357.6813634732,66070.2408853672,76999.0958239782,76066.1376700791,80421.0293691910,80940.7968743766,65329.4593350897
2940574389,6888,1,0,57914.6352389443,49249.2152633370,71285.2184021055,73354.4812592087,66067.0529487996,76990.7852870481,76057.7419592713,80416.4543151855,80935.1510630507,65328.3642423756
2940574389,6888,1,0,57916.4968965582,49252.2815229364,71283.2715706139,73349.1761433939,66066.8704333472,76994.1922421585,76054.4323457354,80414.0816143051,80931.9266233927,65320.7715995581
2940574389,6888,1,0,57925.4766568136,49289.5268429114,71280.9353728239,73348.1540568608,66068.2453830882,76976.9992865477,76053.1304021754,80410.4799760455,80926.7675199397,65316.4398994891
2940574389,6888,1,0,57922.1305401873,49329.4247207938,71271.9312771749,73343.3721520094,66062.1371992831,76971.0614504981,76047.9591310256,80401.7314020298,80920.6593361346,65313.2762983151
2940574389,6888,1,0,57903.1611008403,49279.4763253357,71273.6225870333,73336.8015957250,66058.7545795663,76994.3625899140,76049.4800931285,80405.8562512528,80922.8495215627,65310.1126971412
2940574389,6888,1,0,57897.2962709716,49214.5373273916,71286.4716748783,73344.5767539948,66069.3891465896,77003.9629027074,76060.9055604452,80418.2673020122,80935.7716155887,65319.8103515091
2940641498,6889,1,0,57913.5036431398,49256.1630182229,71288.3211647954,73355.3938364704,66078.3567391481,76984.6527678493,76060.9907343230,80418.2551343153,80936.8667083028,65328.4737516470
2940641498,6889,1,0,57925.3793152390,49320.6883144750,71282.9187074060,73351.0012979173,66076.7384354706,76987.4513381186,76059.6522876725,80415.0915331414,80931.0748846151,65320.5647487121
2940641498,6889,1,0,57923.6636699869,49309.8103935153,71285.0967251373,73347.7768582593,66074.1223806537,76994.1679067649,76062.0128208561,80418.1091219535,80932.3038219942,65314.9189373862
2940641498,6889,1,0,57914.3918850079,49273.7210047384,71285.6564391912,73349.2126464844,66072.4554061890,76984.4459170034,76060.1876663327,80416.0162780999,80934.3114919700,65317.3524767508
2940641498,6889,1,0,57902.3336974563,49245.8448113171,71282.6753534696,73346.7547717261,66067.5639920661,76991.7343674003,76059.3237598582,80415.3227193810,80932.3524927815,65319.2749728489
2940641498,6889,1,0,57906.4828820730,49226.6320180336,71288.1386493431,73352.3884153552,66072.1147106779,77004.1940889470,76066.1255023823,80421.3213939147,80936.5990189727,65322.1708846927
2940641498,6889,1,0,57922.2400494587,49266.9192622144,71290.0733131379,73356.1360659766,66075.7528520280,76986.9889656393,76061.5261129832,80420.7738475577,80938.2173226501,65324.9937903556
2940641498,6889,1,0,57924.2598871313,49319.1795200689,71279.9376216844,73346.0612130072,66066.0430299633,76979.9560368757,76050.5021796616,80411.8549257865,80930.0406303851,65317.8756877142
2940650565,6890,1,0,57907.0425961268,49275.2419668413,71279.4874169019,73340.6952587083,66061.9911869212,77000.9574815921,76054.4445134322,80418.3524758899,80935.1388953539,65310.3195479872
2940650565,6890,1,0,57899.0362516173,49206.9690199678,71285.8632900372,73349.9548759906,66070.9466117829,76996.8691354596,76065.7604714776,80430.6296819843,80943.2182460444,65315.5029868337
2940650565,6890,1,0,57906.5680559507,49230.1849855059,71278.7938581830,73353.8972097612,66069.4621527705,76973.0204496866,76061.6599576483,80420.7373444672,80933.2285669527,65321.8058537880
2940650565,6890,1,0,57918.6262435023,49284.3434040648,71273.2210530381,73348.4947523718,66066.4445639584,76981.7446883087,76055.7221215987,80411.6480749405,80925.3682348051,65317.0847874207
2940650565,6890,1,0,57924.7587627010,49292.5444317235,71280.1201371367,73351.3298257316,66069.0119479881,76991.2476595274,76065.1277512428,80416.3691413078,80932.1456419355,65318.9829481251
2940650565,6890,1,0,57921.0962859573,49283.6498453459,71281.8236146920,73358.9103008523,66071.6766735923,76982.7546071450,76070.4693701481,80419.3502270294,80932.6080144148,65324.4340763018
2940650565,6890,1,0,57904.8037399114,49250.6145484717,71275.6302570091,73350.6119316190,66063.6459936892,76986.9889656393,76065.3954405729,80416.1136196745,80931.3060708547,65320.7350964676
2940650565,6890,1,0,57900.7153937789,49222.0204609377,71282.3103225649,73349.1031372130,66069.4621527705,77001.2495063158,76065.2372605142,80422.8910268049,80934.4453366350,65318.8612711569
2940671147,6891,1,0,57920.4392303289,49279.6588407880,71289.4527605999,73356.5619353654,66081.9097066204,76992.1845721827,76063.8744784700,80426.9672052406,80938.7405336135,65327.2569819647
2940671147,6891,1,0,57930.7939403252,49354.8795425474,71283.8921231518,73351.0864717951,66084.0512212612,76987.1593133949,76055.4179291781,80422.5746666875,80935.1023922634,65323.3146481941
2940671147,6891,1,0,57916.0710271694,49320.6883144750,71283.8191169709,73341.9485314811,66078.2350621799,77006.0800819545,76057.0970713397,80423.7792686730,80934.9928829921,65315.4908191369
2940671147,6891,1,0,57911.2891223180,49261.0422646489,71296.3153416081,73355.0774763530,66087.6285241272,77016.2157734081,76076.5775539532,80437.4557599019,80951.2975967348,65329.0091303072
2940671147,6891,1,0,57919.6848331259,49280.4619087783,71297.5199435936,73364.2275843639,66091.4856840201,76996.7109554009,76078.4027084766,80433.6229354027,80949.2899267590,65333.6571904936
2940671147,6891,1,0,57926.2188863198,49318.7293152865,71292.4460140184,73355.4911780450,66088.9182999904,77006.2504297101,76066.0524962013,80428.4029934657,80943.2790845285,65324.9329518715
2940671147,6891,1,0,57931.1346358362,49329.2178699479,71293.8209637594,73352.7534462599,66090.0498957949,77004.6929645167,76059.2020828900,80432.0046317253,80945.4205991693,65322.5480832942
2940671147,6891,1,0,57924.2477194345,49325.3607100550,71288.7105310937,73348.9692925479,66082.7857807916,76986.6482701283,76050.7820366885,80424.0956287904,80940.3710049878,65323.5214990401
2940698385,6892,1,0,57904.0371750115,49273.6358308607,71279.0128767258,73337.2152974170,66069.6081651324,76990.3350822657,76045.3430762087,80415.1402039287,80932.0361326641,65318.6909234014
2940698385,6892,1,0,57899.0605870110,49217.7739347465,71284.9750481691,73341.0724573098,66071.7010089859,76998.6699545894,76054.2133271926,80419.5327424818,80938.3876704056,65321.4529905802
2940698385,6892,1,0,57915.9250148076,49257.7934895972,71284.2571540565,73347.2779826895,66074.9376163408,76980.6860986851,76052.0961479454,80414.5318190875,80931.5007540039,65325.8820322237
2940698385,6892,1,0,57924.6492534296,49327.1250260943,71277.1268837183,73342.8246056523,66070.2652207608,76978.7270994966,76042.4836674553,80403.9337551548,80923.4822417975,65316.5007379732
2940698385,6892,1,0,57914.1606987682,49296.1947407704,71281.0570497921,73335.8768507664,66066.8460979536,76997.4775203007,76045.1240576659,80407.8030827444,80926.2199735827,65311.6093238504
2940698385,6892,1,0,57900.5207106297,49229.6739422394,71284.9263773818,73336.8746019059,66066.0186945696,76989.8240389991,76048.9447144683,80410.0054358694,80929.2618977884,65316.4398994891
2940698385,6892,1,0,57903.0880946594,49227.3134090557,71280.5581742224,73341.9728668747,66065.0574465206,76980.4914155359,76047.9104602383,80408.8373369744,80925.7332657098,65322.5115802038
2940698385,6892,1,0,57912.7370782400,49247.8038105056,71281.2395652445,73341.7173452414,66069.0606187754,76999.1323270686,76052.8262097548,80410.6868268915,80927.6314264142,65319.9198607805
2940754054,6893,1,0,57926.7786003736,49274.6944204843,71287.1043951131,73348.0323798926,66079.5126703463,76995.3116702662,76058.8005488949,80417.8414326234,80933.3867470114,65325.6630136809
2940754054,6893,1,0,57922.2522171555,49293.8585429804,71278.5261688529,73341.1454634908,66071.9930337097,76976.7194295208,76047.9226279352,80407.2433686906,80926.9500353921,65325.2249765953
2940754054,6893,1,0,57899.6811395489,49247.7916428087,71273.2088853413,73330.3040456215,66061.1151127500,76992.5739384811,76041.8022764332,80402.9238363184,80922.7886830786,65318.6665880077
2940754054,6893,1,0,57891.9546520664,49190.1410952616,71284.4883402962,73334.5870749032,66070.4112331227,77007.8200626002,76051.1105645028,80415.7607564666,80932.9365422290,65323.8743622479
2940754054,6893,1,0,57907.5658070902,49233.5067667386,71288.0656431621,73347.8011936529,66076.6654292897,76984.9812956636,76056.6346988604,80417.4885694155,80935.4309200777,65334.2047368506
2940754054,6893,1,0,57917.8718462992,49304.8459732115,71277.9177840118,73347.7281874720,66069.3648111959,76978.2525593205,76054.4323457354,80410.8936777375,80926.2321412795,65326.3930754903
2940754054,6893,1,0,57908.1133534472,49282.4330756636,71276.3846542121,73342.5204132318,66063.7798383542,76993.5595219237,76058.9708966504,80411.6845780310,80924.5651668148,65317.7540107460
2940754054,6893,1,0,57895.5197872355,49233.1539035307,71277.2485606865,73341.2914758526,66062.0885284958,76982.1705576975,76058.1678286601,80411.7089134246,80925.0883777782,65320.6742579835
2940767125,6894,1,0,57887.7324612688,49216.4719911865,71267.9767757074,73333.9300192748,66055.2867859718,76971.1466243759,76048.2633234462,80406.8540023923,80920.5741622569,65315.2352975036
2940767125,6894,1,0,57890.4823607508,49215.4742400470,71267.1128692330,73330.9976043404,66055.2016120940,76985.4315004460,76051.1227321996,80408.3141260110,80919.6007465110,65309.7720016301
2940767125,6894,1,0,57908.4053781710,49249.4342818798,71272.3206434732,73343.6885121268,66064.7897571905,76983.5576751353,76059.7374615502,80415.0185269604,80924.6625083894,65315.1379559291
2940767125,6894,1,0,57914.1485310714,49297.5453551177,71268.4634835804,73347.9350383180,66066.2498808093,76976.3178955256,76064.5558694921,80411.2830440358,80922.4723229612,65318.5449110395
2940767125,6894,1,0,57894.0718313136,49259.5943087270,71267.6360801964,73336.9597757837,66057.9880146665,76987.0863072139,76067.9628246025,80408.4844737665,80920.1726282617,65314.2010432737
2940767125,6894,1,0,57881.0158926225,49189.4475365427,71275.4842446472,73334.3315532699,66056.1628601430,76995.8105458360,76065.6266268125,80410.8206715565,80928.4223267077,65321.2948105215
2940767125,6894,1,0,57893.8406450739,49222.8965351090,71277.4432438357,73336.4974033044,66059.4481382852,76978.0943792618,76051.1470675932,80408.1437782555,80929.7972764486,65331.9172098479
2940767125,6894,1,0,57903.1002623562,49294.4669278215,71269.4734024167,73328.6614065504,66056.7834126810,76975.3201443861,76036.9595330977,80397.6187205036,80921.9977827851,65327.5733420821
2940819916,6895,1,0,57896.5905445559,49289.4295013368,71271.1890476687,73323.6239800657,66054.3742087101,76989.4590080944,76040.6950160223,80400.0887629587,80925.6359241352,65322.9374495926
2940819916,6895,1,0,57885.0190648773,49248.1080029261,71272.2354695955,73326.8727551175,66051.9163339518,76978.5689194379,76042.8486983600,80400.5389677411,80926.3416505509,65326.4904170649
2940819916,6895,1,0,57876.9275464900,49219.2340583653,71269.5829116881,73325.4491345892,66048.5337142351,76982.5477562990,76045.5255916610,80399.7724028413,80922.7886830786,65328.7657763708
2940819916,6895,1,0,57881.5391035859,49197.0766824507,71272.5518297129,73329.5374807217,66051.0524274774,76990.3107468720,76050.0519748792,80402.7778239566,80925.3804025019,65330.5422601069
2940819916,6895,1,0,57899.5472948839,49228.2624894079,71274.5838350823,73334.1977086049,66055.9803446907,76973.7991822833,76047.2169015194,80401.7314020298,80924.0541235482,65332.9514640778
2940819916,6895,1,0,57905.8501618382,49283.5646714682,71262.3187966848,73326.5077242128,66047.6576400638,76956.7279036407,76034.5259937331,80389.4176928450,80912.4948115664,65324.3610701208
2940819916,6895,1,0,57887.0267348531,49248.9840770974,71258.0357674031,73314.1818473311,66036.8648929819,76974.0425362197,76029.8414304563,80385.5727006489,80906.6056463041,65310.3073802904
2940819916,6895,1,0,57878.0591422946,49184.3006007866,71266.8451799029,73324.6947373861,66045.3822807579,76987.5730150868,76046.5476781942,80398.1175960734,80918.1892936796,65313.6656646135
2940865968,6896,1,0,57893.3782725947,49215.8271032549,71271.1160414878,73339.6975075688,66055.7004876638,76972.4242325423,76052.3151664882,80402.3276191741,80922.4723229612,65325.6751813777
2940865968,6896,1,0,57899.7541457299,49280.1698840546,71267.7820925583,73332.9687712258,66056.5643941382,76977.1209635159,76043.0433815092,80399.0666764256,80918.6394984620,65323.8865299448
2940865968,6896,1,0,57898.9024069523,49288.7602780116,71272.8073513462,73326.7510781492,66059.3872998011,76984.8961217858,76042.5566736362,80406.1117728861,80922.1802982375,65324.0325423066
2940865968,6896,1,0,57886.6860393420,49265.4956416861,71268.2201296439,73322.1516887501,66053.9483393213,76968.2507125320,76036.4728252248,80400.5876385284,80917.0090270877,65326.4539139744
2940865968,6896,1,0,57876.1609815902,49233.1295681371,71263.4382247925,73320.7524036155,66052.5977249739,76975.8068522591,76037.1055454596,80401.7800728171,80915.6340773468,65323.7405175829
2940865968,6896,1,0,57877.1952358201,49198.6341476440,71271.8096002067,73327.4689722618,66060.5553986961,76993.9732236157,76050.3439996029,80410.7233299819,80922.5331614454,65323.0226234703
2940865968,6896,1,0,57898.3183575048,49241.0264033752,71277.7474362563,73341.0602896130,66074.3900699838,76982.6450978736,76059.2020828900,80419.8004318119,80929.9554565073,65329.8243659943
2940865968,6896,1,0,57911.9826810369,49322.0389288223,71273.2697238254,73346.4870823960,66076.1300506295,76976.9871188509,76064.9087327000,80418.2064635281,80925.6845949225,65330.6882724688
2940899685,6897,1,0,57901.5184617692,49305.3813518717,71273.1115437667,73339.6975075688,66073.0394556365,76991.6613612194,76065.3589374824,80419.6422517532,80925.4290732892,65324.3367347272
2940899685,6897,1,0,57885.2989219042,49232.9957234720,71276.9443682659,73333.8326777002,66069.9488606434,76986.5144254632,76057.6202823030,80421.8689402718,80925.3195640178,65322.0613754213
2940899685,6897,1,0,57885.1407418455,49234.2003254575,71270.6049982212,73329.0994436360,66067.2841350392,76968.3480541066,76042.2768166093,80412.6093229895,80917.7634242908,65324.0568777003
2940899685,6897,1,0,57895.8726504434,49269.7421678773,71268.4634835804,73327.1526121444,66066.7609240758,76979.1408011886,76037.4584086674,80410.3339636836,80914.7945062660,65319.1289604870
2940899685,6897,1,0,57907.8699995108,49275.6678362301,71274.3891519331,73331.0462751277,66070.9344440861,76984.4824200938,76044.5886790057,80415.9919427063,80920.8296838901,65313.9333539436
2940899685,6897,1,0,57904.4022059162,49270.2410434471,71271.6757555416,73329.9511824137,66070.1678791863,76972.2295493931,76044.0898034359,80412.4754783244,80920.5863299537,65315.5638253179
2940899685,6897,1,0,57884.4836862171,49229.1507312760,71265.3120501032,73322.2003595374,66062.7334164274,76975.8798584400,76042.0699657633,80405.9414251305,80915.3542203198,65313.5196522516
2940899685,6897,1,0,57876.9883849741,49171.6583637876,71270.9213583386,73326.0088486430,66065.7388375427,76988.9114617374,76054.1403210117,80412.4389752340,80922.1924659343,65317.7540107460
2940915844,6898,1,0,57895.0574147562,49200.2889544120,71270.9700291259,73335.0007765952,66070.7762640274,76971.9983631535,76051.8771294026,80413.0351923783,80922.1924659343,65323.8621945511
2940915844,6898,1,0,57910.9727622006,49278.4785741962,71263.1827031592,73333.2729636463,66070.7032578465,76969.7230038476,76040.2691466335,80406.5619776685,80914.7093323882,65320.9906181009
2940915844,6898,1,0,57909.7559925183,49267.6249886301,71266.9060183870,73329.8538408391,66072.0417044970,76989.4955111849,76045.8662871721,80412.4389752340,80918.8463493080,65315.0162789608
2940915844,6898,1,0,57901.6158033438,49209.4390624228,71273.6469224269,73334.0273608493,66076.4099076564,76981.8663652769,76053.4710976864,80419.1190407898,80926.2199735827,65317.9000231079
2940915844,6898,1,0,57895.9456566243,49205.0830269602,71265.4702301619,73330.2432071374,66068.8537679294,76964.6490742724,76045.8419517784,80412.5363168086,80918.3961445256,65318.2407186189
2940915844,6898,1,0,57896.8460661892,49231.4990967628,71261.6252379659,73324.4392157529,66066.8339302568,76976.6220879462,76043.5909278662,80409.4700572092,80915.0865309897,65313.5439876453
2940915844,6898,1,0,57907.1156023077,49261.6263140964,71269.2787192675,73329.5618161153,66073.8668590204,76984.7379417271,76047.6914416955,80417.8536003202,80919.5764111174,65318.0338677729
2940915844,6898,1,0,57911.0214329879,49293.0189718996,71271.2012153655,73332.0440262672,66073.6843435681,76975.4904921417,76046.0366349276,80416.1379550682,80920.8053484965,65323.1321327417
2940928138,6899,1,0,57896.0064951084,49255.6398072595,71268.9745268469,73325.1936129559,66066.6392471076,76982.1340546070,76043.8221141058,80411.1613670676,80916.5466546085,65314.1767078800
2940928138,6899,1,0,57886.3453438310,49180.1514161700,71276.5915050581,73327.2499537190,66070.4964070005,76999.5216933670,76051.2200737742,80420.2384688975,80924.7598499640,65315.7585084670
2940928138,6899,1,0,57904.9254168796,49203.4525555859,71284.3909987216,73344.3090646647,66082.5180914615,76988.9601325247,76060.8933927484,80425.1663861108,80928.8481960965,65325.7846906491
2940928138,6899,1,0,57924.2963902217,49283.2361436540,71279.8524478066,73348.8841186702,66083.2968240582,76980.1872231153,76059.6766230661,80419.2285500612,80923.4944094944,65321.4043197929
2940928138,6899,1,0,57913.8930094381,49270.0828633884,71276.1169648820,73339.3203089673,66074.2683930156,76986.5509285537,76060.8690573548,80418.6688360073,80920.1604605649,65305.0144321724
2940928138,6899,1,0,57899.3161086442,49214.0141164282,71276.2751449407,73339.3446443610,66072.2363876462,76983.9105383431,76065.3467697856,80421.8567725749,80922.8616892596,65307.2897914783
2940928138,6899,1,0,57889.8374728192,49197.5633903236,71272.1989665050,73334.9521058079,66065.5319866967,76976.1962185574,76059.8226354280,80416.5394890633,80919.4303987555,65311.4389760949
2940928138,6899,1,0,57894.4125268246,49204.4259713318,71273.3792330968,73337.8845207422,66067.9655260613,76996.3215891025,76067.5369552137,80419.0216992152,80921.8030996360,65313.6291615230
2940957542,6900,1,0,57906.9452545522,49235.5996105921,71280.3999941637,73343.9075306696,66072.4919092794,76988.3152445930,76072.1241769160,80421.5404124575,80924.1027943355,65319.2384697584
2940957542,6900,1,0,57909.5248062787,49280.6687596243,71271.8582709940,73337.1057881455,66064.3030493176,76971.2683013441,76052.9357190262,80409.5065602996,80918.8706847016,65319.3479790298
2940957542,6900,1,0,57889.5819511859,49252.1476782713,71266.2611304554,73322.8452474691,66052.7924081231,76988.3152445930,76041.9847918856,80404.7124877514,80912.4826438696,65311.0617774934
2940957542,6900,1,0,57878.4850116834,49182.8526448647,71277.9056163150,73327.6758231078,66057.3309590381,77001.3833509809,76049.6991116713,80415.4200609556,80921.5840810932,65313.7995092785
2940957542,6900,1,0,57889.5332803986,49201.4205502165,71280.4851680414,73337.7628437740,66063.1836212099,76982.4990855117,76054.3958426450,80417.5615755964,80922.1316274502,65316.9387750589
2940957542,6900,1,0,57905.5824725081,49271.1171176183,71273.9389471507,73342.4595747476,66064.9601049460,76980.4914155359,76058.8978904695,80412.3172982658,80917.0820332687,65314.4565649070
2940957542,6900,1,0,57907.0790992173,49275.0472836921,71275.4842446472,73342.5082455349,66063.1957889067,76996.0782351661,76066.3323532283,80417.1843769949,80918.3718091319,65312.2785471757
2940957542,6900,1,0,57902.7352314515,49248.1688414102,71282.5780118950,73346.5722562738,66065.2156265793,76997.3558433325,76071.4306181971,80421.1145430687,80926.0496258272,65325.3466535635
2941039213,6901,1,0,57897.6126310890,49235.2710827779,71281.9939624475,73343.1896365570,66061.2732928087,76992.0628952145,76064.5923725826,80419.9342764769,80927.1203831476,65329.6296828452
2941039213,6901,1,0,57899.5351271871,49223.3589075883,71284.4031664184,73342.7637671682,66061.5896529261,77005.2770139642,76064.0934970128,80423.2195546191,80931.3182385515,65329.4228319992
2941039213,6901,1,0,57913.5644816239,49250.7970639240,71287.5424321987,73349.9792113842,66067.2354642519,76991.2598272242,76066.8798995853,80424.4241566046,80933.8856225812,65331.7103590019
2941039213,6901,1,0,57919.8186777909,49308.6301269234,71280.8501989461,73349.6020127827,66066.4202285648,76982.1340546070,76062.0736593402,80417.2208800854,80925.6237564384,65328.0357145614
2941039213,6901,1,0,57901.4819586787,49284.0270439475,71281.7384408142,73346.0247099168,66063.7068321733,76999.5338610638,76068.1088369644,80419.0582023057,80928.6170098568,65321.5503321548
2941039213,6901,1,0,57883.5102704712,49203.4282201923,71288.5523510350,73347.5213366260,66066.3837254743,77003.2815116853,76072.1485123096,80424.7770198124,80933.3745793146,65322.0248723308
2941039213,6901,1,0,57887.2944241832,49206.7500014249,71285.3157436801,73347.5335043228,66066.7609240758,76981.5378374627,76060.2606725136,80417.4277309314,80930.3934935930,65329.9947137499
2941039213,6901,1,0,57899.7419780330,49265.8120018035,71276.7861882072,73343.6885121268,66064.2178754398,76985.6505189888,76052.2908310946,80410.7354976788,80925.0640423845,65324.7504364192
2941050207,6902,1,0,57910.2305326944,49285.5845091408,71283.7704461836,73346.6574301516,66070.2530530640,77005.5812063848,76061.5382806800,80419.8856056896,80931.4764186102,65326.1618892506
2941050207,6902,1,0,57907.9673410854,49277.9918663233,71288.7226987906,73350.1495591397,66075.3634857297,76998.7064576798,76068.5103709596,80426.4561619740,80937.2804099948,65333.8883767332
2941050207,6902,1,0,57893.6946327120,49250.9430762859,71283.3810798853,73344.2117230901,66069.6325005260,76992.3427522414,76066.0038254141,80421.0902076751,80934.8833737206,65332.5986008700
2941050207,6902,1,0,57891.6626273426,49211.3858939145,71288.5158479446,73345.3189835010,66071.7740151669,77008.9516584048,76072.7203940603,80424.3511504236,80937.8887948359,65331.1141418576
2941050207,6902,1,0,57910.0723526357,49234.3828409098,71290.4140086489,73353.9093774580,66075.8015228153,76989.8118713023,76074.2413561632,80424.3024796363,80941.1254021908,65331.1506449481
2941050207,6902,1,0,57919.5631561576,49304.6999608496,71280.7285219779,73347.7160197752,66069.6933390102,76976.5004109780,76060.8933927484,80410.6868268915,80929.5539225122,65325.7238521650
2941050207,6902,1,0,57900.7518968693,49286.1442231946,71275.0218721679,73333.6623299447,66059.2047843488,76992.2454106669,76057.1092390365,80406.4768037907,80924.8693592354,65314.2010432737
2941050207,6902,1,0,57882.0501468525,49206.0686104029,71280.2783171954,73332.6767465020,66060.0443554296,76995.0196455425,76065.5901237221,80412.0252735420,80932.4133312656,65321.1731335532
2941059455,6903,1,0,57878.5336824707,49194.2172736973,71275.3138968917,73332.9687712258,66056.6008972287,76976.2570570415,76058.3138410219,80405.9657605242,80928.2641466490,65330.4692539260
2941059455,6903,1,0,57885.2745865106,49231.3044136136,71268.2809681280,73327.8583385601,66053.1209359373,76980.8929495311,76048.7378636223,80399.1761856970,80924.0054527609,65328.8144471580
2941059455,6903,1,0,57892.0641613378,49246.6965500947,71272.9411960112,73330.6690765262,66057.1849466762,76992.9876401731,76052.6193589088,80402.0234267535,80926.1104643113,65326.9527895441
2941059455,6903,1,0,57895.5562903260,49255.9561673769,71276.7375174200,73334.5262364191,66059.9956846423,76983.1074703528,76056.3548418335,80406.0996051892,80929.7364379645,65332.6107685668
2941059455,6903,1,0,57882.9262210237,49232.1196493008,71272.5883328033,73330.2188717438,66055.0677674290,76984.8717863922,76053.8726316816,80404.5299722991,80928.5926744632,65329.2889873341
2941059455,6903,1,0,57873.9342930716,49178.8981433972,71276.0196233074,73330.4987287707,66056.3210402017,76996.0417320756,76059.1777474964,80410.5651499232,80931.0018784341,65325.8211937396
2941059455,6903,1,0,57892.8672293281,49201.7490780307,71280.9110374302,73341.9241960874,66064.0961984716,76982.6085947831,76065.5049498443,80414.7265022367,80933.8491194907,65327.1109696028
2941059455,6903,1,0,57911.0214329879,49282.8711127493,71274.6690089601,73343.1653011634,66064.6680802223,76976.7681003081,76060.6865419024,80407.6570703826,80927.6679295046,65327.1839757838
2941153996,6904,1,0,57905.2296093002,49280.3158964165,71276.9565359628,73339.0891227277,66063.9380184129,76998.3535944720,76065.7604714776,80411.3073794294,80931.0870523119,65328.0235468646
2941153996,6904,1,0,57893.2079248391,49214.5129919980,71285.1088928341,73341.8755253001,66063.1471181194,76997.1368247897,76077.8429944228,80420.8833568291,80939.4827631197,65338.4269276482
2941153996,6904,1,0,57888.3895168972,49197.2105271158,71276.9565359628,73342.3257300826,66055.8099969352,76972.9961142930,76071.0169165051,80412.4511429308,80931.8657849086,65340.2642498684
2941153996,6904,1,0,57889.5211127018,49216.2164695532,71265.0443607731,73333.9178515779,66043.8734863519,76971.0371151045,76063.2417582352,80401.3298680346,80921.0487024330,65324.7261010255
2941153996,6904,1,0,57900.8857415344,49240.2598384753,71265.6527456143,73336.8502665123,66045.0050821564,76974.8456042101,76064.0934970128,80401.6462281520,80918.3231383446,65316.9144396652
2941153996,6904,1,0,57905.6068079017,49271.1171176183,71264.6914975652,73338.0061977104,66043.0825860584,76964.7342481502,76058.4963564743,80397.0225033593,80915.8287604959,65319.2749728489
2941153996,6904,1,0,57890.0808267556,49248.1931768039,71261.8807595992,73327.2742891126,66037.7044640626,76975.2471382052,76051.8284586153,80393.7493929139,80913.3100472536,65314.1645401832
2941153996,6904,1,0,57875.7107768077,49181.8670614220,71270.9943645195,73328.6492388536,66042.7053874569,76992.2332429700,76059.0317351345,80402.2789483868,80922.2533044184,65314.7972604180
2941158311,6905,1,0,57887.6959581783,49205.4115547744,71278.0881317673,73344.3334000584,66055.4327983337,76980.6617632914,76073.8519898648,80410.2366221090,80928.8968668837,65326.6851002140
2941158311,6905,1,0,57904.2683612512,49298.0077275970,71272.9046929207,73345.1486357455,66055.2016120940,76973.7383437992,76067.4031105487,80402.5466377169,80922.8981923500,65327.5368389916
2941158311,6905,1,0,57901.7861510993,49308.2772637156,71275.1313814393,73340.0747061703,66054.2038609546,76992.5739384811,76065.0060742746,80407.7787473508,80924.4069867561,65324.4462439986
2941158311,6905,1,0,57890.7622177777,49250.1400082956,71281.1178882762,73341.2671404590,66057.1241081921,76991.4180072829,76068.6442156246,80409.0563555172,80929.0672146393,65329.8608690848
2941158311,6905,1,0,57880.7847063829,49218.3944872845,71277.0782129310,73339.4054828451,66052.1718555851,76974.8577719069,76063.2904290225,80405.7832450718,80925.7332657098,65331.7711974860
2941158311,6905,1,0,57881.3930912240,49211.2277138558,71273.7077609110,73336.2783847616,66051.9528370423,76987.2323195758,76061.9884854625,80408.3262937078,80922.5331614454,65322.2560585705
2941158311,6905,1,0,57898.4035313825,49234.3098347289,71280.4243295573,73346.4992500929,66062.3927209164,76992.6104415716,76071.1264257765,80416.0527811904,80928.6170098568,65321.6476737293
2941158311,6905,1,0,57909.8046633056,49287.1054712437,71277.7839393467,73349.9183729001,66065.3859743348,76974.1398777943,76068.1696754485,80412.0131058452,80924.5408314211,65324.7504364192
2941164781,6906,1,0,57895.6657995974,49277.5051584504,71274.7541828378,73340.5614140433,66059.3264613170,76985.2124819032,76067.0745827345,80407.6935734730,80919.7589265697,65320.3457301693
2941164781,6906,1,0,57877.9131299327,49205.8739272537,71281.7141054205,73339.4419859356,66059.2534551361,76999.8988919685,76075.8231567502,80414.3858067257,80925.7819364971,65318.3380601935
2941164781,6906,1,0,57888.9370632543,49213.5152408585,71287.1408982036,73354.1040606072,66068.6955878707,76984.5067554875,76082.1381914013,80418.1577927408,80929.9919595978,65325.6995167714
2941164781,6906,1,0,57899.4986240966,49285.8887015614,71279.0007090290,73352.4857569297,66068.3913954501,76980.9416203184,76075.2026042122,80409.7012434488,80922.2654721153,65319.4331529076
2941164781,6906,1,0,57898.2210159302,49301.1834964678,71283.1620613425,73345.6961821025,66069.4986558610,76998.2440852006,76075.5432997232,80414.9820238700,80925.2708932305,65312.2785471757
2941164781,6906,1,0,57891.3584349220,49271.2022914961,71287.6032706828,73342.7272640778,66070.7519286338,76994.3017514299,76070.5423763290,80419.6544194500,80932.2064804196,65316.1113716749
2941164781,6906,1,0,57881.2714142558,49254.7880684819,71283.9894647264,73336.9111049964,66067.7951783058,76988.3639153803,76058.9465612567,80415.2010424128,80930.9532076468,65319.1411281838
2941164781,6906,1,0,57879.0812288277,49243.5937874048,71284.7073588390,73335.5361552554,66073.0637910301,77004.8633122723,76059.2507536773,80417.3790601441,80932.1334742387,65320.0537054455
2941169231,6907,1,0,57893.3539372010,49264.3640458816,71291.3265859107,73344.6984309631,66084.0755566549,76999.5216933670,76068.4008616882,80423.9374487317,80938.5701858580,65325.2493119889
2941169231,6907,1,0,57908.9285891344,49325.3607100550,71287.9439661939,73351.2081487633,66085.0976431880,76985.4558358397,76067.9628246025,80420.5183259244,80935.6499386205,65327.1596403901
2941169231,6907,1,0,57899.1822639792,49305.2353395098,71282.7240242569,73343.2748104348,66077.2373110404,76997.3680110293,76068.0845015708,80416.0406134936,80931.3060708547,65317.4984891127
2941169231,6907,1,0,57883.5711089554,49215.5715816216,71291.7037845122,73344.6010893885,66078.0890498180,77012.2247688501,76078.7190685940,80425.1298830203,80939.6287754816,65317.1942966921
2941169231,6907,1,0,57888.2921753227,49206.0199396156,71293.8696345467,73348.1540568608,66080.6929369381,76996.6744523104,76075.0687595471,80424.8743613870,80940.3345018973,65325.1154673239
2941169231,6907,1,0,57904.3535351289,49269.8273417551,71291.1440704583,73346.1220514914,66080.2548998525,76996.8082969755,76068.1331723581,80422.1609649955,80936.7206959409,65325.5413367127
2941169231,6907,1,0,57911.0944391689,49287.4583344515,71293.0178957691,73345.8421944644,66080.5104214858,77009.3166893094,76071.4306181971,80424.3024796363,80940.3466695941,65321.0636242818
2941169231,6907,1,0,57906.6045590412,49272.8936013545,71294.1981623609,73351.8895397854,66082.8101161853,77001.2495063158,76077.8673298164,80428.3543226784,80942.0988179366,65322.8766111084
2941242182,6908,1,0,57891.9059812791,49246.5505377328,71289.6109406586,73348.9692925479,66076.1787214168,76994.3260868236,76076.7600694055,80422.4164866288,80939.8477940244,65324.0082069130
2941242182,6908,1,0,57880.3831723877,49201.2380347642,71287.4450906242,73343.9562014569,66073.0759587269,77003.6222071963,76078.6460624131,80422.6355051716,80938.3876704056,65321.7085122134
2941242182,6908,1,0,57891.1515840760,49210.5341551369,71289.0025558175,73349.0179633352,66074.9984548250,76990.7366162608,76081.0796017777,80422.7815175335,80936.4895097013,65325.2736473826
2941242182,6908,1,0,57906.6045590412,49281.8611939130,71278.7573550926,73352.6317692916,66070.9709471766,76980.0898815407,76078.8650809559,80412.4633106276,80928.4101590108,65325.2006412016
2941242182,6908,1,0,57896.2498490449,49283.0901312921,71274.7663505346,73346.6452624547,66062.7090810338,76992.6956154493,76085.6789911767,80410.5286468328,80925.6845949225,65318.2285509221
2941242182,6908,1,0,57880.8455448670,49208.5264851611,71282.1886455966,73343.7371829141,66061.9790192244,77000.1422459049,76091.0206100820,80417.3790601441,80934.9807152952,65323.0104557735
2941242182,6908,1,0,57879.2637442800,49194.9960062940,71279.3900753274,73339.9530292021,66059.8983430677,76981.0024588025,76075.0687595471,80410.7111622851,80933.2529023464,65327.2204788742
2941242182,6908,1,0,57886.7347101293,49243.5086135271,71273.5009100651,73329.3184621789,66056.7712449842,76980.0412107535,76055.2475814226,80401.0013402204,80926.7796876366,65323.8378591575
2941256077,6909,1,0,57892.2466767901,49270.3383850216,71274.5838350823,73328.1868663743,66056.6739034096,76988.9357971310,76054.4566811291,80402.1207683281,80926.6336752747,65315.6489991956
2941256077,6909,1,0,57895.1304209372,49282.6034234192,71275.9222817328,73335.9863600378,66056.2602017176,76983.3751596829,76061.4044360150,80402.3762899614,80927.7044325951,65316.7197565160
2941256077,6909,1,0,57889.3751003399,49268.2577088649,71275.8127724614,73341.2184696717,66054.7635750084,76987.1349780012,76068.2426816295,80405.8197481623,80930.1501396565,65320.4187363502
2941256077,6909,1,0,57876.6963602504,49211.5562416700,71278.8425289703,73339.5028244197,66055.7978292384,76998.7186253767,76073.7789836839,80410.3582990773,80932.0361326641,65320.3092270788
2941256077,6909,1,0,57884.5566923980,49216.6910097293,71280.1323048336,73343.0801272856,66061.7234975911,76986.2345684363,76074.6185547647,80415.5417379238,80933.1433930750,65325.0667965366
2941256077,6909,1,0,57902.8569084197,49296.3894239196,71270.8605198545,73342.3257300826,66061.7600006816,76973.8478530706,76068.2305139326,80406.6958223336,80925.1978870496,65324.6044240573
2941256077,6909,1,0,57896.4201968004,49305.2596749035,71268.1592911598,73335.5969937395,66055.7978292384,76990.7852870481,76067.3179366709,80405.4425495608,80922.3993167803,65314.0428632150
2941256077,6909,1,0,57880.9672218352,49235.0763996288,71276.1047971852,73341.0724573098,66062.1980377672,76998.7429607703,76075.7866536597,80415.9676073126,80930.2718166248,65315.2231298068
2941264608,6910,1,0,57877.4994282407,49213.0163652888,71276.9443682659,73344.3942385425,66065.0087757333,76981.7325206118,76075.0200887598,80415.7120856793,80930.5030028644,65317.2794705699
2941264608,6910,1,0,57885.9316421390,49241.4157696735,71274.0606241189,73341.5591651827,66064.7532541000,76987.6338535710,76070.8830718400,80413.8625957623,80925.9887873431,65310.6480758014
2941264608,6910,1,0,57901.9199957644,49272.7719243862,71281.3490745158,73345.9152006454,66072.9056109714,76999.1323270686,76075.7501505692,80419.9586118706,80932.8148652607,65312.0473609360
2941264608,6910,1,0,57909.4883031882,49306.5616184635,71283.4905891567,73348.2879015258,66076.5559200183,76987.2079841822,76074.6672255520,80420.4209843498,80933.6666040383,65319.8590222964
2941264608,6910,1,0,57888.7423801051,49288.1883962609,71275.3503999821,73333.4068083114,66064.8384279778,76984.9569602699,76062.4143548513,80412.0496089356,80926.6580106683,65315.5759930147
2941264608,6910,1,0,57869.7486053645,49215.9366125263,71278.8668643640,73328.9899343647,66060.7500818453,77000.6289537779,76065.9308192331,80413.5705710385,80931.3182385515,65317.0361166334
2941264608,6910,1,0,57876.5016771012,49212.4566512349,71281.6289315428,73337.8236822581,66065.7631729363,76987.5486796932,76068.3765262945,80415.9311042222,80934.5548459064,65327.5246712948
2941264608,6910,1,0,57895.3981102673,49289.9405446034,71275.6910954932,73340.4397370750,66066.6514148044,76977.9848699904,76062.6333733941,80408.7643307934,80926.1834704922,65326.6729325172
2941296156,6911,1,0,57891.1394163792,49299.2975034602,71272.0286187495,73331.4964799102,66059.2169520456,76989.0453064024,76058.7397104108,80404.4326307245,80920.1604605649,65314.0671986086
2941296156,6911,1,0,57875.6986091109,49237.0475665141,71277.5040823198,73329.9268470200,66057.1727789794,76990.9678025005,76060.7473803865,80406.1239405829,80922.4479875676,65316.3182225209
2941296156,6911,1,0,57867.8869477506,49210.4854843496,71276.4211573026,73329.8416731423,66054.1065193800,76978.8852795553,76055.1989106353,80400.3929553793,80919.6494172983,65322.6210894752
2941296156,6911,1,0,57868.3249848362,49215.3403953819,71276.4819957867,73328.8925927901,66055.0677674290,76992.2454106669,76056.1844940779,80399.8819121127,80919.2722186968,65320.2362208979
2941296156,6911,1,0,57886.3818469215,49244.2021722460,71287.0192212353,73344.0170399410,66068.2575507851,77001.0913262571,76072.5865493953,80412.2807951753,80928.9820407615,65326.4782493680
2941296156,6911,1,0,57900.8249030503,49294.6494432739,71285.0115512596,73348.2027276481,66071.1169595384,76979.2381427631,76073.0489218745,80411.7940873024,80929.1523885170,65333.9370475205
2941296156,6911,1,0,57880.0546445735,49277.6511708122,71268.6338313359,73325.4369668923,66050.5170488172,76972.4242325423,76051.7554524344,80394.9783302931,80914.7945062660,65320.5525810153
2941296156,6911,1,0,57855.0135245119,49190.5182938631,71267.0155276584,73311.7604756634,66040.0649972463,76983.5576751353,76045.5377593579,80390.0990838671,80913.9792705788,65314.3957264229
2941356020,6912,1,0,57859.1140383412,49174.9558096266,71267.0276953553,73316.5058774243,66037.9478179991,76967.5328184195,76042.0943011570,80386.0715762187,80916.6683315767,65322.5237479006
2941356020,6912,1,0,57874.7738641524,49245.5406188965,71260.0556050757,73317.0534237813,66034.7842168251,76960.9257590446,76037.1785516405,80378.3207533425,80908.6863224609,65322.0613754213
