steady_timestamp,sequence,battery,flags,EEG-ch1,EEG-ch2,EEG-ch3,EEG-ch4,EEG-ch5,EEG-ch6,EEG-ch7,EEG-ch8,EEG-ch9,EEG-ch10
3049616873,8272,-2,0,52866.2091563184,47206.0886190095,68422.1715073641,70746.5909668444,64866.6244833386,74610.5160991505,74660.9633701785,78239.8723721040,78340.7425787662,63822.6604313238
3049616873,8272,-2,0,52856.1586387427,47147.9513635895,68423.9358234034,70746.5666314507,64865.8579184387,74611.7328688328,74664.8083623745,78243.8877120556,78343.1396150403,63820.1295503846
3049616873,8272,-2,0,52875.2497550578,47187.1070119657,68422.8650660830,70752.7478214368,64871.8809283661,74600.5994262398,74658.2864768774,78244.6056061682,78341.5334790597,63823.7555240379
3049616873,8272,-2,0,52894.5112191286,47243.9423238257,68425.7001394428,70754.7919945030,64878.2446338045,74617.7437110634,74657.4834088871,78243.9242151461,78343.6384906101,63825.1548091725
3049616873,8272,-2,0,52893.2822817494,47231.0689005870,68435.1787752679,70758.0651049484,64882.4424892084,74623.0609945750,74665.8426166045,78251.1031562716,78350.2942207722,63824.6437659060
3049616873,8272,-2,0,52872.4633524854,47198.4108023143,68430.3603673260,70749.0366739058,64873.6452444054,74597.7400174865,74657.9336136695,78243.1333148526,78345.4149743462,63819.9835380228
3049616873,8272,-2,0,52852.1554664879,47176.1925879156,68418.6307075886,70731.6855382363,64858.2896110149,74595.4403227869,74637.1146844055,78228.1183769731,78333.6366438216,63812.4517336894
3049616873,8272,-2,0,52858.4826688358,47165.9108841002,68422.9502399608,70730.4566008572,64861.2220259492,74617.0866554349,74637.1511874960,78233.1193003673,78336.8854188734,63813.4251494352
3049678052,8273,-2,0,52889.7049788835,47207.1350409363,68435.7019862312,70748.3674505805,64877.0400318190,74621.5765355626,74650.2679646711,78244.1554013857,78347.2644642633,63827.5518454466
3049678052,8273,-2,0,52901.7266633446,47249.7949859975,68438.3545441386,70755.8140810362,64881.0188686801,74619.1186608044,74655.6095835764,78245.9197174250,78352.2532199607,63831.4941792173
3049678052,8273,-2,0,52885.5557942669,47208.9480277629,68440.8489219873,70750.4237913436,64876.5046531588,74629.8505694022,74659.2477249264,78249.9472250734,78351.6691705132,63826.6392681849
3049678052,8273,-2,0,52876.4056862560,47163.7572017625,68444.8520942421,70756.8118321756,64879.0233664012,74623.9979072304,74664.7718592840,78252.0522366238,78356.3902368805,63831.1291483126
3049678052,8273,-2,0,52889.2182710106,47204.8231785399,68438.1598609895,70761.3625507874,64876.9791933349,74604.4565861327,74660.2576437627,78244.2770783539,78351.2311334276,63827.0773052705
3049678052,8273,-2,0,52903.7830041076,47254.9540894505,68434.3270364902,70760.2552903765,64875.6894174717,74620.5422813326,74657.4834088871,78242.6709423733,78350.1725438040,63817.0876261789
3049678052,8273,-2,0,52901.8726757064,47247.6169682662,68440.5812326572,70759.4400546894,64877.7944290221,74623.7788886875,74665.2463994601,78245.4695126426,78352.6304185622,63818.3774020421
3049678052,8273,-2,0,52890.6662269325,47232.9548935946,68442.7592503885,70764.9033505629,64878.0256152617,74614.1664081974,74669.1643978371,78245.0436432538,78351.2067980340,63830.3504157159
3049686341,8274,-2,0,52870.4435148128,47214.3991559396,68435.6533154439,70752.2611135639,64867.5127252067,74609.8103727348,74658.7488493567,78233.3869896974,78343.8088383656,63831.3725022490
3049686341,8274,-2,0,52865.7224484455,47208.0111151076,68436.9795943976,70746.3962836952,64867.3788805416,74622.1484173133,74655.6825897573,78237.0129633506,78342.0566900231,63827.4666715689
3049686341,8274,-2,0,52891.7004811625,47267.9248542637,68440.6542388382,70759.7077440195,64878.9138571298,74616.2835874446,74657.4104027062,78241.7461974148,78345.2446265907,63832.9299674424
3049686341,8274,-2,0,52909.8303494286,47320.4649691452,68439.3766306718,70764.1367856631,64881.2865580102,74614.7869607354,74657.0697071951,78240.5537631261,78347.5321535934,63830.4477572905
3049686341,8274,-2,0,52894.8762500333,47266.4647306450,68442.6619088140,70760.3039611638,64880.7390116532,74633.1601829380,74664.8326977682,78249.4726848973,78352.1680460830,63822.8916175635
3049686341,8274,-2,0,52883.0979195086,47199.3355472728,68449.0986204333,70765.9376047929,64885.7886058347,74624.7036336461,74678.3145058480,78252.9769815824,78355.8183551299,63826.7122743659
3049686341,8274,-2,0,52892.1263505513,47217.2463969962,68444.0733616454,70768.6875042748,64885.5695872919,74612.6697814882,74670.8678753923,78250.0445666480,78353.1171264352,63826.8096159404
3049686341,8274,-2,0,52904.7199167630,47257.0712686977,68437.6731531165,70762.3846373206,64883.2820602892,74613.3268371166,74659.4789111661,78242.8899609161,78345.1229496225,63814.8852730540
3049722684,8275,-2,0,52907.8470148465,47271.2588031932,68438.5492272878,70759.4887254767,64881.1040425579,74620.8221383596,74656.5221608381,78241.1621479673,78348.1527061314,63810.7360884373
3049722684,8275,-2,0,52903.1137807824,47283.0127983242,68442.1143624569,70762.9565190712,64881.8584397609,74617.4151832491,74655.8651052097,78242.7074454638,78352.8616048019,63819.0587930642
3049722684,8275,-2,0,52884.2416830100,47259.0302678862,68438.1963640799,70752.8329953145,64872.6961640532,74621.0046538119,74650.9736910868,78240.4807569452,78352.4357354131,63818.3652343453
3049722684,8275,-2,0,52881.8568144327,47230.4726834427,68444.4870633374,70758.0164341611,64879.9359436629,74641.4463844745,74662.8980339733,78250.1905790099,78359.7363535068,63823.3296546491
3049722684,8275,-2,0,52908.2850519321,47274.3615658831,68450.4857378711,70776.8885319335,64892.6755222365,74622.3065973720,74674.3965074710,78256.3839366928,78365.2726555613,63832.8812966551
3049722684,8275,-2,0,52919.4915007061,47309.4410358236,68441.6884930681,70771.3765652727,64887.5285864804,74612.4750983390,74665.4167472157,78245.1409848284,78354.6015854476,63823.8650333093
3049722684,8275,-2,0,52902.1403650365,47249.7949859975,68438.5005565005,70760.0241041369,64879.6682543328,74629.2665199547,74662.2531460417,78243.4861780605,78352.3018907480,63816.9659492107
3049722684,8275,-2,0,52886.1641791080,47182.8604857745,68440.0580216938,70759.4887254767,64877.6240812665,74616.0645689018,74663.7741081446,78244.3014137476,78354.1635483619,63823.9623748839
3049741460,8276,-2,0,52885.3489434209,47188.4697940099,68438.6222334687,70761.4842277557,64876.6384978239,74611.3191671409,74661.7299350783,78241.8070358989,78352.1802137798,63829.5473477256
3049741460,8276,-2,0,52899.1106085276,47216.1148011916,68441.0679405301,70766.1687910325,64880.5686638977,74625.2511800031,74670.7705338178,78243.6686935128,78354.1513806651,63828.1602302878
3049741460,8276,-2,0,52909.1002876193,47229.4019261223,68443.6109891661,70769.6000815366,64881.7732658832,74618.1817481490,74672.4861790698,78246.2482452393,78355.4654919220,63824.0110456712
3049741460,8276,-2,0,52904.9024322154,47230.7403727728,68437.8678362657,70764.6964997169,64876.4559823715,74607.1091440401,74663.2265617875,78239.8967074977,78350.3063884691,63821.5653386097
3049741460,8276,-2,0,52890.7270654166,47190.8181594967,68437.5758115420,70764.2341272376,64873.7790890705,74625.0808322476,74671.0990616320,78245.4573449458,78350.7322578579,63816.7104275774
3049741460,8276,-2,0,52881.8689821295,47149.5818349638,68442.2482071220,70766.8866851450,64879.2180495503,74624.6427951620,74680.0301511000,78253.0134846728,78357.5948388660,63818.0002034406
3049741460,8276,-2,0,52890.2281898469,47196.9750140891,68437.7461592975,70762.9565190712,64878.1837953204,74599.5043335258,74664.0417974747,78244.3379168381,78351.3893134863,63824.3882442727
3049741460,8276,-2,0,52896.1781935933,47257.0834363945,68423.1814262004,70745.9582466096,64864.8601672993,74593.1649634810,74642.9186757900,78228.8606064793,78340.3897155584,63820.5919228639
3049791419,8277,-2,0,52883.1709256896,47234.5001910911,68421.5752902198,70738.0735790683,64860.8448273477,74612.9496385151,74646.4229724750,78229.3838174427,78338.4915548540,63816.4914090346
3049791419,8277,-2,0,52874.8117179722,47199.1408641236,68426.6248844013,70744.5224583845,64862.0007585459,74608.7396154144,74654.9646956448,78236.0030445143,78343.9791861211,63824.6681012996
3049791419,8277,-2,0,52875.9676491704,47204.8596816304,68428.3161942597,70751.2755301212,64866.1621108593,74605.3934987881,74658.0431229410,78235.5650074287,78344.2225400576,63827.8195347767
3049791419,8277,-2,0,52889.5467988248,47220.5438428352,68434.3513718839,70755.7167394616,64873.5235674372,74624.7888075239,74662.5208353718,78239.7750305295,78348.5542401266,63827.0408021801
3049791419,8277,-2,0,52907.2142946117,47251.2064388290,68444.5600695183,70765.5847415850,64884.8638608762,74622.4647774307,74668.4221683309,78247.9760581881,78357.5948388660,63834.7186188753
3049791419,8277,-2,0,52910.1832126365,47280.5914266564,68445.3996405991,70764.8790151693,64885.2532271745,74619.8243872201,74665.2220640665,78248.0855674595,78359.2131425434,63839.8047161473
3049791419,8277,-2,0,52892.3210337004,47240.8638965295,68442.0170208823,70754.3539574174,64879.0842048853,74625.6770493919,74665.7331073331,78249.6430326529,78359.9797074433,63831.1291483126
3049791419,8277,-2,0,52880.2385107553,47186.6446394865,68439.1089413417,70755.4247147378,64877.4415658142,74620.7612998755,74668.3734975436,78252.0765720175,78360.3204029543,63824.4855858473
3049807863,8278,-2,0,52891.8586612212,47224.0116364297,68436.3590418597,70757.2133661708,64878.2933045918,74610.0172235808,74666.1103059346,78248.2072444278,78360.2960675607,63823.1714745904
3049807863,8278,-2,0,52911.2904730474,47292.0655647604,68437.3081222119,70765.1832075898,64881.0432040738,74620.4206043644,74672.9363838522,78250.0810697385,78358.8481116388,63822.9402883507
3049807863,8278,-2,0,52909.4044800398,47283.6941893463,68440.4595556890,70762.4333081079,64881.5907504308,74627.6847193677,74675.8444633929,78255.0454900422,78360.4907507099,63823.9380394902
3049807863,8278,-2,0,52895.4481317839,47251.6444759146,68441.2382882857,70760.6324889781,64881.7610981863,74621.3696847166,74671.3059124780,78255.9945703944,78359.2131425434,63832.4432595695
3049807863,8278,-2,0,52883.8888198021,47237.4326060254,68438.3058733513,70759.4887254767,64879.2058818535,74619.1916669853,74671.1720678129,78253.1473293379,78356.8769447535,63831.5550177014
3049807863,8278,-2,0,52878.8270579238,47228.0391440781,68437.6853208134,70754.2566158428,64876.5776593398,74622.5621190053,74673.5934394807,78252.4050998317,78356.9864540249,63823.9623748839
3049807863,8278,-2,0,52891.2867794705,47249.9775014499,68435.6776508376,70753.0276784637,64874.2171261561,74611.5990241678,74661.7055996847,78248.9494739340,78358.3249006754,63826.1282249184
3049807863,8278,-2,0,52900.4125520877,47283.6698539526,68430.1656841768,70750.8861638229,64868.0359361701,74607.6323550035,74648.4428101477,78241.4298372974,78352.0220337211,63825.1548091725
3049834121,8279,-2,0,52883.4021119292,47238.4546925586,68429.3382807928,70742.2349313818,64861.8669138808,74626.4192788981,74647.1043634971,78240.3469122801,78350.7200901610,63821.5531709129
3049834121,8279,-2,0,52873.0960727202,47181.3516913685,68443.6109891661,70753.9524234223,64873.1707042293,74646.3256309005,74663.2022263939,78252.9526461887,78365.7228603437,63834.9863082055
3049834121,8279,-2,0,52893.0754309035,47216.0782981012,68451.0211165313,70773.2260551898,64887.4920833899,74627.0763345266,74673.7151164489,78259.0486622970,78370.5899390729,63848.6871348281
3049834121,8279,-2,0,52907.7983440592,47262.8387569917,68443.6718276503,70771.2427206077,64885.6912642601,74619.5688655868,74670.0891427957,78252.3564290444,78360.6489307686,63841.3378459470
3049834121,8279,-2,0,52900.1935335449,47251.6444759146,68436.5537250088,70757.6757386501,64877.7700936284,74614.1299051070,74660.2576437627,78249.1928278704,78355.2586410760,63827.2233176324
3049834121,8279,-2,0,52882.1001683692,47223.6466055250,68428.5960512866,70749.0366739058,64871.9539345470,74606.3304114435,74649.2337104411,78244.7272831364,78350.7079224642,63822.3440712064
3049834121,8279,-2,0,52871.1249058349,47206.1494574936,68426.9290768219,70749.1826862677,64872.1851207867,74618.4616051759,74648.1142823334,78244.1919044762,78352.5330769877,63824.1692257299
3049834121,8279,-2,0,52875.7973014149,47192.9475064408,68438.2693702609,70753.1371877351,64880.3253099612,74635.3625360630,74656.4126515667,78255.0698254359,78361.6101788176,63828.2089010751
3049901020,8280,-2,0,52895.8131626886,47235.3275944751,68445.5091498705,70760.7906690368,64887.2243940598,74622.6472928830,74658.4568246329,78255.1549993137,78365.3213263486,63832.9786382297
3049901020,8280,-2,0,52908.3093873258,47293.0754835967,68444.3288832787,70764.8911828661,64887.4677479963,74621.9050633768,74660.7078485452,78250.6164483987,78361.7683588763,63832.9664705328
3049901020,8280,-2,0,52895.6306472363,47262.0600243951,68439.0724382512,70761.2530415160,64881.5420796435,74628.3661103898,74666.8403677439,78250.6529514892,78358.7994408515,63821.0421276464
3049901020,8280,-2,0,52876.2718415910,47199.1286964268,68437.7096562070,70758.1989496135,64876.3464731001,74619.4593563154,74668.8845408102,78249.3631756259,78357.1689694772,63824.4612504536
3049901020,8280,-2,0,52878.9122318016,47210.5784991372,68433.9985086760,70756.6171490265,64873.0855303516,74602.2664007046,74658.8340232344,78241.5515142656,78353.6160020049,63830.0218879017
3049901020,8280,-2,0,52890.1186805755,47250.6710601688,68434.6920673949,70749.9127480770,64873.5965736181,74618.6076175378,74651.7767590771,78239.2761549597,78350.2577176818,63831.4211730363
3049901020,8280,-2,0,52901.6049863763,47268.6670837699,68446.6772487655,70756.6171490265,64887.9301204756,74637.1146844055,74659.0408740804,78251.2248332398,78363.1311409204,63838.3202571349
3049901020,8280,-2,0,52906.9709406753,47276.7951052476,68453.4424881991,70770.0624540158,64895.7052787454,74629.1326752896,74670.1134781893,78255.0333223454,78367.8887103782,63844.2337577909
3049906372,8281,-2,0,52895.1682747570,47254.2605307316,68450.1937131474,70770.4883234046,64894.6710245155,74631.0430036909,74678.1928288797,78256.1284150595,78367.5966856545,63834.2197433056
3049906372,8281,-2,0,52881.2240941979,47211.6614241544,68445.7646715038,70759.8537563814,64887.5407541772,74624.9226521889,74671.6466079890,78253.2325032156,78363.7638611552,63824.4369150600
3049906372,8281,-2,0,52890.9582516563,47240.9734058009,68436.5658927057,70756.0574349726,64882.6250046608,74600.3195692129,74654.3806461973,78242.7439485543,78354.7475978094,63818.9127807023
3049906372,8281,-2,0,52905.1944569391,47301.5320328887,68427.0264183965,70751.2268593339,64875.4338958384,74600.8549478731,74641.0691858730,78233.1314680641,78344.3320493290,63811.4661502467
3049906372,8281,-2,0,52894.5355545222,47274.6170875163,68428.3648650470,70744.6319676559,64873.4992320436,74627.4778685217,74643.8312530518,78238.4244161821,78345.8165083414,63805.0051032337
3049906372,8281,-2,0,52887.2714395189,47221.4077493096,68443.9030138899,70760.2796257702,64884.9368670571,74630.8483205417,74662.3261522226,78251.7723795969,78359.2739810276,63817.6108371423
3049906372,8281,-2,0,52892.0776797640,47225.1919030216,68446.3608886481,70768.6023303971,64890.9477092877,74625.1538384286,74665.8304489076,78255.6903779739,78366.1000589452,63827.8560378672
3049906372,8281,-2,0,52907.4089777609,47252.7030655382,68449.2446327952,70767.6897531354,64897.8954641736,74635.3625360630,74668.3369944532,78258.5984575145,78363.8490350330,63823.0254622285
3049945182,8282,-2,0,52921.0733012930,47272.1348773645,68455.9368660478,70769.7095908080,64901.0468976507,74635.0583436424,74671.9386327128,78261.8594002631,78365.6863572533,63817.8420233819
3049945182,8282,-2,0,52925.3563305747,47292.4427633619,68455.9490337446,70772.9218627692,64901.0347299539,74627.1371730107,74678.8377168114,78260.0829165270,78365.6376864660,63816.4062351568
3049945182,8282,-2,0,52913.0426213899,47265.0532778135,68456.9102817936,70775.1728866815,64897.5426009657,74641.0448504793,74688.4258619078,78263.6480516961,78365.8932080993,63807.1101147841
3049945182,8282,-2,0,52908.6379151400,47217.7939433532,68464.8801232126,70778.7988603347,64900.8157114111,74647.2138727685,74695.5196291556,78268.7463166649,78371.4903486378,63807.1344501777
3049945182,8282,-2,0,52925.0156350637,47244.3073547304,68459.6115104883,70778.9813757870,64899.3799231860,74620.3110950930,74677.6696179164,78258.7931406637,78368.3997536448,63815.2503039586
3049945182,8282,-2,0,52940.2252560924,47303.9290691628,68447.8088445701,70767.7870947099,64892.4078329064,74608.5570999621,74657.8119367013,78243.8998797524,78358.0085405580,63815.1894654745
3049945182,8282,-2,0,52925.4901752398,47282.1367241529,68440.8975927746,70755.0840192268,64884.5231653651,74624.2412611668,74654.3684785004,78239.1788133851,78352.4722385035,63805.0902771115
3049945182,8282,-2,0,52910.6334174190,47234.8408866021,68445.1562866627,70763.8204255457,64884.2068052477,74620.2380889121,74667.6556034311,78247.3311702565,78355.0031194427,63805.9785189796
3049966485,8283,-2,0,52911.1931314728,47233.4659368612,68443.8300077090,70768.7605104558,64883.4402403479,74608.3259137224,74667.0837216804,78244.1188982952,78352.7399278337,63804.2628737275
3049966485,8283,-2,0,52915.2449745149,47244.9644103588,68438.4397180164,70760.8028367336,64880.3861484453,74611.9153842852,74657.4955765839,78242.9751347939,78344.5389001750,63793.3849527678
3049966485,8283,-2,0,52925.9768831127,47265.6738303515,68434.7407381822,70761.7275816921,64880.8606886214,74603.8482012916,74655.0377018257,78243.7660350874,78340.3167093774,63790.9270780096
3049966485,8283,-2,0,52927.1328143109,47294.8397996361,68428.3526973502,70762.3116311396,64880.0576206311,74592.9459449382,74653.9912798989,78241.1499802704,78338.1021885557,63794.9059148707
3049966485,8283,-2,0,52901.4589740145,47258.4097153482,68421.1129177405,70750.3751205563,64871.6132390360,74603.2884872377,74651.2292127201,78236.9764602602,78335.8633323402,63795.1371011103
3049966485,8283,-2,0,52889.2791094947,47201.2823787645,68426.9534122155,70757.1890307772,64874.2171261561,74619.4471886186,74665.8182812108,78245.7980404568,78346.0963653683,63807.7184996252
3049966485,8283,-2,0,52908.9907783479,47229.8399632079,68427.1237599711,70768.9916966954,64878.6705031933,74594.9901180045,74664.1026359588,78242.5005946178,78346.9967749332,63814.2890559096
3049966485,8283,-2,0,52922.0102139484,47293.5500237728,68422.3905259069,70760.1214457115,64877.1495410904,74601.1226372032,74649.4405612871,78236.4410816000,78342.3487147469,63802.7419116247
3049987689,8284,-2,0,52918.1408863587,47290.3985902957,68427.7564802058,70753.0885169478,64880.1306268121,74616.0889042955,74649.7204183141,78237.4388327395,78343.6749937006,63793.9568345185
3049987689,8284,-2,0,52907.8956856338,47253.2749472889,68430.5307150815,70756.3859627869,64880.8728563183,74609.8955466126,74657.2400549506,78243.2184887303,78347.7511721362,63800.9775955853
3049987689,8284,-2,0,52898.1371927818,47234.2081663674,68423.6194632861,70755.2300315887,64873.6209090118,74601.2443141715,74654.3806461973,78237.8647021283,78345.5001482240,63806.1488667351
3049987689,8284,-2,0,52896.7987461313,47223.5857670409,68424.3008543081,70751.0565115784,64871.8565929725,74611.4408441091,74653.2612180895,78238.9232917519,78343.3951366736,63805.1997863829
3049987689,8284,-2,0,52913.7848508961,47249.9653337531,68433.2197760793,70761.0583583668,64884.3771530033,74616.2835874446,74660.0507929168,78247.6962011612,78350.9756117943,63815.1164592936
3049987689,8284,-2,0,52925.8795415381,47298.0034008100,68433.2684468666,70767.1787098688,64891.3005724955,74609.9563850967,74659.2233895328,78248.7669584816,78354.2487222397,63821.3098169765
3049987689,8284,-2,0,52910.3292249984,47265.0654455103,68428.6082189835,70758.5761482150,64885.3140656586,74618.3399282077,74656.9723656205,78247.2946671660,78352.4965738972,63812.9627769559
3049987689,8284,-2,0,52894.9370885174,47197.8754236540,68435.4829676884,70758.9046760292,64887.0540463043,74626.0177449030,74665.1368901887,78254.6074529566,78356.4875784551,63814.3863974842
3050019346,8285,-2,0,52903.1624515697,47213.2067216510,68435.0084275123,70766.7406727832,64891.5925972193,74609.4088387397,74670.0891427957,78255.1428316168,78358.8602793356,63820.9326183750
3050019346,8285,-2,0,52916.3278995321,47264.6030730311,68426.4423689490,70760.8758429145,64888.8061946468,74601.5120035016,74658.9800355963,78248.1585736405,78349.9413575644,63813.7780126431
3050019346,8285,-2,0,52913.6996770183,47263.0821109282,68425.8461518047,70753.9159203318,64885.2532271745,74616.2714197478,74657.3738996157,78249.6186972592,78346.8264271777,63811.6364980022
3050019346,8285,-2,0,52907.4941516386,47242.0076600309,68429.6059701229,70758.6004836086,64888.4654991358,74611.4165087154,74661.2188918117,78253.4150186680,78351.3163073054,63819.5941717244
3050019346,8285,-2,0,52905.7663386898,47228.9152182494,68435.3247876297,70770.7925158252,64894.8170368773,74622.8176406385,74679.0689030510,78257.8805634020,78358.8481116388,63826.3594111580
3050019346,8285,-2,0,52905.6081586311,47208.0111151076,68436.4077126470,70770.7803481284,64897.3479178165,74627.4535331281,74685.5907885481,78261.4578662679,78362.6322653507,63821.5410032161
3050019346,8285,-2,0,52923.0444681784,47238.7588849791,68437.6731531165,70777.7889414984,64903.3222569566,74624.8374783112,74684.0698264452,78264.0860887817,78366.0148850675,63822.6725990206
3050019346,8285,-2,0,52932.5352717003,47297.6018668149,68429.0827591596,70772.3378133217,64896.1068127406,74602.1203883427,74671.1720678129,78253.3663478807,78356.6700939075,63822.0398787858
3050052896,8286,-2,0,52906.5694066801,47268.8617669191,68419.5432848504,70746.5787991476,64877.2468826650,74603.7630274138,74651.6307467153,78242.8777932193,78345.7800052509,63809.8843496597
3050052896,8286,-2,0,52877.2452573368,47195.5635612577,68416.5500314319,70737.7450512541,64868.9971842191,74606.1478959911,74652.6650009452,78243.5105134541,78346.3762223953,63807.6698288379
3050052896,8286,-2,0,52881.5161189217,47201.4648942168,68412.2426667566,70747.4427056220,64870.7736679552,74591.0477842338,74654.2954723195,78240.9674648181,78344.6849125369,63812.0380319974
3050052896,8286,-2,0,52899.0984408308,47246.0473353761,68405.9276321055,70750.4116236468,64870.4573078378,74592.5079078526,74651.5699082311,78236.4532492968,78337.8953377097,63810.5049021977
3050052896,8286,-2,0,52903.4423085966,47250.4277062323,68403.6887758901,70747.3088609569,64868.6686564049,74597.0221233739,74650.0367784315,78237.1103049252,78334.4032087215,63805.2119540797
3050052896,8286,-2,0,52900.7532475987,47242.0441631213,68403.2629065013,70749.1948539645,64867.8899238082,74595.1117949727,74650.9006849059,78238.1202237615,78338.2116978271,63805.6134880749
3050052896,8286,-2,0,52885.2029310590,47213.2188893478,68402.5571800855,70744.2060982671,64862.8038265362,74595.9757014471,74649.3067166221,78234.4820824115,78337.6033129859,63803.3381287690
3050052896,8286,-2,0,52868.3141678688,47171.6783723942,68405.3922534453,70735.3358472832,64863.2783667123,74606.8536224068,74650.6938340599,78237.8768698251,78338.0048469811,63800.9775955853
3050089128,8287,-2,0,52878.0361576303,47193.6654005533,68404.6378562423,70737.2948464716,64866.3081232212,74582.7250796069,74649.8907660696,78233.8250267830,78336.2040278513,63803.2894579817
3050089128,8287,-2,0,52891.4814626197,47250.9509171957,68391.3994020989,70732.1844138060,64857.4622076309,74570.8737429014,74631.6270531383,78220.8542619698,78323.9268217569,63797.4246281130
3050089128,8287,-2,0,52880.6278770536,47230.8985528315,68386.5688264602,70720.4669217655,64848.9204844612,74589.5268221310,74623.5963732352,78214.8555874361,78320.9579037321,63791.3042766111
3050089128,8287,-2,0,52870.6747010524,47174.5621165413,68397.3494058453,70729.1059865098,64857.2918598754,74598.9932902592,74637.6865661562,78226.4879055988,78330.9597505206,63803.8613397324
3050089128,8287,-2,0,52876.0041522609,47180.8893188892,68403.7374466774,70741.3223541200,64864.4951363946,74587.5069844584,74644.1841162596,78232.7786048563,78334.1720224818,63813.4616525257
3050089128,8287,-2,0,52885.9086574747,47217.3072354803,68401.8149505793,70739.4363611125,64865.2008628103,74590.8774364783,74645.3157120642,78234.4942501083,78331.0570920952,63807.2561271460
3050089128,8287,-2,0,52895.2169455443,47239.2455928521,68402.4355031173,70740.6287954011,64868.5591471334,74592.7512617890,74647.8709283970,78236.5262554777,78333.0404266773,63803.2772902849
3050089128,8287,-2,0,52895.5819764490,47254.2605307316,68397.5075859040,70740.5436215234,64867.9507622923,74581.2162852009,74642.0304339220,78230.2598916139,78330.8624089460,63804.5183953608
3050140348,8288,-2,0,52880.3845231171,47228.6110258288,68395.0010403585,70733.0969910677,64861.3802060079,74593.3596466302,74641.7627445919,78228.7754326015,78330.2175210144,63808.1808721045
3050140348,8288,-2,0,52873.0960727202,47176.8983143313,68407.2660787560,70737.3800203494,64866.7218249132,74612.3047505835,74652.6406655516,78239.6776889549,78340.4627217393,63818.3165635580
3050140348,8288,-2,0,52887.6851412109,47193.9817606707,68410.3566737490,70747.9902519790,64872.7813379310,74591.9116907083,74658.7488493567,78241.4785080847,78341.2049512455,63824.9114552361
3050140348,8288,-2,0,52906.1192018977,47258.6530692846,68399.6977713322,70750.8983315197,64869.1188611873,74585.1464512747,74657.3738996157,78234.7497717416,78334.0260101200,63820.4215751084
3050140348,8288,-2,0,52902.2133712175,47251.9365006384,68394.8428602998,70746.8464884777,64865.5293906245,74597.6305082151,74660.7930224229,78235.7961936684,78331.8601600855,63809.0447785789
3050140348,8288,-2,0,52886.5657131032,47201.2337079772,68399.3814112148,70742.3566083500,64864.3977948200,74594.5034101316,74659.0530417773,78241.3203280260,78335.7781584625,63807.0857793905
3050140348,8288,-2,0,52883.5116212006,47198.1917837714,68404.4188376994,70743.1231732498,64867.6830729622,74587.5678229425,74651.8619329549,78240.4442538547,78336.0945185799,63809.3368033027
3050140348,8288,-2,0,52887.3444456998,47214.1558020031,68403.0560556553,70737.6842127700,64868.5226440430,74594.2722238919,74650.8763495122,78238.3149069107,78334.1476870882,63801.2087818250
3050144046,8289,-2,0,52902.4932282444,47237.4447737223,68407.7162835385,70747.9780842822,64877.3685596333,74601.7310220444,74659.5275819534,78243.4983457573,78339.0756043015,63801.6954896979
3050144046,8289,-2,0,52917.7271846667,47269.5188225475,68412.4008468153,70759.8537563814,64882.1017936974,74593.3839820238,74664.2729837143,78246.8201269899,78343.2004535245,63809.8235111756
3050144046,8289,-2,0,52897.6991556962,47235.0477374481,68404.9785517533,70744.0722536020,64871.3090466154,74590.4393993927,74650.9615233900,78238.8137824804,78333.8313269708,63805.4553080162
3050144046,8289,-2,0,52875.2010842706,47163.8423756403,68404.3214961249,70732.0384014441,64861.8425784872,74594.2113854078,74646.7515002893,78235.4311627637,78331.8236569950,63800.2353660791
3050144046,8289,-2,0,52879.6666290046,47183.1281751046,68402.5693477824,70736.0537413957,64863.5825591329,74576.9575913129,74643.3445451788,78231.4279905089,78328.3071926132,63802.3647130231
3050144046,8289,-2,0,52897.4314663661,47262.6562415394,68395.3295681727,70733.8027174835,64859.6280576654,74576.0936848384,74636.6888150167,78223.0931181852,78321.0309099131,63798.3980438589
3050144046,8289,-2,0,52899.7798318529,47282.7694443877,68398.9433741291,70739.1200009951,64863.9110869471,74607.2551564020,74651.8862683485,78230.0652084647,78326.1778456692,63801.2331172186
3050144046,8289,-2,0,52899.9501796084,47263.4228064392,68414.0313181896,70753.2223616129,64878.2689691982,74622.0389080419,74669.3712486831,78248.1220705500,78346.5344024540,63818.0123711375
3050179083,8290,-2,0,52899.0497700435,47252.6300593573,68420.4801975057,70758.1624465230,64883.5375819225,74611.9275519820,74668.4221683309,78252.2225843793,78352.7399278337,63827.8195347767
3050179083,8290,-2,0,52894.2435297985,47233.1739121374,68417.3652671191,70748.3309474901,64878.4758200441,74606.2695729593,74660.8538609071,78247.6718657676,78347.5564889871,63814.0700373668
3050179083,8290,-2,0,52900.8384214765,47234.4515203038,68413.3255917738,70747.6982272553,64875.6285789876,74596.0852107185,74657.4955765839,78242.7926193415,78341.5699821502,63805.7108296495
3050179083,8290,-2,0,52910.4265665730,47263.5444834075,68406.2561599197,70749.2191893581,64871.7227483074,74581.9098439198,74653.6262489942,78235.0539641622,78335.1211028340,63804.7982523877
3050179083,8290,-2,0,52894.1340205271,47223.9142948551,68398.1159707452,70736.1024121830,64861.4775475825,74593.2988081461,74649.4405612871,78229.1404635062,78330.3513656794,63797.2299449639
3050179083,8290,-2,0,52877.7441329065,47142.5732415938,68402.8492048093,70737.4773619240,64862.0494293332,74602.2785684014,74660.9998732689,78236.5384231746,78334.6222272643,63799.7121551157
3050179083,8290,-2,0,52887.2227687316,47142.4272292319,68404.5405146677,70741.8333973866,64866.6488187322,74587.3974751870,74655.0255341289,78236.2098953603,78336.3987110004,63807.8523442903
3050179083,8290,-2,0,52905.8028417803,47197.6442374144,68402.1069753031,70740.6774661884,64869.0701904000,74594.7102609775,74647.9682699716,78231.7200152327,78331.7871539045,63807.0127732095
3050215385,8291,-2,0,52916.0602102020,47215.5064163505,68413.0335670501,70744.8509861987,64879.6682543328,74618.6076175378,74659.0287063836,78241.8192035957,78343.1396150403,63814.0943727605
3050215385,8291,-2,0,52911.2052991696,47197.7780820795,68418.8983969188,70749.1461831772,64879.0355340980,74602.5584254283,74665.6235980616,78242.9021286130,78345.8286760382,63819.6306748149
3050215385,8291,-2,0,52897.7234910898,47174.0267378811,68411.1840771330,70744.0114151179,64868.7903333731,74593.5421620825,74657.1062102856,78235.1878088272,78339.9030076854,63814.8974407508
3050215385,8291,-2,0,52892.5765553337,47149.7643504161,68408.4463453478,70735.6887104910,64862.9255035044,74603.3736611155,74650.5113186076,78233.6668467243,78334.0138424231,63804.6400723290
3050215385,8291,-2,0,52909.1002876193,47178.2854317691,68414.7857153926,70746.8221530840,64871.8079221852,74607.2186533115,74654.3928138941,78240.6754400944,78341.7038268152,63807.9010150776
3050215385,8291,-2,0,52932.5474393971,47251.4741281591,68419.1052477647,70759.7442471100,64879.1937141567,74600.8306124795,74662.2653137385,78239.0328010233,78340.9859327027,63812.3178890243
3050215385,8291,-2,0,52923.1418097529,47251.3159481004,68420.6262098676,70750.4602944341,64876.5168208556,74613.5823587499,74662.4234937972,78241.6975266275,78339.1486104824,63805.2727925638
3050215385,8291,-2,0,52904.8415937312,47194.3954623627,68428.2066849883,70744.5224583845,64877.6727520538,74621.5765355626,74663.1657233034,78245.6398603981,78343.9791861211,63801.3669618837
3050250727,8292,-2,0,52914.6244219769,47203.3752226180,68432.6965651160,70753.7577402731,64887.4434126026,74613.6188618404,74661.7055996847,78248.2559152150,78348.5907432170,63810.4318960168
3050250727,8292,-2,0,52932.9246379986,47253.0802641397,68435.1179367837,70757.8095833151,64892.7728638111,74618.2547543299,74664.0174620810,78249.2901694450,78348.0553645568,63818.4017374358
3050250727,8292,-2,0,52939.5682004639,47263.6783280725,68440.0945247843,70759.6347378386,64895.0968939043,74627.3075207662,74671.5614341113,78252.1130751079,78350.4889039214,63818.1097127120
3050250727,8292,-2,0,52937.4875243072,47257.2172810595,68442.3942194838,70766.4121449690,64894.1964843394,74615.4683517575,74673.3379178474,78252.1495781984,78351.8030151783,63821.6505124875
3050250727,8292,-2,0,52920.6109288138,47227.4915977211,68431.9178325193,70758.0042664643,64880.3374776580,74603.5683442646,74666.0859705409,78242.1112283195,78341.2292866392,63809.8843496597
3050250727,8292,-2,0,52907.1169530371,47182.2277655397,68427.3671139075,70750.7401514610,64873.8764306451,74610.8932977521,74664.4068283794,78239.6655212581,78331.8844954791,63798.3007022843
3050250727,8292,-2,0,52917.6785138794,47199.9195967203,68429.7398147880,70757.2863723517,64878.8165155552,74607.9730505146,74666.7065230789,78242.1355637131,78333.1621036455,63805.2484571702
3050250727,8292,-2,0,52941.6123735302,47278.7541044361,68435.3612907202,70769.6974231111,64887.7841081137,74612.2317444026,74672.4861790698,78245.5911896108,78335.8389969466,63816.3697320664
3050275259,8293,-2,0,52936.5019408645,47280.6035943532,68437.1377744563,70766.3391387880,64886.0197920744,74621.3088462325,74672.3888374952,78246.5402699630,78337.0070958416,63810.7847592246
3050275259,8293,-2,0,52920.6474319042,47217.4897509326,68441.9318470046,70766.0957848516,64886.7376861869,74622.4039389466,74677.1707423466,78250.5677776114,78341.8376714803,63813.0357831369
3050275259,8293,-2,0,52919.8686993076,47205.1030355669,68438.5127241973,70771.3522298791,64885.8981151061,74609.2019878937,74676.6962021705,78246.9904747455,78340.0003492600,63818.5355821008
3050275259,8293,-2,0,52929.0674781057,47233.1860798342,68433.6456454682,70773.9317816055,64883.5984204066,74610.9298008425,74683.0599076089,78244.2892460508,78334.9872581690,63818.4625759199
3050275259,8293,-2,0,52933.4478489620,47245.5119567159,68431.2729445877,70770.7316773411,64881.6637566117,74610.5282668474,74680.1153249778,78244.1554013857,78333.4297929756,63810.2858836549
3050275259,8293,-2,0,52931.3793405021,47255.9883436804,68425.5541270809,70763.3580530664,64874.7160017259,74597.5453343373,74662.7398539146,78236.7331063237,78330.7772350682,63806.7694192731
3050275259,8293,-2,0,52909.8911879128,47230.8255466506,68417.2192547572,70748.1240966441,64860.8083242572,74597.0464587676,74644.0381038978,78225.3563097943,78320.1305003482,63799.3836273015
3050275259,8293,-2,0,52893.5134679891,47174.5499488445,68420.3220174470,70744.8631538955,64858.6789773132,74612.7914584564,74648.8200087492,78228.6050848460,78324.5595419917,63795.5751381959
3050312816,8294,-2,0,52911.5094915902,47191.7064013648,68432.2706957272,70763.5284008219,64873.4383935594,74614.3124205593,74664.7110207999,78238.5704285440,78337.3964621399,63815.4206517142
3050312816,8294,-2,0,52938.7894678673,47267.4503140876,68433.5969746809,70778.7258541538,64881.0310363770,74607.8513735463,74673.7881226298,78241.8192035957,78340.8155849472,63827.3814976911
3050312816,8294,-2,0,52930.8439618419,47268.9226054032,68432.2220249399,70768.9795289986,64877.7944290221,74619.4228532249,74675.7471218183,78241.5636819624,78340.8764234313,63828.5252611925
3050312816,8294,-2,0,52909.3436415557,47212.4401567511,68435.7749924122,70764.0029409980,64875.7867590463,74614.1542405006,74672.9120484586,78241.6610235370,78340.6452371917,63828.2210687719
3050312816,8294,-2,0,52893.1727724780,47193.1908603772,68428.9124114040,70755.2056961950,64868.4131347716,74596.6327570756,74655.3418942463,78232.0607107437,78333.5879730343,63823.0497976222
3050312816,8294,-2,0,52892.5278845464,47206.0886190095,68424.1305065526,70750.8618284292,64867.2450358766,74605.7098589055,74649.4283935903,78230.6492579123,78330.5582165254,63814.3012236065
3050312816,8294,-2,0,52905.6203263279,47229.1220690954,68427.3671139075,70757.5418939850,64874.6916663322,74614.3732590434,74659.4789111661,78236.7209386269,78335.4252952546,63814.3742297874
3050312816,8294,-2,0,52914.6365896737,47261.4394718571,68427.7443125090,70761.3747184843,64876.0787837700,74599.8085259464,74656.9967010142,78234.4820824115,78335.6686491911,63821.8573633335
3050342898,8295,-2,0,52900.4003843909,47240.9003996200,68419.5797879408,70751.4215424831,64867.0260173338,74605.3934987881,74651.8619329549,78229.6150036823,78333.8799977581,63820.1782211719
3050342898,8295,-2,0,52886.4927069222,47172.8099681988,68420.8695638041,70751.3607039990,64865.5537260182,74612.0978997375,74661.5230842323,78234.9201194971,78337.5668098954,63819.2778116070
3050342898,8295,-2,0,52893.2701140526,47173.5035269177,68419.2877632171,70762.7496682252,64868.7294948890,74598.3605700244,74670.2351551575,78234.4699147147,78338.9539273333,63817.3674832058
3050342898,8295,-2,0,52909.3679769494,47241.8008091849,68411.5247726440,70762.3724696237,64866.9530111528,74591.8386845273,74664.7840269809,78228.5320786651,78331.0084213079,63813.6685033717
3050342898,8295,-2,0,52908.8204305923,47251.8391590638,68409.7239535143,70750.6549775832,64862.1711063014,74602.6314316093,74656.8993594396,78225.5996637307,78328.7452296988,63811.9041873323
3050342898,8295,-2,0,52893.7446542287,47211.9899519687,68412.0114805170,70746.3354452111,64859.8227408146,74596.5962539851,74654.4658200750,78227.2909735891,78330.7285642809,63819.4359916657
3050342898,8295,-2,0,52882.1853422469,47191.4752151252,68408.4341776510,70745.3620294653,64854.1282587014,74582.4695579737,74648.8565118396,78221.9980254711,78323.8173124855,63822.5022512651
3050342898,8295,-2,0,52882.4773669707,47184.3692801806,68408.6531961938,70750.4724621309,64856.7199781247,74599.0541287433,74656.2179684175,78221.8520131093,78320.1426680450,63819.7401840863
3050370495,8296,-2,0,52900.5098936623,47206.8916869999,68418.6307075886,70759.9389302591,64868.7416625858,74605.3204926071,74664.0052943842,78230.4667424599,78326.0926717914,63822.3927419937
3050370495,8296,-2,0,52913.3346461137,47256.6332316120,68418.4846952268,70759.7077440195,64874.3144677307,74599.9545383082,74660.3793207310,78230.2963947044,78329.8889932002,63830.4234218969
3050370495,8296,-2,0,52900.4125520877,47247.4831236012,68415.5766156861,70749.7180649279,64866.8678372751,74600.0518798828,74654.5266585591,78225.9403592418,78327.7961493466,63822.9037852603
3050370495,8296,-2,0,52880.7008832345,47176.1925879156,68419.9204834519,70746.8464884777,64863.3878759837,74618.7657975965,74663.6767665700,78233.6790144212,78334.9020842912,63817.8176879883
3050370495,8296,-2,0,52889.8631589422,47174.1240794557,68423.7289725575,70758.9533468165,64872.0634438184,74593.9801991682,74670.4298383067,78235.5771751255,78336.0215123989,63825.7388586200
3050370495,8296,-2,0,52896.5797275885,47224.8390398137,68407.4850972988,70745.5688803113,64859.8105731177,74574.4267103737,74646.8488418638,78217.3499652848,78321.0065745194,63821.7843571526
3050370495,8296,-2,0,52887.1984333380,47228.8908828557,68398.0794676547,70726.8549625976,64846.2800942506,74585.2194574556,74633.1236798476,78207.7861555819,78312.5865283179,63809.0082754885
3050370495,8296,-2,0,52874.2763393120,47202.9371855324,68400.3669946574,70727.1834904118,64846.2800942506,74588.0301954217,74637.1511874960,78211.0957691178,78317.0034022647,63812.0623673910
3050399741,8297,-2,0,52865.6859453550,47184.3814478774,68404.0781421884,70730.5661101286,64848.4094411946,74588.6020771724,74641.6410676236,78216.0723571184,78321.2377607591,63817.1971354503
3050399741,8297,-2,0,52862.6926919366,47161.1776500361,68407.7527866289,70734.7517978356,64850.3927757768,74606.4764238053,74649.7325860109,78220.5865726397,78324.9732436837,63813.2669693765
3050399741,8297,-2,0,52884.3511922814,47180.6216295591,68419.4581109726,70752.3584551385,64863.5338883456,74613.3268371166,74665.2463994601,78233.3383189101,78334.0260101200,63823.0619653190
3050399741,8297,-2,0,52908.2363811448,47245.8769876206,68423.4491155305,70765.1345368025,64869.9827676617,74600.4777492716,74673.9219672949,78234.4577470178,78336.2770340322,63834.0128924596
3050399741,8297,-2,0,52893.5621387764,47241.7278030039,68417.9736519602,70749.8762449866,64858.9466666433,74605.4543372722,74663.1900586971,78226.5487440829,78331.6654769363,63830.3382480191
3050399741,8297,-2,0,52873.5827805931,47172.0799063894,68424.3130220050,70746.4936252698,64856.6956427311,74622.2457588879,74662.1071336798,78232.1580523183,78338.6253995190,63829.5595154224
3050399741,8297,-2,0,52878.6323747746,47168.4539327362,68427.4401200885,70757.0186830216,64859.5550514845,74604.2132321963,74661.9124505307,78232.4865801325,78340.0368523505,63836.9209720003
3050399741,8297,-2,0,52886.3345268635,47215.5185840473,68419.0809123711,70748.4282890646,64856.3427795232,74595.0144533981,74650.9006849059,78222.6794164932,78334.1476870882,63830.9953036475
3050424186,8298,-2,0,52886.6995577682,47228.5015165574,68417.0732423953,70738.3169330048,64854.8218174203,74613.3268371166,74647.6032390669,78221.8520131093,78333.0890974646,63825.7388586200
3050424186,8298,-2,0,52890.3255314215,47220.6776875002,68421.7821410658,70747.8320719203,64859.5550514845,74605.8437035705,74652.8231810039,78226.7555949289,78338.5888964286,63830.4720926841
3050424186,8298,-2,0,52881.9784914009,47199.0800256395,68419.9204834519,70748.1605997345,64854.9191589949,74606.8536224068,74652.6650009452,78220.6474111238,78337.5424745018,63828.1480625910
3050424186,8298,-2,0,52874.6413702167,47162.0780596009,68425.6393009587,70747.5887179839,64857.0850090294,74623.6937148098,74661.5352519291,78227.5829983129,78340.4627217393,63829.6690246938
3050424186,8298,-2,0,52885.4097819050,47177.2633452360,68434.0958502506,70756.4102981805,64870.3721339601,74615.3831778797,74669.9309627370,78234.1900576877,78348.8097617598,63837.5293568414
3050424186,8298,-2,0,52897.0177646741,47242.3970263292,68423.6072955892,70751.2146916371,64868.1454454415,74588.3343878423,74656.1084591461,78223.1661243661,78338.2482009175,63832.3459179949
3050424186,8298,-2,0,52880.5427031758,47242.4456971165,68412.1209897884,70728.9964772384,64854.5419603934,74593.5786651730,74638.3314540878,78214.2715379886,78326.2751872438,63818.4625759199
3050424186,8298,-2,0,52855.2095583905,47178.4192764342,68412.4981883899,70722.1947347144,64850.8794836497,74606.5372622895,74637.1998582833,78218.0191886100,78328.6113850338,63815.9925334648
3050490777,8299,-2,0,52852.4718266053,47165.4606793177,68415.0047339354,70730.1037376493,64852.3396072685,74594.6980932807,74636.1899394470,78219.1142813241,78331.7993216014,63822.9159529571
3050490777,8299,-2,0,52865.1627343916,47203.0831978943,68412.0844866979,70735.0073194689,64855.5397115329,74599.4556627385,74640.1931117017,78217.2161206197,78328.9520805448,63824.2665673044
3050490777,8299,-2,0,52877.0992449749,47227.1143991196,68415.6739572607,70739.1200009951,64861.2706967365,74608.1677336637,74648.1872885144,78221.9858577743,78333.6001407312,63825.7023555296
3050490777,8299,-2,0,52885.0325833035,47245.8283168333,68418.2778443808,70747.9902519790,64866.1621108593,74599.7598551591,74661.0728794499,78227.4004828605,78335.1089351372,63832.1268994521
3050490777,8299,-2,0,52877.2452573368,47230.6308635014,68413.5689457103,70744.8631538955,64858.8858281592,74594.9414472172,74657.3495642221,78223.1904597598,78329.4752915082,63831.6888623664
3050490777,8299,-2,0,52867.4989321816,47177.0808297836,68417.7789688110,70740.4219445551,64859.9322500860,74614.0934020165,74655.4149004272,78228.6294202396,78330.7894027651,63831.4820115204
3050490777,8299,-2,0,52886.2006821985,47183.1038397110,68426.8439029441,70753.4048770652,64871.3333820091,74610.9419685394,74661.7907735624,78237.2198141966,78340.1706970156,63838.1985801667
3050490777,8299,-2,0,52902.6757436968,47251.1821034354,68418.2535089871,70750.2534435881,64869.8002522094,74589.1982943168,74649.2458781380,78228.3008924254,78333.1134328582,63834.7672896626
3050499187,8300,-2,0,52890.5932207516,47255.9275051963,68406.9253832450,70730.4931039476,64858.8979958560,74592.7147586986,74638.3192863910,78222.2535471044,78323.7929770919,63822.5509220524
3050499187,8300,-2,0,52870.6138625683,47196.3666292480,68408.2881652891,70730.0794022557,64855.9290778312,74601.3659911397,74646.5446494433,78227.3518120732,78328.4897080655,63822.5874251429
3050499187,8300,-2,0,52866.0631439565,47176.1560848251,68412.0844866979,70742.5026207119,64861.4775475825,74595.6593413297,74657.5929181585,78232.3284000738,78331.6411415427,63830.5816019555
3050499187,8300,-2,0,52870.7233718397,47188.7983218241,68411.7802942773,70738.1100821588,64861.1003489810,74595.9878691440,74654.1981307449,78228.7754326015,78328.6722235179,63825.3981631090
3050499187,8300,-2,0,52884.4728692496,47200.3454661091,68414.0069827959,70736.6742939337,64864.5194717882,74598.8959486846,74651.7889267740,78229.3108112617,78328.4653726719,63822.3684066001
3050499187,8300,-2,0,52896.9325907963,47226.5181819753,68412.8997223850,70741.5900434502,64864.5803102723,74587.6286614266,74648.8200087492,78223.9326892660,78328.5992173369,63829.1458137304
3050499187,8300,-2,0,52885.3854465114,47215.3482362918,68408.1664883209,70735.6522074005,64854.8583205108,74597.0099556771,74644.2692901374,78221.2436282681,78326.0926717914,63831.1778190999
3050499187,8300,-2,0,52865.5277652963,47150.3849029541,68410.9772262870,70728.6922848178,64851.3905269163,74604.5904307978,74647.6640775510,78223.0931181852,78329.3657822368,63827.6126839308
3050525276,8301,-2,0,52861.8652885526,47138.6795786104,68411.0380647711,70726.3682547246,64850.1007510530,74589.1009527422,74638.6721495988,78217.7636669768,78327.8569878307,63825.3738277153
3050525276,8301,-2,0,52879.0825795571,47206.9281900903,68405.8424582277,70727.3781735610,64849.3950246373,74580.1576955773,74630.3616126688,78209.3922915626,78321.2499284559,63821.7721894557
3050525276,8301,-2,0,52889.4494572502,47232.5776949931,68409.8334627857,70731.5395258744,64853.8605693713,74605.5760142404,74638.2949509973,78214.2350348981,78323.7078032141,63823.3783254364
3050525276,8301,-2,0,52885.4827880859,47196.0259337370,68419.5189494567,70740.6166277043,64861.1611874651,74608.4840937811,74655.5730804859,78226.3662286306,78331.5316322713,63834.5482711198
3050525276,8301,-2,0,52874.0451530724,47167.8333801982,68414.8222184831,70734.6787916547,64854.0430848237,74586.4970656221,74647.7979222160,78218.7492504194,78326.8714043881,63832.7961227773
3050525276,8301,-2,0,52869.6769499129,47160.6666067695,68407.2417433624,70726.5629378738,64849.2246768818,74596.9126141025,74638.0272616672,78214.1985318076,78322.7100520746,63825.3981631090
3050525276,8301,-2,0,52884.6310493083,47178.3341025564,68411.7681265805,70735.1776672245,64858.7398157973,74603.3614934187,74642.0304339220,78222.3873917695,78331.0814274888,63830.1313971731
3050525276,8301,-2,0,52900.1326950608,47227.3699207529,68410.8068785315,70741.7117204184,64864.9331734802,74586.2902147761,74640.8745027238,78221.6208268696,78333.8069915771,63830.2165710509
3050552315,8302,-2,0,52885.5922973573,47223.0990591680,68399.0163803101,70728.5706078496,64856.0020840122,74585.0977804874,74631.8947424685,78213.0547683063,78326.2386841533,63822.7212698079
3050552315,8302,-2,0,52863.3132444745,47150.7012630715,68400.7928640462,70721.4890082987,64850.1737572340,74599.4434950417,74634.7663189187,78214.7460781647,78327.3824476546,63819.5455009371
3050552315,8302,-2,0,52871.5507752237,47142.1960429923,68409.7361212111,70736.7594678114,64859.7010638463,74599.5165012226,74645.3522151546,78222.8010934615,78332.5902218949,63831.6036884887
3050552315,8302,-2,0,52895.5941441458,47210.0066173865,68413.1674117151,70748.0389227663,64868.4861409525,74602.7287731839,74650.6329955758,78225.5631606403,78331.7871539045,63833.9155508850
3050552315,8302,-2,0,52906.0948665040,47240.1094993265,68420.3585205375,70750.7766545515,64874.3266354275,74618.4616051759,74658.1404645155,78232.7664371594,78338.2968717048,63830.7519497111
3050552315,8302,-2,0,52898.3683790214,47216.9787076661,68424.0088295844,70748.3187797932,64875.4825666257,74607.7175288813,74655.3297265494,78236.4775846904,78341.8985099644,63831.1413160094
3050552315,8302,-2,0,52882.3313546088,47190.2949485334,68415.8078019257,70738.0127405842,64867.5370606003,74595.2091365473,74642.2737878584,78227.9236938239,78335.6078107069,63827.9168763513
3050552315,8302,-2,0,52873.4611036249,47166.5314366381,68411.3179217981,70732.7562955567,64865.3590428690,74603.3249903282,74637.0051751341,78226.9016072908,78331.5559676649,63819.4481593626
3050620144,8303,1,0,52887.4661226681,47177.8230592898,68416.0754912558,70742.8433162229,64876.9183548508,74612.1952413121,74653.2977211800,78236.0638829985,78336.2770340322,63824.9114552361
3050620144,8303,1,0,52915.2084714244,47249.0649241882,68422.8650660830,70767.4463991989,64890.4975045052,74607.4741749448,74673.7272841457,78242.4884269210,78343.8575091529,63838.7826296142
3050620144,8303,1,0,52909.6843370668,47258.9694294020,68416.8298884588,70756.4346335741,64882.1869675751,74604.4809215264,74668.8967085070,78236.2585661476,78336.9705927511,63831.4576761268
3050620144,8303,1,0,52881.6621312835,47185.2940251391,68415.4306033242,70740.5071184329,64870.5181463219,74610.4430929696,74662.3869907067,78234.3847408369,78335.0115935626,63824.1692257299
3050620144,8303,1,0,52875.5904505689,47162.1510657819,68414.8587215735,70738.7062993031,64865.7849122578,74594.8076025521,74648.6131579032,78227.9723646112,78332.4807126235,63828.1602302878
3050620144,8303,1,0,52895.6549826299,47213.1093800764,68412.9362254755,70741.8212296898,64866.7339926100,74599.6746812813,74639.0006774131,78223.0809504884,78329.4144530241,63832.7961227773
3050620144,8303,1,0,52912.2152180059,47243.7476406765,68414.8952246640,70744.2060982671,64870.8466741362,74607.6201873067,74640.8501673301,78224.5167387135,78330.3513656794,63825.2278153535
3050620144,8303,1,0,52904.4278920393,47231.2270806457,68410.9650585902,70737.1488341098,64866.1986139498,74587.1662889473,74637.2971998578,78220.3918894905,78325.9223240359,63813.2913047702
3050645747,8304,1,0,52882.2461807310,47207.9746120171,68404.9663840565,70727.6458628911,64856.3914503105,74586.6795810744,74632.8073197302,78213.1521098809,78322.4058596541,63810.0546974152
3050645747,8304,1,0,52865.7711192328,47169.2083299392,68405.7694520468,70721.5376790859,64855.4058668678,74603.9820459566,74634.7663189187,78216.6929096563,78322.6005428032,63815.1407946872
3050645747,8304,1,0,52872.7918802996,47170.8996397976,68414.7370446053,70730.7486255809,64864.1666085804,74606.4155853212,74644.3787994088,78223.9935277501,78330.5095457381,63827.0164667864
3050645747,8304,1,0,52899.9501796084,47242.1050016054,68420.2855143566,70744.7901477146,64874.4848154862,74604.9797970961,74651.4360635661,78229.1526312030,78337.4086298367,63841.8367215168
3050645747,8304,1,0,52907.8591825433,47265.5764887769,68423.1084200195,70747.9050781012,64878.9990310075,74620.1407473375,74658.7610170535,78235.8570321525,78342.1661992945,63843.2238389546
3050645747,8304,1,0,52889.4007864629,47200.0777767790,68427.9633310518,70740.2150937092,64874.2049584593,74617.7437110634,74659.9047805549,78238.2175653361,78344.6240740527,63836.0205624354
3050645747,8304,1,0,52876.6490401925,47166.6287782127,68423.9236557066,70737.4530265303,64869.6055690602,74598.0685453007,74649.8177598887,78235.8205290620,78343.2004535245,63825.4103308058
3050645747,8304,1,0,52880.7982248091,47191.9984260886,68414.6275353339,70731.9532275664,64866.5271417640,74596.0122045376,74640.3269563668,78228.5442463619,78334.0990163009,63813.2182985892
3050650620,8305,1,0,52892.3697044877,47219.1567253974,68420.0908312074,70736.8933124765,64875.0810326305,74614.5436067989,74647.8709283970,78238.1688945488,78336.7029034210,63813.8875219145
3050650620,8305,1,0,52900.8870922638,47237.5664506905,68424.9700776334,70748.7568168789,64883.9512836145,74609.1533171064,74661.2067241149,78246.5281022662,78343.5289813387,63824.7776105710
3050650620,8305,1,0,52891.6274749815,47230.2293295062,68421.9159857308,70751.5797225418,64882.5154953894,74610.3944221823,74667.2419017391,78244.9219662856,78343.9305153338,63834.1589048215
3050650620,8305,1,0,52874.9090595468,47177.4580283851,68421.2102593151,70744.8388185019,64880.1549622057,74620.4692751517,74669.5902672259,78247.4163441343,78347.0089426300,63830.3869188064
3050650620,8305,1,0,52885.4219496018,47172.0920740862,68427.4644554821,70759.3427131148,64889.9377904514,74619.4471886186,74683.4736093009,78257.3330170450,78356.8282739662,63832.9786382297
3050650620,8305,1,0,52909.8911879128,47240.6935487740,68424.3738604891,70767.4098961084,64893.7949503442,74601.9013697999,74677.3897608894,78253.4150186680,78350.8052640388,63829.0241367622
3050650620,8305,1,0,52908.3580581131,47260.4052176271,68416.0268204685,70755.4490501315,64885.5695872919,74606.5859330767,74666.9985478027,78246.8079592931,78343.5533167323,63821.3098169765
3050650620,8305,1,0,52886.4075330445,47202.7911731705,68417.1827516667,70747.7590657394,64880.8485209246,74610.2484098204,74664.2851514111,78247.4771826184,78343.3708012800,63823.8528656125
3050678656,8306,1,0,52877.9874868430,47177.2268421455,68419.7501356964,70749.4990463851,64882.6128369639,74603.0451333013,74659.9291159485,78247.8422135231,78345.6218251922,63832.2120733298
3050678656,8306,1,0,52876.7098786766,47190.8181594967,68411.7802942773,70740.4706153424,64877.0035287286,74601.6701835603,74652.9935287594,78239.6533535612,78340.5600633139,63828.9754659749
3050678656,8306,1,0,52880.9685725646,47204.2877998797,68411.0380647711,70735.6035366133,64876.9061871540,74603.8847043820,74651.7159205930,78239.5560119866,78334.9872581690,63825.2764861407
3050678656,8306,1,0,52894.3043682826,47235.3032590814,68414.8343861799,70742.9406577975,64881.8097689736,74605.1014740643,74654.9525279479,78240.7971170626,78339.5379767808,63832.0660609679
3050678656,8306,1,0,52891.8951643116,47234.0499863087,68412.2548344534,70740.3367706774,64877.1252056968,74606.1478959911,74652.2269638596,78238.7042732090,78338.5523933381,63830.5694342587
3050678656,8306,1,0,52873.2542527789,47170.9483105849,68412.6807038422,70732.1600784124,64873.3653873785,74613.8622157769,74654.3319754100,78238.3514100012,78340.5235602234,63826.1647280088
3050678656,8306,1,0,52872.8892218742,47151.1393001571,68415.0169016322,70739.5702057775,64876.1639576478,74604.2375675899,74662.4113261004,78240.9918002117,78340.8399203408,63827.2233176324
3050678656,8306,1,0,52898.9280930753,47218.5726759499,68413.2647532897,70754.9015037744,64880.8485209246,74591.4006474417,74667.1567278613,78239.2518195661,78338.9539273333,63828.0993918037
3050741650,8307,1,0,52900.1448627576,47242.4456971165,68406.2926630102,70741.6508819343,64873.1220334420,74596.6935955597,74654.6361678305,78229.3838174427,78328.9764159385,63815.4936578951
3050741650,8307,1,0,52881.1754234106,47196.7924986368,68405.1488995088,70729.4223466272,64866.4906386735,74593.4934912952,74644.5491471643,78227.2666381955,78328.0760063736,63816.7712660615
3050741650,8307,1,0,52868.8252111353,47168.8676344282,68403.6157697091,70727.6215274974,64863.4365467710,74589.8066791579,74640.2052793985,78223.2026274566,78325.8006470677,63820.2268919592
3050741650,8307,1,0,52874.9333949404,47172.6396204433,68409.9551397539,70738.1344175524,64873.1828719262,74609.3966710428,74659.3207311074,78232.9246172181,78331.5924707554,63828.4400873147
3050741650,8307,1,0,52892.1385182481,47190.3557870175,68417.6572918428,70747.1628485950,64883.4524080447,74613.0956508770,74669.7849503751,78240.6997754880,78337.8344992255,63831.2508252808
3050741650,8307,1,0,52904.6590782789,47233.3077568025,68415.5887833829,70743.7802288783,64883.4524080447,74593.5056589921,74654.0277829894,78232.6812632817,78334.8899165944,63828.1602302878
3050741650,8307,1,0,52892.8929154511,47241.4357782802,68410.2106613872,70731.0041472142,64876.6628332175,74600.3317369097,74640.3756271540,78228.4590724841,78327.7474785593,63823.1228038031
3050741650,8307,1,0,52872.7918802996,47179.8307292656,68415.7226280480,70729.1059865098,64876.9913610317,74617.7558787602,74646.7393325924,78237.8647021283,78334.7195688389,63821.9547049081
3050747740,8308,1,0,52872.0496507934,47160.6666067695,68423.5951278924,70737.7450512541,64884.2919791255,74612.0370612534,74651.4482312629,78242.1842345004,78341.7403299057,63830.6059373492
3050747740,8308,1,0,52889.1087617392,47220.1909796273,68417.9979873539,70739.8865658949,64882.1869675751,74592.6295848208,74644.0259362009,78235.1391380399,78336.5690587560,63824.1570580330
3050747740,8308,1,0,52893.7446542287,47250.6588924720,68414.3476783070,70730.5417747349,64878.0256152617,74605.5516788468,74640.8014965428,78230.4059039758,78331.4707937871,63816.5887506092
3050747740,8308,1,0,52886.7360608587,47224.7903690264,68417.3896025127,70729.6657005637,64878.0134475649,74602.0352144650,74644.8898426754,78232.7177663722,78330.0471732589,63818.2922281644
3050747740,8308,1,0,52876.8802264321,47199.1895349109,68415.7347957448,70730.3105884953,64872.3311331486,74592.5444109431,74643.9407623232,78229.6393390759,78328.5018757623,63822.7942759889
3050747740,8308,1,0,52871.7576260697,47180.7189711337,68414.7127092117,70731.1623272729,64873.0368595643,74607.6931934876,74649.7325860109,78229.9556991933,78331.6776446331,63824.6559336028
3050747740,8308,1,0,52884.0835029513,47188.2264400735,68422.0376626991,70737.3313495621,64881.9314459419,74611.1853224758,74653.9912798989,78236.0395476048,78337.6154806827,63830.4112542000
3050747740,8308,1,0,52902.7000790904,47246.1446769507,68419.9691542392,70741.2736833328,64885.5452518983,74590.4880701800,74651.0588649646,78231.9755368660,78335.6686491911,63834.2319110024
3050777923,8309,1,0,52891.3232825610,47258.6287338910,68407.6311096607,70724.6526094726,64873.7425859800,74584.6475757050,74641.2638690221,78219.3332998669,78324.4013619330,63826.2985726739
3050777923,8309,1,0,52866.3308332866,47193.7140713406,68406.6576939149,70718.1307239755,64870.4694755346,74602.4610838538,74644.9750165531,78223.5433229677,78324.4622004171,63822.9402883507
3050777923,8309,1,0,52864.7125296092,47168.6121127949,68412.0723190011,70729.2763342653,64876.6871686112,74593.3961497207,74650.6086601821,78229.3959851395,78330.8137381587,63829.3283291828
3050777923,8309,1,0,52880.1655045743,47217.4897509326,68408.0448113527,70731.6368674490,64879.0842048853,74589.3321389818,74647.3963882209,78225.9646946354,78329.8159870192,63824.9236229329
3050777923,8309,1,0,52891.0190901404,47251.5227989464,68409.3832580032,70733.0969910677,64879.9967821470,74602.6435993061,74653.6019136006,78227.7411783716,78328.8669066670,63815.6031671665
3050777923,8309,1,0,52891.5909718911,47246.7043910045,68416.4161867669,70732.1844138060,64882.9291970813,74601.9135374967,74653.6870874783,78231.7443506263,78336.3743756068,63821.9790403017
3050777923,8309,1,0,52881.5769574058,47231.9449747583,68415.4184356274,70728.9234710575,64879.4249003963,74599.5043335258,74647.6275744605,78230.0287053743,78338.9782627269,63829.9367140239
3050777923,8309,1,0,52865.7346161423,47193.7627421279,68410.0038105412,70717.3884944693,64873.1950396230,74605.2961572135,74643.2228682106,78227.3518120732,78333.9530039390,63828.7686151289
3050812740,8310,1,0,52874.9698980309,47190.7086502253,68417.4747763905,70729.7022036541,64881.8219366705,74610.4430929696,74654.4293169845,78237.4144973458,78340.6330694948,63831.3846699459
3050812740,8310,1,0,52904.9145999122,47257.9473428689,68419.6527941218,70749.1583508740,64889.8404488768,74596.0608753249,74663.6645988732,78237.9133729155,78339.2581197538,63833.1368182884
3050812740,8310,1,0,52910.0615356683,47284.2295680065,68415.3941002337,70747.2358547760,64886.8836985488,74601.2321464746,74664.0174620810,78233.7398529053,78333.1986067360,63826.8582867277
3050812740,8310,1,0,52889.9726682136,47217.9034526246,68414.1651628546,70734.8369717134,64879.8507697851,74609.8955466126,74659.2720603201,78236.6357647491,78333.2229421297,63820.3364012306
3050812740,8310,1,0,52885.9573282620,47182.7874795936,68414.5301937593,70737.3313495621,64881.2865580102,74598.6647624450,74654.5266585591,78238.1810622457,78334.7439042325,63820.1417180815
3050812740,8310,1,0,52895.5211379649,47215.1413854458,68411.6221142186,70736.7229647210,64882.3329799370,74596.4989124105,74649.2093750475,78235.4189950668,78334.3545379342,63816.6617567901
3050812740,8310,1,0,52908.9299398638,47244.6358825446,68415.6374541702,70740.1785906187,64888.3924929548,74616.5026059874,74657.7267628236,78241.0283033022,78338.9904304237,63820.4337428052
3050812740,8310,1,0,52921.6695184374,47263.0212724441,68424.4833697605,70753.9037526350,64897.1532346674,74607.9243797273,74670.0039689179,78248.0855674595,78343.4803105514,63834.1589048215
3050850909,8311,1,0,52908.6744182305,47252.7152332350,68415.8078019257,70745.2768555875,64887.2122263630,74593.3353112366,74660.4888300024,78237.0494664411,78337.5303068050,63831.5063469141
3050850909,8311,1,0,52880.7008832345,47196.9506786955,68408.6896992843,70729.1668249939,64876.1761253446,74604.1402260153,74652.3364731310,78233.2288096387,78329.1102606035,63821.4801647320
3050850909,8311,1,0,52881.2240941979,47178.4314441310,68413.8366350404,70731.6855382363,64880.2036329930,74604.3105737708,74658.4203215425,78238.9962979328,78331.3977876062,63820.3607366243
3050850909,8311,1,0,52906.7519221324,47241.2897659183,68412.4373499058,70742.4174468341,64883.6349234971,74581.4109683501,74655.3053911558,78232.5109155262,78326.7375597230,63819.9592026291
3050850909,8311,1,0,52907.3968100641,47268.9469407968,68404.5161792740,70734.9221455912,64876.9183548508,74593.5299943857,74652.5311562802,78227.5708306161,78322.5153689255,63812.3178890243
3050850909,8311,1,0,52890.1916867564,47214.6060067856,68408.7383700716,70734.3624315373,64878.6096647092,74606.8657901037,74664.1878098365,78234.8592810130,78329.3049437527,63815.5179932887
3050850909,8311,1,0,52878.0604930239,47173.6008684923,68407.1809048783,70734.8248040166,64876.9913610317,74584.1487001352,74659.8317743739,78235.7231874874,78331.3734522126,63820.5189166830
3050850909,8311,1,0,52876.9410649162,47176.1925879156,68395.5242513219,70726.6724471452,64867.4397190257,74576.3735418654,74642.8456696091,78225.4779867625,78321.4689469987,63812.5612429608
3050871840,8312,1,0,52887.5147934554,47185.5008759851,68395.4269097473,70724.1780692965,64866.5271417640,74585.8765130841,74639.2196959559,78224.0300308406,78315.6892910078,63807.9861889554
3050871840,8312,1,0,52904.3183827679,47214.4964975142,68399.6977713322,70735.0924933467,64873.4870643467,74587.8841830599,74646.1917862354,78227.5464952224,78322.9534060111,63820.5189166830
3050871840,8312,1,0,52901.7631664350,47221.0792214954,68395.2200589013,70731.3691781189,64870.2504569918,74584.9639358224,74643.1741974233,78224.6992541658,78319.8384756244,63820.6892644385
3050871840,8312,1,0,52883.1830933864,47163.9762203053,68398.2376477134,70723.2654920348,64866.0526015879,74599.6016751004,74647.7127483383,78226.0620362100,78324.5960450822,63814.4715713620
3050871840,8312,1,0,52880.3601877235,47140.2857145911,68410.2349967808,70728.5097693655,64877.1495410904,74603.8847043820,74653.7600936593,78235.1513057367,78333.2351098265,63819.6185071181
3050871840,8312,1,0,52900.9357630511,47209.7024249659,68413.6541195881,70738.5602869412,64886.2266429204,74593.2623050556,74655.7312605446,78234.4942501083,78334.3180348437,63829.6203539065
3050871840,8312,1,0,52904.9389353058,47249.8558244817,68410.7582077442,70731.8315505981,64885.2532271745,74595.9878691440,74650.9736910868,78231.8538598977,78329.4509561145,63828.4400873147
3050871840,8312,1,0,52889.9848359104,47211.8439396068,68410.7217046537,70728.9599741479,64884.2919791255,74602.9599594235,74658.0552906378,78235.6136782160,78331.0692597920,63829.6933600875
3050897993,8313,1,0,52883.0979195086,47179.4170275736,68410.7460400474,70737.3556849558,64885.1923886904,74597.4479927627,74662.8006923987,78238.5704285440,78331.6411415427,63834.5969419071
3050897993,8313,1,0,52885.4219496018,47175.4260230157,68409.1034009763,70739.7162181394,64885.1558855999,74601.8770344063,74662.3869907067,78237.8160313410,78330.8867443396,63830.2044033540
3050897993,8313,1,0,52893.2092755685,47184.2232678187,68413.7392934658,70738.8158085745,64888.8061946468,74609.2993294683,74657.7389305204,78239.5316765930,78334.6952334452,63825.3008215344
3050897993,8313,1,0,52903.6978302299,47228.9882244303,68414.4206844879,70738.0614113715,64891.4344171606,74594.6129194030,74651.5334051407,78239.9453782850,78333.6609792153,63828.0872241069
3050897993,8313,1,0,52897.6869879994,47252.3258669367,68409.2494133382,70734.1677483882,64887.0418786075,74597.6670113055,74653.3220565737,78237.8525344314,78328.4532049751,63819.4238239689
3050897993,8313,1,0,52868.6548633798,47195.4175488958,68408.5680223161,70720.6737726115,64880.2644714771,74609.4331741333,74655.9016083001,78241.0161356054,78329.8159870192,63807.2682948428
3050897993,8313,1,0,52866.3795040739,47166.6044428191,68413.6541195881,70726.7089502357,64886.1779721331,74606.8901254973,74656.7776824714,78246.7349531122,78333.3567867947,63816.3088935822
3050897993,8313,1,0,52892.9050831479,47226.6763620339,68417.2679255445,70739.1808394792,64893.6976087696,74599.5165012226,74660.5740038801,78247.6596980707,78333.9895070295,63828.4887581020
3050930107,8314,1,0,52904.0871965282,47265.6616626547,68416.4405221605,70735.6400397037,64894.5250121536,74607.8148704559,74661.0363763594,78245.9683882123,78331.5316322713,63826.9069575150
3050930107,8314,1,0,52898.3683790214,47241.2897659183,68419.3607693980,70734.8004686229,64893.1257270190,74612.8644646374,74662.7398539146,78250.5677776114,78334.6952334452,63826.5905973976
3050930107,8314,1,0,52894.3895421603,47219.0715515196,68419.6649618186,70739.9595720759,64893.6854410728,74601.7431897412,74664.8448654650,78248.3532567896,78334.0381778168,63829.9975525081
3050930107,8314,1,0,52883.2560995673,47201.2580433708,68416.3918513732,70734.0339037231,64889.2929025197,74610.2119067300,74659.8074389803,78247.7813750389,78334.6343949611,63823.7190209474
3050930107,8314,1,0,52890.0335066977,47205.4437310779,68420.9912407723,70735.3236795863,64896.3745020707,74616.9284753762,74663.7132696605,78254.9968192550,78339.8665045950,63821.1881400082
3050930107,8314,1,0,52901.9700172810,47260.7094100477,68418.7888876473,70734.5814500801,64897.9684703545,74598.9689548656,74653.3950627546,78248.2559152150,78336.1310216703,63824.0232133680
3050930107,8314,1,0,52897.1637770360,47292.2480802128,68411.5977788250,70726.2952485437,64892.3104913318,74598.1902222689,74643.7947499613,78241.6123527497,78330.8137381587,63821.6505124875
3050930107,8314,1,0,52877.0140710972,47232.8453843232,68415.7834665321,70720.8927911543,64888.3803252580,74619.4593563154,74652.5554916738,78246.2847483297,78335.4009598610,63822.2467296318
3050964989,8315,1,0,52876.5273632243,47186.3039439754,68423.6194632861,70734.1434129945,64892.8702053857,74611.7572042265,74662.7885247019,78255.2645085851,78344.1617015735,63833.1003151979
3050964989,8315,1,0,52893.4039587177,47211.8804426973,68416.5621991287,70738.5846223349,64891.7142741875,74591.4736536226,74658.7488493567,78246.6132761440,78337.0801020225,63830.1192294763
3050964989,8315,1,0,52905.2796308169,47228.8300443716,68408.0326436559,70735.2385057086,64886.5551707346,74597.4358250659,74659.8196066771,78240.7362785785,78326.2265164565,63818.1948865898
3050964989,8315,1,0,52902.2255389143,47212.8781938367,68411.4152633726,70736.4309399972,64883.3794018638,74603.2033133600,74666.7551938662,78243.1333148526,78330.0228378652,63821.9425372113
3050964989,8315,1,0,52891.2137732895,47198.2161191651,68416.0268204685,70736.5891200559,64878.6096647092,74603.8360335948,74666.3658275678,78241.3689988133,78333.6609792153,63831.2508252808
3050964989,8315,1,0,52875.7607983244,47164.3169158164,68416.6230376129,70726.4412609056,64871.1265311631,74606.9752993751,74654.5144908623,78235.0539641622,78333.2594452201,63833.1976567725
3050964989,8315,1,0,52869.1537389495,47143.8751851538,68415.4549387179,70715.2713152221,64867.0990235147,74600.6237616335,74640.1079378239,78229.0552896284,78331.6411415427,63830.6302727428
3050964989,8315,1,0,52884.1930122227,47198.1917837714,68409.1034009763,70713.9085331779,64865.8092476515,74582.0436885849,74628.4026134803,78219.5888215002,78325.1435914392,63830.2287387477
3050994117,8316,1,0,52883.6454658657,47231.3487576140,68398.4566662562,70704.5759097148,64857.1580152103,74581.9950177976,74622.0875788292,78210.8280797877,78315.5067755554,63822.3319035096
3050994117,8316,1,0,52864.8585419711,47177.6770469280,68399.7099390290,70701.7651717487,64854.7244758458,74596.4259062296,74630.9456621163,78215.8411708787,78318.9258983627,63821.5410032161
3050994117,8316,1,0,52852.7151805418,47132.4253824434,68399.1015541878,70705.7196732161,64854.2499356697,74581.3379621691,74633.5252138427,78217.4716422530,78316.1638311839,63826.3715788548
3050994117,8316,1,0,52862.3154933351,47159.4011662999,68397.6414305691,70711.6210061752,64855.7830654694,74582.6520734260,74634.3647849235,78214.9164259202,78315.1539123476,63830.7276143174
3050994117,8316,1,0,52871.3074212872,47187.2408566308,68399.6612682417,70706.5714119937,64857.6568907801,74593.1041249969,74632.2111025858,78218.8587596908,78317.3440977757,63827.0408021801
3050994117,8316,1,0,52874.7752148818,47198.6784916444,68402.6301862665,70704.6854189862,64858.3869525895,74589.2226297104,74632.6613073683,78220.4648956715,78321.8948163875,63831.2143221903
3050994117,8316,1,0,52868.5210187148,47196.0989399179,68400.9388764081,70701.4488116313,64852.6803027795,74590.3055547276,74628.1835949375,78218.2260394560,78322.7222197715,63833.1611536820
3050994117,8316,1,0,52860.8553697163,47158.4764213414,68406.9375509418,70706.8391013238,64856.2454379486,74612.2317444026,74638.0515970609,78225.5388252466,78328.3680310973,63838.8069650079
3051025823,8317,1,0,52860.5390095989,47131.2086127611,68413.3620948643,70712.8012727671,64859.5185483940,74606.4642561085,74645.2305381864,78232.1580523183,78331.5316322713,63842.8223049594
3051025823,8317,1,0,52876.1988354100,47184.0407523664,68408.1421529273,70718.3010717310,64858.3869525895,74581.2527882914,74644.0259362009,78225.2589682197,78326.7375597230,63846.1684215857
3051025823,8317,1,0,52871.3560920745,47218.3779928007,68393.7477675857,70700.6457436410,64842.1552450277,74579.1477767410,74629.2178491674,78213.4441346046,78313.4504347924,63832.3337502981
3051025823,8317,1,0,52850.5980012946,47170.3034226533,68392.3606501479,70692.3838774982,64835.8280426797,74594.6980932807,74627.6725516709,78213.8821716902,78314.7645460492,63829.7298631779
3051025823,8317,1,0,52840.8151730489,47131.5249728785,68394.6725125443,70702.7385874945,64837.1664893303,74585.4506436953,74640.5094718191,78217.9340147323,78316.8573899028,63839.6343683918
3051025823,8317,1,0,52841.2045393473,47137.0126041457,68385.0843674478,70701.4974824185,64832.0317212710,74569.4622900699,74634.5107972854,78208.5648881786,78308.3278344299,63836.9696427876
3051025823,8317,1,0,52841.0341915917,47144.7390916283,68375.9950979211,70687.6506434340,64824.0132090647,74573.3802884469,74620.9681507215,78201.6536363832,78298.6301800620,63824.4247473631
3051025823,8317,1,0,52850.8291875342,47163.4651770388,68376.5304765813,70687.9670035514,64824.8771155391,74570.9832521728,74612.1222351312,78201.6171332927,78297.9001182527,63827.5275100530
3051052594,8318,1,0,52854.6741797303,47176.0222401600,68377.1510291192,70694.3915474740,64828.0285490162,74579.6831554012,74615.5170225448,78204.5738836207,78303.2539048547,63833.4896814962
3051052594,8318,1,0,52847.0693692159,47135.4429712555,68386.7391742157,70701.2906315726,64834.1245651245,74599.5773397067,74632.6856427619,78214.9407613138,78310.8465476723,63832.1755702394
3051052594,8318,1,0,52843.9301034356,47106.3743435455,68395.8527791361,70708.4574050013,64840.7924629835,74594.4304039506,74643.1863651201,78224.4072294421,78314.7280429588,63836.4951026115
3051052594,8318,1,0,52859.8819539705,47165.7040332542,68394.8185249061,70717.1694759265,64842.8609714434,74572.6137235471,74641.5802291395,78219.6374922875,78309.8974673201,63841.1431627979
3051052594,8318,1,0,52859.1275567674,47204.8596816304,68381.9937724548,70703.7120032403,64832.1533982392,74571.4212892584,74629.1083398960,78208.4797143008,78296.2696468784,63830.6667758333
3051052594,8318,1,0,52841.8494272789,47160.7152775568,68380.9595182248,70693.7223241487,64826.4345807324,74590.8044302974,74624.5454535874,78210.1345210688,78300.9177070647,63832.1025640584
3051052594,8318,1,0,52833.0643501727,47116.8385628133,68385.6927522889,70700.1103649807,64826.9699593926,74578.6367334744,74626.5531235632,78213.4563023014,78308.9970577552,63840.9606473455
3051052594,8318,1,0,52827.5523835119,47102.0913142638,68380.4606426551,70698.3217135478,64822.3705699936,74572.9544190581,74621.6373740467,78204.3183619874,78306.7338661461,63833.0516444106
3051081785,8319,1,0,52839.2455401588,47109.6839570814,68384.4516472130,70706.8391013238,64826.7631085466,74592.9824480287,74631.3958668987,78208.1633541835,78312.6717021957,63831.9200486061
3051081785,8319,1,0,52858.1906441121,47155.8116957371,68389.8784399960,70718.5687610611,64832.5427645375,74579.4641368584,74637.8934170022,78211.0836014210,78316.8330545091,63838.9529773697
3051081785,8319,1,0,52848.9675299203,47179.2710152118,68382.9915235942,70703.6755001499,64823.6238427663,74570.5208796935,74620.7369644818,78201.9821641974,78307.4152571682,63837.9308908366
3051081785,8319,1,0,52818.5239524693,47125.8669938559,68380.4484749582,70687.7479850086,64818.0510376214,74594.6737578871,74617.6950402761,78203.5883001780,78311.5401063912,63833.4410107089
3051081785,8319,1,0,52817.4288597552,47095.1800624684,68397.0938842120,70703.9553571768,64834.5260991197,74603.8968720789,74638.6113111147,78222.9227704297,78328.6843912147,63843.6862114339
3051081785,8319,1,0,52838.7466645890,47148.0973759514,68400.2818207797,70714.8941166206,64845.7690509841,74586.7404195585,74639.1710251686,78223.6649999359,78328.7817327893,63846.3266016444
3051081785,8319,1,0,52850.5858335977,47192.0592645727,68391.8496068814,70709.9175286200,64844.0412380352,74588.3587232360,74634.4621264981,78219.8808462239,78324.7663928377,63835.5095191688
3051081785,8319,1,0,52846.4366489811,47170.9239751912,68391.8617745782,70711.3046460578,64844.8078029351,74596.7544340438,74645.4495567292,78222.0101931680,78326.0561687009,63831.3846699459
3051126259,8320,1,0,52843.1148677485,47149.7886858098,68394.2223077618,70722.9734673111,64847.6672116885,74588.2978847519,74656.6925085936,78224.4802356230,78327.7839816498,63837.9187231398
3051126259,8320,1,0,52840.1946205109,47133.0581026782,68392.4458240257,70719.7976984403,64846.4991127934,74592.1063738574,74650.6938340599,78221.0611128158,78323.0142444952,63838.2715863476
3051126259,8320,1,0,52843.3217185944,47127.1932728096,68394.9645372680,70713.9085331779,64848.5432858597,74596.1338815058,74640.9718442984,78221.4991499014,78319.8506433212,63834.1102340342
3051126259,8320,1,0,52858.5191719263,47177.1781713582,68396.0352945884,70719.8342015307,64852.5707935081,74583.9540169861,74636.9686720436,78220.7204173047,78321.0065745194,63834.8889666309
3051126259,8320,1,0,52857.8134455106,47216.8935337883,68389.5620798786,70715.7823584887,64849.1638383977,74581.0337697486,74634.8636604933,78214.8069166488,78316.2368373648,63834.6334449976
3051126259,8320,1,0,52832.1152698205,47165.5093501050,68389.0632043089,70706.0847041208,64846.8033052140,74601.3538234429,74636.3481195057,78218.8587596908,78316.9547314774,63828.3670811338
3051126259,8320,1,0,52827.4672096342,47124.5650502958,68403.0438879585,70716.7557742345,64859.9930885701,74611.4043410186,74650.5599893949,78232.8881141277,78330.7407319778,63843.1873358641
3051126259,8320,1,0,52850.0017841502,47168.2105787997,68409.5292703651,70729.5805266859,64869.5203951825,74599.0662964402,74651.7524236835,78236.4167462063,78335.7781584625,63850.4879539579
3051157570,8321,1,0,52859.8819539705,47207.6582518997,68407.3634203306,70722.4745917413,64866.1377754657,74600.3195692129,74645.8754261180,78226.9502780781,78328.2950249164,63837.4685183573
3051157570,8321,1,0,52853.7372670749,47198.8975101872,68405.1245641152,70714.9549551047,64860.9665043159,74602.0230467681,74640.3999625477,78225.8065145767,78326.6767212389,63832.1634025425
3051157570,8321,1,0,52846.0959534701,47187.0340057848,68405.4530919294,70717.5831776185,64857.7298969610,74597.9833714229,74641.7262415014,78223.6284968454,78328.2220187354,63839.1963313062
3051157570,8321,1,0,52839.2090370683,47157.7098564415,68405.7329489563,70718.5079225770,64858.2409402276,74608.0825597860,74647.9804376684,78227.3396443764,78329.7308131415,63842.0435723628
3051157570,8321,1,0,52839.7930865158,47137.7426659551,68413.2890886834,70722.3285793794,64864.2152793677,74611.3069994440,74657.3008934348,78232.0850461374,78333.0890974646,63840.3035917171
3051157570,8321,1,0,52857.2658991535,47189.2606943034,68415.4549387179,70726.8671302944,64871.5645682487,74597.4236573691,74657.7754336108,78232.8272756436,78336.7637419051,63842.1652493310
3051157570,8321,1,0,52860.6363511735,47232.1396579074,68406.4265076752,70714.4925826255,64864.4586333041,74588.4682325074,74642.1764462838,78224.1273724152,78327.6258015911,63838.3202571349
3051157570,8321,1,0,52838.2721244129,47176.9591528154,68399.3084050338,70698.2365396700,64851.5608746718,74598.6525947482,74630.9943329036,78220.6595788206,78321.7609717224,63831.4941792173
3051192808,8322,1,0,52824.1454284015,47121.6934738456,68400.1114730241,70699.9035141347,64850.3562726863,74595.6836767234,74630.3859480624,78219.4671445320,78320.4468604656,63836.1422394036
3051192808,8322,1,0,52835.1693617231,47145.7611781614,68400.2574853860,70709.6985100772,64852.5464581144,74588.4925679010,74633.4035368745,78219.1264490209,78320.8848975512,63837.8822200493
3051192808,8322,1,0,52847.3248908492,47175.9857370696,68401.1578949509,70711.4384907229,64853.3373584079,74594.5642486157,74638.3071186942,78216.8267543214,78317.2954269884,63831.7497008506
3051192808,8322,1,0,52856.1464710458,47183.6148829776,68405.7816197436,70715.0401289825,64856.4279534010,74598.3605700244,74643.1376943329,78219.8200077398,78321.9313194780,63836.5924441861
3051192808,8322,1,0,52854.4916642779,47186.4864594278,68405.2462410834,70718.9216242690,64854.8826559045,74590.0135300039,74645.4373890324,78218.4450579988,78321.4202762114,63842.0192369691
3051192808,8322,1,0,52844.4411467022,47154.4367459961,68403.8104528583,70720.4425863719,64852.6559673859,74602.2177299173,74654.9890310384,78218.8587596908,78319.3030969642,63837.3225059955
3051192808,8322,1,0,52845.5119040226,47129.1401043012,68407.8136251130,70726.5507701770,64858.5207972545,74604.8216170374,74662.1558044671,78223.8961861755,78324.8272313218,63838.9894804602
3051192808,8322,1,0,52860.3443264497,47182.4224486889,68406.4265076752,70721.3429959368,64860.8083242572,74584.5137310399,74646.9705188321,78219.9416847081,78322.9047352238,63843.0048204118
3051223541,8323,1,0,52859.5412584594,47228.6353612224,68398.9312064323,70704.3690588688,64853.0696690778,74589.2347974072,74626.8938190742,78212.1786941350,78317.0155699615,63836.2274132814
3051223541,8323,1,0,52837.7975842368,47183.7487276426,68401.0727210731,70692.7854114933,64848.6406274343,74604.8581201279,74628.9258244437,78215.1841152503,78318.9867368468,63831.1534837062
3051223541,8323,1,0,52830.0710967543,47138.0468583756,68406.0493090737,70702.1180349565,64850.2345957181,74596.0487076281,74632.5152950064,78217.4716422530,78321.6879655415,63838.5879464650
3051223541,8323,1,0,52838.0287704765,47152.0762128125,68403.9808006138,70710.5624165516,64851.8042286082,74587.2879659155,74631.6270531383,78214.1985318076,78317.8429733455,63834.1589048215
3051223541,8323,1,0,52849.4055670059,47178.2732640723,68402.9830494743,70712.8499435544,64853.4590353762,74594.3452300729,74637.8204108212,78215.7438293041,78317.1372469297,63824.2787350013
3051223541,8323,1,0,52861.6462700098,47207.8285996552,68406.8645447609,70714.9792904984,64856.0385871026,74592.0698707670,74640.0836024303,78217.7514992799,78320.4225250719,63824.8992875392
3051223541,8323,1,0,52859.1762275547,47226.9197159704,68402.5815154792,70714.1032163271,64850.3562726863,74585.6209914508,74632.9168290016,78209.2462792007,78317.2345885043,63824.4977535441
3051223541,8323,1,0,52842.6524952692,47184.3206093933,68402.2043168777,70707.9098586442,64842.9096422307,74598.1050483911,74631.7974008939,78209.8181609514,78317.7212963772,63817.8420233819
3051242854,8324,1,0,52838.3572982907,47143.0234463762,68408.7992085557,70714.5899242000,64849.7478878452,74604.8824555215,74643.6730729931,78217.3134621943,78326.1900133660,63825.0452999011
3051242854,8324,1,0,52860.5025065084,47195.7582444069,68408.7992085557,70728.4245954877,64854.7731466330,74585.9981900523,74647.7857545192,78215.1111090694,78327.0904229309,63834.4752649389
3051242854,8324,1,0,52872.8892218742,47253.0072579588,68402.1191429999,70725.0419757709,64854.7609789362,74592.1915477352,74645.6442398784,78212.0570171668,78318.8650598786,63830.7154466206
3051242854,8324,1,0,52862.3519964255,47230.1563233253,68406.6455262181,70718.1915624596,64855.3693637774,74610.8689623584,74649.8785983728,78219.7226661653,78325.7398085835,63827.0164667864
3051242854,8324,1,0,52855.2582291778,47198.0336037127,68414.3233429133,70723.4115043967,64857.8029031420,74604.6147661914,74651.0832003582,78225.5509929434,78333.9043331517,63832.6744458091
3051242854,8324,1,0,52856.4141603759,47194.8943379324,68413.4837718325,70722.4137532572,64854.6149665744,74596.1582168995,74646.1917862354,78217.7271638863,78330.2661918017,63828.5009257988
3051242854,8324,1,0,52861.5002576479,47199.0800256395,68415.6861249575,70721.9148776874,64854.8704882076,74603.7143566265,74650.3409708520,78218.4450579988,78327.2972737769,63822.8672821698
3051242854,8324,1,0,52875.0185688182,47228.5501873447,68417.8154719015,70728.2055769449,64860.3702871716,74593.9071929872,74653.4193981482,78218.9195981749,78328.0516709799,63828.4400873147
3051277081,8325,1,0,52873.3759297471,47243.7233052829,68406.4386753721,70721.5498467828,64853.7753954936,74581.0094343549,74641.6897384109,78208.9420867801,78318.4391904898,63826.9312929087
3051277081,8325,1,0,52848.8458529521,47183.8217338235,68397.4345797231,70707.9341940379,64845.2093369302,74596.8152725279,74636.5184672612,78208.9420867801,78314.2535027827,63818.2922281644
3051277081,8325,1,0,52841.9346011566,47127.6313098952,68403.9808006138,70718.7147734230,64853.5442092539,74602.7896116680,74651.0710326614,78220.0998647668,78322.6005428032,63824.5464243314
3051277081,8325,1,0,52860.7823635354,47166.1785734303,68405.3435826580,70727.0983165340,64860.3581194748,74586.7890903458,74647.0313573162,78220.1972063413,78324.8637344123,63830.4720926841
3051277081,8325,1,0,52874.0816561628,47219.7651102385,68403.0560556553,70719.3231582642,64859.6402253622,74592.8242679700,74636.5549703516,78216.0115186342,78320.2521773164,63825.3129892312
3051277081,8325,1,0,52868.2289939910,47205.5167372589,68404.3579992153,70715.0157935888,64858.5694680418,74598.9689548656,74636.7009827135,78216.9362635928,78319.2300907833,63822.0642141795
3051277081,8325,1,0,52858.5921781072,47175.7910539204,68407.1687371814,70718.4349163961,64854.9313266917,74590.2933870308,74639.1588574717,78216.2427048739,78320.0453264704,63825.7388586200
3051277081,8325,1,0,52852.1067957006,47158.0018811653,68403.0073848680,70719.0676366309,64852.1205887256,74596.4137385328,74642.1034401029,78218.6275734512,78322.5762074096,63825.0087968106
3051320451,8326,1,0,52863.3254121714,47156.0915527641,68410.4905184141,70730.9554764269,64862.9741742917,74615.9428919336,74661.3162333863,78229.8948607092,78331.7749862077,63827.8438701704
3051320451,8326,1,0,52888.3786999298,47205.2733833224,68420.2368435693,70746.1285943651,64875.4217281416,74605.6003496341,74674.3478366837,78237.3779942553,78339.4284675094,63840.7416288027
3051320451,8326,1,0,52888.8897431964,47248.0185022614,68411.9628097297,70734.7274624420,64865.2617012944,74583.7228307464,74655.7555959382,78225.2711359165,78325.6181316153,63838.9408096729
3051320451,8326,1,0,52856.0491294712,47194.3589592722,68401.5107581588,70709.4429884439,64847.8497271408,74590.5732440577,74637.6378953689,78215.1476121598,78313.0367331004,63824.7411074805
3051320451,8326,1,0,52837.6272364813,47139.0932803024,68403.4454219536,70704.6002451084,64846.0245726174,74597.6183405182,74635.7032315740,78218.8587596908,78315.7988002792,63823.1228038031
3051320451,8326,1,0,52856.1464710458,47183.9555784886,68411.2692510108,70721.2091512717,64855.8925747408,74592.3497277939,74642.3832971298,78221.1706220872,78319.4369416293,63830.9831359507
3051320451,8326,1,0,52869.8229622748,47242.7620572339,68411.9506420329,70723.1803181570,64859.0805113084,74601.3051526556,74645.3157120642,78221.9980254711,78320.5928728274,63827.9533794418
3051320451,8326,1,0,52876.6003694052,47252.3015315431,68420.7235514422,70728.6071109401,64867.5613959940,74616.6486183493,74658.1039614251,78234.2752315655,78330.6798934937,63833.0516444106
3051339071,8327,1,0,52869.9203038494,47241.9589892436,68419.2390924298,70730.8216317618,64865.0426827516,74597.3506511881,74658.6636754789,78232.9002818245,78330.8745766428,63835.5825253498
3051339071,8327,1,0,52848.8823560425,47210.5054929563,68409.5779411524,70717.0721343519,64854.7244758458,74597.3263157945,74648.2724623921,78225.2102974324,78324.3040203584,63823.5486731919
3051339071,8327,1,0,52844.0274450102,47189.9177499318,68412.3886791185,70717.6926868899,64853.9822463396,74605.8193681769,74649.2215427443,78225.4171482784,78324.2188464807,63820.8961152845
3051339071,8327,1,0,52860.9283758972,47236.9093950620,68414.3233429133,70725.3096651011,64860.1269332351,74594.7102609775,74647.1530342844,78226.0377008163,78326.0196656105,63828.7442797353
3051339071,8327,1,0,52873.4124328376,47288.5125972881,68410.8433816220,70723.5575167585,64858.4356233768,74592.8607710605,74642.3954648267,78222.5455718282,78322.7708905587,63832.0538932711
3051339071,8327,1,0,52862.3033256382,47246.9964157283,68412.3400083312,70720.8441203670,64858.4721264672,74619.0456546234,74652.6893363389,78230.0530407679,78326.7497274198,63834.4022587580
3051339071,8327,1,0,52858.5435073199,47189.3702035748,68422.4635320879,70729.3858435367,64868.3157931970,74612.5724399136,74661.4379103546,78239.8967074977,78335.6564814942,63839.7438776632
3051339071,8327,1,0,52866.0753116533,47203.8010920068,68417.9371488697,70731.9045567791,64869.9462645713,74592.7999325763,74655.2323849749,78236.0882183921,78329.5604653859,63835.5338545625
3051368235,8328,1,0,52876.1866677132,47235.7534638639,68413.5446103167,70724.7864541377,64865.0426827516,74600.6967678144,74649.1242011697,78229.0917927189,78322.9412383143,63825.8605355882
3051368235,8328,1,0,52876.7098786766,47243.3339389846,68415.7104603511,70720.5764310369,64868.0116007764,74606.3425791403,74648.2602946953,78228.5807494523,78320.5685374338,63824.9357906297
3051368235,8328,1,0,52873.3637620503,47245.8283168333,68420.9912407723,70724.1293985092,64870.0557738427,74605.3204926071,74652.3121377373,78229.8583576188,78326.8592366912,63833.0638121074
3051368235,8328,1,0,52855.9274525030,47205.5045695620,68418.6793783759,70718.7512765135,64864.4586333041,74608.9708016540,74651.2413804169,78231.4523259026,78327.7718139530,63831.5671853982
3051368235,8328,1,0,52849.0162007076,47160.9829668869,68420.9547376818,70718.1063885819,64866.6488187322,74617.6950402761,74653.5897459038,78236.2585661476,78332.3347002616,63833.6356938581
3051368235,8328,1,0,52864.3961694918,47197.9605975318,68418.9227323124,70724.3727524457,64870.1652831141,74595.7566829043,74647.3477174336,78234.2265607782,78332.0061724474,63840.3644302012
3051368235,8328,1,0,52877.6711267256,47255.2096110838,68413.4351010453,70723.0099704015,64868.5834825271,74599.0297933497,74641.7870799855,78228.4834078778,78325.5937962217,63837.6632015065
3051368235,8328,1,0,52863.4105860491,47223.2694069235,68415.9294788940,70713.2271421559,64865.8214153483,74618.1817481490,74641.0448504793,78232.3770708611,78330.5582165254,63834.1224017310
3051400692,8329,1,0,52858.9085382246,47176.2534263997,68427.5861324503,70723.9712184505,64873.7182505864,74617.4516863396,74651.9106037422,78243.2914949113,78340.7669141599,63842.4816094484
3051400692,8329,1,0,52863.6296045919,47182.3737779016,68423.5707924988,70728.8261294829,64875.4703989289,74603.3493257218,74652.2756346469,78237.3658265585,78337.4694683209,63843.4793605879
3051400692,8329,1,0,52871.0762350476,47202.4748130531,68416.4891929478,70725.3583358883,64873.6087413150,74604.4565861327,74653.0665349404,78232.1337169247,78330.1931856207,63831.0439744348
3051400692,8329,1,0,52877.9996545398,47220.5073397447,68415.2115847814,70725.5286836439,64875.3243865670,74599.2244764989,74651.6550821089,78234.9809579812,78327.5162923197,63824.5585920282
3051400692,8329,1,0,52875.1159103928,47232.7602104454,68407.9718051718,70720.3209094036,64870.0679415395,74589.2469651040,74643.0038496678,78227.4978244351,78324.8515667155,63825.0939706884
3051400692,8329,1,0,52853.9076148304,47193.7384067343,68405.9032967119,70709.7350131677,64863.1445220472,74600.9401217509,74639.9254223716,78224.6262479849,78322.4301950477,63825.5563431677
3051400692,8329,1,0,52841.5817379488,47147.0509540246,68411.2935864044,70711.5966707816,64864.9818442675,74610.4187575760,74646.5933202306,78229.6515067728,78328.2950249164,63831.6280238823
3051400692,8329,1,0,52860.6606865671,47190.7573210126,68412.3400083312,70727.5485213165,64868.9363457350,74596.7909371343,74652.4338147056,78227.6073337065,78330.0106701684,63837.6510338097
3051435771,8330,1,0,52884.2416830100,47259.4196341845,68411.6464496123,70735.5548658260,64870.7006617743,74605.3813310913,74658.6393400853,78227.3639797701,78328.9399128480,63832.7961227773
3051435771,8330,1,0,52880.3966908139,47242.0806662118,68421.3562716770,70733.0483202804,64873.1828719262,74621.4183555039,74664.6745177095,78234.5185855020,78336.6298972401,63828.8416213099
3051435771,8330,1,0,52865.3939206313,47197.6320697176,68426.9899153060,70728.0352291894,64873.4018904690,74609.4696772238,74659.2112218360,78236.2220630572,78339.0512689078,63833.1611536820
3051435771,8330,1,0,52856.6696820092,47187.7032291101,68419.3607693980,70720.9049588511,64868.3644639843,74596.6935955597,74646.0701092672,78228.6050848460,78331.5803030586,63829.7785339652
3051435771,8330,1,0,52857.2537314567,47190.6721471349,68414.5910322434,70717.1329728360,64868.4739732557,74606.5007591990,74646.8610095607,78229.2134696871,78327.7109754689,63824.5099212409
3051435771,8330,1,0,52876.9167295226,47224.9363813883,68419.8718126646,70730.1402407398,64878.9016894329,74610.2362421236,74659.1503833519,78237.6943543727,78333.5271345502,63829.1701491241
3051435771,8330,1,0,52890.5688853579,47264.1041974613,68423.1084200195,70734.8856425007,64883.7200973748,74608.2164044510,74656.1936330239,78237.8403667346,78333.8678300613,63831.8105393347
3051435771,8330,1,0,52877.5251143637,47230.3266710808,68426.1868473157,70729.6048620795,64879.8142666947,74619.7878841296,74655.9137759969,78238.3635776980,78336.1431893672,63828.2819072560
3051464131,8331,1,0,52859.6629354277,47171.3011737927,68428.7055605580,70723.2289889443,64876.7601747921,74618.3642636013,74653.7965967498,78238.3514100012,78339.4162998125,63833.2219921661
3051464131,8331,1,0,52867.2799136388,47201.9150989993,68424.3981958827,70724.5309325044,64874.2536292466,74598.8351102005,74645.7902522403,78231.6226736581,78338.7714118809,63841.9705661818
3051464131,8331,1,0,52876.4421893465,47258.1298583213,68421.1980916183,70720.1748970418,64871.4428912805,74605.6976912087,74640.7771611492,78227.2423028018,78334.6222272643,63842.7006279912
3051464131,8331,1,0,52871.9401415220,47245.3416089603,68424.2765189145,70718.7026057262,64870.8953449234,74616.1132396891,74646.6541587147,78233.0584618832,78338.6740703063,63840.8389703773
3051464131,8331,1,0,52863.5565984110,47208.5951645551,68424.8849037556,70722.9734673111,64869.3013766396,74604.5660954041,74648.0047730620,78235.9300383334,78339.5014736903,63839.8655546315
3051464131,8331,1,0,52856.1343033490,47186.3891178532,68417.4504409968,70717.0843020487,64863.0471804726,74601.8892021031,74641.3855459904,78224.8209311341,78332.9309174059,63829.5595154224
3051464131,8331,1,0,52859.5290907626,47177.8838977740,68422.2566812419,70719.0554689341,64869.5325628793,74622.7933052449,74647.2260404654,78231.9512014723,78335.4861337387,63824.5707597250
3051464131,8331,1,0,52880.4696969949,47216.7961922137,68431.2607768909,70731.3935135125,64882.5033276925,74618.6197852346,74658.2256383933,78236.9764602602,78341.9471807517,63830.2530741413
3051486855,8332,1,0,52888.4760415044,47264.2988806105,68425.6393009587,70730.4200977667,64877.2225472714,74598.7012655355,74656.7898501682,78232.5839217071,78336.9949281448,63830.4355895937
3051486855,8332,1,0,52858.7260227723,47215.8349441647,68414.0191504927,70707.6056662237,64858.8249896751,74604.8581201279,74643.8312530518,78223.8596830850,78328.1855156450,63824.0110456712
3051486855,8332,1,0,52837.7124103591,47148.0852082546,68415.6496218670,70703.4078108198,64855.1381775377,74604.7607785533,74643.1985328170,78223.5068198772,78328.3315280068,63828.9389628845
3051486855,8332,1,0,52846.5948290398,47167.9307217728,68412.6442007518,70706.4132319350,64854.6393019680,74586.6309102871,74633.6712262046,78217.4108037689,78321.8826486907,63830.8127881952
3051486855,8332,1,0,52862.1451455795,47222.1256434222,68413.1795794120,70707.0946229571,64858.3626171958,74604.6269338882,74631.2133514464,78218.0556917005,78322.4666981382,63824.6194305123
3051486855,8332,1,0,52868.2533293847,47231.3609253108,68424.1791773399,70715.2469798285,64867.9020915050,74623.3530192988,74651.0223618741,78231.3793197216,78330.6677257968,63826.5905973976
3051486855,8332,1,0,52867.2190751547,47225.2040707184,68431.4554600400,70725.0784788614,64873.8399275546,74612.3412536740,74655.8651052097,78238.9111240550,78340.5113925266,63837.2373321177
3051486855,8332,1,0,52853.7372670749,47201.3310495518,68422.2688489387,70713.0811297940,64867.0868558179,74604.2010644994,74645.0358550372,78231.0751273011,78334.1720224818,63836.5437733988
3051549102,8333,1,0,52844.1247865848,47171.6053662133,68415.8078019257,70703.2374630642,64862.4752987220,74604.7607785533,74637.4918830070,78228.1670477604,78330.7163965841,63828.4644227084
3051549102,8333,1,0,52858.0689671439,47199.7249135711,68412.3035052407,70708.3600634267,64862.3414540569,74589.1861266199,74633.7198969919,78224.3585586548,78327.8569878307,63823.8285302188
3051549102,8333,1,0,52869.8594653653,47250.5737185942,68406.4386753721,70712.4240741656,64858.9831697338,74588.3100524487,74634.1701017743,78218.0435240037,78319.9114818053,63822.3440712064
3051549102,8333,1,0,52856.3898249823,47218.3049866198,68407.8257928099,70710.7692673976,64855.1503452346,74606.6711069545,74642.9673465773,78222.7280872805,78320.6658790084,63821.9547049081
3051549102,8333,1,0,52842.8106753279,47158.5129244318,68414.4693552752,70715.2834829190,64859.1170143988,74609.8103727348,74658.1282968187,78234.2995669591,78329.6699746574,63829.0119690654
3051549102,8333,1,0,52853.3722361702,47174.1970856366,68414.9195600576,70726.2952485437,64863.9962608248,74598.7742717164,74659.2477249264,78232.4014062548,78330.5095457381,63837.1764936336
3051549102,8333,1,0,52866.5011810421,47215.6645964092,68411.4152633726,70721.4038344209,64863.1080189568,74603.1303071790,74651.3752250820,78229.2256373840,78328.9764159385,63834.8524635404
3051549102,8333,1,0,52869.0807327686,47223.7804501901,68415.0777401164,70713.5800053637,64863.6433976170,74605.3083249103,74644.1597808660,78230.4545747631,78329.4874592050,63833.9763893691
3051565893,8334,1,0,52863.5931015015,47223.0625560775,68413.7149580722,70711.8278570212,64861.4897152793,74598.5552531736,74636.8956658627,78226.9502780781,78330.9232474301,63835.9353885576
3051565893,8334,1,0,52853.2627268988,47196.5369770035,68417.0489070017,70713.0081236130,64859.7862377241,74609.4331741333,74640.7406580587,78232.0607107437,78333.3081160074,63836.9696427876
3051565893,8334,1,0,52845.5119040226,47155.2398139865,68420.6748806549,70715.0644643761,64863.9354223407,74617.0258169508,74649.3310520157,78236.5019200841,78336.0945185799,63833.2098244693
3051565893,8334,1,0,52860.6728542640,47184.3936155742,68419.0809123711,70721.1118096971,64867.9020915050,74593.7490129285,74649.4770643776,78233.4356604847,78332.2981971711,63833.7817062200
3051565893,8334,1,0,52866.5985226167,47238.3451832872,68406.7550354894,70713.3853222146,64856.9511643644,74578.1135225110,74635.5815546058,78219.8565108303,78319.4004385388,63823.9502071870
3051565893,8334,1,0,52849.4420700964,47209.1670463057,68403.8104528583,70700.5362343695,64849.5045339087,74603.9333751693,74636.5914734421,78218.5789026639,78318.8650598786,63815.1894654745
3051565893,8334,1,0,52837.3838825448,47155.6413479816,68414.4936906688,70710.3677334025,64855.9412455280,74614.8721346132,74653.4680689355,78230.4667424599,78331.8358246918,63824.3274057886
3051565893,8334,1,0,52850.0382872407,47166.8477967555,68420.0908312074,70727.4876828324,64865.3225397785,74606.2209021720,74661.8029412592,78232.4622447389,78336.6664003305,63834.9619728118
3051594228,8335,1,0,52857.6674331487,47194.3346238786,68415.2359201750,70718.8972888754,64863.1931928345,74605.0893063675,74649.4283935903,78227.5829983129,78329.9863347747,63827.5275100530
3051594228,8335,1,0,52864.7855357901,47219.3149054561,68420.4071913248,70720.9779650321,64871.4550589773,74615.0059792782,74652.1417899818,78234.7132686511,78336.4717171814,63832.6744458091
3051594228,8335,1,0,52866.9878889151,47246.3393600998,68424.8362329683,70725.1636527392,64876.8088455794,74604.0063813503,74655.7069251510,78236.3559077222,78335.9363385212,63843.0778265927
3051594228,8335,1,0,52848.3104742919,47215.4942486537,68419.6041233345,70711.6818446594,64869.1310288841,74604.7364431597,74644.1354454723,78231.0142888169,78328.7452296988,63839.8412192378
3051594228,8335,1,0,52833.5145549552,47157.9288749843,68418.4238567427,70703.7850094213,64864.9331734802,74607.7418642749,74636.4941318675,78232.6812632817,78326.8957397817,63835.6798669244
3051594228,8335,1,0,52849.9409456661,47186.6081363960,68417.9249811729,70713.2758129432,64870.0679415395,74599.0662964402,74634.0362571093,78230.4667424599,78327.9421617085,63843.1630004705
3051594228,8335,1,0,52868.4601802306,47252.7882394160,68411.7316234900,70714.4682472318,64870.8588418330,74596.4137385328,74631.7365624098,78226.8042657162,78323.1724245539,63841.0944920106
3051594228,8335,1,0,52858.2393148994,47232.3951795407,68408.1421529273,70702.5682397390,64865.5537260182,74604.1767291058,74632.2354379795,78224.0421985374,78323.2575984317,63828.7686151289
3051608986,8336,1,0,52840.5474837188,47177.3728545074,68408.2881652891,70700.7065821251,64862.1832739982,74593.4204851143,74635.7275669677,78227.0719550463,78324.4378650235,63822.8307790793
3051608986,8336,1,0,52835.4248833564,47162.6864444421,68403.0803910489,70700.1225326776,64857.5838845991,74585.5114821794,74632.9654997889,78221.4383114173,78319.9844879863,63822.1858911477
3051608986,8336,1,0,52842.6768306628,47169.7437085994,68405.4652596262,70703.8945186927,64861.7452369126,74602.2420653109,74638.8790004448,78224.7965957404,78318.8528921818,63824.2665673044
3051608986,8336,1,0,52858.1663087184,47199.0435225491,68412.7658777200,70711.6818446594,64868.8998426445,74602.7652762743,74639.4752175891,78230.3694008853,78325.6789700994,63830.6181050460
3051608986,8336,1,0,52863.1307290222,47235.7047930766,68409.9916428444,70709.1509637202,64865.9795954070,74589.5998283119,74629.9844140673,78223.1296212757,78322.5518720159,63832.9908059265
3051608986,8336,1,0,52847.9332756903,47210.1891328389,68411.1840771330,70702.1667057438,64862.4631310251,74611.9397196788,74630.8239851480,78223.8353476914,78326.7740628135,63833.2828306502
3051608986,8336,1,0,52836.6903238259,47154.1690566660,68424.7267236969,70710.2825595247,64870.0557738427,74622.5499513084,74648.7956733555,78237.2076464998,78336.5690587560,63840.0115669933
3051608986,8336,1,0,52847.9576110840,47175.8518924045,68424.7997298779,70718.4349163961,64875.3000511733,74600.9157863572,74650.5234863044,78233.8858652671,78334.4153764183,63844.4406086369
3051678088,8337,1,0,52863.2402382936,47234.8165512085,68419.3486017012,70716.5489233885,64874.9715233591,74604.4079153454,74641.7140738046,78229.4081528363,78329.1832667844,63838.6731203428
3051678088,8337,1,0,52866.2213240152,47231.6894531250,68421.6361287039,70714.3465702636,64875.6772497749,74608.9342985636,74643.8312530518,78231.3793197216,78329.2562729654,63829.3769999701
3051678088,8337,1,0,52851.7904355832,47188.5306324940,68415.2602555687,70706.1942133922,64863.2783667123,74586.8499288299,74635.0583436424,78223.6771676327,78323.5131200649,63828.3427457401
3051678088,8337,1,0,52835.0720201485,47165.2538284717,68401.2917396159,70695.8273356991,64848.0809133804,74573.9400025008,74623.8032240812,78211.7893278367,78308.5468529727,63826.3594111580
3051678088,8337,1,0,52829.0611779180,47154.9964600500,68395.9014499234,70691.4956356301,64845.0754922652,74584.6232403113,74624.2412611668,78209.6478131959,78301.7816135392,63821.1394692210
3051678088,8337,1,0,52843.8570972547,47191.5482213061,68399.5274235766,70701.4123085408,64853.4833707698,74584.2217063162,74633.2088537253,78215.0137674948,78305.9916366399,63823.6825178569
3051678088,8337,1,0,52854.9662044540,47245.0617519334,68397.5927597818,70702.2275442279,64854.3472772442,74577.8093300905,74629.1326752896,78210.3657073084,78302.6941908009,63824.6802689964
3051678088,8337,1,0,52841.0341915917,47221.6876063365,68397.3980766326,70692.0675173808,64850.3197695959,74597.3628188849,74626.7356390155,78211.2782845701,78306.7947046302,63823.0497976222
3051687042,8338,1,0,52827.7105635706,47158.9509615175,68409.0668978858,70693.8926719042,64853.7023893126,74608.3867522065,74633.9875863220,78222.9957766106,78316.4923589981,63829.1458137304
3051687042,8338,1,0,52839.6592418507,47176.1560848251,68411.9141389424,70703.0306122182,64858.3017787117,74593.9436960777,74635.5207161217,78226.2932224496,78322.5883751064,63837.1156551495
3051687042,8338,1,0,52855.2095583905,47235.4979422306,68410.3201706586,70701.7651717487,64860.5284672303,74601.1834756873,74631.8947424685,78223.9448569628,78318.9624014532,63836.9331396971
3051687042,8338,1,0,52859.4317491880,47249.1257626723,68414.6640384244,70704.7827605607,64864.7384903310,74609.9807204903,74639.9132546748,78228.2643893350,78323.4766169745,63834.9011343277
3051687042,8338,1,0,52851.2428892262,47233.5389430421,68414.0069827959,70707.2649707126,64864.3856271232,74595.1848011536,74643.3080420884,78228.5320786651,78323.2210953412,63833.5383522835
3051687042,8338,1,0,52832.0422636396,47200.9173478598,68405.5017627167,70698.4677259096,64855.1381775377,74592.0942061606,74638.3801248751,78221.3166344491,78318.2323396438,63828.3549134370
3051687042,8338,1,0,52826.6033031597,47163.1853200118,68409.2737487318,70695.3406278261,64856.2576056454,74607.2186533115,74640.0836024303,78226.8894395940,78319.8263079276,63827.5761808403
3051687042,8338,1,0,52842.3117997581,47181.0961697352,68411.8289650646,70699.4168062618,64860.4919641398,74594.7589317648,74634.3039464394,78225.6361668212,78322.1625057176,63832.3824210853
3051715835,8339,1,0,52855.3190676619,47238.8197234632,68405.6721104722,70696.9710992004,64858.3261141053,74584.4528925558,74620.1772504280,78216.2183694802,78313.9979811494,63833.9398862787
3051715835,8339,1,0,52842.8836815088,47221.8214510016,68404.0659744916,70688.0643451260,64852.5707935081,74602.5097546411,74621.3696847166,78215.7194939105,78312.7568760735,63829.7176954811
3051715835,8339,1,0,52829.9129166956,47158.6224337032,68411.5004372504,70696.0828573323,64857.3526983595,74609.6521926761,74640.6068133937,78224.9061050118,78320.1791711355,63829.6690246938
3051715835,8339,1,0,52838.3451305939,47161.0073022805,68415.3454294464,70704.6854189862,64864.1301054899,74598.3849054181,74641.6045645332,78226.1350423909,78324.7785605345,63835.3391714133
3051715835,8339,1,0,52850.7926844437,47195.7217413164,68413.2769209866,70701.9355195042,64862.6699818711,74599.0054579560,74635.5937223026,78220.8177588793,78320.6658790084,63829.5716831192
3051715835,8339,1,0,52854.8323597889,47204.5189861194,68413.9704797055,70697.1292792591,64861.0516781937,74600.5507554526,74628.2079303311,78219.1264490209,78317.3806008662,63824.8992875392
3051715835,8339,1,0,52847.1910461841,47205.4315633811,68410.4296799300,70691.8728342316,64854.7244758458,74590.4393993927,74617.4638540364,78213.0304329126,78314.0466519367,63825.4346661994
3051715835,8339,1,0,52828.2824453213,47192.7284878979,68409.7847919984,70681.7493104749,64850.3684403831,74597.9347006356,74610.4430929696,78208.8325775087,78312.3918451688,63824.6924366932
3051734969,8340,1,0,52815.6888791095,47163.9032141244,68413.7636288595,70679.0480817802,64851.1228375862,74609.4696772238,74615.5656933321,78211.9718432890,78315.0565707730,63823.6825178569
3051734969,8340,1,0,52834.0986044027,47196.9871817860,68419.7501356964,70692.6150637378,64857.8637416261,74598.4092408117,74617.6220340951,78214.9650967075,78320.4468604656,63832.3945887822
3051734969,8340,1,0,52854.6863474271,47260.4782238081,68414.2503367324,70694.8539199532,64855.5153761393,74588.2370462677,74612.4750983390,78209.2462792007,78313.3530932178,63831.5063469141
3051734969,8340,1,0,52847.5074063015,47237.6029537810,68413.8366350404,70689.4757979575,64851.8285640019,74609.1168140159,74618.2669220268,78213.8700039934,78315.3485954967,63824.1327226394
3051734969,8340,1,0,52832.2734498792,47161.7495317867,68416.0754912558,70689.5731395321,64853.5198738603,74604.0672198344,74624.8009752207,78217.8975116418,78323.6713001236,63826.5905973976
3051734969,8340,1,0,52829.9737551797,47143.3519741904,68414.9195600576,70691.0210954540,64852.2300979971,74593.5056589921,74620.4814428485,78214.1985318076,78321.7244686320,63832.0295578775
3051734969,8340,1,0,52838.9048446477,47161.0438053710,68412.8023808105,70686.3365321772,64851.3783592194,74597.5453343373,74617.6950402761,78208.1268510930,78316.3220112426,63828.0507210164
3051734969,8340,1,0,52845.6092455972,47173.5400300082,68413.6906226785,70683.6839742698,64850.9646575275,74595.3429812123,74615.2128301242,78205.0727591904,78312.3675097751,63822.7212698079
3051785474,8341,1,0,52844.1369542816,47187.4477074768,68409.5292703651,70680.2405160689,64844.3575981526,74581.0581051422,74609.4696772238,78198.1858427886,78306.0038043367,63822.5509220524
3051785474,8341,1,0,52827.7348989643,47167.2858338412,68407.6311096607,70677.9043182789,64840.8776368612,74592.6052494272,74612.0978997375,78196.7013837762,78302.9862155246,63820.1295503846
3051785474,8341,1,0,52816.7961395204,47116.5100349990,68413.2890886834,70675.4221081270,64841.6807048516,74603.5561765678,74615.5656933321,78205.2674423396,78308.0236420093,63821.2611461892
3051785474,8341,1,0,52830.5821400208,47140.8332609481,68415.0534047227,70683.0147509445,64848.3607704074,74588.7115864438,74615.2980040020,78204.3183619874,78309.7149518677,63827.1503114515
3051785474,8341,1,0,52848.1036234459,47218.1103034706,68407.8501282035,70686.3973706613,64848.8109751898,74587.9085184535,74613.6431972340,78199.4391155614,78305.2129040432,63823.4756670109
3051785474,8341,1,0,52848.4808220474,47229.2072429731,68407.6432773575,70683.2946079714,64847.4360254488,74605.8072004801,74617.3665124619,78203.0529215178,78307.3422509872,63819.4724947562
3051785474,8341,1,0,52845.7309225654,47194.8943379324,68416.1363297399,70692.4082128918,64853.6415508285,74611.9518873757,74624.6062920715,78213.6144823601,78316.5045266949,63829.3648322733
3051785474,8341,1,0,52852.0216218229,47192.0349291790,68423.7168048606,70700.6214082473,64859.3482006385,74604.0428844407,74627.5508747027,78218.1165301846,78320.3251834973,63838.0647355017
3051803440,8342,1,0,52853.0315406592,47193.1178541963,68419.5432848504,70695.1702800706,64856.5739657628,74604.5904307978,74625.4458631523,78214.7947489520,78316.1273280934,63834.6699480881
3051803440,8342,1,0,52859.1153890706,47199.7614166616,68417.0732423953,70696.4113851466,64857.8394062324,74598.3118992371,74629.5585446785,78213.1156067904,78312.7082052862,63833.7330354327
3051803440,8342,1,0,52861.9139593399,47222.2229849968,68411.3057541012,70696.2167019974,64854.0917556110,74582.1045270690,74626.6017943505,78209.9033348291,78307.2692448063,63833.2828306502
3051803440,8342,1,0,52841.5817379488,47190.7694887094,68401.4620873715,70687.0300908961,64844.8808091160,74587.9206861503,74622.3552681593,78201.6414686864,78296.7198516608,63824.8141136615
3051803440,8342,1,0,52822.8434848414,47122.0585047503,68403.0438879585,70688.6483945735,64840.4274320788,74596.9247817993,74629.5707123753,78203.9898341732,78298.8978693921,63821.3219846733
3051803440,8342,1,0,52829.6938981527,47132.2550346879,68402.7761986284,70692.3230390141,64841.1331584945,74579.5614784330,74622.8298083354,78202.8217352782,78299.3602418714,63823.8406979156
3051803440,8342,1,0,52844.1856250689,47195.2593688371,68394.5508355760,70688.2346928816,64837.7627064746,74574.8890828530,74609.7495342507,78195.1195831893,78290.5021585843,63817.7203464137
3051803440,8342,1,0,52840.0364404523,47196.9871817860,68394.2101400650,70677.3567719218,64833.9055465817,74592.6052494272,74604.5052569200,78195.6062910622,78290.5508293716,63813.9118573081
3051867363,8343,1,0,52827.0413402453,47161.2263208233,68402.1799814840,70678.0016598535,64835.5238502592,74593.9801991682,74611.1001485981,78199.3417739868,78295.8681128832,63823.1593068936
3051867363,8343,1,0,52821.7483921274,47147.5254942007,68402.9465463839,70680.9219070910,64836.9961415747,74590.3663932117,74612.7671230628,78200.9722453611,78297.4985842575,63831.0926452221
3051867363,8343,1,0,52821.9430752765,47140.1153668355,68404.8933778755,70682.6497200398,64839.3201716679,74604.2740706804,74617.0866554349,78203.7099771463,78296.0262929419,63827.2598207229
3051867363,8343,1,0,52846.4853197684,47174.5012780572,68417.6694595396,70702.7994259786,64854.4811219093,74610.3214160014,74633.0141705762,78214.8677551329,78307.0745616572,63836.9331396971
3051867363,8343,1,0,52863.2037352031,47233.1982475311,68414.8100507862,70714.7724396524,64857.4135368436,74589.0644496517,74640.9231735111,78213.2129483650,78304.1543144196,63842.1044108469
3051867363,8343,1,0,52836.0211005007,47209.2278847898,68400.3791623542,70699.1856200222,64841.1574938882,74586.1198670205,74636.2751133247,78199.9501588280,78291.5120774206,63827.4423361752
3051867363,8343,1,0,52807.5365222382,47133.0824380719,68399.4300820020,70688.4780468180,64836.3755890368,74597.5453343373,74628.1592595438,78203.2232692733,78292.2543069268,63822.1493880573
3051867363,8343,1,0,52813.2431720481,47136.1608653681,68403.0317202616,70692.4690513759,64842.3012573895,74586.7404195585,74619.6540394646,78202.6757229163,78294.8581940469,63826.3837465516
3051872374,8344,1,0,52835.8872558356,47199.6884104807,68404.0051360075,70701.3393023599,64848.2025903487,74595.7566829043,74620.8951445405,78203.7586479335,78297.3890749861,63827.7951993831
3051872374,8344,1,0,52847.4100647270,47220.3734950797,68411.8898035487,70710.0270378914,64858.7398157973,74617.0623200413,74636.7253181072,78216.5590649913,78307.9628035252,63828.9511305813
3051872374,8344,1,0,52840.3649682665,47202.0732790580,68416.4283544637,70711.4749938134,64861.1003489810,74603.2763195409,74637.1998582833,78220.0146908890,78311.8199634181,63835.1809913546
3051872374,8344,1,0,52819.4121943374,47171.6297016070,68409.1277363699,70697.1901177432,64848.3607704074,74591.6926721655,74623.6085409320,78207.7739878851,78304.4706745370,63829.1701491241
3051872374,8344,1,0,52804.1539025214,47139.1541187865,68404.8568747851,70686.6650599914,64841.4008478246,74598.2875638435,74618.6562883251,78202.2741889211,78303.5946003658,63821.3828231574
3051872374,8344,1,0,52816.1999223761,47157.1866454781,68404.4918438804,70693.3694609408,64841.8510526071,74588.9671080771,74624.8131429175,78201.3981147499,78302.9497124342,63820.9691214654
3051872374,8344,1,0,52836.8728392783,47222.2108172999,68401.0362179827,70701.2541284821,64840.9506430422,74583.9296815924,74625.6648816951,78196.5432037175,78304.1056436324,63820.8474444972
3051872374,8344,1,0,52826.3599492233,47213.1945539541,68401.2430688287,70691.2766170873,64836.3025828558,74600.5750908462,74620.4449397581,78197.9668242458,78304.4220037497,63819.6428425117
3051907967,8345,1,0,52804.3364179737,47141.3686396083,68406.2439922229,70685.5091287932,64837.2759986017,74601.9378728904,74619.2403377726,78199.4512832582,78309.8731319264,63825.1548091725
3051907967,8345,1,0,52801.9880524869,47133.0824380719,68405.4165888389,70686.6893953850,64838.6022775554,74586.3145501697,74613.6066941436,78194.5477014386,78307.0137231730,63832.5040980536
3051907967,8345,1,0,52817.1855058188,47179.8672323561,68405.1975702961,70690.1693566764,64843.2260023481,74597.8008559706,74613.6431972340,78194.4990306513,78306.2836613637,63834.9863082055
3051907967,8345,1,0,52827.7105635706,47197.7659143826,68410.0403136316,70693.3937963345,64848.8353105835,74604.8337847342,74620.3475981835,78199.2322647154,78308.4860144886,63830.4234218969
3051907967,8345,1,0,52824.6199685776,47195.7217413164,68409.2007425509,70692.9070884616,64847.2535099965,74586.8012580426,74619.9703995820,78198.7212214489,78307.1840709286,63827.7586962926
3051907967,8345,1,0,52808.2179132603,47173.5643654018,68403.1047264426,70685.1684332822,64836.8379615160,74585.7426684190,74614.5192714053,78189.3155918047,78300.5040053728,63820.9082829813
3051907967,8345,1,0,52800.7226120173,47133.9585122431,68409.4805995778,70685.4239549154,64840.1110719614,74607.8270381527,74621.4061878071,78196.1538374192,78305.1642332559,63822.6969344143
3051907967,8345,1,0,52815.4333574763,47152.0397097220,68416.7447145811,70693.3816286377,64848.3120996201,74596.0365399312,74620.0677411566,78198.5143706029,78308.1088158871,63829.8880432366
3051931253,8346,1,0,52829.4505442163,47216.7718568201,68412.5225237835,70691.1062693318,64844.8808091160,74583.7471661401,74612.0005581630,78189.8509704649,78303.6432711531,63830.9831359507
3051931253,8346,1,0,52818.2197600487,47212.1724674210,68411.6464496123,70681.5911304162,64839.7217056631,74602.8139470616,74614.2150789847,78190.4958583965,78301.9762966883,63828.9511305813
3051931253,8346,1,0,52802.1705679393,47151.4799956682,68419.0930800679,70681.7493104749,64841.4981893992,74608.8004538985,74622.2944296752,78199.1835939281,78310.2746659216,63834.2927494866
3051931253,8346,1,0,52806.5144357050,47144.0090298189,68420.2368435693,70692.7975791902,64845.9637341332,74597.9712037261,74625.3241861841,78199.1227554440,78312.7447083766,63839.5491945141
3051931253,8346,1,0,52818.0007415059,47174.1605825461,68413.2404178961,70690.7412384271,64843.2016669544,74596.4502416232,74616.6851214398,78193.1119132135,78306.5756860874,63833.5991907676
3051931253,8346,1,0,52827.6010542992,47194.8821702356,68413.3012563802,70684.5113776537,64843.8343871892,74600.1978922447,74608.7396154144,78192.7347146120,78305.5414318575,63832.5284334472
3051931253,8346,1,0,52830.8376616541,47209.7754311469,68411.9263066392,70683.0269186413,64842.7392944752,74585.6696622381,74604.0915552280,78191.5422803233,78301.9519612947,63836.3369225528
3051931253,8346,1,0,52815.3603512953,47181.0840020384,68405.1123964183,70677.2959334377,64833.1146462882,74592.6660879113,74601.1226372032,78184.8987178580,78296.0262929419,63826.9191252118
3051960361,8347,1,0,52807.9867270206,47118.9314066668,68416.3553482828,70684.2680237173,64841.8997233944,74618.1209096649,74615.7117056939,78197.8329795808,78306.8068723270,63830.1800679604
3051960361,8347,1,0,52829.0976810084,47131.8656683896,68429.2896100055,70708.5547465759,64859.8470762082,74612.9983093024,74634.6203065568,78211.5216385066,78319.8628110181,63845.1098319621
3051960361,8347,1,0,52847.8359341158,47210.0552881738,68423.5586248019,70712.6187573147,64861.1733551619,74595.4524904837,74631.6392208352,78205.6811440316,78316.6383713600,63845.9980738302
3051960361,8347,1,0,52838.0896089606,47223.1720653489,68414.2990075197,70696.8250868386,64853.2035137429,74601.7310220444,74622.7446344576,78200.2908543390,78308.4008406108,63832.9908059265
3051960361,8347,1,0,52824.9484963918,47184.3449447869,68417.3287640286,70696.0098511514,64851.6338808527,74604.2740706804,74623.4260254797,78204.2453558065,78309.0335608456,63832.1025640584
3051960361,8347,1,0,52817.8547291440,47178.2854317691,68415.0047339354,70694.3550443835,64849.3220184564,74589.9891946102,74618.7779652933,78201.3616116594,78305.6752765225,63833.0516444106
3051960361,8347,1,0,52815.4941959604,47195.6730705291,68411.1719094362,70686.6650599914,64847.4725285393,74600.5264200589,74611.2096578694,78196.9447377127,78300.4188314950,63825.5806785613
3051960361,8347,1,0,52830.7889908668,47229.1950752763,68420.0056573296,70692.7610760997,64858.8128219783,74608.9708016540,74617.9262265157,78205.3039454301,78307.7072818919,63828.5130934957
3051989444,8348,1,0,52844.8426806973,47272.0010326994,68419.1174154616,70699.3438000809,64861.4167090984,74592.9946157255,74619.7270456455,78203.3206108479,78307.5125987428,63829.2553230019
3051989444,8348,1,0,52830.1684383288,47250.5858862910,68410.9650585902,70691.1671078159,64852.0232471511,74595.4038196965,74616.3930967160,78198.8794015076,78303.4972587912,63826.2012310993
3051989444,8348,1,0,52811.2233343755,47172.2259187513,68412.6563684486,70687.3586187103,64853.2886876206,74608.0947274828,74619.9095610979,78203.1624307892,78307.1719032317,63828.5374288893
3051989444,8348,1,0,52820.7628086847,47165.7040332542,68416.2945097986,70700.1103649807,64861.5627214603,74598.6282593545,74627.0763345266,78207.6401432201,78313.5964471542,63838.1742447731
3051989444,8348,1,0,52843.1635385358,47235.8386377416,68414.4328521847,70707.6300016173,64867.6344021749,74594.8441056426,74626.0785833871,78208.8204098119,78310.4693490707,63841.6177029740
3051989444,8348,1,0,52845.9742765018,47258.4097153482,68414.1164920673,70703.6633324530,64867.9142592018,74605.5273434531,74629.6680539499,78211.4973031129,78309.8609642296,63836.3734256433
3051989444,8348,1,0,52832.1031021237,47229.3654230318,68415.3575971433,70701.3636377535,64865.0670181453,74600.0640475796,74629.9965817641,78214.0768548394,78310.7005353104,63837.5293568414
3051989444,8348,1,0,52815.8835622587,47209.7389280564,68407.7892897194,70693.3694609408,64853.5807123444,74587.2879659155,74622.2822619783,78201.5441271118,78304.1421467228,63834.4387618484
3052039362,8349,1,0,52813.1823335640,47197.7780820795,68405.1488995088,70688.7700715418,64850.5022850482,74597.3019804008,74619.8000518264,78198.5022029060,78302.4630045613,63828.2819072560
3052039362,8349,1,0,52828.0877621721,47209.2278847898,68410.4175122332,70695.8395033959,64856.5009595819,74601.5120035016,74625.1295030349,78203.1502630924,78308.6806976378,63829.0606398527
3052039362,8349,1,0,52851.9607833387,47259.4804726686,68410.5270215046,70709.9783671042,64864.1787762772,74585.9008484777,74628.7554766881,78203.9533310827,78309.7636226550,63835.4365129879
3052039362,8349,1,0,52845.8160964432,47248.5903840121,68402.8005340220,70701.8868487169,64857.6568907801,74592.5809140335,74622.1362496165,78198.0154950331,78305.6752765225,63826.7974482436
3052039362,8349,1,0,52825.1431795410,47182.1182562683,68408.4950161351,70696.4843913275,64858.5086295577,74606.5494299863,74624.2655965605,78206.8127398361,78311.0533985183,63829.9853848112
3052039362,8349,1,0,52825.2040180251,47178.0420778327,68413.3012563802,70702.7872582818,64867.0503527274,74594.4304039506,74625.3971923650,78209.5991424086,78316.3950174235,63834.2684140929
3052039362,8349,1,0,52839.8660926967,47234.9138927831,68409.3832580032,70703.6998355435,64869.5203951825,74591.2911381703,74623.2800131178,78204.7077282857,78308.8023746060,63829.3283291828
3052039362,8349,1,0,52841.7520857043,47244.1126715812,68407.5337680861,70694.9755969215,64866.5636448545,74598.8716132910,74619.5080271027,78204.3305296842,78305.7117796130,63824.5707597250
3052060571,8350,1,0,52836.3131252244,47210.7001761054,68411.6951203996,70692.9070884616,64861.9642554554,74593.2501373588,74616.8433014985,78205.9001625744,78308.4251760045,63833.1003151979
3052060571,8350,1,0,52822.2594353939,47168.5026035235,68402.1434783936,70684.5113776537,64848.9083167644,74574.3293687991,74604.9432940056,78196.4458621430,78301.0758871234,63830.5085957746
