steady_timestamp,sequence,battery,flags,EEG-ch1,EEG-ch2,EEG-ch3,EEG-ch4,EEG-ch5,EEG-ch6,EEG-ch7,EEG-ch8,EEG-ch9,EEG-ch10
9338956604,18064,-2,0,20176.6817226484,47525.6001698832,51295.8705397432,60097.6417259483,71086.1792174759,57229.9832741110,59000.2371494872,59966.4374511066,65442.5824124526,11221.9869227725
9338956604,18064,-2,0,20004.6913280561,47490.5937061236,51260.7789021058,60090.7061387593,71072.2472046136,57232.6966705025,58998.4971688415,59960.5726212379,65444.4197346728,11217.2901917988
9338956604,18064,-2,0,20058.2170263803,47513.1404483365,51279.3589751544,60105.2708718563,71097.7385294577,57233.5970800674,59014.4855224669,59988.5704916275,65454.4945876422,11210.3546046097
9338956604,18064,-2,0,20306.7057308984,47565.2181907387,51331.6192330090,60124.2281435065,71137.4903949782,57222.9138422569,59030.2061867621,60027.9816616370,65458.0475551145,11205.6457059393
9338956604,18064,-2,0,20409.9608061379,47576.0596086079,51345.5634135680,60113.9586073879,71133.0005148505,57230.7620067077,59020.1678368832,60018.0284856358,65446.9749510056,11211.2428464778
9338956604,18064,-2,0,20191.9278467676,47525.9652007879,51295.7001919876,60080.9233105136,71089.1724708943,57243.8909515796,58996.2461449293,59965.1355075465,65444.0303683745,11213.4938703901
9338956604,18064,-2,0,19976.8638054221,47492.6135437962,51259.4647908489,60075.9102194226,71071.3954658360,57236.7728489382,58996.7936912863,59957.4576908512,65452.3165699109,11209.9287352209
9338956604,18064,-2,0,20061.4658014320,47520.5262403080,51287.9006983241,60098.5786386037,71103.9683902310,57223.9724318805,59011.3340889897,59996.7106808020,65457.4148348797,11203.4311851175
9339010800,18065,-2,0,20295.5601206086,47564.9626691054,51329.2708675221,60111.6345772947,71133.7914151440,57227.8660948638,59016.6757078950,60013.3439223590,65448.7757701354,11203.9300606872
9339010800,18065,-2,0,20388.3996473676,47576.6679934491,51334.6003187306,60111.3790556615,71132.6963224300,57238.0991278919,59015.4346028191,60000.5678406949,65447.8996959642,11209.6610458908
9339010800,18065,-2,0,20254.7740008581,47540.7611201246,51300.5064322327,60099.1261849607,71101.4740123823,57231.0540314314,59006.4913456542,59972.4847964276,65445.5026596901,11211.2185110842
9339010800,18065,-2,0,20033.9181358248,47492.0416620455,51254.4760351515,60082.3469310419,71068.2927031461,57230.4943173776,58996.6841820149,59946.2025712900,65438.2263769899,11205.2320042473
9339010800,18065,-2,0,20012.2109646927,47502.3233658609,51260.0731756901,60093.9062430237,71084.9989508840,57230.9931929473,59008.5355187205,59963.7118870182,65441.7671767654,11206.3149292645
9339010800,18065,-2,0,20259.5802411031,47562.3344465916,51319.2325176432,60118.5458290902,71132.3921300094,57220.4194644082,59026.1786791137,60009.2069054392,65448.0213729324,11205.4023520028
9339010800,18065,-2,0,20418.9892371805,47584.2606362666,51343.1785449907,60112.9365208548,71136.9550163180,57232.8061797740,59016.5540309268,60006.6760245000,65442.5580770589,11208.5051146927
9339010800,18065,-2,0,20252.3404614935,47542.8296285845,51302.4045929371,60087.4573637076,71097.6168524894,57257.0198964516,58998.2659826019,59961.0714968076,65440.0880346038,11216.8156516227
9339049263,18066,-2,0,20021.7382713051,47507.4946370106,51270.8537550752,60085.6078737905,71079.3409718614,57263.5174465551,59001.5147576536,59956.2409211689,65457.3296610020,11220.2956129141
9339049263,18066,-2,0,20033.5774403138,47523.9331954184,51292.4879200264,60107.1081940766,71103.5425208422,57244.2073116970,59019.1579180469,59993.8634397455,65468.3535943235,11217.0711732560
9339049263,18066,-2,0,20227.4940245810,47564.9748368022,51328.8328304365,60121.7702687482,71133.7427443567,57237.5150784444,59026.6045485025,60018.6368704770,65461.7708703423,11212.5082869474
9339049263,18066,-2,0,20369.8682451063,47584.6134994744,51344.6873393968,60122.1839704402,71138.6949969637,57233.3415584342,59024.4873692553,60013.6724501732,65454.9934632120,11208.3469346340
9339049263,18066,-2,0,20289.2815890479,47551.8337242334,51318.7214743766,60106.6823246878,71106.9616436495,57232.3559749915,59011.6747845008,59982.8638418175,65443.3854804429,11209.3325180766
9339049263,18066,-2,0,20051.1962653134,47498.3810320902,51268.7487435248,60091.0224988767,71071.4319689265,57247.2249005091,59005.1285636100,59949.4391786449,65442.6310832398,11211.9972436808
9339049263,18066,-2,0,19970.5852738614,47498.3931997871,51262.7744043847,60100.9148363937,71084.8164354317,57247.8819561376,59019.5837874357,59965.9750786273,65454.6406000041,11211.9729082872
9339049263,18066,-2,0,20190.4433877552,47552.1500843508,51316.7259720977,60123.2060569734,71131.7837451683,57223.1571961934,59038.7114068414,60015.6192816649,65458.9114615889,11205.8525567853
9339106896,18067,-2,0,20387.5235731964,47573.0420197958,51337.4353920903,60120.1032942835,71137.0036871053,57213.5447157032,59033.6861480535,60013.0153945448,65438.7739233470,11201.1801612052
9339106896,18067,-2,0,20274.5586758922,47535.0423026178,51298.0728928681,60097.3253658310,71094.9764622788,57233.7187570357,59013.7676283543,59963.5780423532,65428.1515240205,11204.6966255871
9339106896,18067,-2,0,20039.4909409697,47494.2318474736,51256.6783882765,60092.8354857033,71068.8159141095,57236.7971843319,59012.1858277673,59951.3130039556,65441.2196304084,11209.7097166781
9339106896,18067,-2,0,19981.8768965131,47494.8280646179,51258.9659152792,60101.8517490491,71080.1075367612,57224.5443136312,59018.8293902327,59974.6749818557,65451.4039926492,11208.9918225656
9339106896,18067,-2,0,20139.3755641893,47533.5091728181,51289.6528466666,60112.2186267422,71112.8629766086,57225.9801018563,59024.5968785267,60000.6773499663,65451.1119679254,11207.1301649517
9339106896,18067,-2,0,20339.0109659633,47569.9514248028,51319.5853808511,60119.1907170218,71135.0446879168,57218.6673160657,59022.2241776463,60013.5264378114,65447.4981619690,11207.7993882769
9339106896,18067,-2,0,20327.9748649449,47552.2352582286,51304.0107289177,60102.8860032790,71109.2126675617,57221.9647619047,59008.1339847253,59987.8769329086,65438.4697309264,11207.9454006388
9339106896,18067,-2,0,20082.3334014833,47496.4342005986,51252.2615143297,60076.6037781415,71066.2485300799,57239.7661023567,58990.8071844494,59946.8474592216,65433.6148198940,11207.3248481008
9339113003,18068,-2,0,19945.1182844110,47490.1313336443,51243.2452509839,60088.8444811454,71073.2936265404,57250.7291971941,59007.9027984857,59962.1544218249,65452.7667746934,11211.2428464778
9339113003,18068,-2,0,20137.6842543309,47548.5971168785,51300.1779044185,60126.4183289346,71128.8513302339,57234.7286758720,59039.9160088268,60025.6819669375,65467.8182156633,11211.9607405904
9339113003,18068,-2,0,20373.5915603341,47589.7239321401,51335.7440822319,60135.5562692486,71155.5229216698,57231.0053606442,59045.2332923385,60039.5896444061,65454.5189230359,11213.4208642091
9339113003,18068,-2,0,20328.4737405146,47565.1330168609,51305.5803618079,60109.7485842872,71124.6169717395,57234.5583281165,59026.3368591724,59994.3136445279,65438.7982587406,11210.9386540572
9339113003,18068,-2,0,20107.3258507576,47517.0341113198,51260.6937282280,60089.8665676785,71089.9025327037,57235.2518868354,59016.5783663204,59964.4906196149,65439.1146188580,11205.6335382424
9339113003,18068,-2,0,19988.4961235848,47499.7559818312,51250.1321673857,60092.6529702509,71086.4469068060,57235.7507624051,59023.4409473286,59972.4847964276,65446.1962184090,11204.9886503108
9339113003,18068,-2,0,20102.5561136031,47534.8719548622,51277.8136776579,60113.2407132754,71119.1415081692,57235.9697809479,59040.3540459125,60002.5755106707,65454.1173890407,11208.4929469958
9339113003,18068,-2,0,20338.3174072444,47580.8171780657,51317.6142139657,60133.8649593903,71151.8117741388,57226.9535176021,59049.4798185297,60029.0889220479,65453.5211718964,11208.3469346340
9339125826,18069,-2,0,20401.4190829682,47574.7576650479,51317.8088971149,60124.6783482889,71136.5048115356,57222.1959481443,59038.7600776286,60010.0829796105,65440.3070531467,11210.3546046097
9339125826,18069,-2,0,20170.5857065401,47514.2963795347,51258.4670397094,60094.5876340458,71087.7245149724,57236.4321534272,59014.4490193764,59957.0683245529,65430.3173740550,11209.5393689226
9339125826,18069,-2,0,19980.9278161609,47490.5815384267,51227.8409468061,60097.8607444912,71082.4193991576,57247.3830805678,59020.3868554260,59960.6334597220,65449.0069563751,11208.9309840815
9339125826,18069,-2,0,20115.2713567830,47534.9692964368,51271.6811584591,60129.0465514484,71127.5250512802,57232.9643598327,59041.6803248662,60015.0839030047,65461.5275164059,11205.4996935774
9339125826,18069,-2,0,20358.6617963323,47583.2507174303,51321.4713738586,60141.6887884474,71158.3579950296,57231.1270376124,59046.2432111748,60035.5986398482,65452.7789423902,11207.9210652452
9339125826,18069,-2,0,20386.9395237489,47579.1502036009,51315.9472395010,60125.2623977364,71140.9946916632,57240.0337916868,59028.9529139894,60005.0212177321,65443.1421265064,11210.0017414019
9339125826,18069,-2,0,20203.2559725097,47533.8498683291,51276.8767650025,60107.4610572845,71102.7637882455,57238.6345065521,59013.9623115035,59974.1396031955,65441.9496922178,11209.6853812845
9339125826,18069,-2,0,20026.7148593057,47501.0457576945,51250.2295089603,60100.8539979096,71083.9646966541,57247.1397266314,59011.2489151120,59970.3919525740,65447.6563420277,11206.5096124137
9339147982,18070,-2,0,20065.6149860486,47522.8624380980,51269.2111160041,60116.6963391731,71106.8521343780,57252.2379916002,59023.7573074460,59996.3091468069,65460.0308896967,11204.8304702521
9339147982,18070,-2,0,20312.8869208844,47578.9433527549,51326.6548127052,60141.4332668141,71149.4390732583,57246.7746957267,59041.2422877805,60035.8663291783,65468.9254760742,11204.0517376555
9339147982,18070,-2,0,20442.1565319314,47589.9064475924,51338.7373356504,60136.6270265691,71150.3759859137,57240.5570026502,59035.7181534229,60028.3345248449,65458.4977598970,11208.2130899689
9339147982,18070,-2,0,20246.0740976297,47537.3176619237,51284.4572401232,60108.5926530890,71101.6443601378,57249.0987258199,59017.0285711029,59972.2171070975,65446.8654417342,11215.7570619991
9339147982,18070,-2,0,20014.7905164192,47496.8479022906,51243.0262324411,60103.1293572155,71081.4216480181,57250.7170294973,59015.6779567555,59960.6942982061,65454.4094137644,11217.2171856179
9339147982,18070,-2,0,20078.9264463729,47522.9354442789,51273.5671514667,60120.3344805231,71115.8805654207,57238.5128295839,59031.8974966205,60007.9171295760,65465.2751670273,11210.0382444923
9339147982,18070,-2,0,20308.1780222139,47567.2745315017,51320.6926412620,60128.8762036928,71149.3417316838,57233.4510677056,59035.0489300976,60033.6761437501,65462.2089074280,11204.3559300760
9339147982,18070,-2,0,20404.3393302057,47576.8748442950,51324.7809873945,60121.0280392420,71145.5210748814,57240.6665119216,59026.2516852947,60017.3227592201,65452.9979609330,11208.9066486878
9339214596,18071,-2,0,20275.0453837651,47538.9846363884,51285.0899603580,60105.6115673674,71111.1838344470,57235.6169177401,59010.4580148185,59986.2099584438,65445.3201442377,11208.7241332355
9339214596,18071,-2,0,20061.5631430066,47492.9177362167,51239.2785818196,60097.1915211659,71084.0498705318,57242.6620142005,59004.5931849498,59963.6753839278,65444.3710638855,11208.6146239641
9339214596,18071,-2,0,20033.2854155900,47502.8100737338,51245.9708150723,60109.3105472016,71100.7317828761,57249.4272536341,59017.1137449806,59983.3748850841,65456.2832390752,11209.6610458908
9339214596,18071,-2,0,20273.8164463860,47563.0888437946,51308.0625719597,60134.9722198011,71149.0132038695,57231.3095530647,59035.1219362786,60027.5922953387,65463.1214846897,11208.2130899689
9339214596,18071,-2,0,20456.0277063095,47582.4111463495,51330.7553265345,60128.2678188517,71152.6878483101,57217.8520803786,59021.7374697734,60020.1943356703,65446.8046032501,11205.0859918854
9339214596,18071,-2,0,20303.1892665165,47534.7502778940,51283.8123521916,60095.6340559726,71104.9296382800,57242.5768403228,58993.1677176331,59962.8601482406,65435.2087881778,11210.7196355144
9339214596,18071,-2,0,20058.4238772262,47493.0394131850,51243.4521018299,60091.9959146225,71078.5135684774,57251.9216314828,58992.1091280095,59947.7357010897,65445.5148273869,11214.7958139501
9339214596,18071,-2,0,20055.6618100474,47506.5090535680,51259.3187784870,60108.1667837002,71099.9530502794,57236.3834826399,59007.1362335858,59984.1536176808,65455.4558356912,11209.9409029178
9339227372,18072,-2,0,20255.3215472151,47549.7530480767,51298.3405821982,60116.9153577159,71132.1487760729,57229.2653799985,59011.9911446182,60007.5886017618,65447.5346650595,11205.6092028488
9339227372,18072,-2,0,20408.5858563969,47572.1172748373,51316.1540903470,60111.9631051090,71143.0266970326,57229.2288769080,59009.6792822218,60005.6296025733,65439.6865006087,11205.9133952694
9339227372,18072,-2,0,20350.5581102483,47552.1865874413,51299.1071470981,60101.6083951126,71123.2785250890,57244.2559824843,59002.9383781819,59985.6624120868,65440.4165624181,11213.7007212361
9339227372,18072,-2,0,20124.6526510335,47505.8885010300,51256.9460776066,60088.1630901233,71090.7056006940,57253.5277674634,58997.3047345529,59961.2783476536,65443.1786295969,11216.5357945958
9339227372,18072,-2,0,20020.1321353244,47499.5491309852,51246.8225538499,60093.0788396397,71093.2486493300,57256.5453562755,59006.5886872288,59970.5014618454,65452.1948929427,11212.0459144681
9339227372,18072,-2,0,20226.2772548987,47557.4917032561,51301.1026493770,60124.7391867730,71142.9293554581,57242.6133434132,59026.6167161994,60024.9519051281,65465.9322226558,11208.7119655386
9339227372,18072,-2,0,20455.1637998351,47599.8717912904,51341.4994028292,60136.3350018453,71165.1840729472,57239.5470838139,59027.3102749183,60040.2101969441,65457.4878410607,11210.9021509668
9339227372,18072,-2,0,20370.0142574681,47570.2556172234,51308.1112427470,60114.2627998085,71130.2871184590,57252.1406500256,59004.6175203435,59996.5038299561,65446.5855847073,11215.8422358769
9339243645,18073,-2,0,20125.6625698698,47517.5086514959,51253.3566070438,60096.6804778993,71093.0174630904,57250.5831848323,58993.0217052712,59969.4550399187,65447.2304726389,11215.0026647961
9339243645,18073,-2,0,20056.3432010695,47512.4468896176,51250.7648876205,60112.4133098914,71104.6619489499,57246.0446339173,59011.2854182024,59991.2230495349,65455.2976556325,11213.3721934218
9339243645,18073,-2,0,20208.0865481484,47548.2442536707,51287.1463011211,60131.1758983924,71138.4516430272,57240.8611950707,59028.4540384196,60016.3250080806,65453.3751595345,11209.9530706146
9339243645,18073,-2,0,20399.3262391146,47581.8270969020,51318.1617603228,60133.6946116347,71155.5594247603,57236.1766317939,59029.0624232608,60020.4133542131,65447.1818018516,11203.8205514158
9339243645,18073,-2,0,20406.5660187243,47570.0000955901,51310.8124714417,60117.9617796427,71134.1929491392,57238.8535250949,59016.4810247458,59996.2969791101,65441.9131891273,11207.0206556803
9339243645,18073,-2,0,20178.9935850448,47520.1733771001,51262.2876965118,60095.0013357378,71096.6799398341,57267.7639727463,59001.8676208615,59958.8204728954,65442.3390585161,11219.8940789189
9339243645,18073,-2,0,20021.8234451828,47509.1859468690,51247.5161125688,60103.5552266043,71100.3302488809,57277.5468009919,59012.6968710339,59968.8101519870,65465.3725086019,11225.7710764844
9339243645,18073,-2,0,20179.6628083700,47555.5570394613,51292.8042801438,60131.1758983924,71143.0997032136,57250.1086446562,59030.3278637304,60020.0726587021,65473.1233314781,11217.8499058527
9339277039,18074,-2,0,20418.6485416694,47590.2106400130,51331.7652453708,60135.4954307645,71160.1588141594,57234.4609865419,59026.1056729328,60030.7437288158,65453.7280227424,11209.5758720131
9339277039,18074,-2,0,20396.7710227818,47567.7855747683,51315.4361962344,60116.8788546254,71130.3114538527,57254.9270525981,59006.4183394733,59987.8525975149,65441.2317981052,11211.6443804730
9339277039,18074,-2,0,20181.2081058665,47521.2441344206,51270.6712396228,60101.7179043840,71092.3239043715,57249.5124275119,58997.4629146116,59958.7596344113,65444.7117593966,11215.1121740675
9339277039,18074,-2,0,20048.0448318363,47503.1386015480,51246.4696906420,60105.9644305752,71085.6316711188,57241.2018905818,59004.0699739864,59965.3423583925,65450.6495954462,11213.8954043852
9339277039,18074,-2,0,20142.1741344585,47538.7899532392,51272.3503817844,60126.0532980299,71115.6372114842,57247.7846145630,59021.6279605019,59993.1942164202,65454.0200474661,11213.7007212361
9339277039,18074,-2,0,20368.4081214875,47590.2593108003,51322.9193297806,60142.1268255330,71153.1137176989,57239.5714192075,59033.3697879361,60020.0118202180,65454.7501092755,11212.9828271235
9339277039,18074,-2,0,20446.5734058781,47591.1718880620,51328.8693335270,60133.4269223046,71144.8761869497,57230.5916589522,59020.7883894212,60008.1726512093,65443.4098158365,11213.2748518473
9339277039,18074,-2,0,20228.9419805030,47530.1995592822,51270.9145935593,60097.4592104960,71091.4478302002,57243.1608897703,58994.9076982788,59954.3427604646,65429.6359830329,11212.3866099792
9339316115,18075,-2,0,20012.9410265021,47496.7018899287,51233.8152859461,60087.4695314044,71071.6874905597,57261.4854411856,58991.8049355889,59945.4238386934,65443.8478529221,11212.8246470648
9339316115,18075,-2,0,20121.3430374977,47540.0188906184,51279.6875029686,60116.2461343906,71116.5984595332,57257.3605919626,59018.4278562375,60001.4317471694,65463.4865155944,11213.0801686981
9339316115,18075,-2,0,20375.8669196400,47594.0191291186,51333.2740397769,60134.6558596837,71152.9798730338,57255.9126360407,59030.5590499700,60029.4417852558,65462.1237335502,11216.5722976863
9339316115,18075,-2,0,20429.8549904434,47595.6374327960,51329.3925444904,60127.2579000154,71142.2114613455,57263.8338066725,59025.1687602774,60006.4813413509,65451.3918249524,11222.2789474962
9339316115,18075,-2,0,20260.6388307267,47555.4110270994,51289.6771820603,60115.7959296082,71111.2568406279,57260.7918824667,59019.3526011961,59980.0896069419,65450.0655459987,11223.2036924548
9339316115,18075,-2,0,20081.1531348915,47520.0273647383,51258.9537475823,60110.2839629474,71092.1170535255,57258.8693863687,59018.2575084820,59975.0886835477,65453.3508241409,11218.9084954763
9339316115,18075,-2,0,20099.5750278814,47531.7813598692,51271.4378045227,60119.4340709582,71108.9206428379,57252.0554761478,59025.0227479155,59993.5349119313,65457.0863070655,11213.3843611187
9339316115,18075,-2,0,20326.8067660499,47577.4345583489,51311.2018377401,60134.4855119282,71142.1506228614,57226.9170145116,59029.5247957400,60020.6080373623,65452.6937685124,11205.1955011568
9339340811,18076,-2,0,20467.9642168928,47584.5526609903,51320.8629890175,60121.7337656578,71135.3002095501,57218.4604652197,59012.1979954642,60008.5011790235,65433.7121614686,11200.8881364815
9339340811,18076,-2,0,20294.2581770485,47535.5290104907,51278.0570315944,60097.4835458897,71090.9732900241,57250.2789924117,58994.6886797360,59957.7983863623,65427.0929343969,11211.4496973238
9339340811,18076,-2,0,20054.5788850302,47501.7149810197,51239.9234697513,60095.5975528821,71073.6951605355,57259.3439265448,59001.4174160790,59947.1638193390,65443.1177911128,11218.9936693540
9339340811,18076,-2,0,20093.0288069907,47526.8412749591,51262.4215411769,60115.7107557304,71104.4916011944,57236.2861410653,59020.2043399737,59989.5560750702,65454.5432584295,11212.9098209426
9339340811,18076,-2,0,20322.1465381667,47574.4048018400,51306.8336345806,60125.4935839761,71138.0136059416,57236.2618056717,59021.0682464481,60015.3759277284,65446.9627833088,11208.0305745166
9339340811,18076,-2,0,20434.7220691725,47589.4927459004,51319.2446853400,60118.5214936965,71140.9095177855,57244.0612993352,59009.5819406472,60002.4538337025,65441.3413073766,11206.9476494993
9339340811,18076,-2,0,20318.8490923277,47555.7395549136,51288.0588783828,60102.8373324917,71113.2401752101,57243.1608897703,58995.0050398533,59977.4370490345,65439.8203452737,11203.1269926969
9339340811,18076,-2,0,20102.6412874808,47505.5478055190,51241.6756180938,60088.4429471502,71081.6163311673,57240.2771456232,58984.0176096222,59955.6812071151,65432.9455965688,11194.8164557668
9339369639,18077,-2,0,20042.4841943882,47499.9993357677,51231.3087404006,60093.0788396397,71086.6902607424,57234.0716202435,58988.3979804785,59965.7925631750,65432.4223856054,11185.4838323037
9339369639,18077,-2,0,20254.0317713519,47552.7463014951,51277.7285037801,60117.5115748602,71126.1987723265,57222.0742711761,59006.1506501432,60008.2821604807,65435.0506081191,11180.3612319412
9339369639,18077,-2,0,20457.1349667204,47587.4364051374,51312.7471352366,60123.5467524844,71141.7612565631,57226.5519836070,59009.2777482267,60015.8991386918,65427.7256546317,11189.6695200107
9339369639,18077,-2,0,20340.2642387360,47553.2086739744,51281.5126574921,60100.3551223399,71105.7692093608,57252.8828795318,58992.6688420633,59969.4915430091,65423.6251408024,11206.5339478073
9339369639,18077,-2,0,20085.3996610827,47510.4027165513,51240.2033267782,60090.3897786419,71076.5058985016,57269.8324812062,58992.6323389729,59948.6117752610,65438.7739233470,11218.3001106351
9339369639,18077,-2,0,20061.0399320432,47523.1666305186,51257.6396363255,60112.6079930406,71101.5835216537,57255.3407542900,59013.2079143005,59984.0441084094,65455.7721958086,11220.0765943713
9339369639,18077,-2,0,20252.0849398602,47564.1839365087,51296.6614400366,60125.7491056093,71131.0536833589,57240.3623195010,59023.7573074460,60008.6593590822,65448.6175900767,11212.1067529522
9339369639,18077,-2,0,20411.6399482994,47583.6644191222,51314.0490787966,60121.9041134133,71138.1717860003,57243.3312375258,59020.8127248148,60001.8454488613,65440.1853761784,11206.8503079247
9339423399,18078,-2,0,20368.7244816049,47564.1839365087,51296.4667568875,60113.5327379991,71119.2145143502,57247.8089499566,59014.8505533716,59984.9323502774,65438.4575632296,11213.7980628106
9339423399,18078,-2,0,20151.1173916234,47515.5253169138,51249.8401426620,60104.4434684724,71087.8096888501,57262.5440308092,59006.9415504367,59962.3004341868,65442.4850708780,11222.2789474962
9339423399,18078,-2,0,20029.9149635701,47505.1584392206,51233.3529134669,60109.9797705268,71088.2598936326,57267.5814572939,59014.7653794938,59967.1918483096,65452.9492901457,11220.7458176965
9339423399,18078,-2,0,20216.3240788976,47558.9396591780,51283.2161350473,60134.2908287791,71134.9595140390,57250.9968865242,59037.0322646798,60016.1546603251,65461.8925473106,11213.4695349964
9339423399,18078,-2,0,20456.7699358157,47596.7203578133,51319.0986729782,60137.1502375324,71152.6635129164,57236.6511719700,59041.2544554773,60031.6076352902,65448.5689192894,11207.6168728246
9339423399,18078,-2,0,20397.8782831927,47568.2114441571,51286.8664440942,60111.4155587519,71117.2676828585,57246.3731617315,59019.7176321007,59984.5794870696,65432.2763732435,11210.0747475828
9339423399,18078,-2,0,20151.4215840440,47519.3459737162,51238.0253090469,60096.2181054201,71083.1859640574,57248.7580303088,59009.2655805298,59955.6082009341,65436.0118561682,11210.8413124827
9339423399,18078,-2,0,20055.2967791427,47510.3053749767,51234.0343044890,60105.7089089420,71086.7754346202,57238.5980034617,59017.2719250393,59973.9084169559,65442.5702447557,11207.0084879834
9339445848,18079,-2,0,20196.7949254967,47547.5628626486,51272.9952697160,60125.0798822841,71118.4236140567,57249.4759244214,59029.9141620384,60002.4538337025,65445.6851751424,11206.4974447169
9339445848,18079,-2,0,20401.7597784792,47592.9970425854,51313.9030664348,60141.5671114792,71149.2930608965,57252.5786871112,59042.6050698247,60019.4277707705,65451.6351788888,11212.6056285220
9339445848,18079,-2,0,20427.6039665311,47584.3823132348,51307.9408949915,60130.8717059718,71135.5922342738,57244.1708086066,59033.5523033884,60003.1352247246,65445.0281195140,11215.8909066642
9339445848,18079,-2,0,20206.4317413805,47525.6366729736,51248.7693853415,60102.7399909172,71085.9236958426,57248.8432041866,59015.7144598460,59961.9719063725,65437.1799550632,11217.7768996717
9339445848,18079,-2,0,20022.0789668161,47499.3909509266,51218.4596525556,60100.2942838558,71074.9362656115,57260.2200007160,59015.7022921492,59960.1224164555,65450.7104339303,11221.2933640536
9339445848,18079,-2,0,20160.7785429008,47542.9999763400,51261.9591686976,60127.2457323186,71117.5232044918,57244.7913611445,59031.8123227427,60012.3583389164,65460.8704607774,11214.2969383804
9339445848,18079,-2,0,20422.3353538068,47589.5049135973,51308.1112427470,60137.0772313515,71145.1682116735,57234.7651789624,59033.3941233297,60032.8122372757,65446.5125785264,11209.7097166781
9339445848,18079,-2,0,20427.5431280470,47576.6071549649,51291.4901688869,60117.0978731682,71118.4357817535,57245.6430999222,59017.0529064965,59991.4785711682,65429.3317906124,11213.6885535392
9339464660,18080,-2,0,20210.6660998749,47529.0436280841,51247.5891187497,60096.2546085105,71077.2237926142,57246.3974971252,59006.4426748669,59954.6834559756,65428.0055116587,11218.0689243955
9339464660,18080,-2,0,20063.0841051094,47504.7325698318,51231.1383926451,60097.7634029166,71072.1498630390,57243.5137529781,59010.6283625740,59962.3126018836,65438.7739233470,11218.5556322684
9339464660,18080,-2,0,20136.9055217342,47526.4275732671,51250.4606951999,60110.7341677298,71096.9111260737,57243.9761254574,59018.8050548390,59987.0130264342,65443.9695298904,11212.3744422824
9339464660,18080,-2,0,20351.2395012703,47566.8243267193,51286.7934379132,60121.2227223912,71126.4786293535,57230.7498390109,59025.3877788202,60008.9027130186,65442.1565430637,11205.9377306630
9339464660,18080,-2,0,20448.5567404602,47571.1073560010,51293.2909880167,60117.5602456475,71120.6989733626,57227.7444178956,59017.0164034061,60000.4583314235,65428.5652257125,11210.8534801795
9339464660,18080,-2,0,20256.2219567800,47524.7727664992,51250.1808381730,60092.8111503096,71082.5897469131,57247.9427946217,59001.1983975362,59956.7762998292,65420.9360798045,11219.0666755350
9339464660,18080,-2,0,20023.9406244300,47491.3967741139,51213.0815305599,60085.3645198540,71063.8514938058,57252.2988300843,59002.1231424948,59941.9317097052,65432.1668639721,11221.2446932663
9339464660,18080,-2,0,20100.0860711480,47522.8381027044,51243.1114063189,60108.5074792112,71099.0283053209,57230.6159943458,59021.2994326877,59988.4001438720,65442.9717787509,11215.2825218230
9339526199,18081,-2,0,20353.9407299650,47571.3385422406,51289.6406789698,60123.4737463035,71130.7129878478,57226.6006543942,59029.1354294417,60013.1857423003,65434.9289311509,11211.9364051967
9339526199,18081,-2,0,20429.6238042037,47578.5053156693,51294.9579624814,60119.0203692663,71125.7607352409,57251.0577250084,59020.4720293038,59990.2496337891,65431.5098083437,11218.5677999652
9339526199,18081,-2,0,20269.0710446250,47546.1757452108,51263.6869816465,60109.7607519840,71096.5947659563,57259.9036405986,59012.3318401292,59964.7583089450,65438.6035755914,11223.5687233595
9339526199,18081,-2,0,20085.3023195081,47512.6415727667,51233.9369629144,60108.8968455096,71080.1805429422,57258.0176475911,59012.0398154055,59961.4000246219,65444.9064425457,11221.7557365328
9339526199,18081,-2,0,20087.5898465108,47525.1743004944,51238.6701969785,60120.8698591833,71098.2617404210,57254.1848230919,59021.4576127464,59981.5740659543,65447.3399819103,11216.3776145371
9339526199,18081,-2,0,20297.6286290685,47573.1150259768,51281.7438437317,60138.2088271560,71136.0424390563,57240.0459593836,59032.3842044934,60015.1934122761,65447.0236217929,11212.0337467713
9339526199,18081,-2,0,20456.2223894587,47591.7072667222,51302.4410960275,60136.8703805055,71141.8951012281,57233.7430924293,59027.5536288547,60015.4976046967,65436.2552101046,11210.0504121892
9339526199,18081,-2,0,20303.9193283259,47544.9346401348,51258.9172444919,60106.1712814212,71095.1224746407,57246.2758201569,59004.3863341038,59963.9552409547,65423.5034638342,11212.8733178521
9339555964,18082,-2,0,20047.0714160904,47496.4342005986,51209.2487060606,60087.6642145535,71063.8879968962,57249.9869676879,58995.4430769390,59939.7658596707,65428.2732009888,11216.2802729625
9339555964,18082,-2,0,20063.6559868601,47517.0097759262,51232.7201932321,60108.9090132064,71091.6668487430,57243.8787838828,59015.2520873667,59982.3406308542,65444.4805731569,11219.1153463223
9339555964,18082,-2,0,20301.2911058122,47574.0276032385,51292.3540753613,60131.6626062653,71135.1420294914,57244.3776594526,59029.5126280432,60019.4156030737,65444.9916164235,11222.5466368263
9339555964,18082,-2,0,20428.6017176706,47592.4859993189,51306.7849637933,60128.4016635167,71136.1276129340,57254.3795062410,59022.4066930986,60007.0653907984,65437.5449859679,11223.5200525722
9339555964,18082,-2,0,20321.6841656874,47562.8576575550,51277.2904666945,60112.3159683168,71106.0003956004,57257.9689768038,59009.0222265934,59980.4059670593,65435.6346575667,11220.2834452173
9339555964,18082,-2,0,20107.5448693005,47515.1481183123,51232.3186592369,60098.3961231514,71070.7870809949,57250.5223463482,58998.9595413208,59956.7276290419,65432.2277024562,11214.1752614122
9339555964,18082,-2,0,20033.0907324409,47506.5455566584,51223.5214144339,60102.9468417632,71072.0768568581,57248.4781732819,59003.4615891453,59960.4266088760,65434.1136954638,11208.4321085117
9339555964,18082,-2,0,20230.0735763075,47555.5570394613,51270.4522210800,60125.6152609443,71115.2478451859,57235.0937067767,59019.3526011961,59999.4119094967,65439.9541899388,11204.9156441299
9339564615,18083,-2,0,20446.9992752669,47587.3999020469,51305.3735109619,60132.9158790381,71135.0325202200,57230.5673235585,59018.2818438756,60010.3141658501,65431.9478454293,11205.8647244821
9339564615,18083,-2,0,20345.7275346095,47548.5362783944,51264.6847327860,60100.6228116700,71094.7574437360,57236.7241781509,58992.6323389729,59960.3536026951,65414.9739083613,11206.6799601692
9339564615,18083,-2,0,20078.7439309206,47498.2715228188,51211.1103636745,60082.1157448023,71059.8969923383,57249.6341044801,58985.1613731236,59932.4652415769,65421.4957938584,11210.6344616367
9339564615,18083,-2,0,20028.1628152276,47506.6185628394,51221.9274461501,60095.6462236694,71082.2125483116,57246.1054724014,59003.7536138690,59967.5568792143,65440.4043947212,11212.1067529522
9339564615,18083,-2,0,20224.4642680721,47558.3069389432,51270.6834073197,60116.8788546254,71126.2839462043,57248.1739808613,59020.9465694799,60006.7003598937,65448.5445838958,11215.5380434563
9339564615,18083,-2,0,20402.1613124744,47593.5324212457,51300.2144075089,60124.3863235652,71144.6450007101,57255.6327790138,59022.5892085510,60009.3772531947,65448.5080808053,11219.4803772270
9339564615,18083,-2,0,20366.5951346609,47575.0740251652,51280.7460925922,60112.5593222533,71122.7796495193,57246.0689693110,59009.2290774394,59986.3194677153,65443.6166666825,11213.4573672996
9339564615,18083,-2,0,20150.2048143617,47523.7993507534,51237.4412595994,60094.5389632585,71085.3639817887,57252.1528177224,58996.2339772325,59959.4410254334,65437.9221845694,11214.6984723755
9339588451,18084,-2,0,20002.9513474104,47498.9042430536,51213.7994246724,60088.3212701820,71076.6154077730,57246.2149816728,58996.1609710515,59956.5451135895,65439.3214697040,11211.4131942333
9339588451,18084,-2,0,20157.4567616682,47539.6903628041,51257.3841146922,60110.1014474950,71116.5619564427,57237.6489231095,59016.1159938412,60001.7237718931,65448.7149316513,11205.4510227901
9339588451,18084,-2,0,20405.4952614038,47580.3304701928,51304.5217721843,60123.7049325431,71142.8076784898,57230.8350128886,59019.9974891277,60022.5305334603,65442.5945801494,11198.5884417820
9339588451,18084,-2,0,20372.1192690185,47556.3236043611,51282.0480361523,60102.6548170394,71111.6218715326,57249.8044522356,58999.9086216730,59982.1337800082,65431.9843485198,11198.3329201487
9339588451,18084,-2,0,20126.0397684713,47506.7524075044,51231.0410510705,60084.1234147781,71075.9583521446,57255.5962759233,58990.9288614177,59951.0939854128,65438.1047000217,11201.1193227211
9339588451,18084,-2,0,20017.8567760186,47497.1764301048,51224.9937057495,60093.1275104270,71082.1395421307,57245.0590504747,59003.0843905438,59972.2901132784,65450.8686139890,11203.7110421444
9339588451,18084,-2,0,20151.2025655012,47531.0756334535,51258.9659152792,60109.6147396221,71115.6737145747,57244.9860442937,59015.1912488826,60004.4128328910,65451.2944833778,11205.9498983598
9339588451,18084,-2,0,20355.4860274615,47572.0929394436,51295.0796394497,60118.3511459410,71141.2015425092,57241.8711139070,59018.4521916312,60020.4255219100,65446.8897771279,11208.1035806975
9339628142,18085,-2,0,20397.2333952611,47565.1086814673,51288.9349525541,60108.3127960621,71126.7219832899,57236.4808242145,59003.7779492627,60001.5534241376,65437.2042904568,11204.3802654697
9339628142,18085,-2,0,20195.4929819367,47512.3373803462,51236.4191730663,60085.6808799714,71085.6316711188,57250.1208123530,58986.8526829820,59964.2350979816,65430.3538771455,11204.1734146237
9339628142,18085,-2,0,20001.2357021584,47487.8438066416,51208.0806071656,60088.7958103581,71076.0070229319,57270.1123382331,58994.2628103472,59965.4518676639,65448.4715777149,11210.9751571477
9339628142,18085,-2,0,20111.2803522251,47532.2072292580,51252.2858497234,60120.3344805231,71120.0784208246,57253.7224506126,59022.0294944971,60018.5273612056,65466.7839614334,11213.9075720820
9339628142,18085,-2,0,20372.2287782899,47578.6513280312,51301.4920156754,60134.9357167107,71150.8018553025,57236.8215197255,59029.7803173733,60044.9312633114,65457.4148348797,11215.5502111531
9339628142,18085,-2,0,20399.8616177748,47567.1041837462,51292.0012121535,60120.0911265867,71128.3767900578,57252.7246994731,59016.3228446871,60008.0023034537,65443.7018405603,11219.1031786254
9339628142,18085,-2,0,20184.3717070405,47516.8515958675,51238.3538368611,60094.0644230824,71087.5298318232,57252.6273578985,59003.8144523532,59966.7538112240,65442.2782200320,11218.4704583906
9339628142,18085,-2,0,20024.7923632076,47489.2065886857,51212.4001395378,60089.4406982897,71075.2039549416,57237.6124200190,59003.9361293214,59967.3986991556,65451.0146263509,11214.4429507423
9339661708,18086,-2,0,20081.3356503438,47502.1408504085,51225.8819476176,60088.8201457517,71089.4644956181,57225.2378723501,59001.1618944458,59977.4857198218,65442.8866048731,11203.9543960809
9339661708,18086,-2,0,20297.2027596797,47547.6602042232,51268.9799297644,60101.4137119635,71122.5241278860,57229.3140507858,59005.6396068766,60000.6286791790,65440.4530655085,11201.8493845305
9339661708,18086,-2,0,20421.0212425499,47565.9239171544,51287.5843382067,60104.1271083550,71126.2596108106,57233.1833783755,59004.7513650085,60001.1153870520,65437.6544952393,11208.0184068197
9339661708,18086,-2,0,20258.2174590589,47521.0129481809,51249.3899378795,60084.0869116876,71086.2643913536,57251.6782775463,58991.0018675986,59961.1688383822,65433.6391552877,11215.9517451483
9339661708,18086,-2,0,20019.3777381214,47482.3196722840,51211.5970715475,60075.0828160386,71063.0727612091,57263.3836018900,58992.2186372809,59943.5256779890,65445.6365043551,11216.9373285910
9339661708,18086,-2,0,20072.3315546949,47511.8141693828,51239.7166189053,60105.2100333722,71099.9773856731,57240.9707043421,59016.8825587410,59988.8503486544,65459.3251632809,11211.9729082872
9339661708,18086,-2,0,20330.6395905491,47562.8333221614,51284.4694078201,60122.5976721322,71138.3421337558,57220.8209984034,59028.2228521800,60020.7175466337,65446.6707585851,11207.1788357390
9339661708,18086,-2,0,20419.2325911169,47567.6395624064,51281.8046822158,60106.9013432306,71127.8414113976,57239.6322576916,59015.5684474841,59997.4285749146,65430.6459018692,11210.5127846684
9339708353,18087,-2,0,20259.2152101984,47531.2216458154,51246.8712246372,60088.8688165390,71096.3514120198,57254.0996492141,59006.4305071701,59968.0192516935,65433.9798507987,11219.5290480142
9339708353,18087,-2,0,20069.7641706652,47499.0989262028,51219.3113913332,60087.7858915218,71081.3608095340,57252.6151902017,59009.9956423392,59965.5857123290,65443.1177911128,11221.7070657456
9339708353,18087,-2,0,20058.6307280722,47507.4459662233,51225.1762212019,60096.0842607550,71096.9111260737,57249.9504645975,59016.8460556505,59982.3162954605,65450.2115583605,11217.2536887084
9339708353,18087,-2,0,20265.2990586099,47558.0270819163,51271.4013014322,60116.7693453540,71136.4926438387,57242.2361448117,59025.3391080329,60016.6170328044,65456.6604376767,11212.6542993093
9339708353,18087,-2,0,20449.5301562061,47584.4674871126,51298.9124639489,60120.7725176088,71148.5629990871,57238.5736680680,59022.0416621939,60023.3822722379,65452.4747499696,11211.5957096857
9339708353,18087,-2,0,20332.3917388916,47544.3505906873,51259.9880018123,60100.7444886382,71108.2514195127,57254.1726553950,59003.8509554436,59978.6294833232,65441.7306736749,11220.9161654521
9339708353,18087,-2,0,20069.2166243082,47493.2219286373,51207.3992161435,60085.3766875508,71072.5392293373,57258.1514922561,58995.4187415453,59947.4801794564,65441.0127795624,11226.7323245334
9339708353,18087,-2,0,20053.8244878272,47508.6505682088,51225.5412521065,60105.9400951816,71098.0183864846,57250.8630418592,59013.2079143005,59982.5718170938,65454.3485752803,11223.3862079071
9339730844,18088,-2,0,20281.4577599908,47558.7814791193,51281.9993653650,60125.2502300396,71138.9505185970,57240.5326672565,59023.9763259888,60018.0649887263,65452.3409053046,11216.6574715640
9339730844,18088,-2,0,20419.0257402710,47573.8572554830,51295.4568380512,60116.9031900191,71139.4737295604,57238.8048543077,59012.6238648530,60002.0522997073,65439.8203452737,11213.5425411774
9339730844,18088,-2,0,20319.3844709879,47538.3032453663,51257.7248102032,60095.9990868773,71102.5326020059,57233.6457508547,58996.1366356579,59964.5149550085,65429.4656352774,11210.5614554557
9339730844,18088,-2,0,20109.7837255159,47488.7928869938,51211.9499347553,60083.3568498782,71066.0660146275,57231.5285716075,58988.9820299260,59942.0533866734,65425.8031585337,11204.0760730491
9339730844,18088,-2,0,20023.5999289190,47479.8374621321,51205.6227324074,60088.7471395708,71070.8844225694,57235.4952407718,58996.1123002642,59948.3805890213,65429.8184984853,11200.2675839435
9339730844,18088,-2,0,20203.7426803826,47528.5447525143,51253.0524146232,60112.3403037105,71115.2113420954,57228.8273429128,59014.1691623495,59987.4510635198,65437.1921227600,11199.6591991024
9339730844,18088,-2,0,20434.1988582092,47569.9392571060,51296.5519307652,60121.8554426260,71138.9140155065,57221.6727371810,59020.6423770593,60007.3939186126,65431.4976406469,11206.6191216851
9339730844,18088,-2,0,20371.3770395123,47546.8936393233,51273.0074374128,60102.0099291078,71108.4947734491,57250.9968865242,59002.9140427883,59970.8299896597,65425.3894568417,11215.9395774515
9339740954,18089,-2,0,20111.8765693694,47501.8123225943,51224.1784700624,60086.5812895363,71077.2481280078,57265.1114148389,58995.7716047532,59945.0466400918,65435.3791359334,11218.0324213050
9339740954,18089,-2,0,20037.6171156590,47501.6419748388,51221.2460551280,60100.2577807653,71091.9345380731,57244.4019948462,59010.0564808233,59975.9282546285,65448.0822114165,11209.3568534703
9339740954,18089,-2,0,20216.4457558658,47540.4812630976,51258.7712321300,60117.3168917111,71127.4155420088,57241.7494369388,59019.3769365897,60014.5850274350,65448.6297577736,11202.8593033668
9339740954,18089,-2,0,20394.9458682583,47570.0852694678,51289.9570390872,60119.0082015694,71145.6549195464,57250.7170294973,59018.9267318073,60019.8901432498,65447.2304726389,11207.1301649517
9339740954,18089,-2,0,20384.6641644430,47559.2925223859,51285.9295314388,60110.1136151919,71133.0978564251,57254.1848230919,59014.5585286478,60001.8089457709,65446.5125785264,11218.6043030557
9339740954,18089,-2,0,20180.4293732699,47510.4635550354,51246.4331875515,60091.0833373608,71096.6799398341,57256.6183624564,59002.6828565486,59973.3365352052,65447.0114540961,11226.1482750859
9339740954,18089,-2,0,20018.8788625517,47486.3593476292,51219.8589376902,60083.7340484797,71084.7799323412,57257.2145796008,59002.4273349153,59967.4595376397,65449.7613535781,11225.4912194575
9339740954,18089,-2,0,20145.6297603563,47526.5249148417,51253.3322716501,60103.4335496361,71121.4533705656,57245.9229569491,59018.5373655089,60006.2623228081,65457.3904994861,11219.0180047477
9339791527,18090,-2,0,20403.7066099709,47571.4115484215,51298.6569423156,60119.7260956820,71149.5242471361,57233.2928876469,59026.6288838962,60030.8897411777,65449.3111487956,11214.9418263120
9339791527,18090,-2,0,20400.1049717113,47552.0162396858,51281.4518190080,60101.4988858412,71120.5042902134,57249.1838996976,59009.5211021631,59989.2153795591,65432.2033670626,11215.2460187326
9339791527,18090,-2,0,20150.8862053838,47495.5581264273,51226.1009661604,60078.4897711490,71074.4617254354,57251.2889112480,58996.3799895943,59945.8375403853,65431.5949822214,11216.4749561117
9339791527,18090,-2,0,20018.5746701311,47474.1308123221,51211.2077052491,60085.4740291254,71070.0083483982,57240.3258164105,59001.3079068076,59957.3725169735,65440.2948854498,11214.6498015882
9339791527,18090,-2,0,20141.0912094413,47505.1827746143,51247.8081372925,60104.3461268978,71102.2284095853,57237.4177368698,59013.1227404227,59988.7043362926,65441.5724936163,11212.5326223411
9339791527,18090,-2,0,20342.6734427070,47544.1680752350,51280.6730864113,60111.4155587519,71127.6467282485,57234.9476944148,59013.7311252639,60003.0135477563,65434.6247387304,11214.3334414708
9339791527,18090,-2,0,20403.8161192423,47549.7287126831,51284.4815755169,60108.1546160034,71124.3857854999,57240.4474933788,59008.3165001776,59994.1311290756,65432.3615471213,11225.8075795749
9339791527,18090,-2,0,20219.7310340080,47502.7005644624,51243.3425925585,60089.2338474437,71084.7190938571,57246.8233665140,58994.1898041662,59959.8060563381,65425.8153262305,11230.2122858248
9339838077,18091,-2,0,20005.2997128973,47462.8391896704,51206.0972725835,60077.2243306795,71059.3494459813,57258.5165231608,58987.0351984343,59941.6883557687,65429.3561260060,11227.2190324063
9339838077,18091,-2,0,20083.9030343735,47494.9862446766,51237.9888059564,60102.0464321983,71095.4023316677,57244.4750010272,59006.9172150430,59985.7719213582,65445.4661565996,11223.9945927483
9339838077,18091,-2,0,20350.1444085563,47548.4511045167,51284.8222710279,60119.8356049534,71134.8621724645,57227.7200825020,59017.1137449806,60018.6125350833,65440.9762764719,11220.3077806109
9339838077,18091,-2,0,20403.5971006995,47542.4280945893,51273.7740023127,60102.7278232203,71117.1825089807,57238.9265312759,59000.9915466902,59982.1216123113,65426.4723818590,11215.9882482388
9339838077,18091,-2,0,20198.6809185043,47495.7163064860,51227.2325619649,60084.2694271399,71079.4139780423,57249.4880921182,58991.6102524398,59940.1430582722,65427.3727914239,11217.4727072512
9339838077,18091,-2,0,20032.5188506902,47468.1078023948,51203.8584163681,60089.6232137420,71068.1466907843,57243.8179453987,58997.8887840004,59942.7226099987,65436.0361915618,11222.4857983422
9339838077,18091,-2,0,20081.2139733756,47486.9068939862,51220.5768318028,60097.4957135865,71087.2378070995,57236.4686565177,59001.7337761964,59966.1940971701,65438.9199357088,11219.1275140191
9339838077,18091,-2,0,20282.5771880985,47530.5889255806,51259.3309461839,60103.7864128439,71115.4060252446,57231.0053606442,59001.4660868663,59990.4686523319,65437.1556196695,11213.5182057837
9339854428,18092,-2,0,20410.2771662553,47545.5065218855,51280.7339248954,60100.6593147604,71118.9346573232,57231.9057702091,58996.1609710515,59991.8679374665,65429.5021383679,11213.3478580282
9339854428,18092,-2,0,20268.8641937790,47506.2778673283,51250.4485275031,60084.2572594431,71087.9191981215,57253.5764382507,58985.9401057203,59959.4896962207,65429.0762689791,11220.1252651586
9339854428,18092,-2,0,20025.6319342884,47466.9275358029,51209.1391967892,60080.2297517947,71065.3967913023,57272.9717469865,58986.2442981408,59942.9902993288,65443.9330267999,11227.5353925237
9339854428,18092,-2,0,20048.5315397092,47492.7108853708,51228.8873687329,60105.4898903991,71099.3081623478,57261.9843167554,59008.9978911997,59987.0130264342,65463.3040001420,11225.6980703035
9339854428,18092,-2,0,20304.4303715925,47548.4024337294,51280.8921049541,60129.2899053848,71142.9536908517,57243.9639577606,59023.6356304777,60028.2371832703,65461.6491933741,11223.0211770024
9339854428,18092,-2,0,20419.5854543248,47557.9662434322,51284.6762586660,60119.4584063519,71137.2348733449,57250.1816508371,59012.4900201879,60008.3673343584,65445.4661565996,11222.6683137946
9339854428,18092,-2,0,20272.1251365276,47520.2585509779,51247.3214294196,60098.8463279338,71104.8201290086,57259.0032310337,59002.0014655265,59973.1296843592,65445.1862995727,11222.4979660390
9339854428,18092,-2,0,20076.7240932479,47482.3561753744,51215.6002438022,60092.3974486177,71083.9281935636,57261.7287951221,59001.3079068076,59966.9484943731,65451.0998002286,11220.6971469092
9339864419,18093,-2,0,20050.5392096850,47490.1800044316,51224.6408425417,60099.5642220464,71097.7872002450,57263.4809434646,59009.1439035616,59983.4722266587,65458.5829337747,11220.6119730315
9339864419,18093,-2,0,20237.6540514282,47534.9814641337,51266.4003780380,60117.2438855301,71135.1785325818,57247.7237760789,59022.0781652844,60011.3849231705,65459.7145295793,11216.1464282975
9339864419,18093,-2,0,20424.4281976603,47561.0081676379,51288.1683876542,60120.6508406405,71146.0929566320,57231.2730499743,59019.5472843452,60015.4489339094,65445.8798582916,11215.6840558182
9339864419,18093,-2,0,20322.9009353697,47521.4266498729,51248.7815530384,60093.8819076301,71103.1409868471,57240.5935057406,58999.8721185825,59966.8511527985,65427.7864931159,11216.9373285910
9339864419,18093,-2,0,20051.0015821642,47471.2592358719,51194.7204760540,60075.0949837354,71065.4576297864,57253.3817551015,58990.8071844494,59932.0515398849,65429.3682937028,11218.4096199065
9339864419,18093,-2,0,20003.2190367406,47475.7612836964,51203.4203792824,60089.4406982897,71081.8353497101,57245.3510751984,59002.3786641281,59959.5992054921,65441.0006118656,11210.8169770890
9339864419,18093,-2,0,20227.0681551922,47521.8890223522,51254.5977121197,60111.0748632409,71119.9202407659,57229.1558707271,59015.6414536651,59998.7791892619,65439.8446806674,11208.4807792990
9339864419,18093,-2,0,20390.2248018910,47539.8607105597,51273.9078469777,60107.0230201988,71127.1478526787,57234.6678373879,59009.7887914932,59989.3857273146,65431.0231004708,11214.0049136566
9339902788,18094,-2,0,20315.8193358188,47514.9656028599,51253.0159115327,60090.4019463387,71104.0535641088,57246.2028139760,59000.7603604506,59963.7970608960,65429.1736105537,11223.5200525722
9339902788,18094,-2,0,20118.1672686269,47476.4061716280,51219.4452359983,60086.3866063871,71081.7988466196,57252.6273578985,59002.8045335169,59953.9898972567,65437.4354766964,11229.1050254139
9339902788,18094,-2,0,20019.4994150896,47468.7161872359,51208.3969672830,60094.6728079236,71082.7600946686,57255.3285865932,59009.3629221044,59958.5284481717,65443.9208591031,11227.0486846508
9339902788,18094,-2,0,20174.2481832838,47515.6834969725,51247.2849263291,60116.2217989970,71122.5727986733,57250.9603834338,59027.9186597594,59995.2262217896,65452.1462221554,11226.7566599271
9339902788,18094,-2,0,20409.2672474189,47559.2073485081,51290.1517222364,60127.7689432820,71147.6869249158,57241.5669214865,59031.3864533539,60016.3615111711,65446.8289386438,11224.8950023132
9339902788,18094,-2,0,20367.0940102306,47529.6520129252,51267.1791106347,60100.1847745843,71112.1815855865,57248.0279684995,59006.7955380748,59974.3099509510,65431.3272928913,11218.8598246890
9339902788,18094,-2,0,20101.1568284684,47469.8112799500,51209.9057616891,60079.6943731345,71068.2562000557,57251.5444328813,58992.3403142491,59934.4364084622,65431.4246344659,11217.6673904003
9339902788,18094,-2,0,19999.7512431460,47463.9099469909,51204.2964534537,60092.4096163145,71077.7835066680,57235.4952407718,59003.0357197565,59958.7839698049,65442.1808784574,11219.3221971683
9339936125,18095,2,0,20174.5523757044,47507.2877861646,51246.6887091848,60114.9198554369,71120.0540854309,57238.9995374568,59019.0849118660,60001.4804179566,65447.3278142135,11224.7611576481
9339936125,18095,2,0,20366.6924762355,47543.5110196065,51279.5171552131,60119.5192448360,71139.1452017461,57250.1816508371,59021.9199852257,60008.1118127251,65445.5878335678,11226.0509335113
9339936125,18095,2,0,20360.3166031003,47527.6321752526,51267.5806446298,60103.2875372742,71116.2699317190,57246.8598696045,59009.2655805298,59984.8106733092,65439.4553143691,11219.5168803174
9339936125,18095,2,0,20167.1544160360,47478.2799969387,51227.2082265713,60081.3613475993,71076.7857555286,57249.4880921182,58993.7639347774,59957.6280386068,65436.0605269555,11214.8809878279
9339936125,18095,2,0,20002.9756828041,47456.8770182272,51200.9746722210,60077.0783183176,71065.1534373658,57262.7265462616,58993.6057547187,59953.5883632615,65444.9064425457,11214.3334414708
9339936125,18095,2,0,20115.0523382402,47500.7659006675,51234.3141615159,60102.9833448536,71106.9373082558,57255.4745989551,59011.9789769214,59995.6034203912,65459.0453062540,11214.0900875344
9339936125,18095,2,0,20373.2143617326,47552.0527427762,51278.9452734624,60119.9937850121,71141.6639149885,57236.0549548257,59018.1358315138,60023.7229677490,65452.0123774903,11211.3036849619
9339936125,18095,2,0,20396.0774640629,47540.1770706770,51262.3728703896,60101.9247552300,71122.3294447368,57247.8454530471,59000.6265157855,59984.7011640378,65434.1258631606,11216.5357945958
9339968322,18096,2,0,20159.8537979423,47488.7198808128,51208.3847995862,60080.4852734280,71081.8353497101,57257.9324737133,58991.6954263175,59945.0223046982,65434.5273971558,11221.2081901758
9339968322,18096,2,0,20019.5115827865,47474.9947187966,51197.9449157121,60090.8278157275,71084.6947584635,57254.1118169109,59007.2335751604,59964.8069797323,65449.5666704289,11224.4569652275
9339968322,18096,2,0,20133.3403865651,47509.6239839546,51236.7598685773,60112.1699559549,71117.8273969123,57247.1518943282,59026.3976976565,60004.2546528323,65454.5189230359,11226.8418338048
9339968322,18096,2,0,20335.5188369751,47547.0883224725,51270.9267612561,60121.3687347531,71142.3574737074,57246.8598696045,59028.6730569624,60015.3880954253,65447.5346650595,11223.1428539707
9339968322,18096,2,0,20409.7661229887,47554.3767728694,51274.3093809729,60123.3520693352,71140.6418284554,57250.5223463482,59027.0304178913,60006.6638568032,65444.5292439442,11223.9215865673
9339968322,18096,2,0,20244.3706200744,47508.6992389961,51231.1992311292,60104.9180086485,71103.5060177517,57254.5011832093,59012.0398154055,59974.4316279192,65439.1632896453,11224.4447975307
9339968322,18096,2,0,20022.4196623272,47467.3412374949,51187.1034978429,60090.0369154340,71076.5302338953,57257.8594675324,59003.9604647150,59955.7177102056,65440.0758669070,11223.5687233595
9339968322,18096,2,0,20067.9025130513,47493.6234626325,51210.5506496207,60105.7697474261,71103.6763655073,57241.1045490072,59015.3494289413,59992.5736638822,65450.9902909572,11217.7282288844
9340034621,18097,2,0,20328.6319205733,47543.2311625796,51261.6549762770,60121.8311072324,71136.1519483277,57222.0986065698,59017.2597573425,60025.8279792993,65441.8280152495,11209.1621703211
9340034621,18097,2,0,20409.8999676537,47539.7146981978,51258.9050767951,60108.0694421256,71118.9833281105,57234.4853219355,58999.8356154921,59995.4817434229,65423.3209483818,11208.1765868784
9340034621,18097,2,0,20216.3849173817,47497.2616039825,51218.3623109810,60093.1883489112,71083.6726719303,57252.1893208129,58987.8747695151,59956.2530888658,65425.5476369004,11216.4019499307
9340034621,18097,2,0,20039.2840901238,47474.0334707475,51198.0544249835,60097.9094152785,71075.7515012986,57249.5732659960,58998.6188458098,59963.7848931992,65438.8590972247,11220.4537929728
9340034621,18097,2,0,20078.5857508619,47494.5725429847,51222.6940110500,60109.9189320427,71099.3203300446,57248.9162103675,59012.9767280608,59992.3424776426,65446.4274046486,11220.7214823029
9340034621,18097,2,0,20279.9976363720,47540.3352507357,51267.7631600822,60124.2889819906,71133.3047072711,57243.6962684305,59023.3679411476,60017.0794052836,65447.4494911817,11221.2811963567
9340034621,18097,2,0,20419.9261498358,47557.3091878038,51283.9826999471,60126.9172045044,71138.6098230859,57245.5944291349,59024.1223383507,60018.5638642961,65442.4607354843,11223.5322202690
9340034621,18097,2,0,20299.0035788095,47519.0296135988,51249.7428010874,60111.6954157788,71104.8322967054,57253.5521028571,59013.5729452052,59985.3947227567,65437.6301598456,11232.7918375513
9340044399,18098,2,0,20041.1822508281,47463.0825436069,51192.0435827530,60088.0657485487,71063.6081398693,57256.2411638549,58999.9451247635,59946.8839623121,65433.3349628671,11227.4137155555
9340044399,18098,2,0,20030.1704852034,47478.3286677260,51206.7178251215,60103.6525681789,71087.3838194613,57245.7891122840,59016.3106769903,59977.1085212203,65446.4517400422,11219.6628926793
9340044399,18098,2,0,20274.9723775841,47530.6497640647,51259.8784925409,60120.8455237897,71127.7805729135,57224.2887919979,59027.5292934611,60013.3195869654,65439.9055191515,11212.3014361014
9340044399,18098,2,0,20405.6899445530,47539.3009965058,51260.4382065947,60107.1568648639,71120.4191163356,57228.8273429128,59011.0177288723,59991.2960557158,65419.2691053398,11208.7363009323
9340044399,18098,2,0,20268.7911875981,47500.9727515135,51219.7129253284,60088.5646241184,71085.7168449966,57244.2681501812,58997.6819331544,59954.6712882788,65415.7891440484,11212.2284299205
9340044399,18098,2,0,20069.4599782446,47464.7860211621,51190.3036021073,60088.9661581136,71064.7154002802,57248.1983162550,59000.2979879713,59955.2796731199,65426.5697234336,11215.9517451483
9340044399,18098,2,0,20035.2079116881,47472.9627134271,51199.9039149006,60106.0496044530,71079.7790089470,57257.2267472976,59016.3958508681,59981.0021842036,65440.4530655085,11223.5443879658
9340044399,18098,2,0,20216.7012774991,47526.0990454529,51248.4165221337,60133.9257978744,71122.6458048542,57256.1803253708,59032.7370677013,60017.6877901248,65451.7690235539,11230.6016521231
9340075682,18099,2,0,20409.9973092283,47557.0293307768,51281.0381173160,60135.7996231851,71138.3421337558,57238.9508666695,59026.8235670453,60026.6188795928,65445.6486720519,11230.3582981867
9340075682,18099,2,0,20337.1979791367,47523.0571212472,51252.3466882075,60108.5318146049,71100.7074474825,57241.8467785134,59005.7126130575,59984.4699777982,65432.6779072387,11232.8283406417
9340075682,18099,2,0,20067.0629419705,47464.7981888589,51189.1355032123,60080.8624720295,71056.0276647486,57251.4470913067,58990.5029920289,59940.4837537832,65428.2732009888,11229.5308948027
9340075682,18099,2,0,19995.9305863436,47465.4065737001,51189.3058509678,60094.0400876888,71068.5238893858,57246.0202985237,59004.3985018007,59966.4496188034,65444.9551133330,11222.1207674375
9340075682,18099,2,0,20213.0753038458,47517.8736824006,51247.5769510529,60123.8752802986,71112.5952872785,57235.6655885273,59026.1300083264,60016.4831881393,65448.9947886782,11216.8278193196
9340075682,18099,2,0,20390.5289943116,47547.1734963502,51269.8925070262,60126.4548320251,71124.4222885904,57244.9982119905,59021.6036251083,60014.1713257430,65437.8005076011,11219.7358988602
9340075682,18099,2,0,20324.2272143234,47526.0747100593,51245.6422872580,60110.2961306442,71097.1179769197,57246.7381926362,59006.6616934097,59981.8052521939,65431.4002990723,11222.4736306454
9340075682,18099,2,0,20126.8063333712,47484.2300006852,51208.8958428528,60101.1581903302,71069.2539511951,57249.4029182404,59002.4029995217,59962.4342788518,65434.0528569797,11223.4713817849
9340098348,18100,2,0,20019.8401106007,47473.4129182096,51198.3099466168,60106.3294614799,71069.5703113125,57249.8409553261,59010.2633316693,59968.2869410237,65437.7031660266,11223.7147357213
9340098348,18100,2,0,20155.8749610812,47514.2598764442,51230.4813370167,60125.3840747047,71105.2946691847,57240.1433009582,59027.2616041310,60002.0157966168,65441.5968290099,11218.8476569922
9340098348,18100,2,0,20393.3518999745,47559.0978392367,51272.6059034177,60137.3084175911,71135.0568556136,57228.4014735240,59036.9349231052,60026.8744012261,65433.8703415273,11217.0346701655
9340098348,18100,2,0,20383.7394194844,47538.5222639091,51252.0059926964,60115.9906127573,71108.9084751411,57237.3568983857,59019.0605764723,59987.4388958230,65417.0180814276,11219.0423401413
9340098348,18100,2,0,20122.3529563340,47481.4192627191,51193.7713957018,60091.0711696640,71065.5184682705,57255.5962759233,59001.9771301329,59944.5355968253,65421.1794337410,11220.4781283664
9340098348,18100,2,0,19998.5831442510,47472.3421608892,51189.1720063028,60104.1879468391,71074.4738931322,57260.4998577430,59016.1403292348,59967.3743637619,65441.2196304084,11223.2158601516
9340098348,18100,2,0,20165.5361123586,47522.9476119758,51245.5571133803,60133.3052453364,71122.2199354654,57268.3115191033,59036.0710166308,60014.3781765890,65458.2909090510,11225.7102380003
9340098348,18100,2,0,20369.2111894778,47568.3574565190,51289.1053003096,60144.2926755675,71154.7928598604,57272.9960823801,59041.2544554773,60027.9451585465,65461.2111562885,11229.4700563186
9340145946,18101,2,0,20374.8448331068,47558.6963052416,51273.5671514667,60130.4215011894,71134.6066508312,57251.5566005781,59026.1543437201,60000.2149774871,65449.5423350353,11228.6426529346
9340145946,18101,2,0,20183.9701730454,47508.0300156708,51224.3974886052,60107.4975603749,71094.8791207043,57248.7458626120,59004.0578062896,59971.3410329262,65440.3678916308,11230.9058445437
9340145946,18101,2,0,20005.7499176797,47476.1871530852,51192.6154645037,60096.4979624470,71076.9317678904,57261.3515965206,58998.5945104161,59961.2296768664,65442.9231079636,11233.1081976686
9340145946,18101,2,0,20090.9602985308,47509.1737791722,51223.6065883117,60114.8468492560,71110.5632819090,57253.1749042556,59013.4025974496,59998.4384937509,65453.4846688059,11228.5939821473
9340145946,18101,2,0,20354.2935931729,47559.5115409287,51274.9055981172,60132.6116866175,71145.9591119670,57232.7696766835,59023.4531150254,60033.6639760533,65447.5955035436,11220.5754699410
9340145946,18101,2,0,20410.6908679472,47553.8900649965,51268.0065140186,60121.5390825086,71130.2627830654,57247.7359437757,59010.2511639725,60006.6030183191,65432.9090934783,11222.0112581661
9340145946,18101,2,0,20178.9814173479,47502.0191734403,51216.0017777974,60097.2523596500,71084.9381123999,57263.1037448631,58997.0978837069,59958.3946035066,65432.1546962753,11225.3938778829
9340145946,18101,2,0,20008.4511463744,47479.0952326259,51196.9958353599,60096.1694346328,71074.4373900417,57255.5232697424,59003.1817321184,59965.0381659719,65443.9208591031,11221.9260842884
9340160491,18102,2,0,20103.3470138965,47507.2634507710,51228.9117041265,60111.1357017250,71101.2914969300,57244.3776594526,59015.0939073080,59999.8621142792,65447.2061372453,11217.8742412463
9340160491,18102,2,0,20306.9855879253,47550.4101037051,51270.8294196815,60121.5390825086,71131.5768943223,57252.9315503191,59019.5594520420,60016.2885049902,65446.3787338613,11218.7868185080
9340160491,18102,2,0,20392.2811426541,47561.9207448996,51289.0809649159,60124.8730314381,71134.1564460487,57261.5949504570,59018.5738685994,60014.4876858604,65448.4837454117,11223.5200525722
9340160491,18102,2,0,20245.2953650330,47521.7430099903,51254.3665258801,60109.7850873776,71101.6321924410,57270.1853444140,59009.1439035616,59987.4145604293,65444.5900824283,11227.0243492572
9340160491,18102,2,0,20024.9627109632,47483.1470756679,51209.9909355668,60097.6538936452,71078.0633636950,57280.3453712612,59008.8640465347,59968.2869410237,65448.5932546831,11228.2776220299
9340160491,18102,2,0,20050.6487189564,47508.8330836611,51226.9527049380,60111.8049250503,71104.5159365880,57271.3534433090,59026.6045485025,60000.8598654187,65462.4765967581,11225.9170888463
9340160491,18102,2,0,20311.4998034466,47562.2979435012,51279.8335153305,60127.4890862550,71143.9392742944,57246.5070063966,59037.0809354671,60038.5918932666,65459.4955110364,11219.6385572857
9340160491,18102,2,0,20419.0744110582,47565.6318924306,51283.2039673505,60112.9486885516,71133.7670797504,57257.9203060165,59022.8812332747,60015.1204060952,65441.2196304084,11218.4461229970
9340185168,18103,2,0,20239.2236843183,47524.4199032913,51242.2961706317,60097.5443843738,71096.8989583769,57280.7590729532,59016.8582233473,59976.0377638999,65441.6454997972,11228.8008329933
9340185168,18103,2,0,20055.5888038665,47498.6000506331,51219.5547452697,60110.8193416076,71089.2819801657,57277.5711363856,59034.3675390756,59984.6768286442,65457.6825242098,11237.0505314393
9340185168,18103,2,0,20081.0801287106,47511.9480140478,51235.9324651933,60124.7878575603,71109.3221768331,57264.6733777532,59043.5419824801,60012.0298111021,65460.5419329632,11233.3150485146
9340185168,18103,2,0,20263.1575439691,47547.2099994407,51271.2066182830,60127.9514587343,71134.3024584106,57250.9117126465,59038.3342082398,60025.3169360328,65450.7591047176,11222.4857983422
9340185168,18103,2,0,20399.7034377161,47559.0370007526,51289.4094927302,60117.6089164348,71133.8157505377,57237.4177368698,59025.4607850012,60019.3547645895,65437.5328182710,11209.3446857734
9340185168,18103,2,0,20295.7913068482,47520.9399420000,51256.8122329415,60095.8409068186,71095.8403687533,57243.3190698290,59008.8640465347,59984.2144561649,65426.4237110717,11209.2351765020
9340185168,18103,2,0,20046.3048511906,47474.3619985618,51210.0152709605,60083.7827192670,71062.7442333949,57266.2065075529,59004.3011602261,59954.4035989487,65433.8095030432,11218.3852845129
9340185168,18103,2,0,20014.0361192161,47485.0209009787,51219.5547452697,60102.1681091665,71086.1548820822,57259.7697959336,59021.1534203258,59985.8205921455,65452.1827252459,11221.5732210805
9340238369,18104,2,0,20260.6144953331,47540.7611201246,51276.3292186455,60132.2344880160,71134.0347690805,57242.2604802054,59037.2269478290,60030.1110085810,65455.2368171484,11220.4659606696
9340238369,18104,2,0,20418.9040633027,47556.9563245959,51292.5852616010,60126.7103536584,71137.0645255894,57246.8963726949,59026.6410515930,60019.1965845308,65441.2439658020,11223.1915247579
9340238369,18104,2,0,20291.3987682951,47521.5848299316,51254.3178550928,60102.7886617045,71099.4176716192,57254.8540464171,59009.9956423392,59978.8971726533,65434.6855772145,11225.8319149685
9340238369,18104,2,0,20081.2748118597,47479.8617975257,51215.1135359293,60095.9017453027,71073.2206203594,57250.3398308958,59006.8077057716,59967.4108668524,65438.2507123836,11226.4524675065
9340238369,18104,2,0,20029.3917526067,47480.6892009097,51213.8845985502,60105.3317103404,71085.3518140919,57262.9820678948,59017.0772418902,59986.6844986199,65446.4639077391,11230.1027765534
9340238369,18104,2,0,20192.4388900341,47529.0557957809,51255.4494508973,60129.3385761721,71124.3492824094,57265.1114148389,59037.7988295796,60021.2529252939,65456.2345682879,11230.2122858248
9340238369,18104,2,0,20394.8971974711,47565.2181907387,51288.6550955271,60138.8172119972,71146.4336521431,57245.9837954332,59044.6614105878,60032.9095788503,65450.7226016271,11223.9945927483
9340238369,18104,2,0,20348.7086203312,47537.3176619237,51267.7509923853,60118.1199597014,71116.5132856555,57249.2690735754,59028.3080260577,59998.7061830810,65436.0848623491,11224.4569652275
9340264612,18105,2,0,20080.3622345980,47477.6107736135,51213.7629215819,60090.0977539181,71067.0515980702,57259.2587526670,59006.5156810479,59952.7487921808,65431.2299513167,11225.2235301274
9340264612,18105,2,0,19976.8759731189,47472.8288687621,51207.2653714785,60097.9824214594,71072.7460801833,57248.8675395802,59010.2876670630,59970.0634247598,65443.2394680810,11221.5975564741
9340264612,18105,2,0,20173.6397984427,47522.8989411885,51252.4927005694,60120.6630083374,71112.8508089118,57239.1090467282,59023.8059782332,60013.3804254495,65445.6730074456,11218.9206631731
9340264612,18105,2,0,20368.9313324509,47556.4452813293,51280.1742108416,60124.0942988414,71130.2019445813,57247.9792977122,59022.1146683749,60015.1690768824,65437.3016320314,11223.0698477897
9340264612,18105,2,0,20319.8590111640,47537.9625498553,51259.5621324235,60109.3713856857,71109.0058167157,57257.0807349357,59011.7356229849,59982.6204878811,65431.1812805295,11228.2532866363
9340264612,18105,2,0,20123.5210552290,47497.4562871317,51220.9540304043,60099.4790481686,71079.3288041645,57253.8197921872,59009.6184437377,59963.5537069595,65429.6481507298,11227.9369265189
9340264612,18105,2,0,20000.8585035569,47480.2998346114,51203.8340809744,60099.1626880512,71072.6365709119,57254.9878910822,59014.3151747114,59964.2229302848,65433.0307704465,11222.7048168850
9340264612,18105,2,0,20111.5115384647,47514.9656028599,51230.1893122929,60113.3015517595,71103.1653222407,57233.4510677056,59025.6676358472,59993.2793902980,65438.4575632296,11216.9859993783
9340272013,18106,2,0,20346.8226273236,47553.5372017886,51272.8005865669,60126.1263042109,71129.8855844639,57221.6362340905,59031.3986210508,60017.7364609121,65431.7166591897,11214.4429507423
9340272013,18106,2,0,20372.0462628376,47540.6151077627,51270.5495626546,60117.3290594079,71111.9382316500,57240.1919717455,59022.0294944971,59993.6687565963,65424.2821964308,11220.2834452173
9340272013,18106,2,0,20129.7022452150,47488.0871605780,51219.8589376902,60093.8332368428,71068.0250138160,57261.6071181539,59008.3530032681,59951.4955194080,65425.8518293210,11228.7034914187
9340272013,18106,2,0,19984.6876344792,47474.9338803124,51203.2865346174,60096.7656517771,71068.5238893858,57252.7733702604,59015.6414536651,59963.1765083580,65437.9708553567,11230.7598321818
9340272013,18106,2,0,20132.7441694208,47518.4577318481,51246.6887091848,60120.0911265867,71108.1419102413,57245.4727521666,59033.6983157503,60009.7057810089,65444.1763807364,11230.2487889153
9340272013,18106,2,0,20338.7189412395,47556.8711507181,51282.7780979617,60125.7856086998,71127.5128835834,57244.1099701225,59032.7005646108,60019.0384044721,65436.0848623491,11229.8837580106
9340272013,18106,2,0,20355.3278474028,47545.1779940713,51268.4810541947,60108.8846778127,71106.3532588083,57236.9675320874,59019.4256073770,59992.3059745521,65428.7234057712,11229.0320192330
9340272013,18106,2,0,20179.7236468541,47496.1421758748,51224.0689607910,60089.1000027786,71068.9497587746,57235.3248930163,59007.0997304953,59963.8092285928,65422.9194143867,11226.9635107731
9340302592,18107,2,0,20001.1505282807,47462.7661834895,51188.8069753981,60082.5416141911,71050.4548596037,57245.1563920492,59002.0136332234,59954.3184250709,65425.0730967243,11222.8021584596
9340302592,18107,2,0,20063.3396267427,47490.5693707299,51214.2131263644,60103.4578850297,71081.4581511086,57239.9851208995,59015.6171182714,59986.9156848596,65437.2042904568,11214.6498015882
9340302592,18107,2,0,20317.3646333153,47542.2942499242,51267.0452659696,60120.2979774327,71119.9080730691,57218.9836761831,59024.4752015585,60023.3336014506,65431.2786221040,11205.0251534013
9340302592,18107,2,0,20392.9625336762,47540.0188906184,51264.5265527272,60103.7985805408,71105.1973276101,57222.1229419634,59008.0366431507,59996.7228484989,65412.2970150602,11203.5163589953
9340302592,18107,2,0,20174.1995124965,47487.6369557956,51207.5938992927,60077.4068461318,71059.9456631256,57231.3338884584,58993.0095375744,59944.0975597396,65404.2785028539,11205.4023520028
9340302592,18107,2,0,19986.2207642789,47458.4223157237,51178.9511409715,60078.4776034522,71049.2380899214,57226.9900206926,58999.6409323429,59944.4139198570,65413.0879153537,11201.4235151417
9340302592,18107,2,0,20062.0620185763,47483.1714110616,51209.0296875178,60096.8751610485,71079.0854502281,57219.0931854545,59013.9623115035,59978.7998310787,65418.9649129192,11195.4613436985
9340302592,18107,2,0,20260.6509984235,47522.2297178632,51244.4741883630,60106.4511384482,71104.8322967054,57213.0458401335,59017.5517820663,59993.1333779361,65415.6674670802,11186.8466143478
9340346175,18108,2,0,20346.1169009079,47525.9408653942,51245.9343119818,60097.9094152785,71098.0183864846,57207.8137304996,59008.2313262999,59982.2311215828,65407.3690978470,11181.5293308362
9340346175,18108,2,0,20217.2001530688,47490.6667123045,51215.3812252594,60083.7948869638,71071.9065091026,57233.5970800674,58998.9230382303,59960.5604535411,65407.4542717247,11195.1449835811
9340346175,18108,2,0,20004.0586078213,47459.3957314695,51185.9840697352,60079.1954975648,71052.0974986748,57256.7522071215,58998.6431812034,59948.6482783514,65419.4881238826,11216.6453038672
9340346175,18108,2,0,20008.2686309221,47489.2674271699,51214.6754988437,60100.5619731859,71084.4149014365,57262.6657077775,59015.3007581540,59986.3803061994,65444.1033745554,11229.0441869298
9340346175,18108,2,0,20266.4793252017,47551.2496747859,51282.0967069396,60128.6815205437,71136.5048115356,57238.6588419458,59031.2039379016,60035.2579443371,65453.7158550455,11232.6336574926
9340346175,18108,2,0,20402.9278773742,47560.0834226794,51288.7402694049,60123.4250755162,71134.3997999852,57240.6665119216,59020.6302093625,60016.9698960122,65435.4643098111,11230.1027765534
9340346175,18108,2,0,20234.5877918288,47510.6825735782,51236.7842039709,60098.6638124815,71090.6569299067,57256.5453562755,59006.3696686860,59967.2770221874,65428.5165549252,11229.1293608075
9340346175,18108,2,0,20028.5765169196,47472.6341856129,51203.4812177666,60094.5632986521,71071.7239936502,57260.8527209508,59010.4215117280,59964.1012533166,65440.3557239340,11225.4303809734
9340378411,18109,2,0,20035.6216133800,47485.0695717659,51219.3722298173,60106.3659645704,71088.1990551485,57255.4380958646,59020.2408430641,59992.0747883125,65447.7658512991,11217.9837505177
9340378411,18109,2,0,20216.3849173817,47529.0801311745,51257.6518040223,60118.1929658823,71121.2100166291,57254.6228601775,59025.3026049425,60014.0618164716,65446.0380383503,11219.8697435253
9340378411,18109,2,0,20371.6933996297,47554.7174683805,51278.4829009832,60118.3024751537,71131.0050125716,57242.5525049291,59020.5572031815,60013.5507732050,65437.7640045107,11222.6683137946
9340378411,18109,2,0,20294.8787295865,47524.6267541373,51249.9374842365,60100.7079855477,71097.2396538879,57245.6674353158,59003.7779492627,59977.6560675773,65423.5521346215,11223.8850834769
9340378411,18109,2,0,20054.8222389666,47480.0929837654,51204.3329565442,60089.2703505342,71063.2431089646,57267.9829912891,58997.9374547877,59944.4625906443,65427.3849591207,11227.1460262254
9340378411,18109,2,0,19994.9936736882,47488.5617007541,51209.4798923003,60105.8914243943,71078.9029347757,57259.6967897526,59017.8559744868,59967.8975747253,65442.8257663890,11223.6295618436
9340378411,18109,2,0,20218.2587426924,47537.6461897379,51259.9636664186,60128.4625020009,71123.6192206001,57235.8116008892,59035.5478056674,60014.5241889508,65443.6288343793,11214.3091060772
9340378411,18109,2,0,20396.0166255788,47562.9063283423,51286.6839286418,60127.8906202502,71135.1298617946,57246.9085403917,59033.2967817551,60014.6945367064,65433.2741243830,11220.6484761220
9340396907,18110,2,0,20286.2761679327,47528.1675539128,51253.1862592883,60103.3605434551,71097.3978339466,57255.1460711409,59015.0452365207,59969.2116859822,65425.3772891449,11226.0996042986
9340396907,18110,2,0,20071.9786914870,47484.4490192280,51214.4443126040,60094.3564478062,71065.6888160260,57248.7580303088,59011.2854182024,59952.7609598776,65429.7211569107,11226.0631012082
9340396907,18110,2,0,20005.4943960464,47476.6860286549,51208.0684394688,60099.1870234449,71067.0394303734,57245.5335906507,59014.0109822908,59967.2283514001,65431.4976406469,11221.0865132076
9340396907,18110,2,0,20147.9781258431,47514.1747025664,51237.1005640883,60111.3912233583,71096.9719645578,57241.4695799119,59022.6378793382,59990.3956461509,65432.6170687546,11216.9859993783
9340396907,18110,2,0,20350.5459425514,47554.0847481457,51272.6910772955,60123.4372432130,71123.1081773335,57244.0004608511,59027.4441195833,60009.7787871899,65433.0551058402,11218.7989862049
9340396907,18110,2,0,20339.6071831076,47541.9657221100,51263.7478201306,60118.5336613933,71105.6840354830,57259.1735787893,59019.9609860372,59988.7530070798,65427.8838346904,11226.5133059906
9340396907,18110,2,0,20101.5583624636,47494.4143629260,51215.7097530736,60104.8571701644,71069.6676528871,57276.0988450700,59015.5319443937,59953.0773199950,65429.7454923043,11234.2762965637
9340396907,18110,2,0,19985.6002117409,47483.1957464552,51204.9535090821,60108.8603424191,71069.7163236744,57256.1194868867,59021.3481034750,59964.3811103435,65442.8379340858,11228.5209759664
9340439695,18111,2,0,20168.2981795374,47518.9931105083,51244.6932069059,60121.5390825086,71102.4230927345,57223.5100594012,59024.4873692553,60003.2203986023,65436.3160485887,11214.0900875344
9340439695,18111,2,0,20365.8407374579,47540.5055984913,51267.3737937838,60113.6422472705,71111.6218715326,57219.7624087798,59010.3241701534,59995.7494327530,65416.7625597943,11205.7552152107
9340439695,18111,2,0,20321.7815072620,47518.2630486989,51242.0771520889,60094.9404972537,71083.1737963606,57232.6966705025,58993.5935870219,59956.0705734134,65406.7972160963,11209.4176919544
9340439695,18111,2,0,20124.2146139479,47477.2944134961,51199.7092317514,60082.4077695260,71049.7004624007,57235.0450359894,58986.0739503853,59932.5625831515,65408.8657245562,11214.6254661946
9340439695,18111,2,0,19994.4582950280,47461.4885753231,51183.3680149182,60083.9774024162,71045.8676379015,57244.5966779954,58993.1555499363,59937.5391711521,65416.4948704642,11218.2392721510
9340439695,18111,2,0,20090.8994600467,47498.5635475426,51216.8413488781,60101.3285380857,71077.6253266093,57242.2483125085,59006.8320411652,59967.8489039380,65425.3407860544,11218.8354892953
9340439695,18111,2,0,20327.7680140989,47546.8206331424,51264.9159190256,60121.8067718387,71111.4636914739,57221.2468677922,59017.2597573425,59996.7958546798,65421.4592907679,11220.6241407283
9340439695,18111,2,0,20370.9024993362,47535.2248180701,51257.6031332350,60109.5417334412,71090.1093835497,57227.8904302575,59005.3110790624,59972.2779455816,65407.8923088103,11224.4204621371
9340495714,18112,2,0,20133.4985666238,47475.5666005472,51200.1472688371,60080.3514287630,71042.4120120037,57249.1230612135,58984.7598391284,59925.9068529893,65405.6656202917,11227.2312001032
9340495714,18112,2,0,19968.9669701840,47456.7066704717,51184.5482815101,60086.2040909348,71041.0127268691,57246.6895218489,58993.9829533202,59939.1818102232,65423.2722775945,11225.7710764844
9340495714,18112,2,0,20103.6633740139,47499.3057770488,51227.8287791093,60113.5327379991,71083.9890320477,57231.2000437933,59014.3760131955,59988.9841933195,65431.6801560992,11221.6583949583
9340495714,18112,2,0,20316.2817082980,47536.5145939333,51262.4215411769,60115.8324326986,71105.5380231212,57217.5235525643,59010.1416547011,59993.7417627773,65413.6963001949,11213.8710689916
9340495714,18112,2,0,20343.6833615433,47522.8502704012,51247.7716342021,60092.9693303683,71082.8209331527,57221.0643523398,58989.9189425814,59960.5604535411,65399.5087656993,11210.4032753970
9340495714,18112,2,0,20181.2811120475,47482.4900200395,51212.8260089266,60078.2464172126,71052.9857405429,57236.6025011827,58982.2654612797,59935.7748551128,65401.8936342766,11216.2681052657
9340495714,18112,2,0,20002.3186271757,47456.2077949019,51189.0503293345,60080.2540871884,71043.3610923559,57254.2213261823,58986.1956273535,59934.3634022813,65415.3997777501,11222.6561460977
9340495714,18112,2,0,20042.3746851168,47485.7996335753,51214.8945173865,60102.1681091665,71077.7348358808,57254.5133509061,59004.7270296149,59970.9638343247,65432.5805656641,11226.9756784699
9340509733,18113,2,0,20289.5006075907,47538.5465993028,51266.3273718570,60120.9063622738,71116.5741241396,57231.5650746980,59016.8703910442,60014.4146796794,65431.8748392484,11223.3618725135
9340509733,18113,2,0,20392.6583412556,47541.6128589022,51268.0916878964,60108.1546160034,71106.9494759526,57227.0630268735,59003.3277444802,59994.4474891930,65413.4529462584,11222.6196430073
9340509733,18113,2,0,20188.0950222683,47488.5008622700,51209.0175198210,60077.7597093397,71058.7288934433,57244.8521996287,58984.2852989523,59938.7559408344,65409.0604077054,11225.6859026067
9340509733,18113,2,0,19993.1928545584,47459.9311101297,51181.4820219107,60082.2495894673,71046.7072089822,57241.7372692420,58993.1798853299,59937.2836495188,65423.1749360200,11227.8030818538
9340509733,18113,2,0,20060.2611994465,47485.0939071596,51207.8859240165,60103.2388664869,71077.1507864332,57225.7002448293,59008.8518788379,59977.6560675773,65426.5088849494,11219.8940789189
9340509733,18113,2,0,20262.0137804677,47523.8358538438,51243.0992386221,60109.4808949571,71103.6520301136,57227.0995299640,59009.9834746424,59993.4619057503,65419.7193101222,11218.4826260875
9340509733,18113,2,0,20361.5820435698,47536.0643891509,51255.3399416259,60105.4655550055,71105.5015200307,57237.6002523222,59002.1839809789,59985.9179337201,65420.2911918729,11220.4294575791
9340509733,18113,2,0,20247.2178611310,47505.9371718173,51235.8837944061,60092.3731132240,71079.7425058565,57249.0743904262,58991.5859170461,59963.7727255023,65425.2312767830,11225.7589087876
9340524636,18114,2,0,20031.6427765189,47465.6012568492,51198.2369404359,60079.6578700440,71055.4557829979,57262.2033352982,58989.3957316180,59944.6329383999,65430.1835293900,11232.1226142260
9340524636,18114,2,0,20010.9333565263,47481.0298964207,51209.0905260019,60097.1550180754,71078.9029347757,57261.9843167554,59009.5941083441,59973.3608705988,65446.0988768344,11232.3172973752
9340524636,18114,2,0,20256.2097890832,47542.4280945893,51267.0330982728,60126.3453227537,71129.9585906448,57239.0847113346,59027.9308274562,60026.5580411087,65455.2854879357,11226.6714860493
9340524636,18114,2,0,20404.7408642008,47553.6953818473,51279.8335153305,60113.7882596324,71124.3127793190,57234.9111913243,59013.0619019386,60009.8761287645,65435.9266822904,11217.3023594956
9340524636,18114,2,0,20245.1493526711,47506.2535319347,51231.4547527625,60083.3811852719,71077.0412771618,57255.7057851947,58989.7607625227,59953.5883632615,65427.0685990033,11220.0765943713
9340524636,18114,2,0,20028.1506475308,47468.3511563312,51198.1152634676,60084.6466257415,71055.7113046312,57262.4345215378,58991.5615816525,59944.1218951333,65440.2462146625,11225.9049211495
9340524636,18114,2,0,20023.1132210461,47479.2290772909,51213.0936982567,60102.5331400712,71074.6077377973,57247.6872729884,59009.0465619870,59973.3365352052,65447.9605344483,11222.6683137946
9340524636,18114,2,0,20196.7340870126,47518.4577318481,51245.1677470820,60111.9022666248,71100.2207396095,57237.8314385618,59017.6004528535,59992.3911484299,65439.0051095866,11213.8832366884
9340559966,18115,2,0,20353.0159850065,47542.6714485258,51265.5486392604,60111.4520618424,71106.8277989844,57229.2653799985,59017.5517820663,59993.1577133297,65429.6238153361,11210.7196355144
9340559966,18115,2,0,20292.5912025838,47514.3207149283,51239.4732649688,60093.2978581826,71075.1066133670,57235.1910483512,59004.6905265244,59966.1697617765,65418.6728881955,11211.1090018128
9340559966,18115,2,0,20051.6586377927,47463.4354068148,51187.9065658332,60076.2144118432,71037.0947284921,57254.0996492141,58991.4885754715,59932.7450986038,65417.4926216036,11213.8589012948
9340559966,18115,2,0,19966.8619586336,47466.2461447809,51188.9651554568,60090.9494926957,71053.3142683571,57254.6958663584,59002.2569871598,59953.5640278679,65434.5639002462,11213.7250566297
9340559966,18115,2,0,20182.6073910012,47522.7042580393,51245.9343119818,60120.6143375501,71105.6597000894,57238.8291897013,59019.0970795628,60006.9680492238,65442.1322076701,11210.4762815780
9340559966,18115,2,0,20380.6001537041,47552.5029475587,51279.8700184210,60125.6760994284,71121.0883396609,57241.1045490072,59017.8924775773,60012.4191774005,65432.7630811164,11210.9143186636
9340559966,18115,2,0,20291.1675820555,47520.8060973349,51248.6233729797,60106.9743494115,71088.4059059945,57256.0951514931,59005.9924700845,59972.3874548530,65427.6161453603,11216.1220929038
9340559966,18115,2,0,20077.3324780891,47478.1826553642,51208.0806071656,60092.7381441287,71055.8938200836,57255.9004683439,59001.8189500742,59954.9389776089,65434.3327140066,11216.5236268990
9340611660,18116,2,0,20002.6106518994,47469.3610751675,51200.4757966513,60093.9305784174,71056.1371740200,57244.0856347288,59005.7004453607,59964.4784519181,65433.9433477083,11210.2207599447
9340611660,18116,2,0,20134.0826160713,47503.5279678463,51230.1284738088,60103.1780280028,71084.6095845857,57235.9454455543,59012.9280572735,59987.0130264342,65431.3516282850,11205.2198365505
9340611660,18116,2,0,20340.5805988534,47541.6615296895,51268.1646940773,60113.3623902436,71109.2491706522,57230.3361373189,59019.6081228293,60005.4592548177,65428.0176793555,11206.8624756216
9340611660,18116,2,0,20347.8690492504,47527.6930137367,51255.4372832005,60101.5110535380,71087.7975211533,57237.6610908063,59009.4602636790,59979.7489114309,65418.9770806160,11215.1000063707
9340611660,18116,2,0,20109.9662409682,47472.5125086447,51201.4248770035,60081.0206520882,71044.5535266446,57259.9523113859,58993.9829533202,59937.3931587902,65418.2591865035,11221.3298671440
9340611660,18116,2,0,19968.8939640030,47463.5084129957,51191.2040116722,60091.1806789354,71048.2403387819,57265.1722533230,59008.3165001776,59953.8438848948,65438.5549048042,11222.6683137946
9340611660,18116,2,0,20140.1299613923,47513.1282806396,51242.8558846856,60118.5944998775,71096.4365858976,57242.2848155990,59025.8988220868,60008.7445329599,65449.0556271624,11216.9494962878
9340611660,18116,2,0,20349.4265144437,47544.4966030492,51271.7176615496,60114.6034953195,71111.4880268676,57233.6822539452,59014.0231499876,60012.5895251560,65431.2907898009,11211.7538897444
9340652074,18117,2,0,20321.6719979906,47524.8701080738,51252.3466882075,60095.9869191804,71084.5000753143,57253.7224506126,58996.1488033547,59974.9305034890,65423.5886377119,11218.6529738430
9340652074,18117,2,0,20129.7387483055,47486.4323538101,51221.7814337883,60092.6164671605,71058.6315518687,57267.2894325702,58995.6377600881,59959.9155656095,65435.5981544762,11229.1536962012
9340652074,18117,2,0,19996.5024680943,47467.4750821600,51215.7827592546,60100.3672900367,71055.2854352424,57266.0483274942,59004.1673155610,59968.5667980506,65446.2935599835,11235.0550291603
9340652074,18117,2,0,20074.9476095118,47493.1610901532,51244.8757223582,60112.9730239453,71081.8596851037,57253.6129413412,59014.7167087065,59992.5614961854,65451.2579802873,11230.3217950962
9340652074,18117,2,0,20305.4402904288,47536.8187863539,51292.7921124470,60126.5035028124,71114.8098081003,57233.6944216420,59022.2241776463,60021.7883039541,65447.3034788199,11225.2356978242
9340652074,18117,2,0,20371.3648718155,47529.2991497173,51289.1174680064,60111.0991986345,71099.4420070129,57239.6809284789,59005.2137374878,59997.9274504843,65430.4147156296,11222.8264938533
9340652074,18117,2,0,20150.6063483569,47476.6251901708,51231.4060819752,60084.8899796779,71054.2876841029,57265.7563027705,58988.3858127817,59947.6140241215,65425.9978416829,11227.8030818538
9340652074,18117,2,0,19962.8101155916,47453.4213923295,51202.5929758985,60086.9463204410,71046.1109918379,57266.9365693623,58995.5160831199,59949.1471539212,65441.9131891273,11228.8130006901
9340660909,18118,2,0,20076.1522114973,47490.2408429157,51240.9212208907,60113.4962349086,71083.6605042335,57252.5421840208,59015.1182427017,59996.6255069243,65451.6351788888,11221.2568609631
9340660909,18118,2,0,20302.0698384088,47535.1761472828,51282.3157254824,60123.3155662448,71112.2910948579,57242.2726479022,59021.3724388687,60015.5097723935,65442.8501017827,11219.5290480142
9340660909,18118,2,0,20351.2881720576,47536.7701155666,51276.6090756724,60112.4498129819,71102.7151174582,57244.4750010272,59014.0718207749,59993.1333779361,65434.6369064272,11224.6881514672
9340660909,18118,2,0,20193.9841875306,47495.8988219384,51239.5219357561,60095.2690250679,71067.7938275764,57248.1983162550,59006.8320411652,59968.6154688379,65433.9555154051,11227.0365169540
9340660909,18118,2,0,20008.4633140712,47459.1523775331,51201.8385786955,60087.0801651060,71045.3322592412,57247.5899314138,59004.1429801674,59957.5672001226,65435.8171730190,11226.8905045921
9340660909,18118,2,0,20020.7526878624,47471.5025898084,51206.7299928183,60094.0035845983,71060.2498555462,57247.2735712964,59006.2844948082,59976.0499315967,65439.9176868483,11222.5709722200
9340660909,18118,2,0,20262.0016127709,47531.2338135122,51265.1471052652,60117.3168917111,71109.0423198062,57242.0779647530,59016.8217202569,60019.3425968927,65444.9064425457,11220.5998053347
9340660909,18118,2,0,20392.9260305857,47546.9544778074,51282.0723715459,60111.3790556615,71111.0499897820,57245.2415659270,59004.2889925293,60008.9027130186,65432.5562302704,11220.8066561807
9340683485,18119,2,0,20202.3312275512,47495.2052632195,51232.2578207528,60079.7430439218,71064.1070154390,57259.9036405986,58979.1018601058,59955.0728222739,65422.1650171837,11222.8386615501
9340683485,18119,2,0,19980.3194313198,47456.8161797431,51196.8863260885,60075.7277039702,71046.6828735886,57262.2276706918,58980.9148469324,59950.6559483272,65436.2673778014,11225.5885610321
9340683485,18119,2,0,20029.8784604796,47478.8762140831,51225.9792891922,60099.1261849607,71075.5324827558,57249.1352289103,59001.3079068076,59993.6079181122,65448.8122732259,11225.0653500687
9340683485,18119,2,0,20241.7667329543,47523.4708229392,51273.0317728065,60113.0095270357,71109.0544875030,57250.9847188274,59014.8262179779,60015.1204060952,65444.2250515237,11225.5885610321
9340683485,18119,2,0,20360.0732491638,47543.0364794304,51294.1548944911,60114.0437812657,71113.2766783005,57255.1095680504,59017.3936020076,60002.5755106707,65440.0515315134,11232.2442911942
9340683485,18119,2,0,20256.3071306577,47509.5388100769,51261.1682684041,60096.8994964422,71082.9061070305,57247.5777637170,59004.3011602261,59970.0634247598,65433.5904845004,11233.5827378447
9340683485,18119,2,0,20030.3286652621,47456.6945027748,51205.8295832534,60076.0075609972,71047.6806247281,57249.7801168420,58990.6976751780,59938.1475559932,65430.4755541137,11231.0153538151
9340683485,18119,2,0,19976.5596130015,47456.9621921049,51198.9061637611,60081.2640060247,71057.8041484848,57245.4605844698,58996.2704803229,59954.1359096186,65436.9000980362,11224.8584992227
9340748577,18120,2,0,20204.3754006174,47510.2323687958,51251.2759308871,60104.1514437486,71100.8899629348,57229.8737648396,59008.0123077571,60002.6485168516,65439.8203452737,11219.0180047477
9340748577,18120,2,0,20387.7182563455,47535.0909734051,51278.5194040736,60107.8625912796,71111.9869024373,57236.8945259065,59002.8775396978,60005.4714225146,65428.6138964998,11221.1960224790
9340748577,18120,2,0,20258.9596885651,47500.1575158264,51244.9000577518,60087.6398791599,71078.0025252108,57268.3115191033,58991.5129108652,59962.7384712724,65425.0487613307,11230.8936768469
9340748577,18120,2,0,20029.8297896923,47462.2186371325,51209.7597493272,60084.5127810764,71058.1935147831,57278.9825892170,58994.8955305819,59952.8096306649,65441.3413073766,11235.2983830968
9340748577,18120,2,0,20004.4236387260,47467.5115852504,51222.5966694754,60099.2478619290,71072.8677571516,57263.7851358852,59008.2921647840,59981.5497305607,65450.5279184779,11231.9279310768
9340748577,18120,2,0,20176.2315178660,47506.6550659298,51257.7369779001,60110.1257828887,71100.9873045094,57253.6007736444,59014.0596530781,60001.3709086852,65447.7658512991,11226.9513430762
9340748577,18120,2,0,20340.7631143058,47534.6529363194,51279.7361737559,60112.6688315247,71111.8165546818,57237.9531155301,59012.2223308578,60002.6241814580,65438.2142092931,11225.8197472717
9340748577,18120,2,0,20295.7669714545,47514.4667272902,51257.2259346335,60098.4326262418,71085.2179694269,57241.3235675500,58998.3024856924,59976.2202793522,65428.3218717761,11228.2289512426
9340760938,18121,2,0,20056.4527103409,47462.0361216801,51207.2410360848,60076.2144118432,71043.0447322385,57257.4822689309,58980.5863191182,59938.9262885899,65424.9757551498,11229.2632054726
9340760938,18121,2,0,19940.8960936134,47452.2167903440,51200.5366351354,60084.1720855654,71048.0213202391,57268.1046682573,58989.1158745910,59952.4080966697,65438.8347618311,11228.4601374823
9340760938,18121,2,0,20146.1043005324,47509.1372760817,51259.3796169711,60117.2317178333,71101.5348508664,57251.9946376637,59011.8694676499,60011.2389108086,65454.1903952216,11226.5011382938
9340760938,18121,2,0,20364.4292846264,47539.9580521342,51291.1981441631,60120.4561574914,71118.8008126582,57233.9377755785,59007.3309167350,60015.8991386918,65436.3525516792,11220.2956129141
9340760938,18121,2,0,20290.1333278255,47505.2192777047,51252.4196943884,60093.7115598745,71078.0390283013,57241.1045490072,58986.0496149917,59964.9043213069,65416.4827027673,11217.9594151241
9340760938,18121,2,0,20066.3937186453,47456.3781426574,51204.9291736885,60082.6511234625,71045.1132406984,57241.7007661515,58982.2046227956,59937.2958172156,65415.6066285961,11217.7525642781
9340760938,18121,2,0,19976.0485697349,47444.8553337661,51201.6682309399,60091.2050143290,71050.8807289925,57247.3100743869,58991.8049355889,59950.9601407478,65425.0730967243,11219.6020541952
9340760938,18121,2,0,20102.5196105126,47482.6482000982,51235.5552665918,60105.0031825262,71082.5775792163,57252.5543517176,59002.6220180645,59978.9215080469,65431.0474358644,11220.1861036427
9340778394,18122,2,0,20311.3051202974,47528.4839140302,51272.5085618431,60115.9419419701,71109.4438538013,57240.8611950707,59007.2700782509,60000.4096606362,65433.1402797179,11218.3366137256
9340778394,18122,2,0,20341.8460393230,47520.7087557603,51266.6558996713,60104.3947976851,71093.1878108459,57238.5371649776,58998.3633241765,59984.1657853776,65424.3308672181,11219.5533834079
9340778394,18122,2,0,20117.1938528810,47467.4750821600,51214.9675235674,60083.0039866704,71050.8442259020,57262.9577325012,58988.2154650261,59943.9758827714,65422.5543834820,11226.0022627240
9340778394,18122,2,0,19954.9011126567,47451.9247656202,51199.8065733260,60089.2581828373,71051.3796045622,57272.1078405120,58999.8964539762,59954.0750711345,65440.5017362958,11228.8860068711
9340778394,18122,2,0,20107.0581614275,47499.1110938996,51252.8455637772,60119.7382633788,71099.1256468955,57248.4781732819,59022.6013762478,60007.9779680601,65451.2823156810,11225.3573747924
9340778394,18122,2,0,20332.1727203488,47532.6574340405,51287.7790213559,60123.2182246702,71119.0806696851,57234.5096573292,59017.1502480711,60014.9622260365,65434.4543909748,11218.2149367574
9340778394,18122,2,0,20322.0370288953,47512.5929019794,51267.6171477203,60105.0640210103,71093.3824939950,57249.8166199324,58999.6896031302,59975.6240622079,65420.9117444109,11218.6043030557
9340778394,18122,2,0,20126.4413024665,47465.9297846635,51227.6340959601,60088.3942763629,71059.3251105876,57257.6282812928,58991.8779417699,59949.7190356718,65425.1339352085,11225.8927534526
9340798539,18123,2,0,19979.4068540581,47441.5457202303,51204.5033042997,60084.0260732035,71048.0943264201,57255.8761329502,58993.9099471393,59952.3350904888,65431.2056159231,11228.7278268124
9340798539,18123,2,0,20048.6045458901,47469.8234476468,51228.1451392267,60100.3429546430,71078.7690901107,57262.8482232298,59007.9758046666,59984.8471763997,65443.0691203255,11228.9955161425
9340798539,18123,2,0,20280.5573504259,47523.8723569343,51279.9308569051,60120.2979774327,71120.8936565117,57246.3731617315,59020.9100663894,60020.4133542131,65447.0966279739,11224.6759837703
9340798539,18123,2,0,20371.4500456932,47527.8390260986,51285.4914943532,60114.0924520530,71110.3320956694,57244.1464732129,59009.6062760409,60003.9261250180,65432.5318948768,11222.8021584596
9340798539,18123,2,0,20160.9367229595,47472.6950240970,51231.7346097894,60088.7714749644,71060.9920850524,57259.5629450876,58990.2839734860,59949.6338617941,65424.3186995213,11226.8783368953
9340798539,18123,2,0,19947.3693083233,47438.3699513595,51197.7380648661,60089.0756673850,71043.0690676322,57263.2984280122,58991.6102524398,59939.6563503993,65433.8216707400,11227.9247588221
9340798539,18123,2,0,20041.8271387597,47472.9870488208,51236.2366576139,60121.7459333546,71081.4216480181,57251.9703022701,59013.5486098115,59992.3546453394,65444.9429456362,11229.2510377758
9340798539,18123,2,0,20273.4635831781,47519.6014953495,51283.8488552821,60131.8572894145,71114.2257586527,57242.4916664450,59016.8947264378,60015.7166232395,65435.5129805984,11225.7224056971
9340856220,18124,2,0,20332.0023725933,47519.6014953495,51279.1277889148,60110.5394845807,71102.1919064949,57242.1266355403,59002.3908318249,59988.3149699942,65422.0190048218,11226.7079891398
9340856220,18124,2,0,20177.3266105800,47478.4381769974,51240.6656992575,60088.9174873263,71067.3436227940,57239.1333821219,58988.2763035103,59959.5627024016,65416.5557089483,11228.0099326998
9340856220,18124,2,0,19983.3856909192,47435.3523625474,51202.3374542652,60077.8935540047,71042.3390058228,57244.4019948462,58985.3073854855,59946.0930620186,65416.6043797356,11225.1140208560
9340856220,18124,2,0,19983.9940757603,47449.5398970430,51210.5628173175,60092.6529702509,71064.7154002802,57251.7877868177,58998.2903179955,59971.8155731023,65429.7333246075,11224.4934683180
9340856220,18124,2,0,20220.1325680031,47506.8619167758,51265.0010929033,60117.4629040729,71112.3032625547,57240.9707043421,59014.1934977431,60015.9113063886,65435.5494836889,11224.5178037117
9340856220,18124,2,0,20380.1621166185,47528.7637710571,51292.8894540215,60117.9131088554,71120.5286256070,57250.1816508371,59011.2975858993,60015.4002631221,65429.8793369694,11233.7409179034
9340856220,18124,2,0,20216.0077187802,47483.8893051741,51253.9284887945,60092.2149331653,71077.2359603110,57268.2750160128,58991.4764077747,59962.0692479471,65425.6206430814,11237.1113699234
9340856220,18124,2,0,19982.4001074765,47445.0986877026,51211.1468667650,60086.5447864458,71055.6748015408,57267.0095755432,58993.4840777505,59949.9015511242,65436.2552101046,11237.1722084075
9340870563,18125,2,0,20007.2222089953,47464.9076981303,51223.5335821308,60106.6458215973,71081.7866789228,57246.0324662205,59008.9492204124,59989.3492242242,65441.9861953082,11233.0351914877
9340870563,18125,2,0,20218.1857365115,47510.3662134608,51264.6238943018,60120.8455237897,71114.6759634352,57244.4628333303,59014.6193671319,60017.0794052836,65434.5760679431,11235.2010415222
9340870563,18125,2,0,20343.3791691227,47529.3234851110,51279.3954782449,60121.1253808166,71116.8053103792,57250.0356384752,59012.7090387307,60009.5354332534,65428.6503995903,11237.0383637425
9340870563,18125,2,0,20247.4003765834,47493.3801086960,51249.7793041778,60099.8075759828,71081.0931202039,57237.1257121461,58996.8058589831,59973.4825475671,65416.6895536133,11233.1933715464
9340870563,18125,2,0,20026.2038160391,47440.8278261177,51200.5488028322,60081.3005091151,71041.6211117103,57243.1487220734,58985.2100439109,59940.1065551817,65408.9874015244,11228.5209759664
9340870563,18125,2,0,19959.5005020557,47444.1374396536,51196.5577982743,60089.3555244119,71050.4061888164,57239.9486178090,58995.1145491248,59953.6370340488,65418.2226834130,11226.7931630175
9340870563,18125,2,0,20174.2846863743,47499.6221371662,51246.6522060944,60114.0437812657,71099.6731932525,57224.0697734551,59010.8473811168,60003.5367587197,65423.4061222596,11222.3641213740
9340870563,18125,2,0,20376.3292921192,47528.7516033603,51278.7140872228,60113.9099366006,71113.6538769021,57222.0742711761,59004.2768248324,60008.2334896934,65411.1410838621,11219.7967373443
9340899656,18126,2,0,20264.1796305022,47485.2885903088,51238.1469860151,60083.1499990322,71071.0304349313,57238.8291897013,58977.2280347950,59952.6636183030,65396.8075370046,11219.3708679555
9340899656,18126,2,0,20026.6296854279,47437.5182125819,51189.1111678187,60073.3793384834,71041.9131364340,57246.0568016141,58975.2203648192,59933.4751604132,65409.1455815831,11217.2658564052
9340899656,18126,2,0,19988.6786390371,47442.7746576094,51193.1873462543,60090.0734185245,71058.1205086022,57237.3082275984,58989.1280422879,59964.6487996736,65419.7071424254,11217.8255704590
9340899656,18126,2,0,20165.9498140506,47491.0925816933,51238.3538368611,60112.2429621359,71099.9287148858,57249.7801168420,59002.5611795804,60001.2248963234,65426.3872079812,11226.3916290224
9340899656,18126,2,0,20347.8568815536,47530.2603977664,51274.2728778824,60123.2668954575,71124.1424315635,57254.9270525981,59011.3340889897,60014.7188721000,65429.7089892139,11232.3051296783
9340899656,18126,2,0,20322.2682151349,47513.6028208157,51261.1317653137,60108.1181129129,71104.3577565293,57246.7868634235,59003.4737568421,59992.1234590998,65422.7855697216,11228.3749636045
9340899656,18126,2,0,20091.2888263450,47459.1767129267,51208.5186442512,60083.1986698195,71063.7784876248,57254.5011832093,58989.5174085862,59955.5716978437,65415.6309639897,11222.0964320439
9340899656,18126,2,0,19954.7672679916,47445.8044141183,51192.8953215306,60087.2018420743,71061.0164204460,57258.5773616449,58996.8423620736,59961.8137263138,65422.9194143867,11221.2690286599
9340928428,18127,2,0,20137.0515340961,47498.5148767553,51245.8613058009,60119.6895925915,71105.8787186322,57242.9418712275,59017.6612913377,60012.5165189750,65432.7752488133,11224.5543068021
9340928428,18127,2,0,20375.3558763734,47536.4537554492,51285.4184881722,60126.6373474774,71127.2573619501,57235.6412531337,59014.6558702224,60022.3845210985,65422.4570419074,11226.4646352033
9340928428,18127,2,0,20328.5710820892,47507.2512830742,51257.0920899684,60100.1604391907,71091.9588734668,57250.5953525291,58993.5692516282,59974.0544293177,65413.8423125568,11230.9058445437
9340928428,18127,2,0,20107.3745215449,47457.4245645842,51206.6813220310,60086.5326187490,71057.0862543722,57254.5133509061,58989.5052408894,59946.3485836519,65418.3443603813,11233.2055392432
9340928428,18127,2,0,20005.0928620513,47445.3542093359,51192.4086136577,60095.4515405202,71061.1380974143,57248.4903409787,59005.7612838448,59965.0990044560,65427.0929343969,11232.4633097370
9340928428,18127,2,0,20115.4538722354,47475.9559668456,51213.9454370343,60106.6336539005,71088.0895458771,57239.5470838139,59017.6612913377,59989.5682427670,65426.2046925289,11225.3817101861
9340928428,18127,2,0,20323.7040033600,47517.5694899800,51249.5846210287,60115.8932711828,71116.9513227411,57234.4731542387,59021.2264265068,60008.2456573902,65424.2335256436,11221.7314011392
9340928428,18127,2,0,20373.3360387008,47513.3838022729,51247.5404479624,60107.3272126194,71106.1585756591,57233.4875707960,59009.8252945837,59993.2915579948,65414.3655235202,11222.4492952518
9340995502,18128,2,0,20156.9092153111,47455.5142361830,51196.0832580982,60082.9674835799,71058.9357442893,57246.9572111790,58991.9874510413,59944.5842676126,65405.6899556854,11224.9558407973
9340995502,18128,2,0,19966.2170707020,47428.5992908107,51168.9127910926,60080.2175840979,71047.5589477598,57254.8175433267,58996.6598466213,59939.4373318565,65418.2835218971,11221.7435688360
9340995502,18128,2,0,20094.4159244285,47472.5246763415,51211.5240653665,60106.5241446291,71092.5185875206,57244.5601749049,59016.2255031126,59990.7120062683,65431.6801560992,11216.7791485323
9340995502,18128,2,0,20345.3990067953,47521.8890223522,51258.3940335285,60121.1253808166,71123.2663573922,57235.4830730750,59023.2340964826,60014.4876858604,65422.9559174771,11219.9062466158
9340995502,18128,2,0,20364.5266262010,47514.8195904980,51248.7207145542,60106.3416291768,71102.1432357076,57252.3353331748,59008.2069909062,59984.4456424045,65410.5326990209,11229.0685223234
9340995502,18128,2,0,20171.7781408288,47472.6463533097,51207.7642470482,60090.5601263974,71068.0493492097,57254.7080340552,59001.0037143871,59956.7032936482,65415.0347468454,11235.5174016396
9340995502,18128,2,0,20013.2817220131,47445.7192402405,51182.7596300771,60087.7128853408,71057.4877883674,57249.9261292038,59002.2691548566,59960.0129071841,65421.3132784061,11233.8017563876
9340995502,18128,2,0,20063.2301174713,47468.0834670011,51200.4879643481,60101.5840597190,71082.4193991576,57242.6498465037,59013.5729452052,59984.2387915585,65425.7179846560,11228.0951065776
9341002410,18129,2,0,20284.4510134092,47512.9092620968,51240.0208113258,60115.4187310067,71113.5565353275,57216.8421615422,59015.6901244523,60006.0919750525,65417.4561185132,11219.5047126206
9341002410,18129,2,0,20393.4370738523,47516.8029250802,51246.2628397960,60107.3880511035,71105.3798430625,57219.4703840560,59000.8942051156,59989.8602674907,65403.0130623843,11216.1585959943
9341002410,18129,2,0,20202.8909416050,47467.7549391869,51198.9670022452,60084.1234147781,71060.9799173556,57243.8666161860,58981.9612688592,59936.7726062522,65394.7998670289,11220.7458176965
9341002410,18129,2,0,19972.5564407467,47429.5118680724,51163.4981660064,60079.4145161076,71041.1587392310,57249.4394213309,58982.8860138177,59922.4512270916,65406.2253343456,11220.4659606696
9341002410,18129,2,0,20043.8104733419,47460.7828489074,51202.5443051112,60107.6800758273,71078.4770653869,57241.0680459167,59010.2024931852,59973.7867399876,65422.2623587582,11221.0743455108
9341002410,18129,2,0,20284.5483549838,47508.1151895486,51252.4805328725,60123.7292679367,71113.6538769021,57229.9346033237,59019.0119056850,60005.0942239131,65418.0401679607,11221.9139165915
9341002410,18129,2,0,20367.4712088321,47511.0111013925,51248.7937207352,60108.8846778127,71102.7272851551,57226.6736605752,59007.4404260064,59983.5574005364,65404.0716520079,11222.4006244645
9341002410,18129,2,0,20228.4917757205,47474.1186446253,51208.3482964957,60089.3433567151,71069.6919882808,57232.1004533582,58997.4629146116,59953.6735371393,65400.4091752642,11220.1496005522
9341023440,18130,2,0,20038.3228420747,47438.8931623229,51174.3274161788,60084.3911041082,71049.4449407674,57240.6908473152,58996.6963497117,59942.5035914558,65401.9058019735,11215.2581864294
9341023440,18130,2,0,20025.9726297995,47455.7089193322,51189.7925588407,60102.1559414697,71072.6609063056,57250.3885016831,59013.4634359338,59967.2161837032,65415.5822932024,11216.6696392609
9341023440,18130,2,0,20246.4512962312,47512.9944359746,51244.1456605488,60125.3597393110,71118.4844525408,57234.0351171531,59029.1719325322,60012.5043512782,65422.1285140932,11217.3875333734
9341023440,18130,2,0,20416.5800332095,47531.9517076247,51268.6757373439,60120.1276296771,71124.5561332554,57226.2477911864,59018.6225393867,60011.6039417133,65410.3501835686,11219.3343648651
9341023440,18130,2,0,20267.8786103364,47480.0929837654,51218.0702862573,60084.4519425923,71074.8997625210,57240.6908473152,58993.1312145426,59952.6514506062,65397.2090709998,11218.2392721510
9341023440,18130,2,0,20014.1821315780,47430.1932590945,51166.4792517280,60070.2400727031,71043.7991294416,57246.5070063966,58986.2686335345,59927.1357903685,65404.7287076364,11215.5988819404
9341023440,18130,2,0,20015.8491060428,47446.5344759277,51182.8326362580,60090.7183064561,71067.5869767304,57232.9886952263,59002.3056579471,59965.6222154194,65415.3267715692,11213.4695349964
9341023440,18130,2,0,20232.5922895498,47498.8799076600,51233.4867581319,60115.2605509480,71107.8863886080,57232.1856272360,59016.7608817728,60000.7990269346,65415.9473241071,11219.6750603761
9341090826,18131,2,0,20377.7894157380,47525.7096791546,51252.2371789361,60117.1465439555,71114.6881311320,57238.5249972807,59011.6504491071,59992.0382852220,65408.4155197737,11226.4889705970
9341090826,18131,2,0,20301.9724968342,47501.4837947801,51229.6052628454,60101.9612583205,71087.8826950311,57243.3434052226,59003.9604647150,59968.0557547840,65405.5074402331,11229.1780315948
9341090826,18131,2,0,20085.0589655717,47453.0320260311,51187.4198579603,60084.7439673160,71051.8784801320,57252.4326747494,58996.1001325674,59942.4792560622,65408.2086689277,11224.7976607386
9341090826,18131,2,0,19985.7462241028,47440.5966398781,51174.9479687168,60083.1256636386,71050.5887042688,57250.8873772528,58998.1443056337,59945.8375403853,65414.5967097598,11217.3510302829
9341090826,18131,2,0,20182.4005401552,47490.0339920697,51226.8796987571,60108.9455162969,71097.0693061324,57234.4244834514,59015.5197766968,59993.4984088408,65422.7368989343,11216.2924406593
9341090826,18131,2,0,20404.6800257167,47523.6290029978,51262.0686779690,60113.7760919356,71114.1162493813,57225.2257046533,59014.3638454987,60003.5245910229,65408.8170537689,11217.9229120336
9341090826,18131,2,0,20315.9166773933,47488.2331729399,51222.6696756563,60082.8579743085,71071.3954658360,57239.9607855058,58990.2961411829,59951.5198548016,65392.0986383342,11221.2446932663
9341090826,18131,2,0,20062.7920803857,47440.6331429686,51165.9803761582,60064.3387397440,71035.4155863305,57252.0433084510,58980.4646421499,59920.0298554239,65399.6304426676,11221.1595193885
9341095757,18132,2,0,20003.0851920755,47445.4393832136,51168.8762880021,60082.4807757070,71053.2534298730,57244.8278642350,58993.3258976918,59949.1593216180,65415.6431316866,11222.6074753104
9341095757,18132,2,0,20174.6740526726,47490.7397184854,51214.5416541786,60104.8450024675,71091.0462962050,57236.6511719700,59008.9735558061,59981.3307120179,65418.6607204987,11223.3862079071
9341095757,18132,2,0,20357.5910390119,47525.1012943134,51250.7405522269,60110.4421430061,71107.4848546128,57238.4519910998,59010.2754993661,59989.4830688892,65413.6597971044,11224.6151452862
9341095757,18132,2,0,20349.2439989914,47509.4414685023,51242.5638599618,60097.1793534691,71085.4491556665,57237.5394138381,58999.6896031302,59967.7880654539,65405.3614278712,11226.1361073891
9341095757,18132,2,0,20131.0528595624,47454.7841743736,51193.4063647972,60075.1314868259,71043.1420738131,57242.4551633545,58982.7643368495,59930.5549131757,65399.9346350881,11225.8440826654
9341095757,18132,2,0,19969.2833303014,47429.5848742533,51165.1043019870,60068.0133841845,71031.6679357091,57241.8711139070,58974.3199552543,59924.7995925785,65404.4488506094,11223.8850834769
9341095757,18132,2,0,20122.5719748768,47472.0744715590,51203.3230377079,60092.5191255859,71074.3035453767,57218.4361298261,58989.9797810655,59971.0490082025,65413.5867909235,11221.4028733250
9341095757,18132,2,0,20366.0962590912,47510.0741887371,51243.4034310426,60098.2136076990,71100.8534598443,57204.6744647193,58988.4831543563,59985.4920643313,65398.0364743838,11217.2780241020
9341115111,18133,2,0,20338.2930718507,47485.5197765484,51215.4663991371,60072.8682952168,71069.2539511951,57223.8994256996,58968.2117714492,59937.3444880029,65383.5812505581,11216.0612544197
9341115111,18133,2,0,20112.0225817313,47442.2879497365,51168.0002138309,60063.8033610838,71039.8567956709,57242.5160018387,58969.2216902855,59914.3597087044,65393.1450602609,11221.0743455108
9341115111,18133,2,0,19995.3343691993,47432.7119723368,51161.5148314242,60073.8660463563,71042.0226457054,57242.3091509927,58983.0563615732,59934.2295576162,65406.3713467075,11227.2312001032
9341115111,18133,2,0,20098.1514073531,47462.9608666387,51192.4451167481,60084.2937625336,71066.5892255909,57236.1157933098,58990.8315198431,59959.5870377953,65410.8855622288,11226.8296661080
9341115111,18133,2,0,20305.4524581256,47503.7713217828,51236.6381916091,60092.8233180065,71091.2288116574,57229.1558707271,58995.6742631786,59977.6317321837,65407.5151102088,11228.0829388808
9341115111,18133,2,0,20374.0417651165,47503.1629369417,51243.3912633458,60085.3401844604,71084.0620382287,57226.2356234896,58988.0572849674,59969.7714000361,65398.2433252297,11230.5408136390
9341115111,18133,2,0,20173.4572829903,47450.2091203682,51193.6375510368,60060.0313750686,71044.5535266446,57240.9342012517,58973.2248625403,59928.4499016253,65391.4415827057,11233.0716945782
9341115111,18133,2,0,19963.2724880708,47417.6483636700,51156.5017403332,60051.4531488085,71030.9135385061,57245.8864538586,58974.3686260416,59921.7333329791,65403.2929194113,11235.9797741189
9341149610,18134,2,0,20062.2810371191,47452.3628027059,51190.1575897454,60072.0043887424,71069.4608020411,57224.8850091422,58990.1014580337,59970.5501326327,65414.4750327916,11230.2974597025
9341149610,18134,2,0,20314.2010321413,47498.0525042760,51239.5097680593,60084.8656442843,71097.1666477070,57213.1431817081,58992.3281465523,59992.2208006744,65404.8868876951,11224.1162697165
9341149610,18134,2,0,20346.6887826586,47488.9510670525,51228.6926855837,60066.9791299545,71074.5955701004,57232.3438072947,58971.1441863836,59955.5351947532,65390.8331978646,11224.9071700100
9341149610,18134,2,0,20154.3783343720,47448.3109596638,51188.8434784886,60055.2373025204,71042.7527075148,57244.1829763034,58963.6853882311,59925.2376296641,65395.9192951366,11233.8747625685
9341149610,18134,2,0,19987.6565525040,47422.2112499786,51163.1818058890,60056.2107182662,71033.2984070834,57244.5723426017,58969.1000133173,59926.6004117083,65405.2397509029,11237.7440901582
9341149610,18134,2,0,20025.5710958043,47442.1419373746,51180.0462336856,60066.9669622577,71058.6923903528,57246.5313417902,58980.1239466389,59951.7753764349,65415.0469145422,11237.0140283488
9341149610,18134,2,0,20249.4932204369,47495.0592508576,51228.0964684394,60085.6687122746,71101.8877140743,57240.9220335549,58994.3479842249,59986.2586292311,65418.6972235891,11236.7585067155
9341149610,18134,2,0,20391.1495468496,47514.0773609918,51251.5922910045,60085.7052153650,71108.1540779381,57240.2284748359,58991.7197617112,59985.7719213582,65410.0824942385,11242.3191441636
9341214773,18135,2,0,20229.3435144981,47470.1763108547,51206.1337756740,60062.8786161252,71065.5549713610,57250.6561910132,58971.9350866770,59934.0470421639,65397.2334063934,11246.9428689563
9341214773,18135,2,0,19985.8435656774,47428.6844646884,51158.7527642454,60056.5757491709,71038.7860383505,57253.9901399427,58967.6155543049,59910.5512195988,65403.4997702573,11246.8576950786
9341214773,18135,2,0,20026.7756977898,47453.1415353025,51184.2562567863,60083.2108375163,71067.6843183050,57236.8945259065,58983.4578955684,59952.4445997602,65414.5480389725,11240.0924556450
9341214773,18135,2,0,20271.7844410165,47504.9272529810,51237.4169242057,60102.1802768633,71106.2072464464,57227.9391010448,58996.2096418388,59986.7331694072,65407.3934332406,11233.9356010526
9341214773,18135,2,0,20377.0593539286,47515.0629444345,51245.1312439915,60094.5024601680,71101.4983477760,57240.9585366453,58988.2398004198,59970.5379649359,65396.8197047015,11235.4200600650
9341214773,18135,2,0,20244.5409678300,47480.9447225430,51213.4222260709,60075.6790331829,71067.2097781289,57249.1717320008,58976.0356005064,59941.0069647466,65398.7787038900,11238.6201643294
9341214773,18135,2,0,20043.7739702514,47441.3510370811,51178.5374392795,60066.3099066293,71040.5868574803,57250.7900356783,58971.0225094153,59927.2818027303,65403.8039626778,11241.9662809557
9341214773,18135,2,0,20000.8828389505,47444.4781351646,51180.1557429570,60071.8340409869,71050.7833874179,57246.9450434822,58977.2523701887,59938.6585992598,65411.2749285271,11239.8004309213
9341222447,18136,2,0,20201.0292839911,47494.2440151704,51224.8841964781,60089.3555244119,71091.0827992955,57229.9224356269,58991.8414386794,59976.4027948046,65411.7494687032,11232.2564588910
9341222447,18136,2,0,20392.1351302922,47521.9620285331,51252.6873837185,60093.6993921777,71108.3487610873,57221.8430849365,58991.9266125571,59985.3217165758,65402.5628576019,11232.4754774339
9341222447,18136,2,0,20276.8827059853,47484.6680377708,51212.4001395378,60071.0918114807,71069.0227649555,57242.6620142005,58970.0490936695,59938.3909099297,65392.0986383342,11235.9554387252
9341222447,18136,2,0,20019.9374521753,47439.3555348022,51163.6320106714,60061.4793309906,71039.5526032504,57252.2866623875,58964.9386610039,59913.8973362251,65400.4821814452,11238.2307980311
9341222447,18136,2,0,19995.0058413851,47447.4957239767,51175.2156580469,60080.9476459073,71059.6779737955,57233.4875707960,58979.9049280961,59949.1958247085,65410.9829038034,11233.2298746369
9341222447,18136,2,0,20198.9972786217,47487.3205956782,51219.2505528491,60094.9161618600,71090.4257436671,57217.4505463834,58987.2298815835,59977.8142476360,65401.7354542179,11223.2888663325
9341222447,18136,2,0,20349.7550422579,47504.5865574699,51234.6426893301,60090.5114556101,71089.5983402831,57221.7700787555,58980.7810022673,59966.5834634684,65387.6695966906,11219.6507249825
9341222447,18136,2,0,20289.9264769795,47483.0740694870,51216.9751935432,60081.2883414183,71068.3535416303,57237.7219292904,58974.7823277336,59945.2291555442,65390.9792102265,11224.7003191640
9341279722,18137,2,0,20084.8764501193,47442.7016514285,51179.9853952015,60071.7975378964,71043.8599679257,57262.3006768728,58972.3487883690,59929.7153420949,65402.8427146288,11231.9035956832
9341279722,18137,2,0,19981.3171824593,47442.8111606999,51174.8141240517,60082.0427386213,71059.6658060987,57271.0857539789,58987.0717015248,59946.8231238280,65423.4426253501,11235.8702648475
9341279722,18137,2,0,20163.3702623241,47499.5856340757,51224.7990226003,60116.0879543319,71110.8066358455,57250.7900356783,59012.5143555816,59998.6453445969,65437.0339427013,11237.5007362217
9341279722,18137,2,0,20403.6214360931,47543.7543735430,51266.1205210111,60129.2534022944,71137.0766932862,57235.3613961068,59016.5175278363,60016.0694864473,65424.3308672181,11237.7197547645
9341279722,18137,2,0,20343.7563677242,47514.8925966790,51240.0694821131,60106.3172937831,71099.7948702207,57254.9027172044,58995.7472693595,59965.1841783338,65408.1113273532,11240.6886727893
9341279722,18137,2,0,20085.7403565937,47460.1744640662,51190.8633161612,60085.0968305239,71059.5076260400,57267.0825817242,58983.1537031478,59928.8271002269,65412.2848473634,11240.0072817673
9341279722,18137,2,0,20001.0531867061,47453.1658706962,51189.5370372075,60093.8819076301,71067.3071197035,57262.3858507505,58994.5548350709,59953.9047233789,65427.3119529398,11237.0505314393
9341279722,18137,2,0,20162.5671943338,47492.0173266518,51226.0036245858,60111.4885649329,71103.6641978104,57257.9689768038,59005.9316316004,59988.0107775736,65431.5219760405,11233.1568684559
9341292437,18138,2,0,20351.4585198132,47524.9552819516,51249.5602856350,60111.4155587519,71119.5552098612,57249.9382969007,59005.1285636100,59990.6755031779,65421.7878185821,11227.8152495507
9341292437,18138,2,0,20359.5257028068,47512.6294050699,51236.3096637948,60098.1406015181,71102.8002913360,57247.4925898392,58995.4917477263,59972.5699703053,65413.1122507474,11227.0243492572
9341292437,18138,2,0,20147.0777162782,47458.6413342665,51187.3103486889,60073.8782140531,71058.8749058052,57254.3308354537,58979.3573817390,59932.9397817530,65405.8603034409,11228.6061498442
9341292437,18138,2,0,19967.4581757779,47429.8282281898,51157.7550131059,60065.0931369470,71039.1510692552,57247.9792977122,58975.3542094843,59921.1249481379,65406.2618374361,11228.5818144505
9341292437,18138,2,0,20098.9423076466,47469.0690504438,51196.8863260885,60087.6642145535,71076.5180661984,57231.5285716075,58986.7796768010,59962.6289620010,65415.0225791486,11226.1604427827
9341292437,18138,2,0,20377.7529126475,47522.7285934330,51252.7968929899,60108.0816098224,71115.2843482763,57230.9323544632,58994.3844873154,59995.5182465134,65412.6498782681,11230.7963352723
9341292437,18138,2,0,20398.3528233688,47516.9854405325,51246.1898336151,60098.9801725989,71101.3766708077,57256.9590579675,58984.9666899744,59966.1454263828,65408.1113273532,11240.9076913322
9341292437,18138,2,0,20157.6757802110,47472.4516701606,51200.2202750180,60081.5073599611,71066.5283871068,57265.9144828292,58976.4249668047,59937.7946927854,65416.3975288896,11240.4939896402
9341321031,18139,2,0,19993.9350840646,47453.3727215422,51181.6888727567,60084.4154395018,71060.6027187540,57259.5142743003,58985.2222116077,59950.1084019702,65425.5111338100,11237.2208791948
9341321031,18139,2,0,20077.6488382065,47481.1880764794,51204.6858197520,60096.7534840803,71085.9358635394,57252.0311407542,58995.1753876089,59970.5257972391,65422.9315820835,11233.3637193019
9341321031,18139,2,0,20297.4704490098,47521.5361591443,51238.8770478245,60102.6304816458,71112.3641010388,57249.5489306023,58997.7914424258,59982.3041277637,65416.2880196182,11232.4268066466
9341321031,18139,2,0,20396.1504702438,47528.4960817270,51246.5426968229,60101.7544074745,71109.6385369505,57253.0410595905,58994.3358165281,59975.2103605159,65409.8878110893,11236.4908173854
9341321031,18139,2,0,20213.2578192982,47482.9402248219,51201.8020756050,60084.4762779859,71071.3346273519,57261.2177518555,58981.3407163212,59939.8388658516,65402.3681744527,11240.8225174544
9341321031,18139,2,0,19969.6240258124,47444.5998121328,51160.5292479816,60075.3383376719,71047.1939168552,57259.1492433956,58975.3298740907,59921.6481591013,65406.6268683408,11238.8756859627
9341321031,18139,2,0,20032.4093414188,47471.9892976813,51185.4608587718,60097.7025644325,71077.9416867267,57241.3844060341,58991.6467555302,59962.2639310963,65416.9694106403,11232.5119805243
9341321031,18139,2,0,20299.1739265650,47517.9588562784,51231.0288833737,60109.1523671429,71106.5236065638,57230.1049510793,58997.2438960688,59989.1058702877,65408.7075444975,11227.0851877413
9341333341,18140,2,0,20376.4996398748,47515.3793045519,51227.7922760188,60090.7548095466,71089.1238001070,57247.6751052916,58983.1050323605,59957.9565664210,65395.7611150779,11233.9112656590
9341333341,18140,2,0,20196.9409378586,47478.3530031197,51191.0945024008,60076.7011197161,71059.8726569447,57252.8342087445,58978.6273199297,59930.2993915424,65398.6935300122,11246.6265088389
9341333341,18140,2,0,20005.1293651418,47446.3154573849,51162.4274086859,60075.6181946988,71046.2205011093,57240.1189655645,58981.3893871085,59933.1466325990,65399.6182749707,11247.0767136214
9341333341,18140,2,0,20015.9829507078,47457.6192477334,51169.7158590829,60083.9165639321,71061.6734760745,57235.0572036862,58987.2055461898,59950.0232280924,65399.2167409756,11241.7594301098
9341333341,18140,2,0,20231.0469920533,47502.7979060370,51210.4533080461,60096.5831363248,71091.1801408701,57232.2586334169,58994.0072887139,59971.5965545595,65400.8715477435,11240.3236418847
9341333341,18140,2,0,20395.7367685518,47521.6335007189,51234.6670247238,60096.9603349263,71098.5659328416,57223.4127178266,58990.6611720876,59971.4383745008,65395.7489473810,11241.0293683004
9341333341,18140,2,0,20248.4711339038,47473.7901168111,51195.1950162301,60065.2756523993,71053.2290944793,57233.8526017007,58967.5790512144,59924.0573630723,65384.5181632135,11242.3191441636
9341333341,18140,2,0,19971.6073603945,47424.3162615290,51145.2344530751,60049.3359695613,71020.5223254193,57242.4794987482,58959.2806819812,59899.7584725168,65389.6164281823,11239.1555429896
9341394483,18141,2,0,19967.9570513477,47440.3776213353,51157.3899822012,60071.3473331140,71044.2128311335,57221.6849048778,58973.4925518704,59936.8942832205,65397.6836111759,11233.6435763289
9341394483,18141,2,0,20219.9135494603,47489.5229488031,51205.4645523487,60095.5367143980,71081.6650019545,57215.9052488869,58987.0717015248,59970.9516666279,65392.1838122119,11229.7985841328
9341394483,18141,2,0,20366.1936006657,47505.8519979395,51216.4519825798,60095.2568573711,71083.4171502971,57233.2442168596,58979.5764002819,59955.5473624500,65383.0580395947,11231.4533909007
9341394483,18141,2,0,20250.1746114590,47475.3110789139,51183.2341702532,60079.6457023472,71056.0520001423,57232.7210058962,58967.9197467255,59926.1137038353,65382.3036423917,11229.8107518296
9341394483,18141,2,0,20029.1240632766,47432.3347737353,51145.5021424052,60066.3342420229,71028.8937008335,57225.8584248881,58961.7263890426,59916.2578694088,65382.2063008171,11223.1428539707
9341394483,18141,2,0,19954.9984542312,47433.4907049335,51141.9978457202,60071.6758609282,71036.9000453429,57231.3582238520,58971.8985835866,59928.7540940459,65387.5357520256,11219.1396817159
9341394483,18141,2,0,20144.7050153977,47482.2344984062,51185.2053371385,60091.7890637765,71073.7438313228,57219.6163964179,58984.2001250746,59960.8646459617,65390.7723593805,11212.2771007078
