steady_timestamp,sequence,battery,flags,EEG-ch1,EEG-ch2,EEG-ch3,EEG-ch4,EEG-ch5,EEG-ch6,EEG-ch7,EEG-ch8,EEG-ch9,EEG-ch10
2760032762,45884,-2,0,50932.2389201895,68801.1222572178,43017.0669629880,70522.2551405198,73447.1261028186,60433.8595245599,60808.0892080463,68712.2859027135,41241.8730027017,13943.8398635805
2760032762,45884,-2,0,50933.2123359354,68816.1493627942,43030.6704480360,70535.0555575775,73460.1820415096,60448.2904129919,60815.3289876559,68723.0543144018,41250.3538873873,13946.0057136150
2760032762,45884,-2,0,50931.3141752310,68821.4788140026,43039.4190220517,70538.3773388102,73464.1000398866,60442.4742539105,60819.7823646931,68726.9844804756,41252.9821099010,13944.0832175169
2760032762,45884,-2,0,50931.5940322579,68822.1358696310,43043.4465297001,70538.6206927467,73462.2383822727,60438.2885662034,60820.5854326835,68724.8186304412,41253.2741346248,13940.5545854383
2760032762,45884,-2,0,50939.9167368848,68825.2021292304,43048.7759809086,70540.6405304193,73462.7980963265,60442.0483845217,60822.3862518132,68724.3440902651,41254.7707613340,13937.6586735944
2760032762,45884,-2,0,50960.8938462076,68828.9862829424,43052.8643270411,70546.0794908991,73465.4019834466,60447.3169972461,60826.2434117061,68726.2665863631,41259.6135046695,13936.7339286359
2760032762,45884,-2,0,50981.5302600193,68835.7758577696,43056.8431639022,70552.1998424011,73470.6705961710,60456.1020743522,60829.3340066991,68728.6271195467,41262.4972488166,13937.4031519612
2760032762,45884,-2,0,50986.1053140247,68843.8308730664,43060.6151499173,70559.6708082503,73477.1194754871,60463.2810154778,60831.3660120686,68733.2265089458,41261.6576777358,13936.9286117851
2760088458,45885,-2,0,50980.8245336035,68849.3306720303,43062.8175030423,70564.6960670382,73481.2321570133,60455.3355094524,60835.5638674725,68739.9187421984,41263.9695401322,13936.3445623376
2760088458,45885,-2,0,50966.1381235382,68842.1152278143,43053.7525689092,70557.7239767587,73473.5908434085,60441.0871364727,60831.6823721860,68733.4211920950,41260.0515417552,13928.8614287914
2760088458,45885,-2,0,50961.7942557725,68837.6253476867,43050.3334461019,70553.2097612374,73470.4150745377,60447.4873450016,60829.0663173690,68728.9434796641,41256.5107419797,13923.6658222481
2760088458,45885,-2,0,50973.0858784241,68841.5311783668,43055.9184189436,70556.1178407780,73475.1969793891,60454.6176153398,60833.0816573206,68732.2409255032,41258.7982689824,13921.6824876659
2760088458,45885,-2,0,50991.6781191696,68842.3099109635,43057.6827349830,70557.3224427635,73476.2920721032,60453.3278394766,60835.6977121375,68733.5672044568,41260.6112558090,13919.8695008393
2760088458,45885,-2,0,50993.6492860549,68841.8475384842,43058.0842689781,70556.3611947145,73474.3695760052,60455.0069816382,60834.1645823379,68734.2120923885,41262.6919319658,13919.7356561742
2760088458,45885,-2,0,50983.4892592078,68841.2878244304,43057.0986855355,70555.1809281227,73475.5985133843,60445.3823334512,60833.0329865333,68734.1390862075,41262.9231182054,13920.2710348344
2760088458,45885,-2,0,50965.0065277337,68836.3355718234,43050.9296632462,70550.7032156918,73466.8134362781,60433.5796675330,60828.7742926453,68725.4148475855,41259.8933616965,13918.1173524968
2760093222,45886,-2,0,50954.8830039770,68833.3666537986,43049.8710736226,70546.5661987720,73465.2438033880,60442.7662786343,60824.5764372414,68724.0277301477,41257.3624807573,13917.0709305700
2760093222,45886,-2,0,50959.5067287697,68838.3554094960,43055.4438787676,70553.4531151738,73472.6782661468,60454.7757953985,60828.3727586501,68728.9799827546,41256.4012327083,13919.6626499933
2760093222,45886,-2,0,50968.5229921155,68841.8475384842,43056.4781329975,70560.7172301771,73477.5331771791,60447.3535003365,60834.6269548171,68732.8249749507,41257.5571639065,13923.2764559497
2760093222,45886,-2,0,50978.1233049088,68833.2206414368,43043.4586973970,70552.9785749977,73468.7237646793,60429.6251660655,60829.0298142786,68724.3197548714,41253.0794514756,13921.1106059152
2760093222,45886,-2,0,50989.9868093112,68827.8790225315,43034.0287323592,70548.8172226843,73463.0657856567,60430.7202587796,60826.6571133981,68720.2557441325,41250.4268935682,13921.7311584532
2760093222,45886,-2,0,50987.9426362450,68827.3193084776,43030.4757648869,70548.0019869971,73464.2338845516,60433.4458228679,60824.7589526937,68721.2778306657,41251.8018433092,13923.0696051037
2760093222,45886,-2,0,50972.5139966735,68824.8127629321,43028.8087904221,70544.1083240138,73460.7174201698,60430.9271096256,60821.7778669721,68718.3454157314,41251.8383463997,13922.8749219546
2760093222,45886,-2,0,50958.5698161144,68820.8217583742,43028.0057224318,70542.9037220283,73459.2694642479,60431.8153514936,60818.5290919204,68715.3156592224,41250.0131918762,13920.1736932599
2760159812,45887,-2,0,50952.3886261283,68819.0574423348,43027.5798530430,70542.7212065760,73457.6876636609,60424.8432612141,60821.2303206151,68714.8046159559,41247.7986710545,13914.7347327800
2760159812,45887,-2,0,50944.5647970712,68810.5278868620,43019.3058192034,70536.6981966486,73449.7664930292,60411.9576702786,60817.1541421794,68710.1078849822,41243.2114493522,13910.9627467649
2760159812,45887,-2,0,50939.5517059801,68804.3345291791,43012.1025426842,70531.5999316798,73444.8385758159,60413.0284275990,60812.8467775041,68705.7031787323,41239.6706495767,13911.7779824520
2760159812,45887,-2,0,50946.7914855898,68806.4760438199,43012.0538718969,70535.4449238759,73448.6835680119,60420.7062442943,60812.8224421104,68707.0051222924,41236.9694208821,13915.5134653767
2760159812,45887,-2,0,50961.7212495915,68807.6076396245,43011.6766732954,70537.7567862722,73449.0120958262,60417.1289414283,60816.8134466683,68709.2561462046,41237.4317933613,13919.9060039298
2760159812,45887,-2,0,50956.0145997816,68800.0149968069,43005.5441540967,70529.7261063691,73442.6483903878,60409.1347646157,60813.4186592547,68702.3935651965,41236.8964147011,13918.5675572792
2760159812,45887,-2,0,50943.1168411492,68796.4620293346,43003.2201240035,70525.9176172635,73440.0931740549,60414.5737250955,60809.5371639682,68700.4223983112,41235.3024464173,13921.1714443993
2760159812,45887,-2,0,50933.4921929623,68796.6567124838,43007.9046872803,70528.3146535376,73443.1350982607,60416.4110473158,60809.8900271761,68701.9311927172,41237.4439610581,13921.6824876659
2760163971,45888,-2,0,50931.1559951723,68799.6499659023,43014.7064298043,70530.9063729609,73446.9922581535,60422.4705603336,60811.0702937679,68705.7518495196,41239.3907925498,13923.3251267370
2760163971,45888,-2,0,50936.3029309284,68804.7603985679,43020.4495827048,70533.8752909857,73451.1292750733,60429.1262904958,60812.5912558708,68709.6698478966,41240.9360900463,13925.6369891334
2760163971,45888,-2,0,50949.5413850718,68805.2106033503,43017.1278014721,70533.2060676604,73450.4235486576,60418.1023571742,60811.6908463059,68707.9176995541,41240.4007113861,13926.8294234220
2760163971,45888,-2,0,50953.6784019916,68795.1722534714,43004.9601046492,70523.7274318354,73439.0224167345,60403.8053134072,60805.5339917135,68698.9866100861,41236.9329177916,13923.8848407909
2760163971,45888,-2,0,50946.5481316533,68787.4457659888,43000.0443551327,70516.5728261035,73432.7925559612,60410.3028635107,60798.9391000354,68692.2092029557,41233.3799503193,13924.3228778765
2760163971,45888,-2,0,50937.0451604346,68791.0109011580,43006.5662406298,70521.0992093216,73439.0589198250,60423.2371252335,60802.0540304221,68696.3583875723,41235.5092972633,13924.0430208496
2760163971,45888,-2,0,50926.9581397684,68794.1014961510,43011.1899654225,70522.1577989452,73441.9913347593,60414.3303711591,60802.4068936300,68697.1979586531,41236.0811790140,13923.1547789815
2760163971,45888,-2,0,50914.5714244026,68788.3583432506,43005.9821911823,70516.1591244115,73435.2017599321,60404.3406920674,60797.7101626563,68691.6373212050,41232.9175778400,13919.1759421204
2760195978,45889,-2,0,50914.2185611947,68783.7224507610,43002.4413914068,70512.6426600297,73430.8335567727,60402.3695251821,60793.1594440445,68687.3907950138,41230.0946721771,13918.8109112157
2760195978,45889,-2,0,50924.0987310150,68780.2546571665,42999.3751318074,70511.4623934378,73428.0228188066,60396.8697262181,60790.2878675943,68683.0225918544,41227.7219712966,13920.4413825900
2760195978,45889,-2,0,50941.0726680830,68778.8432043350,42997.9028404919,70511.0365240491,73425.1269069627,60402.4790344535,60790.0445136579,68682.4750454973,41226.5538724016,13923.2764559497
2760195978,45889,-2,0,50947.2173549786,68780.5466818902,43001.1394478468,70516.3173044702,73428.6312036477,60410.5340497503,60793.7556611889,68685.2492803730,41224.3393515798,13926.3913863364
2760195978,45889,-2,0,50939.7828922198,68782.3109979296,43002.8672607956,70520.0527873948,73431.4784447043,60406.0076665322,60797.3086286612,68689.0577694785,41226.1888414969,13928.7154164296
2760195978,45889,-2,0,50924.6097742815,68777.5899315623,42997.0267663206,70517.7165896048,73427.4387693591,60397.9404835386,60798.4037213752,68688.6562354834,41230.3258584167,13926.6225725760
2760195978,45889,-2,0,50914.0360457424,68773.9639579090,42993.5468050293,70514.9423547292,73423.0949015933,60400.0698304826,60795.7633311646,68684.6165601382,41226.1036676192,13919.0542651522
2760195978,45889,-2,0,50914.3767412535,68775.4362492246,42996.1385244525,70519.3713963728,73426.5870305815,60402.1991774266,60795.9580143138,68686.2835346029,41223.4997804991,13917.6671477143
2760225033,45890,-2,0,50917.9662118162,68773.2460637965,42993.9483390244,70517.5462418493,73424.7862114517,60393.7547958315,60797.9048458055,68683.1686042162,41219.0342357650,13917.4967999588
2760225033,45890,-2,0,50930.1825794265,68765.9089426122,42986.0636714831,70510.8175055062,73417.9357981404,60386.5028485250,60792.3077052669,68678.8855749346,41214.6416972120,13917.4116260811
2760225033,45890,-2,0,50939.5638736769,68760.2144604991,42981.7319714142,70505.3663773296,73413.3364087413,60384.6898616984,60788.7182347042,68677.1820973793,41209.6042707273,13915.5378007703
2760225033,45890,-2,0,50931.1316597786,68756.1504497602,42976.0739923915,70503.8332475299,73411.4625834305,60380.2121492675,60786.4185400046,68672.9234034913,41210.5533510794,13916.2921979733
2760225033,45890,-2,0,50913.1478038743,68754.5808168701,42974.5043595013,70503.5655581998,73410.1971429610,60385.7119482315,60786.1386829777,68674.3348563228,41212.8287103853,13919.6626499933
2760225033,45890,-2,0,50904.2532174968,68758.6569953058,42978.7508856926,70508.9680155891,73415.9402958614,60396.5168630103,60789.9228366896,68680.6742263675,41212.6583626298,13921.6338168786
2760225033,45890,-2,0,50903.6691680493,68763.1590431302,42982.5350394045,70514.0176097707,73419.0187231576,60388.4618477135,60792.9404255017,68682.5967224655,41214.1914924295,13920.1371901694
2760225033,45890,-2,0,50900.1770390611,68758.6326599121,42975.4291044599,70508.0919414179,73415.9889666487,60378.3139885632,60791.0544324942,68676.0626692716,41211.9526362141,13912.9582490439
2760261267,45891,-2,0,50898.8385924106,68757.2212070807,42972.3628448605,70503.3222042633,73414.4436691522,60387.4884319677,60789.8619982055,68676.2208493303,41211.0522266492,13911.4129515473
2760261267,45891,-2,0,50914.3645735566,68763.2442170080,42981.5129528714,70506.3762961659,73421.4887656127,60396.9305647023,60791.6749850321,68679.7008106217,41215.7367899260,13917.9348370444
2760261267,45891,-2,0,50929.1726605901,68766.8458552676,42986.1001745736,70505.7192405374,73423.3382555297,60398.4028560178,60790.0445136579,68681.5137974483,41218.6813725572,13923.7631638226
2760261267,45891,-2,0,50929.4525176171,68770.6178412827,42991.0889302710,70506.5709793150,73424.7862114517,60398.5123652892,60790.2635322007,68682.5480516783,41222.1856692422,13927.9123484393
2760261267,45891,-2,0,50917.7228578798,68772.8688651949,42991.3931226916,70506.2911222881,73428.2783404399,60397.8796450544,60789.4482965135,68683.0225918544,41223.7431344355,13928.5085655836
2760261267,45891,-2,0,50901.0287778387,68769.0238729989,42984.8712371945,70501.3388696812,73423.2895847425,60386.3446684663,60783.3157773148,68679.5791336535,41222.3316816041,13922.5220587467
2760261267,45891,-2,0,50888.3865408396,68765.7385948567,42978.2033393355,70497.7250637247,73418.7997046148,60390.1774929655,60781.3081073390,68676.9995819270,41218.3041739557,13919.6018115092
2760261267,45891,-2,0,50891.3067880772,68771.1167168525,42982.2916854680,70503.7237382585,73427.3535954813,60405.2776047228,60784.3865346352,68683.1321011258,41217.0022303956,13924.2377039987
2760284939,45892,-2,0,50899.7755050659,68778.6728565795,42989.3246142317,70511.5232319220,73434.7150520592,60402.3208543948,60792.1860282987,68689.0699371754,41223.4632774086,13930.1025338674
2760284939,45892,-2,0,50907.7088433945,68776.2149818213,42988.0226706716,70509.3452141907,73431.8191402153,60393.2315848681,60792.2468667828,68687.7071551312,41224.6678793941,13925.8925107666
2760284939,45892,-2,0,50919.9008756111,68773.7814424567,42985.3822804611,70507.5078919704,73430.2251719315,60394.3266775821,60790.9570909196,68683.6674797860,41220.9932349535,13920.1006870789
2760284939,45892,-2,0,50921.3731669266,68775.5335907992,42987.2682734686,70508.3474630512,73431.8556433058,60395.0932424820,60792.4415499320,68685.9671744855,41220.8107195012,13917.9226693476
2760284939,45892,-2,0,50909.7286810671,68776.2271495181,42985.4309512484,70507.5687304545,73431.5636185820,60396.5168630103,60792.9525931985,68686.8189132631,41221.7476321566,13917.2291106287
2760284939,45892,-2,0,50905.5064902695,68779.4272537825,42990.0546760411,70513.3970572327,73435.2991015067,60408.6115536523,60797.2721255707,68691.4913088431,41225.3857735066,13921.8528354214
2760284939,45892,-2,0,50911.4808294096,68786.6305303017,42995.7613258510,70520.2718059376,73441.0909251944,60412.5052166356,60802.1148689062,68698.2443805799,41232.5160438449,13926.5982371824
2760284939,45892,-2,0,50913.0626299966,68784.2456617244,42994.0821836895,70519.2862224950,73439.3752799424,60400.5443706587,60801.6768318206,68699.7166718954,41236.6773961583,13925.9290138571
2760321189,45893,-2,0,50914.0482134392,68778.5511796113,42988.7040616937,70514.6259946118,73434.0579964308,60402.9292392360,60801.0076084953,68696.3827229659,41232.5160438449,13923.1791143751
2760321189,45893,-2,0,50932.6404541847,68781.3010790933,42992.8167432199,70518.6900053507,73438.4261995902,60409.6701432759,60803.7575079773,68700.2763859493,41232.0171682751,13921.1714443993
2760321189,45893,-2,0,50941.2186804449,68782.1893209613,42994.4958853814,70517.3393910033,73436.1508402843,60402.3816928789,60803.3073031949,68700.2520505556,41229.4741196391,13916.7667381494
2760321189,45893,-2,0,50925.0113082767,68778.2834902812,42988.6188878160,70513.3605541422,73430.9187306504,60399.0234085558,60797.6006533849,68697.1736232594,41230.2893553263,13912.3255288091
2760321189,45893,-2,0,50911.7485187397,68780.0843094110,42991.3079488138,70513.8350943183,73432.2815126946,60403.9148226786,60798.6835784022,68699.4976533526,41233.0635902019,13913.3476153422
2760321189,45893,-2,0,50903.6083295651,68781.4105883647,42993.3034510928,70516.1834598052,73433.9241517657,60408.1005103857,60797.4303056294,68702.1015404727,41235.9351666521,13916.5720550003
2760321189,45893,-2,0,50902.2698829146,68783.7102830642,42997.1606109857,70517.4732356684,73436.1630079811,60414.9022529097,60798.4402244657,68706.5062467226,41238.0036751120,13923.9213438813
2760321189,45893,-2,0,50911.5295001969,68791.9478138133,43006.0917004537,70524.8468599431,73444.0841786129,60426.9604404613,60802.7110860505,68715.6441870367,41241.9825119731,13933.1201226795
2760371109,45894,-2,0,50919.8157017333,68797.0339110853,43011.5063255399,70528.6553490487,73448.4888848628,60423.5048145636,60807.6025001734,68721.5211846021,41244.5255606091,13936.5757485772
2760371109,45894,-2,0,50930.2434179106,68791.5219444245,43004.3152167176,70522.7783514832,73441.5167945832,60409.9134972123,60804.8769360850,68716.8731244158,41244.2822066726,13933.6433336429
2760371109,45894,-2,0,50939.7828922198,68783.2479105849,42997.3552941348,70514.6868330959,73432.4153573597,60410.5218820535,60800.0341927495,68711.0326299408,41239.5124695180,13928.6059071582
2760371109,45894,-2,0,50943.4940397508,68783.1749044040,42997.7568281300,70513.5674049882,73433.5956239515,60415.5836439318,60798.8295907640,68712.8456167674,41237.4561287550,13928.7275841264
2760371109,45894,-2,0,50932.1780817054,68782.6881965311,43001.7600003847,70514.6503300055,73432.8412267485,60412.0915149436,60798.4645598593,68715.6928578239,41236.9329177916,13932.4508993542
2760371109,45894,-2,0,50915.9220387500,68779.1960675429,42999.3021256265,70512.0099397949,73430.2981781125,60409.5241309140,60797.1139455120,68714.2692372957,41235.8621604712,13932.7429240780
2760371109,45894,-2,0,50907.4898248517,68778.4538380367,42998.5963992108,70513.8107589247,73430.2860104156,60413.7828248020,60797.0044362406,68716.2160687873,41237.8698304470,13931.5139866988
2760371109,45894,-2,0,50905.6281672378,68777.1275590830,42995.3476241590,70515.4412302990,73430.6875444108,60408.9887522538,60798.7930876736,68718.5279311837,41238.1375197771,13929.2386273930
2760385865,45895,-2,0,50907.2221355216,68774.3654919042,42991.4296257821,70513.0685294185,73426.5626951878,60409.3537831585,60798.3307151943,68716.4229196333,41237.4682964518,13927.8880130456
2760385865,45895,-2,0,50924.4759296165,68776.2636526086,42992.8654140072,70516.4024783480,73429.4707747285,60418.5647296534,60800.5209006224,68720.0002224993,41236.0933467108,13931.8546822099
2760385865,45895,-2,0,50935.2443413048,68779.4150860857,42998.3652129711,70520.3448121186,73433.8268101911,60416.6544012522,60804.6214144518,68723.8452146953,41240.9360900463,13935.2129665330
2760385865,45895,-2,0,50922.7481166676,68773.8301132440,42993.1574387309,70515.0275286070,73426.5140244005,60406.9080760971,60802.0540304221,68719.3796699613,41242.4448844524,13933.8866875793
2760385865,45895,-2,0,50909.1324639228,68768.4154881578,42989.9695021633,70513.7985912279,73423.8736341899,60414.3182034622,60800.7520868621,68717.9803848267,41243.0776046872,13934.8114325379
2760385865,45895,-2,0,50911.3226493509,68774.0856348773,42995.6031457923,70521.3182278644,73429.2274207920,60422.8355912383,60806.9211091513,68723.5410222747,41243.9658465552,13938.8754432767
2760385865,45895,-2,0,50919.8643725206,68776.7503604815,42999.0466039932,70525.8932818699,73432.8533944453,60424.1497024952,60810.4497412299,68728.7122934245,41247.2024539101,13939.3499834528
2760385865,45895,-2,0,50933.4313544782,68777.7481116210,42997.0997725015,70524.4209905543,73433.7659717070,60422.6530757860,60812.0437095137,68732.0462423540,41249.3926393383,13935.1642957457
2760415239,45896,-2,0,50932.7499634561,68773.7936101535,42992.6342277675,70518.1667943873,73428.5947005573,60410.0108387869,60807.2253015719,68725.8650523679,41244.0023496457,13933.5338243715
2760415239,45896,-2,0,50912.5515867300,68759.8981003817,42980.9532388175,70503.4438812315,73411.3895772496,60385.0792279967,60793.3054564064,68707.9298672509,41232.1145098497,13935.0426187775
2760415239,45896,-2,0,50887.3644543065,68740.3324438904,42963.8941278717,70487.7597200267,73391.2763744013,60373.9336177069,60775.0539111720,68688.8752540262,41216.9778950020,13932.2075454178
2760415239,45896,-2,0,50876.5108687405,68737.1201719292,42959.8422848297,70486.0440747747,73389.5242260588,60386.9287179138,60773.8614768834,68686.3808761775,41211.3685867666,13930.6987510117
2760415239,45896,-2,0,50874.1990063441,68735.7817252786,42957.0437145604,70487.2851798507,73393.6734106754,60382.9012102654,60773.4842782818,68687.1596087741,41210.4681772017,13925.8803430698
2760415239,45896,-2,0,50873.9434847108,68728.5784487595,42948.3803144225,70481.9800640359,73386.0686001611,60366.7911796718,60769.3594290589,68682.8279087052,41208.6795257687,13921.2322828835
2760415239,45896,-2,0,50883.0814250248,68721.2048244847,42940.0332744020,70475.6650293847,73379.4493730894,60362.3256349378,60762.8862143491,68675.5637937019,41201.8777832447,13916.8397443304
2760415239,45896,-2,0,50889.3964596760,68721.7767062354,42938.4271384213,70474.4969304898,73379.9725840528,60368.8110173444,60759.4549238450,68676.3668616922,41196.1467980411,13916.3895395479
2760450927,45897,-2,0,50884.9309149419,68724.5144380206,42940.4226407003,70476.5167681624,73381.6638939112,60371.3053951931,60760.8055381923,68680.0658415264,41199.1278837627,13919.8816685361
2760450927,45897,-2,0,50878.7618926527,68726.6559526614,42943.2577140600,70480.0454002410,73385.5088861072,60376.5375048270,60762.3873387793,68683.6188089987,41202.3036526335,13924.3593809670
2760450927,45897,-2,0,50875.5496206914,68726.3760956345,42941.4082241429,70479.9967294537,73384.7058181169,60367.9349431732,60762.4846803539,68683.8378275415,41199.1887222468,13925.5031444683
2760450927,45897,-2,0,50883.1057604185,68719.1363160248,42932.5501408558,70474.9471352722,73376.0667533726,60354.7816629076,60758.4693404023,68675.5759613987,41194.5406620605,13924.0795239400
2760450927,45897,-2,0,50890.9660925661,68713.5756785768,42925.2130196716,70471.7835340982,73372.5016182035,60358.8335059496,60754.4661681476,68669.9544854665,41189.9169372677,13924.4932256320
2760450927,45897,-2,0,50891.3919619549,68719.0511421471,42929.2283596232,70476.2490788322,73377.9649140770,60371.1593828313,60758.6761912483,68674.8580672862,41190.9146884072,13929.0196088501
2760450927,45897,-2,0,50882.5703817583,68722.5797742257,42933.7425751445,70478.8894690428,73380.7513166494,60368.3973156525,60762.2778295079,68678.0946746411,41195.5019101095,13933.2174642541
2760450927,45897,-2,0,50864.6473643381,68717.1651491395,42929.2283596232,70474.5334335802,73375.7017224679,60355.1588615091,60760.5500165591,68675.8679861225,41195.9156118014,13931.3801420338
2760498938,45898,-2,0,50855.5945979018,68713.0159645229,42926.3932862634,70471.3698324063,73371.9419041496,60360.0381079351,60757.8731232580,68670.5020318235,41195.3924008381,13929.1169504247
2760498938,45898,-2,0,50858.6730251980,68715.8753732763,42931.6984020782,70474.0223903137,73374.6431328443,60366.6938380972,60758.6883589451,68674.1523408704,41195.4775747158,13931.4409805179
2760498938,45898,-2,0,50872.5198641825,68717.7613662839,42933.5478919953,70476.5654389496,73378.0379202579,60367.6672538431,60760.2944949258,68675.4542844305,41196.1102949506,13933.6676690365
2760498938,45898,-2,0,50889.0922672554,68719.6351915946,42934.5821462253,70478.1959103239,73381.1041798573,60371.3784013741,60761.2922460653,68676.6953895064,41195.8547733173,13933.0836195890
2760498938,45898,-2,0,50892.0368498865,68724.0277301477,42935.7624128171,70480.1670772092,73384.1461040630,60369.0057004936,60762.5820219285,68679.2384381424,41196.7430151854,13933.4608181905
2760498938,45898,-2,0,50877.0584150975,68721.0953152133,42928.9119995058,70476.1517372577,73378.4881250404,60355.8767556216,60759.9294640211,68673.8116453594,41196.7916859727,13928.4477270995
2760498938,45898,-2,0,50864.2458303429,68718.3332480345,42925.9795845715,70471.0899753793,73374.3754435142,60362.1066163950,60757.3255769010,68669.8084731046,41194.7718483001,13925.5274798620
2760498938,45898,-2,0,50862.9803898733,68720.3287503135,42930.2869492468,70473.0854776583,73376.4926227614,60369.7235946062,60756.1818133996,68669.9788208602,41191.2432162214,13923.2399528592
2760514958,45899,-2,0,50868.6383688960,68724.5509411111,42936.4194684455,70476.8452959766,73380.2524410797,60363.7492554661,60756.3521611551,68673.6412976039,41191.5474086420,13925.1137781700
2760514958,45899,-2,0,50877.5694583641,68721.7767062354,42932.0025944988,70473.0003037805,73378.0744233484,60358.5171458322,60755.5612608617,68671.2564290266,41190.3428066565,13926.3427155491
2760514958,45899,-2,0,50888.6542301697,68716.7636151444,42927.6343913394,70467.8168649339,73372.3312704480,60354.7329921203,60751.1687223086,68667.2654244686,41185.2323739909,13926.3062124586
2760514958,45899,-2,0,50886.4275416512,68714.5369266258,42925.6753921509,70466.2228966501,73372.3799412353,60357.5558977832,60748.3336489488,68664.7223758326,41183.6992441912,13926.1845354904
2760514958,45899,-2,0,50872.5076964857,68715.5955162494,42925.2251873684,70467.8777034181,73373.4506985557,60363.1652060186,60749.5747540248,68666.1824994514,41183.3463809833,13929.3846397548
2760514958,45899,-2,0,50866.9105559472,68722.3120848956,42931.2725326894,70472.8542914187,73380.8973290113,60370.6970103520,60754.3079880889,68672.0594970169,41186.4004728859,13933.3878120096
2760514958,45899,-2,0,50870.9745666860,68728.7001257277,42937.7335797024,70480.4834373266,73386.3362894912,60371.1350474376,60760.5256811654,68678.1068423379,41189.2963847298,13936.4540716090
2760514958,45899,-2,0,50869.7212939133,68725.5730276442,42936.0787729345,70480.1305741188,73383.3795391632,60358.0426056561,60761.8154570286,68675.6124644892,41192.8980229894,13933.9718614571
2760536093,45900,-2,0,50867.8109655120,68720.2192410421,42930.1409368849,70476.4559296782,73376.0545856758,60359.4662261844,60760.0268055957,68671.4146090853,41192.5329920847,13929.7496706595
2760536093,45900,-2,0,50883.1909342963,68721.5820230863,42932.1242714670,70478.1837426271,73380.4106211384,60366.6573350068,60760.7325320114,68673.5317883325,41190.5861605930,13932.5360732320
2760536093,45900,-2,0,50895.6019850557,68722.9569728272,42932.5866439463,70481.8462193708,73382.8198251093,60368.2878063810,60761.8154570286,68676.6832218096,41192.7763460211,13936.6487547581
2760536093,45900,-2,0,50889.8223290648,68720.4625949785,42930.5059677896,70480.7632943536,73379.8509070845,60363.8952678280,60763.8474623981,68677.8269853110,41195.2220530825,13937.8533567436
2760536093,45900,-2,0,50880.4532025111,68720.1340671643,42929.5568874374,70481.5055238598,73380.4836273193,60367.7645954177,60764.6870334789,68677.4011159222,41197.7772694154,13936.2228853693
2760536093,45900,-2,0,50871.4004360748,68718.9659682693,42930.6276447578,70478.8286305587,73379.1451806688,60366.8885212464,60763.4945991902,68676.1965139367,41197.4487416011,13932.3900608701
2760536093,45900,-2,0,50867.7866301184,68720.7181166118,42932.7813270955,70478.0620656589,73381.3962045811,60372.9236988706,60762.7523696840,68675.5881290955,41198.3613188629,13932.9132718335
2760536093,45900,-2,0,50875.5131176010,68728.3107594293,42939.7899204655,70481.9800640359,73387.7355746258,60383.9111291017,60766.9623927847,68679.8833260740,41199.6389270293,13935.0304510807
2760564225,45901,-2,0,50898.3275491440,68738.0570845845,42948.7575130240,70491.6047122228,73396.6544963970,60385.9553021680,60775.1634204434,68685.6873174586,41205.1387259932,13937.6830089881
2760564225,45901,-2,0,50905.6159995409,68736.9498241736,42947.6867557036,70490.4731164183,73394.7685033895,60374.5054994576,60775.5041159544,68685.1154357079,41206.9395451230,13934.6532524792
2760564225,45901,-2,0,50895.2126187573,68735.1003342565,42945.5817441532,70487.2243413665,73391.9699331202,60376.1968093160,60773.4112721009,68681.7936544752,41204.3356580029,13929.7618383563
2760564225,45901,-2,0,50885.9773368687,68736.3657747261,42946.0806197230,70490.7164703547,73394.1357831547,60381.5384282212,60773.4599428882,68683.7039828764,41199.7849393911,13928.6789133391
2760564225,45901,-2,0,50881.0737550491,68738.5681278511,42948.5871652685,70494.7439780031,73397.8104275952,60381.6479374926,60773.4112721009,68685.7116528522,41200.5636719878,13929.7375029627
2760564225,45901,-2,0,50881.5117921347,68738.9331587558,42949.0495377478,70492.4321156068,73398.5648247982,60381.7696144609,60774.5185325118,68686.6120624171,41201.3180691908,13932.5482409288
2760564225,45901,-2,0,50888.8975841062,68738.7384756066,42950.7165122125,70491.0206627753,73397.0195273017,60382.0616391846,60773.3017628295,68685.5291373999,41200.9408705893,13933.9475260634
2760564225,45901,-2,0,50908.5970852626,68738.4707862765,42950.8990276648,70489.3050175233,73397.9564399571,60378.6790194678,60772.6082041106,68684.6165601382,41200.3933242323,13932.8159302589
2760614673,45902,-2,0,50916.1045542023,68737.7042213767,42950.6313383347,70491.2518490149,73397.3115520255,60380.5041739913,60773.8979799738,68684.3123677176,41200.8191936211,13931.3923097306
2760614673,45902,-2,0,50908.3172282356,68740.1864315285,42954.3546535626,70493.8922392255,73400.8766871946,60383.9476321922,60774.3603524531,68687.5854781630,41197.5339154789,13929.8835153246
2760614673,45902,-2,0,50896.6362392856,68740.6609717046,42955.5349201544,70495.9972507759,73403.4075681338,60384.4830108524,60776.5505378812,68689.4228003832,41195.4532393222,13931.2097942783
2760614673,45902,-2,0,50886.0016722623,68737.5460413180,42951.4344063250,70492.2861032449,73398.7595079474,60374.1283008561,60776.5505378812,68687.9870121581,41197.6677601440,13933.0836195890
2760614673,45902,-2,0,50877.5694583641,68731.0971620018,42946.4091475372,70486.1414163493,73392.2984609344,60370.0521224204,60772.5960364138,68682.9374179766,41192.5938305688,13931.8425145131
2760614673,45902,-2,0,50877.3017690339,68727.6537038009,42944.8273469502,70484.1215786767,73391.9699331202,60369.1030420682,60769.8583046286,68678.6422209981,41186.0232742844,13930.7839248895
2760614673,45902,-2,0,50878.1170047211,68725.0133135903,42944.6083284074,70482.3572626374,73386.9690097260,60367.7159246304,60768.4955225844,68677.0604204111,41185.6947464702,13930.0660307769
2760614673,45902,-2,0,50883.7749837438,68725.3418414045,42944.6204961042,70484.1337463735,73388.7211580685,60373.8119407387,60769.6027829953,68677.9729976728,41187.6172425682,13930.3823908943
2760635917,45903,-2,0,50897.0864440681,68725.6460338251,42945.4844025786,70485.8007208383,73391.1668651299,60374.9435365432,60771.5496144870,68680.1023446168,41187.8484288078,13929.8470122341
2760635917,45903,-2,0,50893.4483027180,68723.2855006415,42940.1914544606,70482.7101258452,73387.8937546845,60366.7181734909,60769.3472613620,68678.2771900934,41187.7267518396,13929.7009998722
2760635917,45903,-2,0,50882.5095432742,68719.6351915946,42937.0035178930,70478.6461151064,73385.0343459311,60367.6794215399,60764.9790582026,68674.1523408704,41185.5609018051,13929.7009998722
2760635917,45903,-2,0,50878.5185387162,68724.6361149888,42945.4478994882,70483.6713738942,73390.3394617459,60380.5893478690,60765.7334554056,68678.6787240886,41185.6095725924,13932.4265639606
2760635917,45903,-2,0,50880.8060657190,68730.1359139528,42952.9797038216,70488.1125832346,73394.3304663038,60381.3680804657,60769.3959321493,68683.1321011258,41189.0408630965,13933.5338243715
2760635917,45903,-2,0,50891.3189557740,68730.0142369846,42952.8945299438,70487.6258753617,73393.2232058930,60377.1093865777,60771.9633161790,68683.1077657321,41192.8858552925,13934.9817802934
2760635917,45903,-2,0,50905.7620119028,68730.5496156448,42952.2009712249,70486.8349750682,73391.8725915456,60378.2896531695,60772.4135209614,68680.6498909739,41192.4964889942,13936.5757485772
2760635917,45903,-2,0,50908.3172282356,68733.3116828236,42955.3402370052,70489.6700484280,73395.6567452576,60386.1864884076,60774.2995139690,68683.7891567542,41190.8173468326,13936.7825994232
2760667354,45904,-2,0,50903.0121124208,68739.8579037143,42961.1928991770,70496.3987847710,73401.7405936690,60386.1986561044,60779.6776359647,68689.5931481387,41196.3901519775,13940.2260576241
2760667354,45904,-2,0,50886.0503430496,68737.3513581688,42958.0901364872,70491.9454077338,73398.5161540109,60380.6015155659,60775.2850974116,68685.5169697031,41191.1823777373,13939.2039710909
2760667354,45904,-2,0,50869.5752815514,68730.1480816496,42949.2685562906,70480.8606359281,73388.9523443081,60373.8971146164,60765.5752753469,68676.1721785430,41181.6672388218,13934.5559109046
2760667354,45904,-2,0,50859.2205715551,68721.1196506070,42943.8052604171,70472.3675835457,73381.7734031826,60365.1728759944,60759.5035946323,68669.8206408015,41180.4383014427,13926.1723677936
2760667354,45904,-2,0,50851.9077857645,68712.7239397992,42935.1905310664,70466.0038781073,73373.9009033381,60360.5369835048,60753.0303799225,68663.0432336711,41175.8267443468,13921.8650031183
2760667354,45904,-2,0,50865.6207800839,68715.3156592224,42935.6042327584,70470.7614475651,73378.3786157690,60370.2468055695,60753.5414231890,68666.1094932705,41175.4738811389,13926.4035540332
2760667354,45904,-2,0,50882.8867418757,68719.6351915946,42937.7700827929,70476.2855819227,73382.5156326888,60367.4238999066,60757.8001170771,68670.3681871585,41177.0921848164,13932.9984457112
2760667354,45904,-2,0,50878.4090294448,68715.9118763668,42934.3144568952,70472.2702419712,73379.4980438767,60357.4463885118,60755.9871302505,68667.9224800971,41178.1872775304,13934.2030476967
2760696201,45905,-2,0,50862.6518620591,68709.1588046300,42928.0480930314,70465.0547977551,73373.4750339493,60353.4675516507,60750.0127911104,68662.3010041649,41174.5369684835,13931.7573406353
2760696201,45905,-2,0,50851.5184194661,68704.8879430452,42924.5802994368,70461.7695196129,73368.5106136456,60354.0881041887,60748.4796613107,68659.1617383846,41171.5923858524,13929.4089751485
2760696201,45905,-2,0,50851.1412208646,68702.1137081695,42919.5915437394,70460.3337313878,73366.0040681000,60351.8735833669,60748.0172888314,68655.4019200663,41170.0349206590,13924.0673562432
2760696201,45905,-2,0,50864.5256873699,68699.2786348098,42919.1535066538,70459.6401726689,73363.7652118846,60353.5648932253,60747.3724008998,68654.1364795967,41165.0705003553,13923.9456792750
2760696201,45905,-2,0,50869.7943000942,68700.0086966192,42921.8547353485,70460.6622592021,73364.5439444813,60350.1944412053,60746.3016435794,68652.9440453080,41163.2453458318,13927.4986467473
2760696201,45905,-2,0,50857.5779324840,68695.3606364328,42916.1237501449,70454.9799447858,73356.2334075512,60334.6806277561,60740.5341552853,68646.3856567205,41161.6027067608,13927.2066220235
2760696201,45905,-2,0,50841.1393740762,68688.5832293024,42909.3950138018,70447.6428236015,73350.0157144747,60336.3476022208,60736.1659521259,68637.9656105190,41159.1569996993,13927.7298329869
2760696201,45905,-2,0,50839.0343625258,68694.0221897823,42914.0552416850,70452.4247284529,73357.3650033557,60351.8979187606,60739.3538886935,68642.8570246418,41160.7753033768,13931.2341296719
2760731233,45906,-2,0,50846.8338561893,68700.7630938222,42920.8813196026,70461.2098055591,73363.9720627306,60355.0128491472,60746.3016435794,68649.9872949801,41165.3260219886,13933.3756443128
2760731233,45906,-2,0,50850.2773143902,68702.0893727759,42922.6699710356,70464.7749407282,73364.4587706035,60349.9997580562,60748.2363073742,68650.7295244863,41167.2485180866,13931.2462973687
2760731233,45906,-2,0,50858.2471558092,68701.5783295093,42921.8303999548,70463.6190095300,73364.1180750925,60347.5905540852,60747.9929534378,68650.6200152149,41164.8514818125,13928.0340254075
2760731233,45906,-2,0,50877.9344892687,68704.1092104485,42923.6312190846,70466.8799522786,73366.7219622126,60350.9001676211,60751.8501133306,68653.1143930636,41165.8979037392,13925.8681753730
2760731233,45906,-2,0,50888.3257023555,68710.5702574615,42930.9683402689,70473.7547009836,73373.4263631620,60358.5293135290,60758.9803836689,68659.0035583259,41172.0669260285,13927.6933298964
2760731233,45906,-2,0,50883.0692573280,68719.0754775407,42939.7412496782,70478.9259721333,73381.3718691874,60367.7037569336,60765.6726169215,68665.1725806151,41177.3477064496,13929.5184844199
2760731233,45906,-2,0,50875.0142420312,68726.5342756932,42948.0639543051,70484.2675910386,73387.5043883862,60366.5356580385,60769.5541122080,68670.4898641267,41180.5356430172,13931.1002850069
2760731233,45906,-2,0,50861.9948064307,68723.9425562699,42944.0607820504,70478.9624752238,73383.0388436522,60353.7109055872,60766.3905110341,68664.8683881945,41181.2535371298,13929.9686892023
2760771132,45907,-2,0,50854.1101388894,68719.1728191153,42939.1450325339,70472.8542914187,73376.7481443947,60357.3125438468,60759.0777252435,68658.3708380911,41180.6816553791,13928.5450686741
2760771132,45907,-2,0,50858.1254788410,68720.1340671643,42942.1261182555,70475.5311847197,73380.9581674954,60369.3585637015,60760.0998117766,68661.3640915095,41182.4338037216,13930.5770740435
2760771132,45907,-2,0,50873.1160813269,68726.8628035074,42949.9986180999,70480.8363005345,73386.1294386452,60377.4379143919,60763.8231270044,68668.7012126937,41188.4568136490,13936.5149100931
2760771132,45907,-2,0,50884.3468654944,68728.8583057864,42955.1942246433,70481.9192255517,73388.8428350367,60378.5816778933,60767.4125975672,68671.0617458774,41193.0318676544,13941.5766719714
2760771132,45907,-2,0,50881.5847983156,68731.6812114493,42959.2460676854,70481.3473438011,73390.1447785968,60377.0485480936,60768.2765040416,68672.2541801660,41195.2950592635,13943.0611309838
2760771132,45907,-2,0,50872.0088209160,68730.8051372780,42961.1198929961,70477.6240285732,73389.0496858827,60372.1327985771,60765.7334554056,68668.5673680287,41195.4775747158,13940.4329084701
2760771132,45907,-2,0,50861.7757878879,68727.7510453755,42956.7881929271,70472.4892605140,73384.8883335693,60370.2224701759,60761.7424508477,68662.4835196172,41193.8349356447,13937.3788165675
2760771132,45907,-2,0,50863.8686317414,68731.9367330826,42958.9297075680,70474.1440672819,73389.5607291492,60380.9178756833,60761.0245567352,68664.2843387470,41194.7475129064,13941.8808643920
2760798868,45908,-2,0,50872.7753858158,68738.8114817875,42960.6818559105,70477.6483639669,73391.9455977265,60375.6370952621,60762.4725126571,68667.4722753146,41193.7619294638,13945.2999871992
2760798868,45908,-2,0,50880.3680286333,68731.0849943050,42949.9256119190,70473.0246391742,73383.3673714664,60357.9209286879,60757.9948002262,68660.9990606048,41191.6934210039,13942.4649138395
2760798868,45908,-2,0,50876.3283532881,68722.4580972575,42937.1616979517,70465.1886424202,73375.3366915632,60352.2751173621,60752.5193366559,68652.2261511955,41186.7290007001,13937.0624564501
2760798868,45908,-2,0,50868.6992073801,68721.0223090324,42935.7015743330,70465.3589901757,73377.5025415977,60361.5590700380,60751.6675978783,68653.3212439096,41186.0111065876,13935.9308606456
2760798868,45908,-2,0,50865.1949106951,68723.8330469985,42938.6948277514,70471.7226956141,73381.4205399747,60365.7569254419,60757.5810985343,68658.6628628148,41189.5884094535,13940.5667531351
2760798868,45908,-2,0,50857.8456218141,68723.5896930620,42937.5753996437,70470.5545967191,73380.5566335003,60358.4684750449,60756.2913226710,68657.4339254357,41187.6172425682,13938.4617415847
2760798868,45908,-2,0,50854.2196481608,68719.6960300787,42935.1540279760,70468.6686037116,73379.1573483656,60352.6158128731,60754.3444911794,68655.2802430980,41182.1174436042,13932.7307563811
2760798868,45908,-2,0,50857.2615723666,68713.3079892466,42924.0935915639,70463.3878232904,73372.1852580861,60337.1750056048,60751.2782315800,68648.9530407501,41175.5712227135,13926.0020200381
2760815923,45909,-2,0,50858.9528822249,68704.6932598960,42913.6537076898,70458.3625645025,73365.2618385938,60332.9041440199,60747.9077795600,68642.0296212579,41170.2417715050,13923.1304435878
2760815923,45909,-2,0,50856.0934734716,68702.1258758664,42910.9524789951,70458.4355706835,73363.8868888529,60340.8983208326,60747.0803761761,68640.3626467931,41165.1435065362,13923.2642882529
2760815923,45909,-2,0,50852.3336551533,68707.2241408352,42914.8096388880,70464.2638974617,73370.1045819294,60342.3219413609,60753.1885599812,68647.2982339822,41167.0294995438,13924.6149026002
2760815923,45909,-2,0,50844.3759814311,68706.4940790258,42911.6825408045,70465.1643070266,73368.5592844329,60332.5269454184,60755.3909131061,68646.4829982951,41169.3535296370,13923.1426112847
2760815923,45909,-2,0,50841.4435664967,68703.6346702724,42902.8122898206,70462.4995814223,73364.9576461733,60330.0082321761,60756.4373350329,68644.1468005051,41167.0173318470,13919.7478238711
2760815923,45909,-2,0,50851.5427548598,68705.6180048546,42903.5058485395,70467.4031632420,73367.7440487457,60340.4359483533,60759.1750668181,68645.9354519380,41168.9398279450,13918.7257373379
2760815923,45909,-2,0,50875.0264097281,68711.0691330312,42909.9303924620,70474.0102226168,73373.0613322573,60340.7644761676,60764.0299778504,68650.7051890926,41175.2913656866,13920.5265564677
2760815923,45909,-2,0,50882.1566800663,68708.0150411287,42909.2976722272,70471.9660495506,73371.4430285799,60335.1064971449,60760.5743519527,68647.8214449456,41172.3711184491,13918.2633648587
2760852626,45910,-2,0,50872.6780442412,68704.6324214119,42906.5477727452,70468.6077652274,73368.3889366773,60334.3034291546,60758.7491974293,68644.7551853462,41169.1223433973,13915.9149993718
2760852626,45910,-2,0,50855.8014487478,68702.8437699789,42904.4792642853,70467.6951879657,73367.0139869363,60332.6242869930,60757.5202600501,68643.3072294243,41173.8312420678,13917.0709305700
2760852626,45910,-2,0,50845.8604404435,68704.3038935977,42908.0809025449,70468.3157405037,73368.9851538217,60345.0110023588,60759.5522654196,68645.2297255223,41180.0245997507,13921.1349413089
2760852626,45910,-2,0,50848.7441845905,68713.1376414911,42921.2706859010,70473.4018377757,73378.7436466737,60360.7681697445,60761.8154570286,68654.9517152838,41184.3319644260,13926.0871939158
2760852626,45910,-2,0,50857.8699572077,68723.5045191843,42932.5379731590,70478.9989783142,73386.6769850022,60362.0214425172,60765.6482815279,68661.8507993824,41191.1580423437,13930.7230864054
2760852626,45910,-2,0,50856.3611628017,68720.9127997610,42930.1531045817,70473.5113470471,73381.4083722779,60347.5175479043,60762.3021649016,68658.1031487610,41190.6469990771,13927.3648020822
2760852626,45910,-2,0,50865.0610660301,68713.1011384007,42924.2031008353,70466.7339399167,73373.4872016461,60342.6869722656,60756.7050243630,68649.1112208088,41186.0476096780,13921.9136739055
2760852626,45910,-2,0,50869.3805984022,68710.3512389187,42922.0980892849,70463.7163511046,73370.5547867118,60342.5774629942,60753.3467400399,68644.0737943241,41181.3387110076,13917.3021168097
2760886074,45911,-2,0,50860.9605522007,68709.7185186839,42920.7718103312,70463.4851648650,73369.3380170295,60340.9591593167,60751.7162686656,68639.6569203774,41179.0998547921,13915.0875959879
2760886074,45911,-2,0,50855.1808962098,68713.1254737943,42924.4829578622,70466.0890519851,73370.9441530101,60347.7487341439,60751.7771071497,68641.0440378152,41175.1331856279,13917.4481291715
2760886074,45911,-2,0,50855.1687285130,68718.5644342742,42929.9219183421,70470.0192180589,73373.6697170985,60347.9920880804,60753.5170877954,68641.9079442896,41173.7339004932,13919.9425070202
2760886074,45911,-2,0,50853.7572756816,68718.0412233108,42930.4451293055,70470.5180936286,73371.5647055481,60342.1029228181,60753.8334479128,68639.6934234678,41175.7172350754,13919.9911778075
2760886074,45911,-2,0,50863.7834578637,68717.7370308902,42929.8367444643,70469.5933486701,73368.0847442568,60343.8550711606,60754.7216897809,68637.5762442207,41178.0169297749,13918.5797249761
2760886074,45911,-2,0,50892.6208993340,68722.5311034385,42935.9449282694,70473.8885456486,73375.6408839838,60352.3481235430,60757.6784401088,68642.4433229498,41180.0124320539,13921.4391337295
2760886074,45911,-2,0,50904.3505590713,68725.1106551649,42938.3541322404,70476.4315942846,73378.0865910452,60350.3039504767,60760.6716935273,68643.5749187544,41180.4748045331,13918.2511971618
2760886074,45911,-2,0,50891.9395083119,68726.8993065979,42936.3464622646,70477.6483639669,73376.9063244534,60345.5098779285,60763.6527792489,68646.0084581190,41181.7889157900,13912.5445473519
2760923465,45912,-2,0,50873.3959383538,68727.5685299231,42933.9007552032,70480.0575679378,73379.1695160625,60348.0407588677,60766.0376478262,68649.1963946866,41181.8984250614,13906.3025188817
2760923465,45912,-2,0,50866.2656680155,68731.9610684762,42937.5510642501,70482.8561382071,73383.8905824298,60353.9055887363,60769.8339692350,68652.1896481050,41186.9966900302,13908.5413750971
2760923465,45912,-2,0,50867.9204747835,68736.5969609658,42943.9269373853,70485.7155469605,73385.3142029580,60360.9871882873,60770.7952172840,68652.8710391271,41190.1237881137,13914.3088633912
2760923465,45912,-2,0,50880.0516685159,68745.3942057688,42956.2041434796,70490.1202532104,73391.1060266458,60372.9723696579,60774.5915386927,68656.6795282327,41193.2752215909,13921.0010966438
2760923465,45912,-2,0,50900.6759146308,68754.4104691145,42969.0410636278,70496.6664741011,73398.8446818252,60376.8416972476,60777.6091275048,68662.5078550109,41198.2883126819,13924.5662318129
2760923465,45912,-2,0,50913.9752072583,68755.4690587381,42971.9613108654,70496.1432631378,73398.3944770427,60372.6438418437,60778.3635247078,68662.1793271966,41201.5492554305,13920.5873949518
2760923465,45912,-2,0,50917.3699946719,68758.9490200295,42976.0496569979,70498.8201564388,73401.7405936690,60379.5915967296,60782.6952247768,68665.0509036469,41207.0368866976,13921.4513014263
2760923465,45912,-2,0,50915.5813432389,68769.3402331163,42988.8135709651,70505.7679113247,73411.5842603988,60394.4118514599,60789.1197686993,68671.6701307185,41209.5069291527,13926.8902619061
2760950975,45913,-2,0,50918.4407519923,68780.8022035235,43002.1128635926,70516.1226213210,73420.5761883509,60398.4271914115,60794.2058659713,68680.4552078247,41214.2401632168,13932.2683839019
2760950975,45913,-2,0,50921.1054775965,68785.3042513480,43008.1115381263,70519.0063654681,73423.5086032853,60396.4925276166,60798.3915536784,68682.6210578592,41215.9679761657,13934.8236002347
2760950975,45913,-2,0,50924.3664203451,68788.4435171283,43014.5482497456,70518.7021730475,73424.6280313930,60401.9558234901,60799.2067893655,68682.8400764020,41217.3429259066,13936.8069348168
2760950975,45913,-2,0,50931.0708212945,68792.3128447180,43022.1895633505,70518.9820300744,73427.3292600877,60408.2830258381,60799.7300003289,68685.8820006077,41223.3537681372,13939.0822941227
2760950975,45913,-2,0,50950.0037575510,68795.8779798871,43028.9669704808,70521.0505385343,73432.3301834819,60417.0681029442,60804.0495327011,68689.9703467403,41232.3456960893,13942.3310691744
2760950975,45913,-2,0,50968.1336258172,68804.8212370520,43040.0760776802,70528.4119951122,73443.3054460162,60432.2412208824,60807.2983077528,68697.9523558561,41237.5899734200,13947.4780049305
2760950975,45913,-2,0,50962.4999821882,68812.0245135712,43051.4285388160,70529.8356156405,73444.9724204809,60430.7689295669,60806.9454445449,68700.7509261254,41240.2060282370,13946.1760613705
2760950975,45913,-2,0,50944.6013001616,68813.0466001043,43054.4582953249,70523.9221149845,73442.4415395418,60421.8865108861,60804.4388989994,68697.1492878658,41241.6539841589,13938.8997786704
2760978893,45914,-2,0,50926.4105934113,68808.5810553703,43051.5258803906,70516.4876522257,73435.8831509542,60422.0203555512,60799.8395096003,68691.9415136256,41242.1650274254,13937.0746241469
2760978893,45914,-2,0,50925.2424945163,68812.2922029013,43057.0135116577,70517.5584095461,73437.7448085681,60432.8861088140,60799.0972800941,68691.8806751415,41240.5467237480,13942.3554045681
2760978893,45914,-2,0,50930.8518027517,68816.9524307845,43063.3407140056,70524.8346922463,73442.8430735369,60440.5639255093,60803.3559739822,68697.3196356213,41245.7179948978,13949.4856749063
2760978893,45914,-2,0,50943.1168411492,68821.5031493963,43068.1226188571,70528.3633243249,73449.3527913372,60439.8581990936,60807.4443201147,68700.4589014016,41249.7820056366,13954.4135921196
2760978893,45914,-2,0,50953.7027373852,68820.7122491028,43069.8869348964,70527.4750824568,73445.6659791998,60438.1182184479,60804.1712096693,68697.5021510737,41246.9956030642,13952.1138974201
2760978893,45914,-2,0,50950.2349437907,68818.3273805255,43071.9797787499,70526.0879650190,73443.2446075321,60437.1569703989,60801.9323534539,68695.1902886773,41249.4291424287,13951.9192142709
2760978893,45914,-2,0,50940.0627492467,68818.7775853079,43070.7873444613,70523.9221149845,73442.6483903878,60440.0285468491,60802.2000427840,68692.8540908873,41251.7045017346,13953.9512196404
2760978893,45914,-2,0,50933.4556898718,68821.8438449073,43076.4453234840,70526.1974742904,73446.7489042171,60451.8190450705,60803.9521911265,68697.3561387118,41252.3858927567,13957.6258640809
2761035252,45915,2,0,50939.1745073786,68829.2053014852,43086.4228348788,70532.6828566971,73452.7475787508,60454.4959383716,60808.2838911955,68701.7121741744,41255.3669784783,13962.3956012355
2761035252,45915,2,0,50942.1677607970,68828.9254444582,43086.5566795438,70531.0280499291,73452.4555540270,60444.1290606784,60809.7196794206,68700.9942800618,41258.1898841413,13958.0030626824
2761035252,45915,2,0,50953.3742095710,68825.1899615336,43083.2105629175,70526.7571883443,73450.3748778703,60451.0524801707,60809.3424808191,68702.2840559251,41259.4066538236,13956.5672744573
2761035252,45915,2,0,50965.0430308242,68831.8700270894,43087.4570891087,70530.4440004816,73456.1910369517,60461.1638362306,60811.5813370345,68706.3237312703,41263.3489875942,13961.6047009420
2761035252,45915,2,0,50961.6725788042,68836.7736089090,43092.9933911632,70532.5855151225,73460.8512648349,60460.2877620593,60813.1266345310,68709.9618726203,41265.3201544795,13966.3744380966
2761035252,45915,2,0,50946.9983364358,68836.4572487916,43095.3417566500,70530.8577021736,73459.9386875732,60457.9758996630,60808.5272451319,68705.9952034561,41262.3999072420,13966.6907982140
2761035252,45915,2,0,50938.0672469677,68835.9705409187,43097.1060726893,70528.9717091661,73458.7584209813,60454.5932799462,60806.7872644862,68703.5859994851,41259.2484737649,13966.0094071919
2761035252,45915,2,0,50933.2488390258,68834.1332186985,43092.8595464981,70527.2803993077,73454.8647579980,60448.4972638379,60806.8115998799,68702.4909067711,41260.6477588995,13961.4586885801
2761043993,45916,2,0,50940.7684756624,68834.4739142095,43090.6328579795,70530.4440004816,73457.6876636609,60453.6076965035,60810.5349151077,68704.0483719644,41265.8555331397,13961.3613470055
2761043993,45916,2,0,50962.6703299437,68840.2779055940,43094.5873594470,70536.8685444041,73467.6530073589,60469.0485037718,60817.7503593237,68712.5292566500,41268.2282340202,13965.3036807762
2761043993,45916,2,0,50968.2918058759,68844.2445747583,43099.5882828412,70541.1637413827,73472.8121108118,60465.8605672042,60821.1329790405,68719.1119806312,41268.5689295312,13967.8588971090
2761043993,45916,2,0,50952.8388309108,68838.8421173689,43096.5341909386,70537.1970722184,73465.4384865371,60454.1917459510,60819.0888059742,68716.3255780587,41266.7316073110,13969.5988777547
2761043993,45916,2,0,50933.0906589671,68830.2760588056,43091.8374599650,70527.5845917282,73457.0427757293,60448.4729284442,60812.8467775041,68707.5161655589,41261.9740378532,13965.6200408936
2761043993,45916,2,0,50929.9148900963,68831.2251391578,43093.0177265568,70527.4020762759,73458.5150670449,60456.4062667728,60810.5349151077,68706.3967374512,41263.4949999561,13966.4839473680
2761043993,45916,2,0,50934.7576334319,68833.3423184050,43095.3174212563,70529.7626094595,73461.8246805807,60460.3242651498,60811.4718277631,68707.4674947716,41265.6973530810,13968.7349712802
2761043993,45916,2,0,50948.7018139910,68839.4018314228,43101.5716174233,70533.9117940762,73467.5921688748,60470.2531057573,60815.3898261401,68712.7969459801,41270.1507301182,13975.4515399265
2761083252,45917,2,0,50961.0520262663,68843.5753514331,43109.3954464805,70537.9149663309,73471.9482043374,60470.8371552048,60817.6165146586,68718.4792603964,41271.4040028910,13981.0973512523
2761083252,45917,2,0,50951.5977258348,68837.9173724104,43107.5459565634,70532.4029996701,73465.8886913196,60458.4991106263,60815.0978014163,68714.5977651099,41272.6207725733,13980.0996001129
2761083252,45917,2,0,50934.9766519747,68829.3634815439,43101.2309219123,70524.6886798844,73457.8701791132,60458.7181291692,60809.4276546968,68708.0272088255,41269.6031837612,13977.3497006309
2761083252,45917,2,0,50927.2744998858,68827.7451778664,43104.1511691498,70524.1533012242,73459.3059673384,60468.1967649942,60806.9697799386,68707.5770040431,41265.8798685334,13974.1374286696
2761083252,45917,2,0,50928.9658097442,68830.4220711675,43110.7582285247,70527.0370453712,73463.0779533535,60468.2211003879,60808.9409468239,68709.5360032315,41267.1453090029,13976.4127879755
2761083252,45917,2,0,50928.8319650791,68826.1512095826,43110.1376759867,70521.9509480992,73459.9386875732,60455.5910310857,60805.5218240167,68705.6666756418,41264.7604404256,13975.8287385280
2761083252,45917,2,0,50935.9500677205,68820.8704291615,43103.4941135214,70515.6602488418,73452.8570880222,60454.0822366796,60801.4943163683,68700.2277151620,41261.9010316723,13973.6872238872
2761083252,45917,2,0,50936.3881048062,68818.6559083397,43099.3449289047,70513.8837651056,73451.3847967066,60454.8001307922,60801.4334778841,68699.9478581351,41262.0348763373,13971.8133985764
2761108154,45918,2,0,50926.7391212256,68817.5729833224,43094.3440055105,70513.2388771740,73450.4478840513,60454.4959383716,60801.3604717032,68698.9379392988,41264.2737325527,13972.0080817256
2761108154,45918,2,0,50921.7260301345,68819.3372993618,43097.2642527480,70516.4511491352,73453.8791745553,60464.7654744902,60802.0783658158,68700.7630938222,41264.8942850907,13975.5610491979
2761108154,45918,2,0,50925.8022085702,68825.7496755875,43105.5261188908,70524.8711953367,73460.0725322382,60469.4257023733,60805.6800040753,68705.4719924927,41265.9772101079,13981.0851835555
2761108154,45918,2,0,50924.4394265260,68823.2309623451,43104.5527031450,70523.3989040211,73456.3735524040,60454.8731369731,60806.1180411610,68703.0749562186,41266.6829365237,13982.1194377855
2761108154,45918,2,0,50925.8143762670,68818.7410822174,43100.4278539220,70517.2663848224,73451.8715045795,60450.1885736963,60803.1491231362,68698.2808836703,41263.9087016480,13978.1771040148
2761108154,45918,2,0,50939.9289045816,68821.0894477043,43099.4544381761,70517.2420494287,73452.2973739683,60457.5865333646,60800.7277514684,68696.9546047166,41261.1101313788,13977.2280236626
2761108154,45918,2,0,50945.1610142155,68827.6478362918,43103.1290826167,70520.3569798154,73457.5538189959,60460.3851036339,60803.9035203392,68698.7675915432,41262.8379443276,13981.0608481619
2761108154,45918,2,0,50935.6093722095,68829.2418045756,43104.1390014530,70522.4376559721,73461.0337802872,60461.4680286511,60807.0184507259,68701.8946896267,41266.1232224698,13984.4556355755
2761134332,45919,2,0,50924.1108987118,68830.7384312849,43105.2097587734,70521.9509480992,73462.9806117789,60463.8650649253,60808.7949344620,68704.8149368642,41265.8920362302,13982.1194377855
2761134332,45919,2,0,50918.9152921684,68831.8456916958,43103.9199829102,70522.0482896738,73462.6155808742,60455.9925650808,60806.6534198212,68705.7153464291,41266.9749612474,13978.8584950369
2761134332,45919,2,0,50918.8179505938,68828.7429290059,43102.6180393501,70522.9243638451,73460.2185446001,60454.0944043764,60806.5925813371,68703.5373286978,41266.9019550665,13976.2181048263
2761134332,45919,2,0,50934.5386148891,68833.4761630700,43108.3368568569,70526.6963498602,73465.7791820482,60469.6082178257,60810.4375735331,68710.5094189774,41268.3985817757,13978.8463273401
2761134332,45919,2,0,50952.0114275268,68843.6726930077,43116.3675367600,70534.0091356508,73473.7855265577,60471.8105709506,60815.6210123797,68716.1795656969,41273.6671945000,13985.0396850230
2761134332,45919,2,0,50944.6013001616,68839.4018314228,43110.4905391946,70528.3876597186,73466.5457469480,60454.4472675843,60812.1532187852,68711.3368223613,41272.5599340892,13985.8670884069
2761134332,45919,2,0,50929.0996544092,68830.1543818374,43102.6788778342,70522.8756930578,73459.5128181843,60451.8068773737,60808.5394128287,68704.6567568055,41269.3233267343,13984.4434678786
2761134332,45919,2,0,50924.8896313085,68829.9962017787,43103.2750949785,70524.9442015177,73460.8877679253,60457.7447134233,60809.8656917824,68706.8591099305,41267.8632031155,13986.4754732481
2761163447,45920,2,0,50940.4521155450,68835.2039760189,43109.9064897470,70532.4760058511,73466.7039270067,60463.2810154778,60815.4628323210,68710.0348788013,41272.7911203288,13991.0261918599
2761163447,45920,2,0,50960.4071383346,68837.1994782978,43112.7902338941,70536.2358241694,73470.0135405426,60460.1174143038,60819.0157997933,68711.5680086010,41277.2201619723,13992.4619800850
2761163447,45920,2,0,50965.8217634208,68834.8511128110,43108.1300060109,70532.7680305748,73468.3709014715,60457.8907257852,60816.8256143652,68709.6576801998,41275.5410198108,13990.1379499918
2761163447,45920,2,0,50952.0479306173,68827.4288177490,43099.0042333937,70526.5625051951,73461.1067864682,60445.4188365417,60810.0603749316,68703.3669809423,41271.6716922211,13985.8184176196
2761163447,45920,2,0,50929.6958715535,68819.7266656601,43089.8541253828,70517.6557511207,73452.4068832397,60439.5053358857,60801.8228441825,68694.0343574791,41267.3643275458,13979.1991905480
2761163447,45920,2,0,50915.9342064468,68818.5707344619,43089.1118958766,70514.6868330959,73451.6889891272,60446.0637244733,60799.4744786956,68692.8662585841,41261.7793547040,13974.6484719362
2761163447,45920,2,0,50911.6268417715,68819.1182808190,43089.1118958766,70514.7111684896,73449.8029961196,60442.3160738518,60796.3352129153,68690.8099178210,41257.3989838478,13974.5267949679
2761163447,45920,2,0,50916.8954544958,68813.2777863439,43083.4782522476,70509.8684251540,73443.9868370383,60428.5422410483,60794.0111828221,68685.9793421823,41257.0704560336,13971.9594109383
2761199186,45921,2,0,50916.6764359530,68805.0159202012,43074.2673057526,70501.8012421604,73435.0314121766,60423.1884544462,60788.2071914376,68677.3402774380,41253.2132961407,13970.5479581068
2761199186,45921,2,0,50912.3082327935,68803.5436288856,43070.6048290089,70500.6696463559,73434.0458287339,60425.6098261139,60786.0170060095,68673.9454900244,41248.4557266829,13968.6376297056
2761199186,45921,2,0,50904.9589439125,68803.0325856190,43070.5561582217,70502.2757823365,73434.7150520592,60427.2281297914,60787.1242664204,68672.5948756771,41246.4967274944,13970.8156474370
2761199186,45921,2,0,50900.9801070514,68805.1497648662,43073.5615793369,70505.9382590802,73437.1972622111,60434.4192386137,60789.8741659023,68675.1500920099,41248.5895713480,13974.3321118188
2761199186,45921,2,0,50902.6105784257,68810.0168435954,43078.7815212740,70511.5962381029,73443.2689429257,60440.7099378712,60794.3762137268,68681.7084805975,41254.8072644245,13981.5962268221
2761199186,45921,2,0,50911.7485187397,68808.6053907639,43076.8711928728,70509.9657667286,73441.5776330673,60433.2511397187,60793.9746797317,68683.4241258495,41261.1588021661,13981.3042020983
2761199186,45921,2,0,50920.8012851760,68803.5192934919,43071.2983877279,70505.5367250851,73437.6718023872,60427.5809929992,60791.5046372766,68681.3677850864,41262.5702549975,13978.4691287386
2761199186,45921,2,0,50919.6940247651,68804.3466968759,43070.3493073757,70506.4858054373,73439.4117830328,60429.9780292734,60790.8597493450,68681.4772943578,41257.8856917207,13977.8120731101
2761224846,45922,2,0,50906.8814400105,68804.1033429394,43069.8382641091,70505.3055388454,73439.2049321869,60426.3155525297,60785.1165964446,68680.6498909739,41251.7531725219,13977.0576759071
2761224846,45922,2,0,50893.8133336227,68799.1997611198,43064.4479744165,70502.4461300921,73435.5302877463,60414.7684082447,60785.1287641414,68677.4984574967,41248.6869129225,13972.8111497159
2761224846,45922,2,0,50881.6334691029,68791.5827829086,43053.2050225521,70498.5037963214,73428.8380544937,60407.6746409969,60782.2815230848,68670.2586778871,41244.3187097631,13963.8557248542
2761224846,45922,2,0,50881.5726306188,68788.8085480330,43048.7394778181,70498.0535915390,73427.6821232955,60410.5948882344,60781.9773306643,68669.6502930459,41242.7125737825,13962.0670734213
2761224846,45922,2,0,50895.7114943271,68789.3925974805,43048.5082915785,70500.1342676957,73429.1665823079,60414.3790419464,60785.1287641414,68673.7508068753,41246.2290381643,13964.0260726097
2761224846,45922,2,0,50915.9707095373,68789.6724545074,43049.5425458084,70503.0180118427,73431.6244570662,60420.3533810864,60787.1120987235,68676.3668616922,41247.5674848148,13968.5402881311
2761224846,45922,2,0,50926.5687734700,68793.4809436130,43053.0590101903,70506.9725133102,73434.8732321179,60422.2272063972,60789.0345948216,68681.0149218786,41249.4413101256,13972.0932556034
2761224846,45922,2,0,50913.1478038743,68791.7652983610,43054.2027736916,70506.4249669531,73431.2229230710,60412.1036826405,60790.2270291102,68679.7494814090,41252.0938680330,13972.5312926890
2761260855,45923,2,0,50888.3500377492,68783.1018982230,43048.5934654562,70498.5889701992,73425.2485839309,60405.3992816910,60784.0580068210,68674.1401731736,41249.9766887858,13965.9972394951
2761260855,45923,2,0,50880.4775379047,68784.0144754848,43049.3478626593,70497.8224052993,73427.1832477258,60414.0383464353,60782.6587216863,68674.4808686847,41245.4989763549,13961.6412040325
2761260855,45923,2,0,50882.7650649074,68786.3263378811,43051.8665759016,70499.6232244291,73430.2616750220,60415.2916192081,60782.6343862927,68675.7219737606,41244.9757653916,13961.4465208833
2761260855,45923,2,0,50885.4054551180,68782.8950473771,43047.4618696517,70494.7683133968,73424.8835530263,60405.7156418084,60779.7628098425,68671.2199259361,41242.9802631126,13962.9674829862
2761260855,45923,2,0,50899.4956480390,68780.0356386237,43044.2982684777,70490.1932593913,73419.0795616417,60404.9247415149,60775.3337681989,68666.0243193927,41241.6539841589,13963.1865015290
2761260855,45923,2,0,50901.5398211052,68776.9450436306,43041.1833380911,70487.0418259142,73416.8772085168,60400.5443706587,60771.0385712204,68662.9823951870,41238.1618551707,13958.8669691568
2761260855,45923,2,0,50888.1431869032,68776.3731618800,43039.0174880566,70486.5794534349,73414.5531784236,60401.1527554998,60768.7875473082,68664.4425188057,41239.2326124911,13958.7452921886
2761260855,45923,2,0,50876.3040178945,68781.1307313377,43042.0107414750,70489.9985762422,73419.4445925464,60414.1600234035,60770.5883664380,68668.6403742096,41241.4836364034,13959.8647202963
2761289901,45924,2,0,50877.3626075181,68789.9523115344,43050.6741416130,70499.7570690942,73428.9962345524,60421.1442813799,60777.0494134510,68677.7174760395,41245.5719825359,13966.2040903411
2761289901,45924,2,0,50878.7862280463,68789.9644792312,43048.1919314611,70498.8931626197,73427.7672971733,60407.9666657207,60779.5437912997,68679.7373137122,41246.5940690690,13965.8998979205
2761289901,45924,2,0,50876.6690487992,68784.9148850497,43041.9499029909,70492.3834448195,73420.1381512653,60406.6768898574,60774.9200665070,68676.1235077558,41244.1118589171,13961.9332287562
2761289901,45924,2,0,50896.1008606254,68790.4633548009,43049.8224028354,70497.2870266391,73425.9664780435,60426.6440803439,60779.6533005711,68681.4529589642,41245.9978519247,13965.2550099889
2761289901,45924,2,0,50912.1500527349,68798.8834010024,43058.9360077557,70505.6340666597,73434.3135180640,60430.9027742319,60786.4428753983,68690.6030669750,41249.8671795144,13969.3433561214
2761289901,45924,2,0,50906.2365520789,68798.9320717897,43057.3177040783,70506.2789545913,73433.7659717070,60424.5269010967,60786.5280492760,68694.2655437187,41251.9113525806,13969.9639086593
2761289901,45924,2,0,50889.8223290648,68794.2475085129,43050.9053278526,70501.2658635002,73429.2517561857,60416.3380411348,60783.9241621559,68691.5278119336,41248.3097143210,13964.6222897541
2761289901,45924,2,0,50880.5140409952,68788.9788957885,43045.2230134363,70497.2748589423,73425.8569687721,60407.3096100922,60781.7583121214,68690.2988745545,41245.2556224185,13961.3370116119
2761319983,45925,2,0,50878.0439985401,68786.0343131574,43039.3825189613,70496.1675985314,73422.1336535443,60407.9423303270,60782.1720138134,68689.5688127451,41244.5985667900,13960.2905896851
2761319983,45925,2,0,50891.1242726248,68789.2587528155,43041.3901889371,70498.4429578373,73423.9344726741,60418.1388602646,60781.6366351532,68693.1096125206,41241.8486673081,13957.3216716603
2761319983,45925,2,0,50913.9630395615,68793.2740927670,43043.2761819446,70503.4560489283,73428.0593218970,60416.7395751300,60783.3887834957,68696.1393690295,41239.1352709165,13956.0440634939
2761319983,45925,2,0,50909.1811347101,68786.3871763652,43038.2265877631,70498.3091131722,73420.6005237446,60397.7823034799,60780.6875548010,68692.4403891953,41234.8522416349,13954.6082752688
2761319983,45925,2,0,50883.4951267168,68772.9053682854,43025.5721830672,70485.0584913321,73406.9727033029,60390.2139960560,60771.5252790934,68679.5061274725,41228.7927286170,13951.0431400997
2761319983,45925,2,0,50869.6239523387,68768.9021960307,43024.2094010231,70481.4690207693,73405.6220889555,60397.5267818466,60767.7046222909,68679.9198291645,41223.8526437069,13952.6979468676
2761319983,45925,2,0,50866.5090219520,68770.5935058891,43026.5942696004,70483.2698398991,73406.4373246427,60399.9359858175,60768.0209824083,68680.8810772135,41223.2442588658,13955.1436539290
2761319983,45925,2,0,50871.1449144415,68769.4619100845,43026.3874187544,70483.7687154688,73405.1353810826,60398.8408931035,60768.0818208925,68681.6841452038,41223.2564265626,13953.9512196404
2761347908,45926,2,0,50890.7592417201,68769.7174317178,43024.8421212579,70485.0098205448,73405.2570580508,60399.2424270986,60768.9092242764,68681.1731019373,41221.3217627678,13954.6569460561
2761347908,45926,2,0,50899.7024988850,68766.4443212724,43018.9286206019,70482.6249519675,73400.5359916835,60389.6786173958,60766.7920450292,68677.6809729491,41222.1613338485,13957.4190132349
2761347908,45926,2,0,50887.6199759398,68761.0783669735,43009.6203325324,70477.6240285732,73395.6080744703,60387.9629721437,60763.3972576156,68674.0549992958,41223.1834203817,13957.5163548095
2761347908,45926,2,0,50874.7708880948,68763.0860369493,43012.1390457747,70479.3518415221,73397.7495891111,60404.0486673437,60763.6649469457,68678.9342457218,41222.3073462104,13962.4442720228
2761347908,45926,2,0,50872.1183301874,68771.4817477571,43019.5978439272,70485.4600253272,73405.6220889555,60406.7498960384,60767.5099391418,68683.9838399034,41223.6822959514,13965.8512271332
2761347908,45926,2,0,50871.3030945002,68770.3988227399,43017.9552048561,70485.5695345986,73404.5391639383,60397.0400739737,60768.1548270734,68682.9860887639,41226.3226861620,13964.7196313287
2761347908,45926,2,0,50873.2377582951,68766.0427872773,43015.8745286994,70481.3351761042,73400.2561346566,60394.5335284281,60765.9159708580,68680.9419156976,41228.9874117662,13963.7827186733
2761347908,45926,2,0,50880.1611777873,68767.3203954437,43016.9574537166,70481.3716791947,73401.7405936690,60398.8652284971,60765.1737413518,68680.4065370374,41228.1843437759,13965.4131900476
2761402140,45927,2,0,50897.3541333982,68768.5736682165,43019.7073531986,70482.4546042119,73403.2128849846,60400.0089919985,60767.2665852053,68680.8932449103,41227.5394558443,13967.8467294122
2761402140,45927,2,0,50910.4587428765,68769.1455499671,43022.8222835853,70484.7056281242,73404.2593069114,60406.2145173782,60769.7366276604,68682.9495856734,41228.1235052918,13969.5258715737
2761402140,45927,2,0,50907.4776571548,68772.3213188379,43026.8497912336,70487.9665708727,73405.4030704127,60410.8382421709,60772.7907195629,68686.6363978108,41229.1455918249,13968.7836420675
2761402140,45927,2,0,50892.4627192753,68770.5935058891,43026.0345555465,70487.2851798507,73405.2813934445,60400.6538799301,60775.0174080815,68685.4561312189,41230.0946721771,13965.1820038079
2761402140,45927,2,0,50878.0318308433,68765.9819487932,43021.2039799078,70482.0165671263,73400.7063394391,60398.4636945019,60771.0507389173,68682.3168654386,41229.3889457614,13962.3712658418
2761402140,45927,2,0,50879.0052465892,68766.2618058201,43024.3675810818,70483.1238275372,73403.6144189797,60410.3393666011,60770.3328448047,68682.7305671306,41228.9509086757,13963.9287310352
2761402140,45927,2,0,50893.8985075004,68773.4894177329,43032.3130871071,70490.4731164183,73411.1948941005,60414.9265883034,60774.5185325118,68688.6562354834,41229.9729952089,13969.1851760627
2761402140,45927,2,0,50908.7552653213,68774.1829764518,43032.9458073419,70489.7795576994,73408.6883485549,60406.6768898574,60776.2950162479,68688.5953969993,41231.4209511308,13967.9805740772
2761433545,45928,2,0,50905.6525026314,68770.8611952192,43031.3518390581,70487.2000059729,73406.8996971219,60402.9292392360,60776.6113763653,68687.1352733805,41231.0680879229,13966.8124751822
2761433545,45928,2,0,50896.4780592269,68770.8125244319,43032.4225963786,70487.5407014839,73407.5932558409,60408.1491811730,60778.8867356712,68688.0721860359,41232.2848576052,13969.3798592118
2761433545,45928,2,0,50888.3257023555,68773.8909517281,43034.1017385401,70489.8768992739,73409.4792488484,60412.8459121467,60780.2981885027,68689.2524526277,41234.0005028573,13971.9959140288
2761433545,45928,2,0,50888.2648638714,68778.4051672494,43038.8106372106,70494.6831395190,73414.8573708442,60418.9540959518,60781.8434859992,68692.3430476207,41235.8378250775,13974.3686149093
2761433545,45928,2,0,50898.3275491440,68784.6106926291,43043.0693310986,70499.6840629132,73420.4301759891,60420.5723996292,60783.8024851877,68698.7432561496,41235.8743281680,13976.7656511834
2761433545,45928,2,0,50910.9697861430,68783.2357428881,43039.0174880566,70494.7804810936,73415.0520539933,60406.1901819845,60781.4176166104,68694.1803698410,41235.8499927743,13973.6628884935
2761433545,45928,2,0,50909.5339979179,68774.9860444422,43032.3374225008,70486.6281242222,73407.5932558409,60399.1085824336,60774.4820294213,68686.2226961188,41233.9031612827,13969.8300639943
2761433545,45928,2,0,50900.2500452420,68773.3920761583,43029.6970322902,70483.2941752927,73403.7604313416,60408.2830258381,60771.0750743109,68684.6287278350,41228.3303561378,13970.7548089528
2761454150,45929,2,0,50894.9205940336,68778.3686641589,43034.4789371416,70487.0418259142,73409.1263856405,60411.3127823470,60773.3991044041,68689.1916141436,41227.5637912379,13974.3321118188
2761454150,45929,2,0,50888.6298947761,68776.4948388482,43033.3838444276,70485.6060376891,73408.2503114693,60404.3041889770,60772.1701670250,68686.5877270235,41226.2253445874,13973.8332362490
2761454150,45929,2,0,50883.5681328978,68772.9540390727,43031.2423297867,70483.6470385006,73403.5535804956,60403.8904872850,60769.4080998462,68685.1762741920,41224.6922147877,13974.5998011489
2761454150,45929,2,0,50891.8543344342,68772.3578219284,43028.2490763683,70483.0386536595,73402.6045001435,60403.2821024438,60768.8848888828,68683.8743306320,41224.7165501814,13975.0256705377
2761454150,45929,2,0,50895.7966682048,68772.7106851363,43029.2954982951,70483.6227031070,73402.6531709307,60404.9490769086,60767.5707776259,68684.6773986223,41228.9509086757,13975.4272045328
2761454150,45929,2,0,50893.6308181703,68776.3853295768,43034.0043969655,70483.6348708038,73405.9262813761,60413.3326200196,60770.4910248634,68686.4417146616,41231.4574542213,13974.6971427235
2761454150,45929,2,0,50892.9007563610,68781.2037375187,43040.3072639198,70487.2243413665,73412.6793531128,60420.4385549642,60773.7519676119,68692.1118613811,41233.3191118352,13980.7444880445
2761454150,45929,2,0,50890.3942108154,68782.1406501740,43040.5627855531,70489.2806821296,73411.3895772496,60411.8968317945,60778.5338724634,68694.2290406283,41238.3930414103,13981.0365127682
2761471495,45930,2,0,50892.2315330357,68777.2735714449,43035.3306759192,70484.6447896401,73405.9262813761,60404.5718783071,60775.3946066830,68690.4205515227,41238.2835321389,13977.6052222642
2761471495,45930,2,0,50905.8471857806,68777.3344099290,43035.1359927701,70485.4113545399,73408.7613547359,60413.2596138386,60774.6888802673,68688.2668691850,41236.6895638551,13976.0355893740
2761471495,45930,2,0,50912.1013819476,68784.2213263308,43042.0472445655,70490.2054270882,73413.4702534063,60417.0315998538,60778.3513570110,68692.7810847064,41236.8112408234,13975.9625831931
2761471495,45930,2,0,50904.3870621618,68786.4115117589,43041.6213751767,70490.6312964770,73413.2147317731,60414.0748495258,60780.1278407472,68691.8441720510,41236.1176821045,13971.5092061559
2761471495,45930,2,0,50896.2590406841,68788.0176477395,43041.6092074799,70493.4663698367,73414.9912155092,60419.3677976438,60782.5248770213,68692.8540908873,41236.2515267695,13969.9030701752
2761471495,45930,2,0,50896.4172207428,68790.7553795247,43043.3613558224,70497.1896850645,73418.8362077053,60420.8765920498,60784.5690500875,68695.5674872788,41239.7679911513,13970.3411072609
2761471495,45930,2,0,50901.2599640783,68790.0009823217,43044.0305791476,70496.6664741011,73418.9213815830,60420.7670827784,60786.2481922491,68697.1006170785,41246.0708581056,13971.7403923955
2761471495,45930,2,0,50914.6565982804,68792.3736832021,43046.9629940820,70496.9584988249,73420.4666790795,60428.3597255959,60788.5722223423,68699.5341564431,41248.3462174115,13973.7602300681
2761502471,45931,2,0,50922.5047627312,68797.0339110853,43055.9792574278,70502.7259871190,73428.2783404399,60434.4070709169,60792.3563760542,68705.8248557005,41250.2930489032,13976.5222972469
2761502471,45931,2,0,50917.7715286671,68800.2461830466,43058.7656600002,70505.7922467184,73429.8966441173,60428.7369241974,60795.2522878981,68708.4044074270,41254.1623764929,13977.9580854720
2761502471,45931,2,0,50906.3947321376,68799.4674504499,43055.3100341025,70505.8895882929,73429.2274207920,60425.5246522362,60796.4568898836,68704.9487815293,41254.9046059991,13976.4492910660
2761502471,45931,2,0,50904.8494346411,68802.5580454429,43057.5123872275,70508.5908169876,73432.8655621421,60433.8595245599,60797.3451317516,68705.4476570990,41253.6391655295,13976.4249556723
2761502471,45931,2,0,50918.9761306525,68808.1430182847,43062.2942920789,70515.6724165386,73438.2436841379,60435.0519588485,60803.8670172487,68710.2295619504,41254.9654444832,13980.9148358000
2761502471,45931,2,0,50931.0708212945,68807.4251241721,43061.3817148172,70514.2001252230,73437.5379577221,60428.4692348673,60803.1247877425,68709.4751647474,41254.9046059991,13982.5331394774
2761502471,45931,2,0,50924.5367681006,68802.4120330811,43057.4515487433,70507.3375442149,73432.6708789929,60421.8500077956,60798.1481997419,68703.5373286978,41249.8793472112,13980.0387616287
2761502471,45931,2,0,50907.4533217612,68795.1114149873,43049.6155519894,70499.8544106688,73425.1877454468,60412.2496950023,60792.3807114479,68697.7455050101,41244.0996912203,13975.6218876820
2761553658,45932,2,0,50889.9805091235,68783.9049662134,43039.6502082914,70490.3392717532,73415.4657556853,60403.7809780136,60784.4717085130,68688.8509186325,41239.6098110926,13971.3023553099
2761553658,45932,2,0,50888.2648638714,68777.7116085305,43034.2234155083,70486.6159565254,73412.5090053573,60409.6823109727,60779.7263067520,68687.6341489503,41235.3146141141,13972.0324171192
2761553658,45932,2,0,50900.0918651833,68780.9847189759,43035.7565453080,70490.6799672643,73416.9137116072,60409.9378326060,60781.8069829087,68691.2966256940,41234.3290306715,13975.1595152027
2761553658,45932,2,0,50893.6064827767,68774.7670258993,43029.7578707743,70486.6037888286,73410.0511305991,60395.4217702962,60778.1566738618,68685.7116528522,41232.1388452433,13972.8111497159
2761553658,45932,2,0,50877.9101538751,68767.1743830818,43022.4329172869,70478.9016367397,73402.8235186863,60388.9972263737,60772.5595333233,68680.1753507978,41228.9387409789,13968.9053190357
2761553658,45932,2,0,50866.4725188615,68764.3271420253,43023.3576622455,70476.6019420401,73399.5990790282,60393.1950817776,60767.7776284719,68675.2230981909,41224.9234010273,13963.7097124924
2761553658,45932,2,0,50868.8087166515,68764.9233591696,43024.9516305293,70476.4437619814,73400.2926377471,60394.9715655138,60767.0353989657,68674.5052040783,41224.3271838830,13963.9287310352
2761553658,45932,2,0,50884.3833685849,68767.4420724119,43029.3198336887,70476.7966251893,73401.5824136103,60399.9481535143,60768.1548270734,68675.8071476383,41226.3956923429,13967.7372201407
2761600679,45933,2,0,50891.7813282532,68774.0856348773,43034.8926388336,70482.0895733073,73407.1308833616,60405.7643125957,60771.7199622425,68680.4795432184,41227.9896606267,13969.7205547229
2761600679,45933,2,0,50886.8169079495,68778.9527136064,43037.8493891616,70484.6934604274,73411.1097202227,60404.4988721261,60774.6280417832,68684.6773986223,41232.5647146321,13972.6773050509
2761600679,45933,2,0,50875.6834653565,68776.7746958751,43035.0021481050,70481.5420269502,73409.1385533374,60398.7070484384,60773.6546260374,68681.0635926659,41232.8810747495,13973.1518452270
2761600679,45933,2,0,50873.3107644760,68778.3929995526,43036.0120669413,70482.4789396056,73409.0290440660,60407.0540884589,60772.3405147805,68680.7594002453,41230.0338336930,13976.0842601613
2761600679,45933,2,0,50887.1332680669,68785.7301207368,43042.9111510399,70488.9886574059,73415.9524635582,60412.8702475403,60774.3846878467,68685.4196281285,41231.0802556198,13980.1847739906
2761600679,45933,2,0,50903.1216216922,68787.4214305952,43043.0328280082,70489.7065515184,73415.3562464139,60405.1802631482,60776.5140347908,68684.5800570477,41231.2749387689,13981.5353883380
2761600679,45933,2,0,50904.8129315506,68783.2479105849,43039.1513327216,70488.3802725647,73410.1849752641,60400.4835321746,60775.9664884337,68681.3921204801,41230.1190075707,13978.9923397020
2761600679,45933,2,0,50896.7700839507,68783.4669291277,43039.1269973280,70486.7011304032,73409.6495966039,60404.3650274611,60772.4986948392,68679.8589906804,41229.9608275120,13975.6827261661
2761613161,45934,2,0,50888.6663978666,68786.5940272112,43043.3978589128,70488.0517447505,73411.2679002814,60408.3681997158,60771.7808007266,68681.7449836879,41232.9662486273,13975.2081859900
2761613161,45934,2,0,50887.0115910987,68790.3903486200,43049.0558379355,70491.9454077338,73417.1935686342,60418.1145248710,60775.6744637100,68686.8310809599,41237.0424270630,13978.2136071053
2761613161,45934,2,0,50898.4857292027,68799.3579411785,43055.7115680977,70501.4240435589,73427.4752724495,60423.4561437763,60783.6929759163,68695.1172824964,41241.6174810684,13980.7444880445
2761613161,45934,2,0,50912.4420774586,68799.0172456675,43051.1851848795,70503.1640242046,73427.7916325669,60406.9202437939,60788.4383776772,68698.1348713084,41242.8585861444,13979.7224015113
2761613161,45934,2,0,50905.7620119028,68786.1924932161,43036.8881411126,70493.0283327511,73414.8817062378,60390.7615424130,60781.6731382437,68685.7968267300,41237.3344517867,13975.4272045328
2761613161,45934,2,0,50890.9295894756,68779.4637568730,43032.1549070484,70485.4843607209,73407.4350757822,60400.9580723507,60775.2242589275,68679.5791336535,41230.5813800500,13975.4028691392
2761613161,45934,2,0,50885.2959458466,68783.4425937341,43037.6547060124,70490.5947933865,73411.1583910100,60411.4831301025,60775.3824389862,68680.4308724311,41230.3136907199,13978.0919301371
2761613161,45934,2,0,50886.4153739543,68784.6106926291,43041.1711703942,70492.4321156068,73412.5820115383,60408.9644168601,60776.2220100670,68682.4142070132,41233.2947764415,13979.5277183622
2761639732,45935,2,0,50896.5145623174,68781.7877869662,43040.0639099834,70489.0251604963,73407.9096159583,60406.3118589527,60774.3968555436,68679.8346552867,41234.2560244905,13982.5209717806
2761639732,45935,2,0,50901.6736657703,68778.7580304573,43038.4821093964,70485.9710685938,73404.3931515764,60405.4966232656,60774.1413339103,68679.9928353454,41234.4507076397,13984.8936726611
2761639732,45935,2,0,50889.6641490061,68773.8057778503,43034.0043969655,70482.6006165738,73402.6045001435,60403.0874192947,60770.2476709269,68677.0482527143,41234.4628753365,13981.3772082793
2761639732,45935,2,0,50880.9520780808,68774.7548582025,43034.8318003495,70483.0508213563,73403.2250526814,60407.9179949334,60771.5496144870,68678.5205440299,41233.3677826225,13982.0464316045
2761639732,45935,2,0,50877.7398061196,68775.5944292833,43036.7542964475,70484.1094109799,73405.3909027159,60407.6989763906,60769.2864228779,68679.3601151106,41230.0703367834,13982.5453071743
2761639732,45935,2,0,50876.0363285644,68772.0657972046,43035.8417191858,70482.8439705103,73401.3390596739,60397.2225894260,60766.6582003642,68675.5151229146,41231.2749387689,13981.9977608172
2761639732,45935,2,0,50878.1170047211,68762.1004535066,43026.4969280258,70473.7060301963,73393.3813859517,60385.2739111459,60760.5500165591,68666.4988595688,41228.7197224361,13976.6196388215
2761639732,45935,2,0,50876.6082103150,68756.1747851539,43020.2670672524,70467.2571508801,73388.3804625574,60388.4131769262,60755.8411178886,68660.7070358811,41222.3073462104,13975.0256705377
2761672139,45936,2,0,50873.0917459332,68756.4059713935,43023.0291344312,70468.4374174719,73388.6603195844,60393.4141003204,60755.6707701331,68661.7777932015,41220.2510054473,13976.7656511834
2761672139,45936,2,0,50867.1904129741,68757.6592441663,43025.1219782848,70470.2747396922,73391.6900760933,60396.5898691912,60759.7104454783,68664.8562204977,41222.4411908755,13978.9923397020
2761672139,45936,2,0,50864.2823334334,68760.1901251055,43025.7668662164,70472.6961113600,73395.0240250228,60399.7656380620,60763.3850899188,68668.4335233636,41225.9333198636,13981.1581897365
2761672139,45936,2,0,50870.3418464512,68759.1072000882,43024.4892580500,70472.4770928171,73394.5494848467,60392.4041814841,60763.4824314934,68668.9689020239,41225.7751398049,13977.7634023229
2761672139,45936,2,0,50878.5185387162,68754.9701831684,43019.4761669589,70469.8853733939,73388.0275993496,60387.2329103344,60759.7347808719,68666.0486547863,41225.1910903574,13975.9260801026
2761672139,45936,2,0,50876.3648563786,68755.5177295254,43020.4617504016,70470.5789321128,73389.8284184794,60398.0013220227,60759.2967437863,68664.6980404390,41224.2055069148,13977.6417253546
2761672139,45936,2,0,50872.5685349698,68762.0152796289,43028.0057224318,70476.9669729448,73399.9519422360,60403.6958041358,60763.2025744665,68669.8328084983,41224.0229914624,13981.0730158587
2761672139,45936,2,0,50866.2656680155,68763.3780616731,43028.4559272143,70477.4536808177,73400.0006130233,60394.9228947265,60765.5874430438,68671.8161430804,41226.6512139762,13981.1946928269
2761692795,45937,2,0,50864.9880598491,68761.0296961862,43023.5280100010,70474.8376260008,73395.6689129544,60386.1986561044,60763.3242514347,68669.5894545618,41226.0306614382,13978.4082902545
2761692795,45937,2,0,50876.7420549801,68760.1171189245,43021.0336321523,70473.3288315947,73394.3426340007,60391.1752441050,60762.0588109651,68665.7201269721,41221.6502905820,13978.2622778926
2761692795,45937,2,0,50885.0404242133,68764.6800052331,43025.5721830672,70478.3175872922,73399.8667683583,60394.3875160663,60765.6604492247,68668.1536663367,41220.1049930855,13979.9292523573
2761692795,45937,2,0,50880.9520780808,68767.0405384168,43026.8254558400,70480.6051142949,73402.9938664418,60391.1387410145,60767.7167899878,68668.9689020239,41219.0585711587,13981.3163697952
2761692795,45937,2,0,50873.9678201045,68767.2960600501,43027.5920207398,70480.8728036250,73403.4684066179,60392.4771876651,60768.8727211859,68668.2753433050,41216.6737025814,13981.9977608172
2761692795,45937,2,0,50876.3405209849,68766.7850167835,43025.3653322212,70479.5221892776,73400.5603270772,60382.5970178448,60765.4170952882,68665.9513132118,41216.2843362831,13981.2798667047
2761692795,45937,2,0,50881.4387859537,68756.1382820634,43015.7041809438,70470.2869073890,73390.5463125919,60373.4469098340,60759.0655575467,68659.1252352941,41213.5952752852,13977.8242408070
2761692795,45937,2,0,50878.7862280463,68751.5632280580,43008.9146061166,70464.1543881902,73386.1172709484,60379.7497767883,60753.4684170081,68652.6033497970,41208.1198117149,13975.8165708312
2761727998,45938,2,0,50876.2553471072,68758.3162997947,43014.0493741759,70470.5302613255,73392.6269887486,60387.9873075374,60756.2548195806,68657.8232917340,41208.6186872846,13979.4060413939
2761727998,45938,2,0,50866.0831525632,68759.2410447533,43012.9299460682,70470.0313857557,73391.7387468806,60376.3793247683,60754.0281310620,68656.9837206533,41209.2149044289,13977.4227068118
2761727998,45938,2,0,50853.2705678086,68751.8795881754,43003.8650119351,70463.1079662635,73384.8274950851,60368.3121417747,60749.4530770565,68647.8822834297,41206.6110173088,13971.6187154273
2761727998,45938,2,0,50848.4886629572,68747.6452296810,42998.7667469663,70457.5959996027,73379.8144039941,60370.4779918092,60745.6324202541,68643.0273723973,41201.7439385796,13967.7493878376
2761727998,45938,2,0,50861.2282415308,68751.5145572707,43003.2566270940,70461.0516255004,73386.0077616770,60376.7565233698,60749.3922385724,68648.0282957916,41205.8322847121,13971.0711690702
2761727998,45938,2,0,50878.7253895622,68758.5718214280,43011.9565303224,70466.6000952517,73392.1037777852,60386.1134822267,60752.8721998638,68653.9904672348,41212.7678719012,13975.5002107138
2761727998,45938,2,0,50883.7263129565,68763.7430925777,43020.2062287683,70470.7006090810,73397.6887506270,60391.3334241637,60755.6464347394,68657.2027391961,41218.6083663762,13981.0000096778
2761727998,45938,2,0,50876.4013594690,68764.8625206855,43020.5225888857,70472.5866020885,73397.7860922016,60381.4897574339,60757.1308937518,68656.9472175628,41220.3726824156,13981.5232206411
2761754152,45939,2,0,50865.9493078981,68759.6790818389,43013.2098030951,70466.7582753104,73390.3029586554,60373.4225744403,60753.4684170081,68651.6177663543,41218.3041739557,13977.6538930514
2761754152,45939,2,0,50872.6293734539,68757.9391011932,43012.6379213444,70465.7483564741,73391.7630822742,60384.7141970920,60751.2052253990,68651.9706295622,41214.3740078819,13974.9161612663
2761754152,45939,2,0,50884.3590331913,68764.2298004507,43022.3355757123,70472.9272975996,73400.1101222947,60395.1784163598,60754.0281310620,68658.9427198418,41213.8994677058,13975.3298629583
2761754152,45939,2,0,50884.7362317928,68766.5659982407,43027.3486668034,70476.3099173164,73403.6387543734,60390.2626668433,60758.1651479818,68663.2744199107,41219.2167512174,13975.8409062248
2761754152,45939,2,0,50872.4225226080,68761.6989195115,43021.7271908712,70471.1021430761,73396.6788317907,60383.4730920161,60755.5612608617,68661.3519238127,41217.5497767526,13973.3465283761
2761754152,45939,2,0,50865.9128048077,68759.9954419563,43018.1377203084,70468.4130820783,73394.9266834482,60382.5361793607,60754.0402987588,68659.7457878321,41216.1018208307,13972.3244418430
2761754152,45939,2,0,50874.5518695520,68763.4023970667,43017.4563292863,70469.5811809733,73394.8415095704,60380.2486523580,60757.4715892629,68658.9670552354,41215.7124545324,13973.2248514079
2761754152,45939,2,0,50886.9264172209,68763.9499434237,43017.5050000736,70471.8078694919,73395.3768882306,60384.7507001825,60758.3598311309,68657.5190993135,41213.6926168598,13971.7768954860
2761789936,45940,2,0,50893.0832718133,68769.5470839623,43022.7857804948,70477.3320038495,73401.1687119183,60391.6376165843,60761.6451092731,68661.0112283016,41215.4325975054,13972.8354851096
2761789936,45940,2,0,50885.2716104530,68768.9508668180,43024.3189102945,70478.8407982555,73401.0226995565,60382.3536639084,60763.3364191315,68662.8363828251,41219.4114343665,13971.3631937940
2761789936,45940,2,0,50868.3341764754,68758.5596537312,43015.1566345868,70469.1066407972,73391.3980513695,60372.2788109390,60755.5734285585,68654.9638829806,41215.1162373881,13966.7638043949
2761789936,45940,2,0,50874.3815217964,68757.0021885378,43014.0980449632,70469.7880318193,73394.2817955166,60386.4420100409,60755.7316086172,68657.2149068929,41215.2500820531,13971.2293491289
2761789936,45940,2,0,50892.5722285467,68764.1567942697,43021.1066383332,70476.7357867052,73401.5459105199,60395.7381304136,60761.8032893318,68665.0144005564,41219.3262604888,13978.7003149782
2761789936,45940,2,0,50893.0832718133,68766.8336875708,43022.2138987441,70479.4370153999,73402.9695310481,60389.7029527894,60765.8673000707,68666.6327042339,41224.1690038243,13981.5110529443
2761789936,45940,2,0,50878.4090294448,68761.5407394528,43018.3810742449,70473.8520425581,73397.7617568079,60385.4685942950,60763.9326362758,68662.5200227077,41223.7553021323,13978.2987809831
2761789936,45940,2,0,50866.0709848664,68758.3041320979,43017.3468200149,70471.5766832522,73395.1943727783,60381.5019251308,60762.3751710825,68659.1495706877,41222.1735015454,13973.6507207967
2761821106,45941,2,0,50868.5775304119,68756.3086298189,43012.8204367968,70468.6199329243,73392.1159454821,60377.7177714188,60758.9438805784,68654.6110197728,41220.2023346600,13972.4339511144
2761821106,45941,2,0,50876.9002350388,68755.3352140731,43011.2873069971,70468.3035728069,73393.0041873501,60381.7331113704,60758.4206696150,68653.6254363301,41218.8638880095,13974.8796581758
2761821106,45941,2,0,50882.6920587265,68760.6281621911,43015.8380256089,70473.3409992916,73400.5846624708,60389.2527480070,60762.4846803539,68658.9913906290,41217.5619444495,13979.0896812766
2761821106,45941,2,0,50880.3071901492,68762.2221304749,43014.6820944107,70475.6650293847,73401.5945813071,60376.5375048270,60761.0975629161,68659.3929246242,41217.1239073638,13976.7778188802
2761821106,45941,2,0,50870.7555481432,68753.2302025227,43005.3373032507,70467.2328154865,73390.4246356237,60364.0047770994,60755.5125900744,68650.4253320657,41212.5123502679,13970.3897780481
2761821106,45941,2,0,50863.8321286510,68749.8962535932,43002.4657268005,70460.8569423512,73387.8329162004,60370.9768673789,60748.3093135552,68645.3027317032,41208.2536563799,13967.4208600234
2761821106,45941,2,0,50863.9659733160,68755.0188539557,43010.9831145765,70464.6289283663,73393.0650258343,60380.7718633214,60749.2340585137,68648.8313637819,41211.3564190698,13973.1396775301
2761821106,45941,2,0,50866.3630095901,68757.0386916283,43013.6721755744,70465.1399716329,73394.9388511450,60379.2509012185,60748.5161644012,68651.0702199973,41213.8507969185,13975.9017447089
2761851255,45942,2,0,50870.9015605051,68756.0652758825,43012.6257536476,70464.3977421267,73393.9167646119,60376.9998773063,60749.6599279025,68648.5758421486,41214.3740078819,13975.7557323471
2761851255,45942,2,0,50868.9790644071,68754.3252952368,43011.8226856573,70465.1156362393,73389.3660460001,60372.3761525136,60750.5968405579,68644.4996637129,41211.1982390111,13974.7944842981
2761851255,45942,2,0,50861.8244586752,68749.7745766250,43008.3427243659,70462.3048982732,73386.3362894912,60369.2368867332,60750.1101326850,68641.8227704119,41211.9648039109,13974.2834410315
2761851255,45942,2,0,50868.6018658055,68750.3707937693,43008.4887367278,70463.8015249824,73388.9523443081,60380.8327018055,60751.6189270910,68644.7673530430,41213.6439460725,13977.1428497849
2761851255,45942,2,0,50881.6091337093,68759.9467711690,43015.7893548216,70472.0512234283,73400.5846624708,60390.6520331416,60758.1408125881,68654.6596905601,41217.3794289971,13979.9049169637
2761851255,45942,2,0,50879.9664946382,68765.7020917662,43019.0624652670,70474.7037813357,73403.2980588624,60382.4388377861,60761.9006309064,68657.5921054944,41214.7268710897,13977.6052222642
2761851255,45942,2,0,50867.7257916343,68761.1635408513,43014.9862868313,70468.3035728069,73397.9929430476,60373.3860713499,60759.1872345149,68653.8201194793,41205.4429184138,13971.6065477304
2761851255,45942,2,0,50866.7767112821,68760.0319450468,43012.3580643175,70467.2814862737,73397.0560303922,60378.3018208663,60757.4107507787,68653.2847408191,41196.4388227648,13972.5677957795
2761881164,45943,2,0,50878.3603586575,68762.6479998637,43013.1611323078,70468.6807714084,73399.2583835171,60382.2684900306,60757.5932662311,68653.1387284572,41192.9710291703,13973.3951991634
2761881164,45943,2,0,50878.1170047211,68762.4411490177,43013.0637907332,70466.8799522786,73398.1632908031,60379.8471183628,60756.9483782995,68651.1797292687,41191.1093715564,13973.6263854031
2761881164,45943,2,0,50870.1106602116,68761.5772425433,43012.4067351048,70467.4274986356,73397.0316949985,60379.6524352137,60754.1254726365,68648.5515067550,41187.9944411697,13972.0567525129
2761881164,45943,2,0,50861.8731294625,68761.3217209100,43012.7474306159,70466.6000952517,73396.0947823432,60372.3031463326,60753.1885599812,68649.1355562025,41188.5419875267,13972.9328266841
2761881164,45943,2,0,50854.2196481608,68755.2622078922,43007.6126625566,70459.3724833388,73391.4345544600,60366.8520181559,60749.1488846360,68643.9034465686,41185.7434172575,13969.9152378721
2761881164,45943,2,0,50861.6176078292,68753.3397117941,43006.1525389378,70455.8681866538,73389.1105243668,60377.0850511840,60746.1312958239,68640.9345285438,41182.3364621470,13969.6110454515
2761881164,45943,2,0,50869.7699647005,68758.1094489487,43012.2120519556,70460.3337313878,73396.5084840351,60382.6943594194,60747.7982702886,68645.9841227253,41181.3630464012,13972.2514356621
2761881164,45943,2,0,50866.5820281329,68761.8936026607,43017.3224846213,70464.2273943712,73396.9465211208,60375.1017166019,60752.0082933894,68650.0846365546,41182.5068099026,13975.4150368360
2761915997,45944,2,0,50856.7140260095,68757.5253995012,43013.4653247284,70464.1908912807,73394.5251494530,60365.4770684149,60750.8523621912,68646.2639797522,41180.5721461077,13974.1982671537
2761915997,45944,2,0,50857.6387709681,68754.7998354129,43010.9831145765,70463.2661463222,73393.5639014040,60370.1007932077,60750.2804804405,68645.4000732778,41179.5135564841,13973.3708637698
2761915997,45944,2,0,50867.9083070866,68755.6515741905,43011.4576547526,70463.1809724444,73392.2619578439,60370.2589732664,60750.8401944943,68644.0251235368,41178.3089544987,13971.7403923955
2761915997,45944,2,0,50870.0254863338,68757.3307163521,43011.1291269384,70463.6798480142,73392.9920196533,60370.4779918092,60751.0592130372,68643.3315648179,41178.0290974717,13971.8377339701
2761915997,45944,2,0,50865.6086123871,68758.9125169390,43014.2440573251,70465.1156362393,73394.4764786657,60376.2333124064,60750.3899897119,68643.2585586370,41174.9628378723,13974.3199441220
2761915997,45944,2,0,50861.8001232815,68760.9688577021,43016.6045905087,70466.2593997406,73395.7540868321,60372.2666432422,60752.0447964798,68646.0327935126,41177.2138617846,13973.7358946745
2761915997,45944,2,0,50864.0024764065,68757.0630270220,43012.2850581366,70462.0858797304,73391.8239207583,60365.5014038086,60751.3512377609,68641.0197024216,41178.9416747334,13965.5348670158
2761915997,45944,2,0,50875.9146515961,68754.8971769875,43010.7519283369,70462.7916061461,73392.2011193598,60372.3639848167,60749.5990894184,68640.7398453946,41176.3864584006,13961.6412040325
2761945058,45945,2,0,50885.3446166339,68761.6380810274,43016.8114413547,70468.2062312323,73398.2971354681,60385.4685942950,60753.5049200986,68645.7286010920,41177.4937188115,13964.7683021160
2761945058,45945,2,0,50879.7839791858,68764.1932973602,43020.7294397317,70471.7957017951,73400.5603270772,60377.9124545680,60757.4229184756,68648.6610160264,41181.5698972472,13966.7273013044
2761945058,45945,2,0,50861.4594277705,68758.6934983962,43016.5559197214,70464.4585806108,73394.4764786657,60371.8042707629,60755.9262917663,68644.2319743828,41182.5676483867,13965.3523515635
2761945058,45945,2,0,50853.7329402879,68758.2189582201,43017.8213601910,70465.3468224789,73395.6810806512,60377.3040697269,60756.1939810964,68644.6091729843,41183.8817596436,13968.9174867326
2761945058,45945,2,0,50858.0889757505,68761.3217209100,43020.2914026461,70466.9407907627,73398.9785264902,60376.9512065190,60759.1994022117,68647.7849418551,41187.6415779618,13972.8841558969
2761945058,45945,2,0,50870.7920512337,68762.8548507097,43019.7073531986,70469.3986655209,73401.0348672533,60378.8493672234,60760.8177058892,68648.8800345692,41189.6614156345,13975.3176952614
2761945058,45945,2,0,50874.9412358503,68764.2298004507,43018.9529559956,70470.3112427827,73400.5359916835,60381.8912914291,60760.6108550432,68648.5515067550,41187.0088577271,13973.3586960729
2761945058,45945,2,0,50868.9182259229,68763.2928877953,43018.5149189099,70471.3089939221,73399.9884453265,60374.8583626654,60759.5400977227,68648.5271713613,41185.8772619225,13971.6187154273
2761975078,45946,2,0,50856.8113675841,68758.0242750710,43013.3071446697,70465.6631825963,73393.6125721913,60367.0832043956,60759.2480729990,68644.0737943241,41187.1792054826,13970.5966288941
2761975078,45946,2,0,50857.8821249045,68755.0675247430,43011.7010086891,70464.1543881902,73392.8581749883,60375.2720643574,60755.9871302505,68641.3117271453,41183.9669335213,13971.2536845226
2761975078,45946,2,0,50874.2111740409,68760.1657897118,43017.3468200149,70468.1575604450,73398.1997938935,60378.8250318297,60756.8267013312,68644.4996637129,41181.2413694330,13972.8476528064
2761975078,45946,2,0,50876.3283532881,68760.8836838244,43017.2616461372,70468.0480511736,73400.7063394391,60372.6560095405,60759.1750668181,68644.8646946176,41181.3630464012,13970.0612502339
2761975078,45946,2,0,50862.2503280640,68755.5907357064,43011.4819901463,70463.0592954762,73391.9699331202,60364.6009942437,60753.6022616732,68637.7830950667,41177.2747002687,13965.4861962285
2761975078,45946,2,0,50850.2286436029,68751.9282589627,43010.9101083956,70460.3337313878,73387.6625684449,60363.8709324343,60751.5337532133,68636.0066113305,41175.2670302929,13966.5204504585
2761975078,45946,2,0,50842.3926468489,68748.0224282825,43009.2553016277,70457.5473288154,73384.4137933931,60360.5613188985,60748.4553259170,68632.5631531296,41171.9452490602,13964.8899790842
2761975078,45946,2,0,50845.6049188102,68745.7592366734,43008.4157305469,70457.7785150550,73384.4624641804,60371.0498735599,60747.4819101712,68632.0034390758,41170.3269453828,13964.7683021160
2762059939,45947,2,0,50865.0975691205,68752.1959482928,43015.9475348803,70459.7253465467,73392.0672746948,60379.9322922406,60748.9055306995,68639.0972063235,41172.0790937253,13969.2703499404
2762059939,45947,2,0,50874.0286585886,68754.4591399018,43017.6875155260,70460.3093959942,73392.5904856582,60370.1007932077,60749.7572694771,68642.1634659229,41176.1187690705,13968.9053190357
2762059939,45947,2,0,50857.1885661856,68748.6429808205,43008.4400659405,70454.2863860668,73386.6648173054,60359.4905615781,60746.9708669047,68635.0940340688,41175.2670302929,13965.8147240427
2762059939,45947,2,0,50845.1303786341,68749.4947195981,43006.4567313584,70456.4887391918,73387.6260653544,60368.1174586255,60747.4210716871,68635.4103941862,41174.5856392708,13969.7935609038
2762059939,45947,2,0,50846.2376390450,68757.5984056822,43013.6600078776,70465.5050025376,73395.6810806512,60379.1413919471,60752.6166782305,68643.1125462751,41178.6739854033,13975.6218876820
2762059939,45947,2,0,50849.0605447079,68761.5164040591,43016.3977396627,70467.4031632420,73398.4066447395,60371.8651092470,60753.7604417319,68643.9521173559,41180.7546615601,13975.9747508899
2762059939,45947,2,0,50854.7550268210,68759.7642557166,43013.0881261269,70463.9962081315,73396.6909994875,60367.3022229384,60752.0934672671,68640.2896406122,41179.4283826064,13972.7381435350
2762059939,45947,2,0,50869.3562630086,68756.8805115696,43010.5937482782,70461.0151224099,73394.9023480545,60365.9516085910,60749.7207663866,68637.3693933747,41177.2625325719,13970.0490825371
2762064270,45948,2,0,50875.9511546866,68756.1382820634,43011.4819901463,70458.7762661945,73392.2862932376,60365.0633667230,60748.7473506408,68633.9259351738,41176.5811415498,13970.8278151338
2762064270,45948,2,0,50869.1494121626,68758.0486104646,43014.9254483472,70460.7474330798,73394.3061309102,60373.0818789293,60751.5702563037,68635.1062017656,41176.3256199165,13975.1716828996
2762064270,45948,2,0,50863.5644393208,68765.2153838933,43021.1674768173,70469.8732056970,73402.0447860896,60384.4100046715,60755.4152484998,68644.7065145589,41177.9439235940,13981.6083945189
2762064270,45948,2,0,50856.0204672906,68767.6245878643,43023.5401776978,70471.2603231348,73402.2516369356,60374.6028410322,60758.8222036102,68646.1179673904,41178.3941283764,13980.6106433794
2762064270,45948,2,0,50848.9023646492,68761.0053607926,43018.7947759369,70467.1963123960,73397.7739245047,60364.9538574516,60755.9019563727,68641.7254288373,41177.8952528067,13974.4781241807
2762064270,45948,2,0,50849.9731219696,68759.7764234135,43016.2273919072,70466.2472320438,73394.6589941181,60369.7235946062,60754.0402987588,68637.6370827048,41177.4815511147,13970.4871196227
2762064270,45948,2,0,50871.4004360748,68763.8526018492,43021.3378245729,70471.4063354967,73400.9375256787,60377.8151129934,60758.9317128816,68641.6524226563,41180.4748045331,13970.1707595053
2762064270,45948,2,0,50886.7317340717,68767.0527061136,43024.5622642309,70474.9227998785,73403.8942760067,60377.1093865777,60761.6816123636,68645.1080485541,41182.5189775994,13972.5556280826
2762083128,45949,2,0,50881.9863323108,68769.0117053021,43026.5334311162,70476.5897743433,73406.8753617283,60379.7741121819,60763.4945991902,68646.7871907156,41182.8353377168,13974.7093104203
2762083128,45949,2,0,50871.9601501287,68771.2140584270,43030.0863985885,70478.5122704413,73408.6518454645,60378.8006964361,60766.1836601881,68647.3590724663,41184.3806352133,13975.7435646502
2762083128,45949,2,0,50859.5004285820,68770.4718289208,43028.0908963096,70477.1616560940,73406.5590016109,60377.6325975411,60767.9358085306,68646.3004828427,41188.2621304998,13975.3055275646
2762083128,45949,2,0,50859.9993041517,68773.4042438552,43032.0940685643,70482.1260763977,73411.1097202227,60390.8710516844,60769.8826400223,68652.1653127114,41193.4212339527,13980.2699478684
2762083128,45949,2,0,50872.7023796349,68781.7147807852,43037.6912091029,70489.3901914010,73421.5131010063,60397.8918127513,60776.6600471526,68658.9427198418,41195.5140778063,13986.1591131307
2762083128,45949,2,0,50897.1229471585,68786.4601825462,43040.3924377976,70493.4542021399,73424.6401990898,60386.1013145298,60780.1521761408,68664.5520280771,41198.9697037040,13985.4898898054
2762083128,45949,2,0,50905.7133411155,68776.3488264863,43032.3374225008,70483.6957092879,73413.4215826190,60371.9381154279,60774.3481847563,68656.3996712058,41194.8448544810,13981.0121773746
2762083128,45949,2,0,50892.5600608499,68768.4398235514,43028.5045980016,70474.1440672819,73404.9406979335,60374.2499778243,60765.5752753469,68645.9597873317,41188.5663229204,13978.8828304306
2762111333,45950,2,0,50876.7055518896,68766.3348120010,43031.3518390581,70472.8056206314,73404.2349715177,60379.8592860597,60760.9880536447,68642.8691923386,41187.0940316048,13980.3916248366
2762111333,45950,2,0,50863.6252778050,68765.6534209790,43032.7997949801,70474.0102226168,73404.3201453955,60384.5073462460,60762.0101401778,68642.8691923386,41188.4324782553,13979.4303767876
2762111333,45950,2,0,50861.3134154086,68766.9796999326,43033.3473413371,70475.0079737563,73406.1939707062,60385.0548926031,60764.1638225155,68645.5217502460,41190.8903530136,13982.0342639077
2762111333,45950,2,0,50860.9362168071,68763.4875709445,43028.2369086715,70473.2923285043,73402.8356863831,60373.8606115260,60760.1363148671,68641.0805409057,41190.1724589010,13982.0220962109
2762111333,45950,2,0,50864.3066688270,68756.7344992077,43019.1841422352,70467.9507095990,73395.5472359861,60366.4383164640,60760.5256811654,68637.1990456192,41189.9534403582,13980.5619725921
2762111333,45950,2,0,50867.4581023042,68756.2842944253,43016.9331183229,70467.5491756039,73394.5129817562,60371.6582584010,60759.8321224465,68636.6028284748,41190.8051791358,13979.9535877510
2762111333,45950,2,0,50867.2512514582,68759.2775478437,43019.1476391447,70469.6298517606,73398.6256632823,60375.2355612669,60758.6883589451,68637.4545672524,41185.7434172575,13976.6196388215
2762111333,45950,2,0,50864.1606564652,68760.0076096531,43018.6487635750,70470.3355781763,73396.9343534240,60364.2359633390,60759.7226131751,68636.3959776288,41183.0300208660,13976.3641171882
2762145145,45951,2,0,50854.1344742831,68752.4271345324,43011.9565303224,70463.0227923857,73390.1326108999,60352.6644836604,60756.6563535757,68630.5554831538,41178.8199977652,13974.9404966599
2762145145,45951,2,0,50848.6590107127,68746.9516709621,43007.6004948597,70458.2530552311,73386.1537740388,60358.5049781354,60753.5900939763,68628.0124345178,41176.4351291879,13974.7458135108
2762145145,45951,2,0,50859.2570746455,68746.9516709621,43008.9754446007,70459.0561232214,73387.4192145084,60360.4761450207,60753.0425476193,68628.9128440827,41176.2161106451,13975.0135028409
2762145145,45951,2,0,50868.7600458642,68747.5722235001,43010.0583696180,70461.8911965812,73387.3827114179,60362.9096843853,60753.9186217906,68629.6064028016,41178.6374823129,13977.9094146847
2762145145,45951,2,0,50868.9912321039,68752.5123084102,43013.3071446697,70466.5270890707,73392.2132870567,60370.5875010806,60758.7735328229,68634.7655062546,41181.8862573646,13980.9148358000
2762145145,45951,2,0,50863.1994084162,68756.0896112761,43015.5703362788,70473.0733099615,73398.4553155268,60367.2778875447,60765.3927598946,68639.9002743138,41187.6294102650,13981.3163697952
2762145145,45951,2,0,50856.0204672906,68754.3861337209,43011.2994746939,70472.2945773648,73395.8392607099,60359.8434247859,60765.8916354643,68638.3184737269,41188.0674473507,13978.1892717117
2762145145,45951,2,0,50859.7559502153,68754.1184443908,43011.0196176670,70469.7393610320,73395.0483604164,60364.6253296373,60763.0930651950,68635.6050773353,41185.9015973162,13974.4294533934
2762171286,45952,2,0,50871.7411315859,68758.1459520392,43013.8060202394,70472.8177883282,73398.0051107444,60373.3617359562,60761.9858047842,68637.6857534921,41183.7844180690,13974.2226025474
2762171286,45952,2,0,50871.1084113511,68761.4799009687,43014.8524421662,70473.9737195264,73400.7915133168,60367.4482353003,60762.3386679920,68640.2774729154,41185.7312495606,13973.6872238872
2762171286,45952,2,0,50863.0412283575,68758.8395107581,43011.5306609336,70472.0633911252,73399.1488742457,60366.2192979212,60760.5500165591,68640.8371869692,41185.5487341083,13971.3145230067
2762171286,45952,2,0,50858.8798760440,68761.9301057511,43014.8037713789,70473.6695271058,73402.8478540799,60368.5919988016,60763.7744562171,68644.4753283193,41190.0872850233,13972.4582865080
2762171286,45952,2,0,50864.0633148906,68763.7795956682,43018.3932419417,70475.6285262943,73403.1520465005,60371.1472151344,60766.6095295769,68647.0792154394,41191.8029302753,13972.7624789286
2762171286,45952,2,0,50873.6514599871,68766.8701906612,43024.9151274388,70477.2833330622,73407.8609451710,60381.6966082799,60768.7875473082,68651.3865801147,41194.3094758208,13975.7679000439
2762171286,45952,2,0,50881.5847983156,68776.2271495181,43038.5429478805,70485.8615593224,73416.6946930644,60397.9404835386,60774.5428679054,68661.3154207222,41200.5271688973,13983.7499091597
2762171286,45952,2,0,50878.0926693274,68779.9626324427,43043.5560389715,70488.2585955965,73419.6636110892,60393.5601126823,60775.2485943212,68665.5619469134,41204.6398504235,13986.3537962798
2762203183,45953,2,0,50869.4901076736,68776.4826711514,43038.5429478805,70483.7078769847,73414.3219921839,60383.3149119574,60774.3968555436,68663.3717614853,41207.2194021500,13986.3172931894
2762203183,45953,2,0,50868.5531950182,68771.2870646080,43034.3085893861,70479.6073631554,73411.1218879195,60388.2306614739,60770.9777327363,68659.1860737782,41207.0368866976,13984.6746541183
2762203183,45953,2,0,50882.1810154599,68777.1275590830,43041.2320088784,70485.3626837526,73417.9479658372,60398.9990731622,60776.3680224289,68666.9977351385,41207.9251285657,13987.6314044463
2762203183,45953,2,0,50884.7605671864,68781.3010790933,43045.3081873140,70488.6844649853,73420.3450021113,60394.1928329171,60779.8723191139,68672.0716647137,41208.1441471085,13987.6679075367
2762203183,45953,2,0,50875.5496206914,68780.6440234648,43044.2495976905,70487.4190245157,73418.8605430989,60390.2504991465,60779.2517665759,68670.8792304251,41207.1828990595,13985.2100327785
2762203183,45953,2,0,50867.1052390963,68776.9937144179,43040.1247484675,70486.0319070779,73414.1638121252,60386.2716622854,60775.7718052846,68668.7742188747,41204.0923040665,13983.8715861280
2762203183,45953,2,0,50863.7712901668,68768.6345067006,43034.1747447211,70478.7069535905,73406.6320077918,60381.8304529450,60769.7731307508,68663.5421092408,41202.3888265113,13984.6381510278
2762203183,45953,2,0,50868.2124995072,68761.2730501227,43027.9083808572,70472.0755588220,73400.4021470185,60382.7308625099,60764.5045180265,68657.7624532499,41198.0084556550,13985.2830389594
2762224993,45954,2,0,50872.1061624905,68765.4465701330,43031.2058266963,70476.6506128274,73403.9794498844,60389.5204373371,60766.0498155230,68661.4005946000,41196.5848351267,13991.0261918599
2762224993,45954,2,0,50864.0146441033,68763.1347077366,43029.1251505395,70474.5456012770,73399.5869113314,60373.7024314673,60764.5531888138,68659.9039678908,41193.3847308623,13989.0063541872
2762224993,45954,2,0,50847.3935702432,68752.3054575642,43018.5270866068,70464.6775991536,73389.1591951541,60360.8776790159,60756.8753721185,68651.6907725353,41188.8948507346,13982.9468411694
2762224993,45954,2,0,50847.9289489034,68748.3752914904,43013.9642002981,70460.4189052656,73385.8617493151,60369.5654145475,60753.5049200986,68649.7074379531,41184.3684675165,13979.6737307241
2762224993,45954,2,0,50861.9704710370,68753.0720224640,43017.9552048561,70463.6676803173,73389.6459030270,60378.3383239568,60754.0646341524,68653.0413868826,41184.8673430862,13982.0464316045
2762224993,45954,2,0,50866.3995126806,68759.2775478437,43024.0998917517,70469.3134916432,73394.5494848467,60383.5704335907,60757.4107507787,68661.4614330841,41192.0949549990,13986.9500134242
2762224993,45954,2,0,50861.9096325529,68764.1446265729,43028.8087904221,70473.2558254138,73398.9420233997,60387.0138917916,60760.5135134686,68665.8783070308,41195.2707238698,13991.8657629406
2762224993,45954,2,0,50855.7527779605,68764.0351173015,43030.8407957916,70472.7204467536,73399.1002034584,60380.0904722993,60758.5180111896,68667.4114368305,41194.7596806033,13991.8049244565
2762260218,45955,2,0,50849.2187247666,68757.0386916283,43022.4450849837,70465.4319963567,73391.7752499710,60369.0787066745,60754.5270066317,68661.3884269032,41192.1436257863,13984.2244493358
2762260218,45955,2,0,50851.3480717106,68751.7214081167,43016.5072489341,70460.8082715639,73387.6990715353,60373.8362761323,60751.6919332720,68659.9283032844,41188.6149937077,13979.3817060003
2762260218,45955,2,0,50869.6361200355,68757.2942132616,43021.2526506951,70465.2616486011,73394.8536772672,60382.8282040845,60754.4418327539,68665.5984500039,41186.8628453652,13980.9270034968
2762260218,45955,2,0,50872.9700689650,68759.3992248120,43023.0534698249,70469.2769885527,73396.8491795462,60374.9435365432,60755.2814038347,68666.4623564783,41186.1449512526,13981.0243450714
2762260218,45955,2,0,50857.6996094522,68754.0089351194,43015.5338331883,70465.9430396232,73390.8626727093,60367.8376015986,60754.0037956683,68663.5907800281,41185.9137650130,13979.2356936384
2762260218,45955,2,0,50844.4246522184,68752.9625131926,43013.6721755744,70463.8501957697,73389.5728968461,60372.2301401517,60754.0768018493,68663.2135814266,41184.3684675165,13978.2866132862
2762260218,45955,2,0,50844.0352859200,68756.8561761760,43018.2350618830,70465.8213626550,73393.8194230373,60380.7718633214,60756.3034903678,68664.8805558913,41185.9137650130,13978.7976565528
2762260218,45955,2,0,50859.5125962788,68764.5461605681,43025.7912016100,70472.9881360837,73398.3823093459,60385.9553021680,60761.0610598256,68670.5385349140,41190.7200052581,13979.8927492669
2762288095,45956,2,0,50879.9664946382,68767.3325631405,43026.3752510576,70474.0102226168,73402.3733139038,60386.4176746472,60763.1660713760,68671.3172675107,41190.0021111455,13979.3086998194
2762288095,45956,2,0,50884.5658840372,68768.3911527641,43024.0025501771,70474.7402844262,73401.6189167008,60381.0395526515,60764.8208781439,68672.0351616232,41190.9755268913,13979.5398860590
2762288095,45956,2,0,50868.2003318104,68763.7187571841,43015.9475348803,70470.2990750858,73396.2286270082,60372.9236988706,60764.1394871218,68668.2266725177,41190.5496575025,13976.0964278581
2762288095,45956,2,0,50853.3435739896,68761.9057703575,43015.6920132470,70470.3842489636,73396.1069500400,60382.1833161528,60763.0322267109,68668.4821941509,41190.9146884072,13975.4028691392
2762288095,45956,2,0,50852.6378475738,68768.3789850673,43022.5667619520,70477.6361962701,73405.0137041144,60392.3068399095,60768.6415349463,68675.4907875209,41191.4987378547,13978.3352840735
2762288095,45956,2,0,50856.8357029778,68771.0072075810,43027.1783190479,70482.1625794882,73405.7681013174,60389.2162449165,60773.8249737929,68679.2262704456,41195.2828915667,13981.4502144602
2762288095,45956,2,0,50871.6559577081,68766.9918676295,43026.8619589305,70480.7024558695,73402.4828231752,60384.2153215223,60774.5915386927,68677.1699296825,41197.7407663249,13981.7787422744
2762288095,45956,2,0,50884.6997287023,68768.5615005196,43028.7966227253,70481.0188159868,73403.2250526814,60388.9728909801,60777.4874505366,68677.8634884014,41199.3103992150,13983.7864122502
2762329347,45957,2,0,50880.2098485746,68770.5326674050,43031.3031682708,70482.8683059039,73402.8600217767,60387.6466120264,60776.9399041796,68677.8878237951,41200.7096843497,13982.8494995948
2762329347,45957,2,0,50866.4968542552,68768.7561836688,43027.3364991066,70480.7632943536,73402.1177922705,60384.5803524270,60773.3869367073,68674.8337318925,41197.7042632344,13980.7444880445
2762329347,45957,2,0,50858.5026774425,68769.6444255369,43026.2535740893,70478.2567488080,73402.1664630578,60388.3523384421,60772.5960364138,68675.6489675796,41193.7497617670,13977.0820113008
2762329347,45957,2,0,50854.9862130607,68767.6732586516,43023.4915069105,70475.3243338737,73401.0348672533,60379.2995720058,60769.7122922667,68673.3371051833,41192.1314580895,13975.9139124058
2762329347,45957,2,0,50852.9177046008,68758.4744798534,43013.7451817553,70466.7217722199,73390.4124679269,60367.6794215399,60762.3265002952,68665.4402699452,41189.1382046711,13973.0301682587
2762329347,45957,2,0,50861.3134154086,68753.4857241560,43006.9677746250,70463.1809724444,73386.1172709484,60370.7578488361,60755.8167824949,68659.6119431670,41186.4613113700,13972.7381435350
2762329347,45957,2,0,50867.3120899423,68757.7444180440,43013.6965109680,70468.3887466846,73392.1159454821,60382.5240116639,60756.7780305439,68664.2965064438,41185.9015973162,13976.2911110073
2762329347,45957,2,0,50861.5446016482,68761.9787765384,43017.3224846213,70470.8222860492,73395.0483604164,60380.5041739913,60760.2823272290,68667.7521323416,41188.6514967981,13978.7489857655
2762352340,45958,2,0,50851.2385624392,68760.4943175260,43016.0327087581,70468.3765789878,73393.4908952231,60376.0751323477,60760.0633086861,68666.6327042339,41188.4081428617,13974.8188196917
2762352340,45958,2,0,50846.6635084338,68759.7277526262,43017.6145093450,70466.0647165915,73394.1601185483,60375.0408781178,60759.1750668181,68666.9490643512,41185.5852371988,13971.9959140288
2762352340,45958,2,0,50851.4819163757,68759.0463616041,43018.3567388512,70464.3855744299,73392.7730011105,60374.3716547925,60755.8289501918,68665.2820898865,41183.6384057071,13971.8499016669
2762352340,45958,2,0,50870.0498217275,68760.4943175260,43022.0678863822,70465.9673750169,73394.3548016975,60381.8182852482,60756.7658628471,68665.8539716372,41186.2057897367,13977.1063466944
2762352340,45958,2,0,50877.1679243689,68765.3857316488,43027.4946791653,70471.0656399857,73399.0271972775,60391.4916042224,60757.9461294389,68669.4921129872,41188.3473043776,13985.5020575022
2762352340,45958,2,0,50868.1273256295,68767.6610909547,43027.5676853462,70472.4649251203,73401.3998981580,60386.0769791362,60758.9073774880,68672.3758571343,41192.0097811213,13988.5804847984
2762352340,45958,2,0,50849.8879480919,68760.1292866213,43019.0137944797,70466.2107289533,73394.7320002990,60371.8286061565,60756.5711796980,68667.8251385225,41194.1999665494,13985.5507282895
2762352340,45958,2,0,50839.6914181542,68755.5420649191,43013.8303556331,70462.0250412462,73390.2786232618,60374.5541702449,60753.7604417319,68664.9535620723,41191.3770608865,13981.5840591253
2762388302,45959,2,0,50841.6869204332,68758.1702874328,43016.6775966897,70464.7019345473,73393.6247398881,60380.9787141674,60753.1763922844,68665.7444623658,41188.6758321918,13984.6016479373
2762388302,45959,2,0,50849.1822216761,68760.9566900053,43019.9993779223,70468.4130820783,73395.9487699813,60387.2450780312,60756.0966395219,68669.2974298381,41190.3063035661,13990.2839623537
2762388302,45959,2,0,50864.7082028222,68763.6092479127,43024.8907920452,70469.0336346163,73397.6157444460,60387.5371027549,60758.2016510722,68668.3848525763,41192.6911721434,13991.3790550677
2762388302,45959,2,0,50865.7059539617,68762.8305153160,43023.9295439961,70467.0016292468,73397.0803657858,60379.8471183628,60756.2426518837,68666.9855674417,41190.4036451407,13987.8260875954
2762388302,45959,2,0,50853.5990956229,68754.8971769875,43015.3026469487,70460.4919114465,73388.2587855892,60368.0201170509,60751.9717902989,68659.5754400765,41184.3806352133,13981.8882515458
2762388302,45959,2,0,50845.6049188102,68750.6993215836,43009.9975311339,70456.9146085806,73383.5255515251,60369.0178681904,60750.0006234136,68655.5114293377,41179.7204073301,13979.5885568463
2762388302,45959,2,0,50850.1556374220,68752.1229421118,43011.0804561511,70458.9101108596,73386.6283142149,60376.8051941571,60749.4774124502,68658.0666456705,41179.1485255794,13981.0000096778
2762388302,45959,2,0,50865.2070783919,68753.6195688211,43014.1588834473,70460.1025451482,73388.3317917701,60374.9435365432,60750.7185175261,68659.1617383846,41180.2071152030,13984.3339586072
2762415467,45960,2,0,50863.6496131986,68749.0810179061,43010.3503943417,70453.7875104971,73381.2623599160,60367.6550861463,60749.0515430614,68656.0833110884,41183.3950517706,13985.6359021673
2762415467,45960,2,0,50855.3390762685,68749.4947195981,43012.8934429777,70454.3958953383,73381.7490677889,60375.9047845922,60746.2286373985,68656.4483419930,41184.9525169640,13989.5295651506
2762415467,45960,2,0,50854.0006296180,68756.4424744840,43021.7028554775,70460.3215636910,73389.7310769048,60386.4785131313,60752.4463304750,68662.9337243997,41188.2864658935,13994.8590163591
2762415467,45960,2,0,50854.5481759750,68761.8570995702,43025.4505060990,70464.4950837013,73395.4133913211,60383.1080611114,60756.3278257615,68667.0585736226,41192.2653027546,13996.6476677921
2762415467,45960,2,0,50862.5545204845,68763.3537262794,43026.9471328082,70466.9894615500,73394.7806710863,60385.7484513220,60758.9925513657,68667.9224800971,41193.6524201924,13995.6134135621
2762415467,45960,2,0,50878.8957373178,68763.6457510032,43025.4626737958,70466.0160458042,73395.0118573259,60381.0760557420,60758.6396881579,68666.3041764196,41190.8295145295,13990.8193410139
2762415467,45960,2,0,50875.9633223834,68757.7930888313,43019.5491731399,70462.7307676620,73389.9987662349,60370.0277870267,60756.3034903678,68658.6506951180,41189.0895338838,13984.5043063628
2762415467,45960,2,0,50862.0069741275,68754.1184443908,43015.4364916137,70460.0052035736,73386.7134880927,60376.3428216778,60752.3003181131,68654.4771751077,41185.1228647195,13981.0121773746
2762445202,45961,2,0,50859.5369316725,68761.4068947877,43023.0169667344,70468.9362930417,73393.3692182548,60386.1256499235,60757.8731232580,68661.6439485364,41182.7866669295,13987.8990937764
2762445202,45961,2,0,50860.7415336579,68766.2983089106,43028.3829210333,70475.1174830277,73397.0681980890,60379.2022304312,60760.5986873463,68663.3960968789,41182.6893253549,13991.0140241630
2762445202,45961,2,0,50868.0543194485,68763.1347077366,43026.0102201529,70473.1098130519,73393.2962120739,60373.2643943816,60761.9736370873,68662.5200227077,41183.3828840738,13992.3646385104
2762445202,45961,2,0,50881.3414443792,68764.2784712380,43025.4018353117,70476.4924327687,73396.6423287002,60386.4420100409,60764.8208781439,68663.2257491234,41187.3860563286,13995.6134135621
2762445202,45961,2,0,50887.2549450351,68770.4353258304,43031.0111435471,70482.6857904516,73403.2372203782,60393.6817896505,60770.1381616555,68669.6624607428,41193.2752215909,13997.4750711760
2762445202,45961,2,0,50882.1688477631,68772.9418713759,43032.2400809262,70484.5717834591,73405.9627844666,60391.4794365256,60773.1679181644,68670.9522366060,41195.4897424126,13997.4385680855
2762445202,45961,2,0,50873.7974723489,68770.5691704954,43033.4081798212,70483.1724983245,73403.0182018354,60387.8169597819,60771.1967512791,68668.3970202732,41190.4766513216,13995.5525750780
