steady_timestamp,sequence,battery,flags,EEG-ch1,EEG-ch2,EEG-ch3,EEG-ch4,EEG-ch5,EEG-ch6,EEG-ch7,EEG-ch8,EEG-ch9,EEG-ch10
5543350608,6229,-2,0,11556.9879517017,44501.6598200520,37437.8859449453,48436.6686371978,48890.7427472363,48698.3836281624,52076.3674524508,68486.0762510782,50908.7917684117,6966.7486606405
5543350608,6229,-2,0,11546.2560431039,44494.6877297724,37425.0003540098,48423.7343754750,48885.0239297295,48681.6773804245,52065.0636621022,68474.0423989203,50903.9003542889,6958.1947697740
5543350608,6229,-2,0,11541.9243430349,44492.6435567062,37426.6186576873,48425.7785485412,48885.1942774851,48709.0060274889,52065.4651960974,68474.7967961234,50903.7665096238,6959.9104150260
5543350608,6229,-2,0,11555.1627971783,44505.8211723654,37448.5083442718,48447.0355148909,48897.4349804889,48729.9953045084,52082.1471084417,68489.2641876458,50912.5515867300,6970.9100129539
5543350608,6229,-2,0,11560.6017576581,44514.4115663224,37453.1199013677,48451.7322458646,48898.8464333204,48698.1646096196,52088.3769692150,68489.5562123696,50916.5304235911,6968.0871072910
5543350608,6229,-2,0,11543.7373298615,44499.8224978317,37432.7511768861,48434.8921534616,48884.6954019153,48670.3127515919,52076.1362662111,68471.8765488858,50903.6204972620,6953.8387343114
5543350608,6229,-2,0,11535.4754637188,44491.3294454493,37426.4361422350,48430.1954224880,48881.3979560763,48691.9712519367,52073.6540560592,68471.3290025288,50895.8453389921,6953.6075480717
5543350608,6229,-2,0,11542.0095169127,44499.2262806874,37438.2023050627,48442.3996224014,48892.1785354614,48713.5080753134,52083.9600952683,68484.2145934643,50907.6601726072,6967.4422193594
5543387627,6230,-2,0,11546.9374341260,44506.1253647860,37447.6201024037,48451.9999351947,48899.0654518632,48717.8154399887,52092.6599984967,68495.2506944827,50917.8323671512,6972.6864966901
5543387627,6230,-2,0,11552.7535932073,44512.4160640435,37457.1839121065,48459.8359319487,48905.7090143285,48728.9123794912,52098.3423129130,68504.0722746793,50923.1983214501,6978.9650282507
5543387627,6230,-2,0,11556.0267036527,44516.9424472616,37459.6417868648,48461.0770370246,48907.1934733409,48711.1597098265,52100.7636845808,68503.2935420827,50929.2700021647,6978.5999973460
5543387627,6230,-2,0,11539.4543005799,44501.9275093821,37440.3316520068,48436.9849973152,48889.1001081652,48677.1996679937,52083.8140829064,68481.4646939823,50916.6764359530,6965.0938538726
5543387627,6230,-2,0,11525.0720829351,44485.6349633362,37429.6362464994,48422.4202642181,48871.1284199577,48696.0230949788,52070.4539517948,68469.6011895799,50903.2067955700,6963.0496808063
5543387627,6230,-2,0,11534.6115572443,44493.3614508187,37447.2429038022,48438.7858164450,48876.8715728582,48727.0142187868,52080.4192954928,68482.4624451218,50912.9409530283,6973.1732045630
5543387627,6230,-2,0,11544.1997023408,44502.0491863503,37453.7161185120,48449.0796879572,48879.8769939734,48699.9897641431,52089.2043725990,68484.1537549802,50919.1464784080,6969.4498893352
5543387627,6230,-2,0,11530.9247451070,44488.9932476593,37435.1238777665,48435.2206812758,48867.2347569744,48672.1744092058,52079.3485381724,68468.8224569833,50906.3582290471,6952.0257474847
5543435369,6231,-2,0,11521.1540845582,44476.8985570173,37425.3653849145,48425.3770145461,48861.8931380691,48680.5579523168,52069.8212315600,68461.3879942245,50896.0886929286,6948.1199168046
5543435369,6231,-2,0,11521.1540845582,44474.0999867480,37428.0057751251,48423.6613692940,48861.1144054725,48680.2294245026,52067.5823753446,68461.6435158578,50896.4293884396,6951.2226794944
5543435369,6231,-2,0,11519.1585822792,44472.7737077943,37430.4879852770,48421.2399976263,48860.5790268123,48692.5187982938,52063.5913707867,68463.2253164447,50897.4028041854,6959.1438501262
5543435369,6231,-2,0,11526.5930450380,44481.9116481083,37442.4975020412,48431.6677138035,48869.8021410040,48714.2989756068,52071.6950568708,68475.5146902359,50904.4357329491,6972.3944719663
5543435369,6231,-2,0,11534.1491847651,44492.4123704665,37444.6755197725,48437.6055498531,48876.0441694742,48691.4237055797,52076.9271665046,68480.3452658746,50910.3857366955,6971.9320994871
5543435369,6231,-2,0,11521.8963140644,44478.0423205186,37417.2860342241,48416.0687264765,48861.4429332867,48651.5744984846,52062.6179550408,68460.7796093833,50895.8940097794,6951.7580581546
5543435369,6231,-2,0,11505.2874079010,44465.1810649768,37403.4148598459,48402.2583905825,48852.1224775203,48676.2992584288,52051.1438169368,68452.5299109374,50881.0859227459,6946.2704268875
5543435369,6231,-2,0,11518.8665575554,44480.4880275801,37429.9282712231,48423.0286490593,48872.3695250337,48720.6748487421,52067.5215368605,68474.8332992138,50896.1860345032,6962.8306622635
5543451261,6232,-2,0,11531.1315959530,44499.6521500762,37449.5669338954,48438.3356116625,48889.7814991873,48715.3819006241,52080.8451648816,68488.4854550492,50915.6908525103,6974.6819989691
5543451261,6232,-2,0,11529.8661554834,44496.7197351419,37444.2861534742,48433.0669989382,48887.1167735831,48690.2799420783,52075.2845274335,68482.0000726425,50913.5493378695,6972.4918135409
5543451261,6232,-2,0,11525.2545983875,44484.4303613507,37428.1761228806,48419.9258863694,48871.6516309211,48668.4997647653,52063.4210230312,68467.8977120247,50894.3608799797,6957.8662419597
5543451261,6232,-2,0,11519.2802592474,44472.5060184642,37411.5793844141,48405.5193333310,48854.0206382247,48652.0855417511,52051.2654939050,68452.2013831231,50879.2851036161,6940.6367832585
5543451261,6232,-2,0,11518.9273960396,44468.2229891825,37410.4599563064,48405.2394763041,48850.9908817158,48674.5957808736,52049.9392149513,68452.7367617834,50874.9655712439,6941.6345343979
5543451261,6232,-2,0,11532.9080796891,44482.0454927734,37431.4979041133,48424.7442943113,48868.0621603584,48705.7572524371,52066.3534379655,68469.7593696386,50887.2792804288,6955.2015163555
5543451261,6232,-2,0,11541.2672874065,44490.6602221240,37435.4159024903,48434.7948118870,48874.7665613078,48674.4741039053,52075.7225645192,68472.9108031158,50892.6330670309,6955.3840318079
5543451261,6232,-2,0,11520.5335320202,44471.5934412025,37405.2400143694,48408.4030774781,48854.5803522785,48632.1305189615,52055.7310386391,68449.2811358856,50876.0484962612,6939.2253304270
5543477774,6233,-2,0,11503.2919056221,44456.0552923596,37389.5558531646,48391.7576682243,48841.9989537636,48654.3365656634,52044.3664098064,68439.7294938796,50862.9682221765,6935.4655121087
5543477774,6233,-2,0,11511.9918088505,44467.0183871971,37406.1039208438,48407.2471462799,48852.1833160044,48681.3731880040,52054.3682565949,68451.5564951915,50873.0674105396,6952.7679769909
5543477774,6233,-2,0,11518.4650235603,44473.5889434814,37415.1080164928,48413.6960255961,48856.8922146749,48673.4155142818,52058.7486274511,68456.3627354366,50884.5658840372,6956.5034599156
5543477774,6233,-2,0,11517.1144092129,44471.0093917550,37412.9421664583,48410.0700519428,48853.6799427136,48669.2054911810,52055.0739830106,68452.0432030644,50883.7749837438,6951.8188966387
5543477774,6233,-2,0,11518.3433465921,44470.3158330361,37412.5649678568,48407.9528726956,48852.5361792123,48666.6989456355,52055.3903431280,68449.2689681888,50884.7483994896,6953.8143989177
5543477774,6233,-2,0,11511.9553057600,44462.0904699838,37404.5099525600,48398.6202492324,48845.5275858423,48650.7835981911,52049.6228548339,68440.8975927746,50878.9565758019,6957.4890433582
5543477774,6233,-2,0,11505.7011095930,44458.5131671178,37402.8794811857,48396.9289393740,48842.2544753969,48673.7075390055,52049.7201964085,68438.4153826228,50874.7222173075,6967.2962069975
5543477774,6233,-2,0,11518.6718744063,44472.1653229532,37424.7935031639,48417.8817133031,48854.8115385182,48711.1353744329,52065.8423946989,68459.1491380090,50887.1576034605,6983.3332314102
5543509522,6234,-2,0,11530.4502049309,44486.7543914439,37437.1802185296,48430.7916396323,48865.5434471160,48686.1915959458,52076.6108063872,68468.1410659612,50901.2964671688,6986.4603294937
5543509522,6234,-2,0,11515.7516271688,44473.2969187577,37413.6113897836,48410.4837536348,48848.9832117400,48651.1364613989,52060.7076266396,68446.4582302227,50889.4816335537,6965.8725864692
5543509522,6234,-2,0,11513.6831187089,44464.3414938960,37406.7731441691,48403.1344647537,48841.7190967367,48670.6291117093,52055.2686661598,68440.6785742318,50878.8227311368,6959.5575518181
5543509522,6234,-2,0,11527.1162560014,44471.5934412025,37416.7141524734,48416.8839621637,48852.4996761218,48689.7810665086,52066.0735809386,68453.1991342626,50886.8534110400,6967.6247348117
5543509522,6234,-2,0,11531.7156454005,44479.9039781326,37425.1828694622,48423.8803878369,48860.1774928171,48689.2091847579,52071.5855475994,68459.7696905470,50897.1959533395,6971.6765778538
5543509522,6234,-2,0,11528.3208579869,44482.6417099177,37427.8840981569,48424.3427603161,48862.8422184213,48691.9834196336,52073.9582484798,68462.8967886305,50900.3960576039,6973.8302601914
5543509522,6234,-2,0,11533.8936631318,44488.7985645101,37432.9458600352,48429.1490005612,48869.2545946470,48683.8797335495,52079.3850412629,68466.1820667727,50905.6768380251,6972.7473351742
5543509522,6234,-2,0,11529.5376276692,44480.8165553943,37418.1134376081,48418.4292596602,48859.3257540395,48658.3275702213,52071.4517029343,68454.8539410305,50895.2612895446,6955.9802489522
5543590037,6235,-2,0,11523.2712638053,44472.3600061023,37411.9930861061,48410.9339584172,48853.1688994471,48684.6341307525,52063.9685693882,68451.3861474360,50884.8944118515,6953.6197157685
5543590037,6235,-2,0,11541.2916228001,44489.5164586227,37439.6502609847,48432.6046264589,48871.9679910385,48728.2066530755,52080.3462893119,68475.1131562407,50898.8629278042,6972.1511180299
5543590037,6235,-2,0,11552.8144316914,44504.9816012846,37455.3222544926,48445.4780496976,48885.6444822675,48704.9176813564,52089.9222667115,68485.9667418068,50912.0040403730,6978.6973389206
5543590037,6235,-2,0,11533.9788370095,44492.8139044617,37438.5795036643,48424.2575864384,48871.9071525544,48670.3370869855,52071.1961813010,68465.6101850220,50901.6128272862,6972.7838382647
5543590037,6235,-2,0,11515.7029563815,44477.8841404599,37423.7227458434,48406.2250597468,48859.0337293157,48676.0437367955,52055.2199953725,68451.5808305852,50889.8223290648,6975.6797501085
5543590037,6235,-2,0,11513.8534664644,44480.6948784260,37427.8840981569,48409.5590086763,48860.9318900201,48690.5963021958,52055.4390139153,68456.3140646493,50893.7403274417,6985.1097151463
5543590037,6235,-2,0,11517.3455954526,44487.5817948278,37433.3717294240,48415.9348818115,48864.0833234973,48696.2542812184,52063.6765446644,68460.1103860580,50899.8241758532,6988.3098194107
5543590037,6235,-2,0,11526.5687096444,44498.1190202765,37443.4587500902,48428.5041126296,48874.5597104618,48708.2637979827,52073.3620313355,68471.3411702256,50903.7543419270,6988.4436640758
5543597759,6236,-2,0,11533.5894707112,44502.9252605216,37444.0427995377,48429.7938884928,48878.6967273816,48683.3321871924,52075.0168381034,68469.8445435164,50899.8971820341,6975.6432470181
5543597759,6236,-2,0,11518.0269864747,44484.3086843825,37417.2008603463,48402.6234214872,48860.8102130519,48641.3536331533,52053.7477040569,68445.2292928436,50882.0958415822,6951.9284059102
5543597759,6236,-2,0,11504.5086753044,44465.6191020624,37401.2611775083,48386.5012231968,48845.3329026931,48656.0035401281,52038.3920706664,68433.1832729889,50866.7037051012,6936.9013003338
5543597759,6236,-2,0,11522.0788295167,44477.8598050663,37420.9606786646,48409.6076794636,48859.8854680933,48699.3570439083,52055.9378894850,68455.0607918765,50876.9610735229,6951.9527413038
5543597759,6236,-2,0,11538.4200463499,44493.5196308774,37436.6813429599,48425.9123932063,48872.5885435765,48690.7909853449,52072.3642801960,68468.8346246801,50894.4338861607,6970.3868019906
5543597759,6236,-2,0,11527.9801624758,44485.5619571552,37425.2315402495,48412.6982744566,48862.9030569054,48671.8093783011,52062.1434148647,68455.1703011479,50895.3586311192,6965.3737108995
5543597759,6236,-2,0,11520.7890536535,44479.5632826215,37420.2671199457,48407.0524631307,48858.6321953206,48681.0446601897,52059.5151923510,68451.7633460375,50892.6817378181,6961.8085757304
5543597759,6236,-2,0,11521.2879292232,44480.7192138197,37422.0557713787,48409.3399901334,48859.2527478585,48677.9053944094,52060.6954589428,68452.7245940865,50894.3852153734,6958.4989621945
5543612717,6237,-2,0,11514.8268822102,44477.6772896140,37415.1688549769,48405.8113580548,48853.8259550755,48674.3159238467,52056.2664172993,68450.8629364726,50890.6132293582,6952.6341323259
5543612717,6237,-2,0,11522.3100157563,44486.2798512678,37423.0778579118,48416.2025711416,48862.5136906071,48702.5571481727,52064.7229665912,68463.2739872320,50897.5731519410,6961.6382279749
5543612717,6237,-2,0,11536.6557303106,44500.4308826729,37436.9733676836,48428.6014542042,48876.5065419535,48700.1236088081,52077.9005822505,68475.7093733851,50912.7827729696,6965.3980462931
5543612717,6237,-2,0,11529.3064414295,44493.3857862124,37425.1098632813,48413.8420379579,48870.1306688183,48659.7998615369,52068.0447478239,68462.1180560338,50908.3780667197,6950.6142946533
5543612717,6237,-2,0,11512.3446720583,44476.2658367825,37409.9854161303,48396.2597160488,48856.1621528655,48673.4033465849,52053.4070085459,68450.9967811377,50891.8178313437,6940.5637770775
5543612717,6237,-2,0,11520.0954949346,44485.0509138887,37425.9129312716,48411.3841631997,48865.2635900891,48708.7870089460,52065.2096744641,68468.5304322595,50900.8340946895,6958.5111298914
5543612717,6237,-2,0,11531.9224962465,44498.7517405113,37439.1148823245,48424.2940895288,48874.7300582173,48700.8049998302,52078.1682715806,68480.1992535127,50914.2915673757,6966.7364929437
5543612717,6237,-2,0,11530.4502049309,44495.6368101246,37433.7367603287,48419.7190355234,48870.6903828721,48688.4426198581,52075.6130552477,68474.8698023043,50913.4641639917,6959.3872040626
5543638892,6238,-2,0,11531.4844591608,44490.7210606081,37429.9769420104,48416.8596267700,48868.4150235662,48679.0856610012,52073.2890251546,68470.0270589688,50907.2586386120,6951.2956856754
5543638892,6238,-2,0,11527.6151315711,44481.0355739371,37417.4685496764,48408.4760836590,48858.2549967191,48665.9080453420,52065.3800222197,68460.8647832611,50896.5267300142,6943.0338195326
5543638892,6238,-2,0,11527.8584855076,44478.2005005773,37415.9475875736,48407.1376370085,48855.6511095990,48677.6012019888,52064.3701033833,68461.2176464689,50893.9228428941,6948.8378109171
5543638892,6238,-2,0,11534.2465263396,44485.7323049107,37428.4316445139,48420.0232279440,48864.2050004655,48702.5084773854,52070.7581442154,68474.4804360059,50898.6074061709,6963.4268794078
5543638892,6238,-2,0,11547.6796636322,44495.2109407358,37437.6547587057,48428.3459325709,48869.8386440945,48680.8864801310,52077.5598867394,68475.9405596247,50902.6835846066,6965.8604187724
5543638892,6238,-2,0,11535.9865069853,44478.8940592963,37413.7817375391,48406.5657552578,48852.7186946646,48640.5870682535,52059.0284844781,68452.7489294802,50889.4572981601,6947.7792212935
5543638892,6238,-2,0,11523.2590961085,44462.6623517344,37399.5090291658,48390.4557246642,48839.5410790054,48658.2302286467,52044.8287822857,68442.2238717283,50876.3526886818,6943.0703226230
5543638892,6238,-2,0,11534.4047063983,44473.7227881465,37415.9719229672,48408.5977606272,48854.0084705279,48692.5187982938,52057.6170316466,68458.1635545664,50885.1499334847,6951.0888348294
5543672473,6239,-2,0,11544.0050191916,44486.3285220551,37423.2360379705,48420.6681158756,48862.2460012770,48679.4020211186,52066.9739905035,68466.2064021664,50894.5190600384,6948.2294260760
5543672473,6239,-2,0,11543.5183113187,44483.1527531843,37414.7794886786,48417.6748624572,48858.6808661079,48665.4578405596,52063.5913707867,68459.8183613343,50884.6510579150,6933.7742022503
5543672473,6239,-2,0,11550.2105445713,44485.1239200696,37414.6456440135,48422.1039041007,48860.5546914186,48667.1004796306,52067.0226612907,68460.4875846596,50885.8313245068,6938.3127531653
5543672473,6239,-2,0,11547.6309928449,44477.1905817410,37404.8019772838,48413.3796654787,48852.6091853932,48644.7849236574,52062.2772595298,68451.5929982820,50881.7429783743,6942.7052917184
5543672473,6239,-2,0,11531.9346639433,44461.5185882331,37392.8167959132,48400.6765899955,48836.2314654695,48654.9084474141,52051.8738787462,68441.2991267698,50873.7366338648,6945.2361726575
5543672473,6239,-2,0,11530.9490805006,44460.8250295142,37403.0984997285,48410.2769027888,48836.3653101346,48683.5147026448,52058.1889133973,68450.4857378711,50876.7298872833,6952.0622505752
5543672473,6239,-2,0,11539.6124806386,44467.0913933780,37410.4477886096,48417.4680116112,48840.2468054211,48657.4271606564,52063.8955632073,68452.1527123359,50882.9110772693,6947.3776872984
5543672473,6239,-2,0,11524.0013256147,44449.6672515275,37385.0538053401,48393.4611457795,48823.4918868959,48611.3602604847,52046.3862474790,68427.6469709344,50866.8862205535,6921.6551762147
5543697076,6240,-2,0,11508.8890461606,44432.1822711930,37365.0257763696,48376.6332210734,48809.1096692512,48622.3233553222,52031.6876697169,68413.2039148056,50849.9974573633,6910.6555782867
5543697076,6240,-2,0,11515.0580684499,44437.5968962792,37374.5165798915,48386.1970307762,48815.3760331150,48648.7272574280,52037.6985119475,68424.4225312764,50855.3634116622,6921.8863624543
5543697076,6240,-2,0,11520.3875196583,44447.8664323978,37382.1335581026,48395.7365050854,48822.1534402454,48647.6199970171,52046.5687629314,68433.7429870427,50864.3188365239,6931.1459797366
5543697076,6240,-2,0,11525.6074615954,44454.1936347457,37388.2052388173,48401.0172855066,48828.3467979283,48662.5254256252,52053.9910579934,68442.0656916696,50873.9191493172,6937.3515051163
5543697076,6240,-2,0,11536.1325193472,44465.1202264927,37393.8388824463,48411.1651446569,48837.2657196995,48660.1040539575,52065.0149913150,68449.0134465555,50881.3657797728,6936.1347354340
5543697076,6240,-2,0,11529.1239259772,44454.8750257678,37375.7941880579,48397.0749517359,48826.6433203731,48624.1850129361,52054.9644737392,68433.1711052921,50870.2566725735,6919.0512890946
5543697076,6240,-2,0,11519.4384393061,44443.1331983336,37365.8288443599,48385.9658445366,48817.2985292130,48646.2450472761,52043.9648758113,68424.4590343668,50859.7437825184,6915.0602845366
5543697076,6240,-2,0,11539.7098222131,44465.3514127323,37399.1318305643,48409.5590086763,48839.5897497927,48703.4210546471,52065.6477115498,68452.5177432405,50881.1589289268,6943.0094841389
5543727393,6241,-2,0,11561.6725149786,44491.4267870239,37428.8575139027,48428.4311064486,48863.6574541085,48692.1172642986,52084.9700141046,68476.6827891309,50906.7840984359,6961.3948740384
5543727393,6241,-2,0,11549.3101350064,44484.0653304460,37411.3481981745,48408.7924437764,48851.8182850997,48644.2008742099,52072.6319695261,68459.5263366106,50898.7777539264,6948.8743140076
5543727393,6241,-2,0,11528.9170751312,44465.8137852116,37389.6653624360,48391.4413081069,48836.4018132251,48646.9142706014,52057.8725532799,68444.7669203643,50885.3567843307,6936.6092756101
5543727393,6241,-2,0,11525.5222877176,44463.6479351771,37387.1709845873,48392.7432516670,48835.3553912983,48657.8895331357,52058.5661119988,68445.9228515625,50886.6830632844,6936.9864742116
5543727393,6241,-2,0,11526.2645172238,44465.8867913925,37387.3778354333,48398.7297585038,48837.7402598756,48666.5894363641,52060.3304280381,68448.6970864381,50889.9196706393,6941.6345343979
5543727393,6241,-2,0,11538.1766924134,44477.6042834330,37401.8938977431,48414.6086028578,48849.9201243954,48684.9626585667,52070.2105978584,68461.3393234372,50897.0377732808,6951.6363811864
5543727393,6241,-2,0,11545.4651428104,44485.8174787885,37411.0683411476,48423.9047232305,48856.7096992226,48668.1469015574,52078.1196007933,68465.6831912030,50899.4591449485,6949.7503881788
5543727393,6241,-2,0,11531.6426392195,44472.1653229532,37390.5292689105,48404.6554268566,48841.6095874653,48622.0313305985,52062.6301227377,68446.6894164624,50886.9507526145,6926.5952611248
5543787526,6242,-2,0,11510.4830144444,44453.1107097284,37370.5985815145,48382.8509141499,48824.6721534877,48630.8407430983,52042.0180443196,68429.8006532721,50869.9281447592,6920.4870773197
5543787526,6242,-2,0,11519.1585822792,44459.9124522525,37388.0713941522,48395.4079772712,48834.3211370683,48675.5448612258,52049.6593579244,68442.5158964521,50875.9633223834,6941.1843296155
5543787526,6242,-2,0,11535.0982651172,44477.7381280981,37406.5176225358,48411.6518525298,48850.1878137255,48667.6601936845,52063.8833955104,68456.4965801016,50892.1828622484,6956.0897582236
5543787526,6242,-2,0,11528.5277088329,44472.6155277356,37396.1750802363,48401.7473473159,48842.0719599446,48642.2905458087,52056.3272557834,68443.7448338312,50887.6199759398,6945.9540667701
5543787526,6242,-2,0,11524.5488719718,44465.0837234022,37387.4995124015,48395.0429463665,48836.0976208045,48654.0688763333,52052.3849220127,68437.6366500261,50881.1589289268,6936.6092756101
5543787526,6242,-2,0,11527.2257652728,44465.7529467275,37392.4152619180,48397.2087964010,48836.4261486187,48655.4681614679,52054.4777658663,68439.7416615765,50882.8624064820,6931.6813583968
5543787526,6242,-2,0,11526.5200388571,44464.0007983850,37394.5932796493,48396.1258713837,48835.6595837189,48654.8111058395,52053.4800147268,68438.9507612830,50883.3734497486,6928.8949558243
5543787526,6242,-2,0,11528.3208579869,44467.6876105223,37400.8353081195,48402.2583905825,48840.0886253624,48669.8017083253,52058.6877889670,68446.4095594354,50882.6920587265,6941.6588697916
5543797643,6243,-2,0,11531.3384467990,44473.8809682052,37404.5829587409,48408.3544066908,48843.1548849618,48654.8597766268,52063.7373831486,68449.7313406681,50888.2648638714,6950.9063193770
5543797643,6243,-2,0,11516.8953906701,44456.4081555675,37380.5760929093,48386.3673785317,48825.5725630526,48615.5702835855,52047.5421786772,68427.4279523916,50877.8614830878,6930.8052842255
5543797643,6243,-2,0,11498.8871993722,44435.7352386653,37361.7648336210,48367.2397591261,48806.8464776421,48626.0466705500,52030.8846017266,68411.9871451233,50861.0213906849,6922.0323748162
5543797643,6243,-2,0,11511.3590886157,44443.9362663239,37378.7631060827,48384.3475408591,48817.3350323035,48666.1148961880,52042.9914600654,68425.6149655650,50868.6505365928,6939.2131627302
5543797643,6243,-2,0,11527.3839453315,44456.2864785992,37392.8289636100,48400.2507206067,48826.9718481873,48655.2856460156,52055.9865602723,68436.4320480406,50880.6357179634,6946.1000791320
5543797643,6243,-2,0,11524.0864994925,44450.2391332782,37383.3746631786,48394.9699401855,48820.1457702696,48634.5762260229,52052.4335928000,68430.0561749054,50877.0462474007,6938.3370885589
5543797643,6243,-2,0,11518.2460050175,44443.1818691209,37372.3507298570,48390.0298552754,48816.3494488609,48639.6014848108,52048.5155944231,68426.1746796189,50869.6847908228,6937.4488466908
5543797643,6243,-2,0,11516.0801549830,44445.5424023046,37374.1028781995,48388.1195268742,48818.0650941129,48642.4973966547,52047.6516879486,68427.4644554821,50872.3616841238,6940.0892369014
5543825462,6244,-2,0,11504.0828059156,44445.7005823633,37378.3859074812,48383.6783175339,48818.6734789540,48657.0134589644,52043.2591493955,68428.5230451057,50876.4621979532,6940.9044725886
5543825462,6244,-2,0,11505.6159357153,44454.4491563790,37395.3355091555,48394.1303691048,48825.8402523827,48686.3862790950,52050.3042458560,68442.6740765108,50884.5172132500,6948.7891401298
5543825462,6244,-2,0,11518.2460050175,44468.3203307571,37407.7830630054,48406.5779229546,48837.7767629661,48671.9918937535,52060.5251111873,68452.9801157198,50896.3563822587,6950.0302452058
5543825462,6244,-2,0,11516.0436518925,44463.8669537199,37387.8158725189,48396.4543991980,48833.1043673860,48633.6271456707,52053.0541453380,68442.0291885792,50892.9980979355,6939.1766596397
5543825462,6244,-2,0,11509.9233003906,44456.9922050150,37377.1569701020,48389.1294457105,48830.1232816644,48657.6096761088,52047.7611972200,68438.4640534100,50885.9530014751,6949.9937421153
5543825462,6244,-2,0,11522.0909972135,44471.7759566548,37400.9083143004,48405.7140164802,48846.6105108595,48701.5715647300,52058.7121243607,68456.6912632508,50900.9922747482,6973.4043908026
5543825462,6244,-2,0,11536.1811901345,44488.7742291165,37420.7051570313,48416.2877450193,48861.8688026755,48693.5652202205,52069.6265484109,68469.9905558783,50917.4064977624,6982.2503063929
5543825462,6244,-2,0,11533.6016384080,44487.6548010088,37416.7871586544,48410.2769027888,48859.1189031935,48679.0856610012,52068.6896357555,68465.4398372665,50912.6002575173,6974.0492787343
5543856541,6245,-2,0,11527.9071562949,44483.2379270620,37406.8948211373,48403.5968372330,48854.7507000341,48670.2640808046,52063.7130477549,68458.6137593488,50903.8760188953,6959.7035641800
5543856541,6245,-2,0,11512.0161442441,44470.5835223662,37391.4296784753,48387.1947819157,48840.6240040226,48643.9940233639,52049.7932025895,68444.6330756993,50888.9219194999,6941.8048821535
5543856541,6245,-2,0,11501.3815772209,44460.6790171523,37383.1313092421,48380.5147163599,48831.7537530387,48653.1441313747,52042.0058766228,68438.8047489211,50880.1246746969,6939.7607090872
5543856541,6245,-2,0,11509.8502942096,44467.2374057399,37396.5644465346,48395.2497972125,48839.5654143990,48687.9194088947,52051.3993385701,68453.9170283752,50883.3004435677,6953.2790202575
5543856541,6245,-2,0,11529.2334352486,44482.0698281670,37411.1413473285,48411.9438772536,48851.3315772268,48676.2627553383,52064.7107988944,68464.5394277016,50894.7137431876,6960.2146074466
5543856541,6245,-2,0,11522.2491772722,44473.6376142687,37390.6996166660,48397.2209640978,48839.3828989467,48627.2999433228,52053.4313439395,68444.7425849707,50885.1377657879,6940.6854540458
5543856541,6245,-2,0,11509.9111326938,44461.0927188443,37377.2056408893,48381.0500950201,48827.4707237570,48641.5483163025,52040.7526038500,68432.4532111795,50873.3594352633,6925.2568144743
5543856541,6245,-2,0,11519.0734084014,44472.0314782881,37393.4738515416,48393.0839471780,48837.3995643645,48671.1036518854,52048.1627312152,68446.0810316212,50881.5726306188,6942.6566209311
5543878816,6246,-2,0,11528.4790380456,44482.6538776145,37401.8938977431,48401.1024593843,48844.0674622235,48663.8517045789,52055.4998523994,68453.3329789277,50891.3919619549,6958.1947697740
5543878816,6246,-2,0,11526.6052127348,44479.7579657707,37396.6982911997,48399.5206587973,48843.0697110840,48663.1581458600,52054.0640641743,68451.0454519250,50887.9485037540,6962.3074513001
5543878816,6246,-2,0,11534.4898802761,44484.3695228666,37402.5874564620,48404.5094144947,48849.9201243954,48665.8472068579,52061.1578314221,68455.5596674463,50888.5203855047,6961.6503956717
5543878816,6246,-2,0,11528.1748456250,44476.6430353840,37390.1155672185,48392.2930468845,48842.1449661255,48632.3982082916,52052.7256175238,68444.0368585549,50879.6988053081,6941.6953728821
5543878816,6246,-2,0,11513.7074541025,44460.8858679983,37372.1803821015,48378.4583755968,48828.6753257425,48627.1539309609,52037.9662012776,68429.8249886658,50861.0335583817,6927.9945462594
5543878816,6246,-2,0,11521.2270907391,44466.7993686542,37384.7496129196,48394.6049092809,48835.3797266919,48675.4231842575,52049.5863517435,68445.2536282372,50867.5311084851,6941.4520189456
5543878816,6246,-2,0,11540.7927472304,44487.3871116787,37403.8650646284,48417.2489930684,48853.1080609630,48675.2893395925,52067.1565059558,68461.3758265276,50886.2085231083,6954.4227837589
5543878816,6246,-2,0,11532.3118625448,44479.1860840200,37386.1610657510,48403.8523588663,48842.0719599446,48633.3229532502,52058.6999566639,68446.2270439831,50877.9466569656,6942.9973164421
5543925822,6247,-2,0,11518.4650235603,44463.2707365756,37367.2524648882,48385.3087889081,48828.7970027107,48641.4266393342,52045.1816454936,68434.2540303093,50864.5013519762,6937.7408714146
5543925822,6247,-2,0,11523.4537792577,44464.4510031674,37372.7400961553,48387.2556203998,48831.5347344959,48655.7115154044,52046.4349182663,68436.7240727644,50866.1318233505,6941.4398512488
5543925822,6247,-2,0,11529.7688139088,44470.6200254567,37379.7000187380,48393.4611457795,48836.4261486187,48657.8773654389,52050.8761276067,68441.4451391317,50872.7753858158,6939.6390321190
5543925822,6247,-2,0,11534.1735201587,44477.4826064648,37388.1687357268,48401.7960181032,48845.0530456662,48669.0351434255,52055.4390139153,68446.6894164624,50878.0074954497,6942.7052917184
5543925822,6247,-2,0,11539.6124806386,44488.2388504563,37396.1020740554,48409.7901949159,48853.7772842882,48672.0405645408,52061.0239867570,68453.8075191038,50886.5857217099,6952.3786106926
5543925822,6247,-2,0,11533.0175889605,44483.7611380254,37383.4355016627,48398.9122739562,48847.5352558181,48631.7654880568,52053.2001576999,68441.6276545840,50881.0980904427,6948.6309600711
5543925822,6247,-2,0,11512.6245290853,44463.9399599009,37363.0059386970,48378.1298477826,48828.5049779870,48632.3617052011,52036.2992268128,68424.1426742494,50861.8974648561,6938.2884177716
5543925822,6247,-2,0,11517.3820985430,44469.4032557744,37379.7486895253,48388.6427378376,48837.8984399343,48678.2704253141,52041.7260195959,68437.0039297913,50867.4337669105,6948.0469106236
5543950090,6248,-2,0,11533.5286322271,44485.1725908569,37400.9326496941,48405.0326254581,48854.8115385182,48676.0315690987,52054.8184613773,68450.3275578124,50883.0205865407,6956.6981430647
5543950090,6248,-2,0,11528.3086902900,44480.2568413404,37391.8190447737,48393.6923320191,48848.8737024686,48643.8723463956,52046.8851230488,68438.9020904957,50879.8569853668,6947.6940474158
5543950090,6248,-2,0,11512.2716658774,44465.0958910990,37375.8185234515,48377.6918106970,48835.4649005697,48640.5018943757,52032.8070978246,68425.2499346603,50867.2147483677,6935.6358598642
5543950090,6248,-2,0,11508.0494750798,44460.4356632158,37373.6161703266,48375.4407867847,48830.4274740850,48646.3667242444,52030.9819433012,68423.7654756479,50863.6496131986,6934.2122393359
5543950090,6248,-2,0,11512.4055105425,44460.8493649078,37376.0983804784,48378.5313817778,48832.7636718750,48655.9913724313,52033.2573026071,68428.9732498881,50870.3053433608,6944.4939431513
5543950090,6248,-2,0,11523.7944747687,44469.5005973489,37383.7761971737,48391.1736187768,48841.0863765019,48678.6232885220,52043.3808263638,68437.8313331752,50877.3261044276,6963.7067364348
5543950090,6248,-2,0,11538.0306800516,44481.6804618687,37395.2138321873,48402.9276139078,48848.3261561115,48668.4754293716,52054.1614057489,68446.2757147704,50881.3049412887,6971.8469256093
5543950090,6248,-2,0,11527.2257652728,44472.5911923420,37381.1236392663,48386.5985647714,48837.8254337533,48629.5022964478,52043.5876772098,68429.7033116975,50872.2765102461,6954.8486531477
5543984139,6249,-2,0,11508.9133815543,44454.9480319487,37363.6021558413,48368.2618456592,48819.8172424554,48629.8673273524,52029.1446210809,68414.0678212800,50855.0470515448,6938.5682747986
5543984139,6249,-2,0,11510.8602130459,44457.0652111959,37370.7080907859,48376.6088856797,48822.1291048518,48662.1360593269,52035.1189602210,68422.9745753544,50854.5968467623,6938.7872933414
5543984139,6249,-2,0,11524.5488719718,44471.2284102978,37384.8226191005,48392.8162578479,48833.7005845304,48663.2433197378,52048.2114020025,68436.2373648914,50870.2323371798,6948.8864817044
5543984139,6249,-2,0,11521.8233078834,44469.1842372315,37374.3949029232,48386.2700369571,48827.1786990333,48637.3139578081,52044.1717266573,68428.6082189835,50866.9835621281,6945.0901602957
5543984139,6249,-2,0,11516.8588875797,44463.5627612993,37364.2348760761,48380.1618531520,48821.7519062502,48636.4378836368,52040.4970822167,68423.0475815354,50858.0889757505,6939.3348396984
5543984139,6249,-2,0,11516.4451858877,44462.5771778567,37362.5435662177,48380.6120579345,48821.4233784360,48636.6934052701,52042.0180443196,68421.5144517357,50856.6775229191,6935.7818722261
5543984139,6249,-2,0,11516.2626704353,44461.7862775632,37362.9572679097,48379.4804621299,48823.3823776245,48646.2693826698,52042.4074106179,68424.0331649780,50855.9961318970,6934.0783946709
5543984139,6249,-2,0,11528.5398765297,44474.7327069828,37381.5130055647,48394.4467292222,48839.9182776069,48684.0987520923,52053.1879900031,68440.0701893907,50868.1516610231,6950.5534561692
5544028082,6250,-2,0,11548.4948993193,44493.1302645791,37401.5166991416,48412.0533865250,48857.2815809732,48684.3664414224,52068.9208219951,68457.2996480920,50887.2671127319,6966.9920145770
5544028082,6250,-2,0,11540.1600269956,44487.0342484708,37388.2174065141,48401.1511301716,48850.9665463221,48644.0548618480,52060.7197943365,68444.9129327262,50885.8799952941,6959.4237071531
5544028082,6250,-2,0,11518.1364957461,44468.7583678427,37367.9460236071,48381.3299520470,48838.6650048341,48650.7227597070,52046.0577196648,68429.5694670325,50870.7920512337,6947.1343333619
5544028082,6250,-2,0,11520.3023457805,44477.1784140442,37380.4300805474,48391.6116558624,48843.6537605315,48676.2140845510,52053.6138593919,68443.1121135964,50873.2134229014,6950.6629654406
5544028082,6250,-2,0,11524.5732073654,44489.9058249210,37392.0867341038,48400.3845652718,48851.5140926792,48667.8792122273,52058.9798136908,68451.3009735582,50881.3171089855,6947.8765628681
5544028082,6250,-2,0,11521.9571525485,44489.9301603147,37387.4508416142,48391.5629850751,48847.2797341848,48656.3320679423,52050.1338981005,68444.5965726088,50879.6744699144,6943.7638813420
5544028082,6250,-2,0,11522.4803635119,44486.9855776835,37385.8933764209,48388.0221852996,48843.6780959252,48652.6695911986,52046.9216261392,68439.5713138209,50875.3914406327,6943.9707321879
5544028082,6250,-2,0,11522.7602205388,44484.0166596587,37380.0285465523,48385.5643105414,48838.7501787119,48641.5726516961,52042.6994353417,68432.0151740939,50872.3981872143,6940.7584602267
5544046640,6251,-2,0,11512.6731998726,44475.8886381810,37368.6882531133,48378.9329157729,48831.2913805594,48646.7195874522,52035.6300034876,68423.9844941907,50865.8519663236,6939.1036534588
5544046640,6251,-2,0,11521.2270907391,44483.4812809985,37377.2786470703,48391.3196311387,48839.2612219785,48682.6872992608,52043.9527081144,68436.1765264073,50871.5586161335,6948.7404693425
5544046640,6251,-2,0,11539.8436668782,44502.2317018027,37390.9429706024,48407.1741400990,48853.0472224788,48669.1081496064,52058.1524103068,68448.9647757682,50883.9088284088,6961.4800479162
5544046640,6251,-2,0,11534.7210665157,44496.0626795134,37377.0474608306,48392.5850716082,48843.0818787809,48626.6550553912,52048.4060851516,68435.3491230234,50877.9831600560,6954.6904730890
5544046640,6251,-2,0,11513.8534664644,44474.6475331050,37355.9121714492,48369.0892490432,48825.6820723241,48631.4004571521,52029.5096519856,68418.5090306204,50866.1804941378,6945.1753341734
5544046640,6251,-2,0,11512.4055105425,44476.9472278046,37361.7648336210,48372.4231979726,48829.7582507597,48663.0729719823,52031.9066882597,68430.0440072086,50874.3693540996,6951.1740087071
5544046640,6251,-2,0,11518.5623651349,44485.9756588472,37372.9834500918,48381.4394613184,48837.6915890883,48662.0508854491,52040.0590451311,68440.6907419286,50885.3811197244,6953.6075480717
5544046640,6251,-2,0,11522.0058233358,44490.4168681876,37379.6026771634,48386.6715709523,48841.4392397098,48666.6867779387,52043.5025033320,68445.5699883546,50888.6542301697,6955.2866902333
5544075310,6252,-2,0,11534.8062403935,44497.2672814989,37392.8289636100,48401.0902916875,48850.5771800238,48684.4637829970,52054.8306290742,68455.4258227812,50893.2657872656,6966.1646111930
5544075310,6252,-2,0,11543.4696405314,44499.7494916508,37400.4094387307,48406.2372274436,48855.1278986356,48671.9188875725,52058.1524103068,68457.7985236617,50896.9891024935,6969.0970261273
5544075310,6252,-2,0,11537.4587983009,44492.3028611951,37397.3188437377,48402.0758751301,48849.0197148305,48678.0270713776,52054.1735734457,68455.0607918765,50889.7371551870,6967.1380269388
5544075310,6252,-2,0,11543.6034851965,44505.1519490402,37420.5469769726,48422.7487920323,48865.0567392431,48726.8438710313,52071.4517029343,68479.0554900114,50902.4158952765,6978.1862956541
5544075310,6252,-2,0,11558.5332491982,44526.9077909596,37445.7706124866,48447.1328564655,48884.2938679202,48729.9709691148,52094.4729853233,68504.3399640094,50926.4470965018,6978.8920220698
5544075310,6252,-2,0,11555.3453126306,44523.9875437221,37436.3041443584,48439.9174122495,48877.2244360660,48687.1163409044,52092.8911847363,68496.2849487127,50930.4137656661,6975.9474394386
5544075310,6252,-2,0,11542.8612556903,44505.3222967957,37413.3923712408,48422.6514504577,48861.4185978930,48676.2627553383,52079.2025258105,68480.0289057572,50915.3501569993,6973.3070492281
5544075310,6252,-2,0,11542.0095169127,44500.9784290299,37409.4743728638,48420.9966436898,48860.5425237218,48686.4836206696,52077.6693960108,68478.5931175321,50908.9256130768,6971.8955963966
5544109240,6253,-2,0,11539.0892696752,44502.5845650105,37411.7740675633,48419.8650478853,48862.7935476340,48686.7756453933,52075.1506827685,68482.1339173076,50911.1888046858,6963.9987611585
5544109240,6253,-2,0,11542.3258770301,44510.1285370407,37419.1355241412,48424.9633128541,48870.8120598403,48711.8045977581,52081.0520157276,68489.3736969172,50917.5890132147,6967.1745300293
5544109240,6253,-2,0,11555.2601387529,44522.4665816192,37431.6804195656,48437.1918481612,48881.4466268636,48706.7793389703,52090.8591793669,68497.7450723314,50925.5831900274,6971.2750438586
5544109240,6253,-2,0,11549.3953088842,44518.6824279073,37420.9850140583,48425.5108592111,48873.9999964080,48671.4686827901,52079.4580474438,68483.0829976598,50918.5015904764,6960.7378184100
5544109240,6253,-2,0,11533.7111476794,44504.7869181355,37406.5906287167,48405.9938735071,48860.7980453551,48676.8833078763,52061.4376884490,68467.3623333645,50905.7863472965,6956.1505967077
5544109240,6253,-2,0,11541.6931567953,44514.6670879557,37423.9174289926,48417.8087071222,48872.3938604273,48730.2021553544,52067.1200028653,68481.0753276840,50913.9022010774,6973.3070492281
5544109240,6253,-2,0,11561.3561548612,44536.8731346576,37448.8612074796,48438.2504377848,48891.6918275885,48741.5911195807,52082.4878039527,68501.4318844688,50934.5386148891,6989.0885520074
5544109240,6253,-2,0,11559.4701618536,44537.9925627653,37444.1158057187,48434.0160792904,48891.4606413489,48710.8920204964,52079.9082522262,68495.3480360573,50936.0717446888,6978.4053141969
5544154011,6254,-2,0,11549.0302779795,44530.2904106764,37432.1062889544,48423.9290586242,48886.1311901404,48708.4219780414,52071.4273675407,68486.6846359194,50927.3110029762,6968.7684983131
5544154011,6254,-2,0,11556.2335544987,44537.3598425305,37439.4677455323,48432.5316202780,48892.7260818185,48728.7420317357,52078.0952653996,68492.3912857293,50930.9613120231,6988.2854840171
5544154011,6254,-2,0,11564.3859113701,44547.3981924094,37452.8278766439,48442.8133240934,48901.7423451643,48737.6974565974,52088.1214475817,68498.4994695344,50937.4831975202,7003.5437758331
5544154011,6254,-2,0,11569.9343811213,44553.1413453098,37467.9401560980,48453.9589343832,48908.6292615660,48754.4158720321,52099.2427224779,68505.3620505426,50943.9685799268,7012.9007346899
5544154011,6254,-2,0,11579.4373523400,44561.4032114526,37480.7405731557,48464.6786752842,48916.7451153470,48747.5532910239,52110.8507052470,68512.1394576730,50951.8654151649,7009.0557424939
5544154011,6254,-2,0,11565.8338672920,44547.7632233141,37460.0798239504,48444.6141432232,48898.7004209585,48695.0253438393,52095.9452766389,68488.8748213475,50941.2795189290,6985.3287336891
5544154011,6254,-2,0,11542.1068584873,44525.9952136979,37429.1617063233,48415.7036955718,48875.8859894155,48685.4858695301,52075.2480243431,68467.3258302741,50920.3997511808,6969.0605230369
5544154011,6254,-2,0,11541.8270014603,44527.2484864706,37433.4569033018,48421.4346807754,48875.1680953030,48722.5365063560,52081.2588665736,68473.1176539618,50915.9463741436,6975.1808745388
5544170289,6255,-2,0,11550.0280291190,44537.5423579828,37448.9098782669,48433.3833590556,48883.5029676267,48717.2313905412,52093.5239049711,68481.7080479188,50924.0135571372,6980.6320027155
5544170289,6255,-2,0,11541.6444860080,44529.9618828621,37440.0274595862,48423.3571768735,48871.1527553514,48690.6206375894,52086.7586655376,68469.3091648562,50916.4452497134,6969.9122618145
5544170289,6255,-2,0,11539.7098222131,44524.2552330522,37431.6195810815,48419.5973585552,48864.8742237907,48694.4047913013,52085.4810573712,68466.5105945869,50911.2618108668,6963.9744257649
5544170289,6255,-2,0,11547.0347757006,44526.6522693263,37434.3694805635,48422.9313074847,48868.7192159868,48703.4332223439,52088.4621430928,68475.3321747836,50917.4673362465,6965.8360833788
5544170289,6255,-2,0,11550.8432648061,44531.8722112633,37439.2122238990,48425.7542131476,48871.7489724957,48716.7446826682,52090.3481361003,68486.1127541687,50927.0676490398,6976.7991782162
5544170289,6255,-2,0,11562.4755829689,44538.9659785111,37450.9418836364,48438.3599470562,48882.4078749126,48740.2770083238,52098.3179775194,68501.2493690164,50936.6192910458,6996.1458161647
5544170289,6255,-2,0,11576.7604590390,44550.4279489183,37461.9414815643,48454.1171144419,48894.2957147086,48732.0638129683,52111.4590900881,68512.8208486950,50943.1655119365,7000.9398887130
5544170289,6255,-2,0,11565.0429669985,44538.3454259731,37442.3149865889,48439.0535057751,48880.4002049368,48678.3677668887,52099.9606165904,68494.7883220034,50930.2069148201,6973.5747385582
5544206276,6256,-2,0,11541.7053244921,44513.8761876622,37418.9408409920,48417.3098315525,48860.7128714773,48677.0658233286,52080.2489477373,68474.3952621282,50909.4853271306,6946.6719608826
5544206276,6256,-2,0,11540.7075733526,44510.7855926692,37426.6551607778,48426.2044179300,48863.6939571989,48715.1872174749,52083.7775798159,68483.4845316549,50910.3857366955,6947.6332089317
5544206276,6256,-2,0,11552.1452083662,44520.3372346752,37440.4168258845,48440.2216046701,48874.8639028824,48716.2944778858,52092.8425139490,68498.1831094170,50922.9184644232,6955.2866902333
5544206276,6256,-2,0,11552.8874378724,44517.0884596235,37432.2279659227,48434.6244641315,48873.8296486524,48698.4444666465,52087.5982366183,68495.7130669620,50922.6629427899,6956.1019259204
5544206276,6256,-2,0,11550.8432648061,44512.8054303418,37423.5158949975,48428.0417401503,48873.5741270192,48698.0551003482,52081.1980280895,68493.3768691720,50920.9838006283,6959.3628686690
5544206276,6256,-2,0,11547.3998066052,44511.0167789088,37415.8380783022,48419.5973585552,48873.8539840461,48684.5854599652,52073.7148945434,68487.7310578461,50916.7737775276,6957.8297388693
5544206276,6256,-2,0,11537.8116615088,44505.3344644925,37408.0507523355,48407.1133016148,48871.2500969260,48686.3254406109,52064.1389171437,68481.2456754395,50910.7872706907,6949.1055002472
5544206276,6256,-2,0,11542.3623801205,44513.0366165814,37421.8489205327,48417.9303840904,48882.2861979444,48731.2850803717,52067.1686736526,68491.0650067756,50915.3258216056,6965.8725864692
5544232463,6257,-2,0,11558.9469508902,44535.5955264912,37446.2329849659,48438.5424625085,48904.1758845288,48738.4518538004,52081.8064129306,68506.0434415647,50932.4701064292,6984.9393673908
5544232463,6257,-2,0,11553.8608536182,44533.5756888185,37435.0752069792,48429.1733359548,48897.8486821809,48694.6116421473,52071.9627462009,68488.1082564476,50927.7977108492,6970.2164542350
5544232463,6257,-2,0,11536.1446870440,44513.3529766988,37412.4311231917,48406.7969414975,48878.7940689562,48677.9662328935,52050.8152891226,68464.7341108508,50903.9733604698,6946.2095884034
5544232463,6257,-2,0,11529.8418200897,44505.7116630940,37406.7244733818,48404.6310914630,48870.4105258452,48693.0541769540,52046.7269429901,68458.6259270457,50890.8565832947,6943.8490552197
5544232463,6257,-2,0,11536.5097179487,44515.1416281318,37409.9002422526,48412.8321191216,48876.6160512249,48694.3439528172,52053.1879900031,68464.2960737651,50896.1982022000,6954.1794298224
5544232463,6257,-2,0,11530.2920248722,44517.0397888362,37410.0219192208,48409.2548162557,48876.4578711662,48688.8441538532,52051.1316492400,68461.5340065863,50897.4879780632,6953.4372003162
5544232463,6257,-2,0,11529.9513293611,44518.3539000931,37413.4410420280,48411.5666786520,48877.3582807311,48693.5408848269,52056.7166220817,68462.8846209337,50898.8142570169,6952.3664429958
5544232463,6257,-2,0,11533.4434583493,44518.1470492471,37412.7231479155,48411.9682126472,48875.5574616013,48677.2118356905,52057.0451498959,68459.2951503709,50899.4104741612,6949.0689971568
5544264333,6258,-2,0,11529.2577706422,44510.7490895787,37405.7388899391,48406.5292521673,48869.1450853756,48679.9860705661,52053.3583377586,68454.1603823116,50894.8475878526,6945.0414895084
5544264333,6258,-2,0,11534.5385510634,44512.7932626450,37416.9575064099,48417.9790548777,48871.7124694052,48711.0502005551,52062.5814519504,68461.7651928260,50895.9183451730,6961.6990664590
5544264333,6258,-2,0,11543.3966343505,44524.5229223823,37433.8949403874,48432.8601480922,48879.8648262766,48713.9096093085,52076.4039555412,68475.7945472628,50905.9931981424,6973.0636952916
5544264333,6258,-2,0,11533.9301662222,44518.3052293058,37423.8444228117,48419.2323276505,48869.8021410040,48672.4542662327,52069.6022130172,68461.7530251291,50905.0927885775,6961.3340355543
5544264333,6258,-2,0,11514.3523420341,44499.7616593476,37404.0232446871,48395.7973435695,48851.9034589775,48669.2419942715,52052.2632450445,68444.5722372152,50892.3653777007,6945.4430235035
5544264333,6258,-2,0,11511.4199270998,44498.3015357288,37409.7785652843,48398.5229076578,48849.8471182144,48692.5066305970,52054.1735734457,68449.2568004920,50893.2049487815,6944.1167445498
5544264333,6258,-2,0,11516.1896642544,44503.8135023896,37420.1454429775,48406.9672892530,48851.6844404347,48692.8229907143,52062.1069117743,68456.2532261652,50898.8264247137,6949.3245187900
5544264333,6258,-2,0,11518.3068435016,44504.2637071721,37420.9728463615,48412.1872311900,48851.8912912807,48701.9609310284,52065.5747053688,68459.8791998184,50901.7953427385,6955.1650132651
5544295645,6259,-2,0,11524.2690149448,44510.2502140090,37426.7403346555,48417.8817133031,48859.2770832522,48707.9839409557,52075.0533411939,68467.6178549978,50909.9963703972,6961.6503956717
5544295645,6259,-2,0,11519.4506070029,44508.1938732459,37416.3734569624,48410.7271075713,48856.0161405036,48673.2208311326,52072.1452616532,68460.0252121803,50909.7165133703,6957.5985526296
5544295645,6259,-2,0,11500.8583662575,44492.2420227110,37400.5676187894,48392.7067485765,48843.4712450792,48664.6426048724,52059.8193847716,68445.8741807752,50896.9891024935,6947.0613271810
5544295645,6259,-2,0,11500.1283044481,44491.3294454493,37410.3869501255,48400.4454037559,48845.6492628105,48699.8559194780,52061.5837008109,68453.3816497150,50896.4902269237,6958.1947697740
5544295645,6259,-2,0,11513.8656341612,44503.0956082771,37423.3577149387,48415.4116708481,48855.0183893642,48698.3957958593,52072.7901495848,68464.9287939999,50902.2333798242,6964.2542827918
5544295645,6259,-2,0,11511.2009085570,44498.7882436018,37409.8759068589,48405.1421347295,48845.8317782628,48663.5961829456,52064.3701033833,68451.6051659788,50893.4969735053,6942.4862731755
5544295645,6259,-2,0,11502.2698190889,44488.9080737815,37389.1056483822,48391.8671774957,48836.2923039537,48660.7367741922,52051.9468849271,68439.2792890972,50876.9002350388,6934.8084564803
5544295645,6259,-2,0,11502.7686946587,44493.3006123346,37395.2746706714,48393.8505120778,48841.2202211670,48689.4160356039,52051.8495433525,68445.1806220563,50879.6014637335,6948.8134755235
5544328872,6260,5,0,11509.4974310018,44504.0690240229,37416.4099600528,48402.1367136143,48854.9332154864,48706.6454943052,52057.3493423165,68458.0905483854,50897.0134378871,6959.1316824293
5544328872,6260,5,0,11515.9828134084,44512.8419334323,37431.3518917514,48409.4008286176,48866.9914030379,48720.3219855342,52064.5039480484,68466.7904516139,50905.9810304456,6965.5318909582
5544328872,6260,5,0,11529.5862984565,44522.7099355557,37442.1203034397,48422.3715934308,48877.9788332691,48719.5310852407,52073.7513976338,68477.4858571212,50913.3059839330,6966.5904805818
5544328872,6260,5,0,11531.1072605593,44521.9555383526,37425.4748941859,48417.3828377334,48872.9049036939,48673.4641850690,52070.7824796090,68466.7417808266,50906.8936077073,6956.2479382823
5544328872,6260,5,0,11518.4406881666,44503.4119683945,37399.8618923737,48397.8050135453,48856.7705377067,48667.9765538019,52053.1758223062,68447.8210122669,50887.9606714508,6941.0018141631
5544328872,6260,5,0,11525.1572568129,44504.8842597101,37409.1945158368,48406.2493951404,48860.6763683868,48707.3755561146,52056.9721437150,68456.4235739207,50885.7218152354,6953.8387343114
5544328872,6260,5,0,11539.6733191227,44518.2930616089,37426.6186576873,48422.0308979198,48871.7733078894,48706.5359850338,52068.4706172127,68466.6444392520,50893.9106751973,6969.1578646114
5544328872,6260,5,0,11531.7278130973,44513.4259828798,37413.9155822041,48410.5080890284,48863.2802555069,48667.1734858116,52058.1037395195,68453.8683575879,50885.7096475386,6959.8374088451
5544381890,6261,5,0,11516.0801549830,44500.5647273379,37394.6541181334,48394.5927415840,48848.4356653830,48661.6980222413,52044.7071053175,68437.7461592975,50870.7068773559,6942.6322855374
5544381890,6261,5,0,11518.5501974380,44500.7837458807,37394.2282487446,48397.9510259072,48849.0562179209,48673.5128558563,52047.5178432836,68439.6321523050,50873.7974723489,6943.6908751610
5544381890,6261,5,0,11517.9539802937,44500.0658517682,37396.7347942902,48397.0627840391,48849.5794288843,48675.4231842575,52048.6251036945,68439.8511708479,50879.3702774939,6949.1176679441
5544381890,6261,5,0,11519.8034702108,44505.0667751624,37407.2111812547,48403.8523588663,48854.6776938531,48702.2286203585,52053.0784807317,68448.1252046875,50886.4032062575,6961.5652217939
5544381890,6261,5,0,11537.7873261151,44520.4832470371,37426.0832790271,48422.3107549467,48869.1572530724,48710.1011202029,52069.7603930759,68463.2739872320,50904.7885961570,6973.5504031645
5544381890,6261,5,0,11536.2055255281,44518.1592169439,37413.5140482090,48414.3774166181,48864.9350622749,48663.1703135568,52064.8811466499,68453.5763328641,50903.8030127143,6962.6116437207
5544381890,6261,5,0,11511.3347532220,44495.3082823104,37386.8059536826,48388.6184024440,48845.5397535391,48659.0211289402,52046.0698873616,68433.4266269253,50887.4374604875,6942.9608133516
5544381890,6261,5,0,11512.7462060535,44497.4376292544,37399.4603583785,48398.0727028754,48851.6966081315,48712.9970320468,52049.4160039879,68445.9593546530,50894.0201844687,6956.9780000917
5544389359,6262,5,0,11531.0585897720,44514.4237340192,37422.5911500389,48418.7577874744,48866.9305645538,48708.0082763494,52066.1465871195,68462.6290993004,50908.4267375070,6969.6810755748
5544389359,6262,5,0,11527.5421253902,44509.0699474171,37412.0539245902,48410.9947969014,48859.3014186458,48672.5759432010,52059.0163167812,68452.7732648738,50899.4834803422,6963.0375131095
5544389359,6262,5,0,11516.2748381322,44496.4642135086,37393.9240563241,48399.7031742497,48847.2919018816,48657.6096761088,52048.0045511565,68440.0945247843,50883.3856174454,6957.9149127470
5544389359,6262,5,0,11510.9210515301,44491.7188117476,37385.9055441177,48394.6292446745,48841.2202211670,48646.1477057015,52042.7116030385,68432.9034159620,50873.7366338648,6953.6927219495
5544389359,6262,5,0,11501.5884280669,44481.3154309640,37376.1835543562,48380.5755548440,48832.3986409703,48650.6375858292,52030.3492230664,68421.5387871293,50865.7911278394,6944.9198125401
5544389359,6262,5,0,11507.4532579355,44485.8539818790,37389.3003315313,48385.5764782382,48838.0687876898,48692.7621522302,52034.5470784703,68430.8592428957,50870.5000265099,6952.8044800814
5544389359,6262,5,0,11529.6471369406,44507.7436684634,37414.8768302532,48407.0159600403,48856.8678792812,48710.5026541981,52052.2145742572,68451.5564951915,50889.5303043410,6963.8770841903
5544389359,6262,5,0,11536.1081839535,44512.2943870752,37413.5870543899,48408.4882513558,48858.5713568365,48675.9463952209,52055.5971939740,68448.1982108684,50895.4924757842,6960.0564273879
5544415898,6263,5,0,11522.8818975070,44501.0879383013,37401.6870468971,48395.4931511489,48850.0783044541,48674.1090730007,52046.6174337187,68438.5735626814,50888.3987085365,6954.5809638176
5544415898,6263,5,0,11513.7074541025,44499.5304731080,37404.6681326187,48397.8050135453,48851.0760555935,48687.2015147821,52044.3177390191,68439.2792890972,50885.1012626975,6962.0640973637
5544415898,6263,5,0,11513.4275970756,44505.0059366783,37407.9655784577,48402.1245459174,48852.7551977551,48680.4727784391,52048.4669236358,68442.4550579680,50884.3346977976,6965.8604187724
5544415898,6263,5,0,11510.6290268063,44504.5557318958,37403.8407292347,48397.8901874231,48849.2509010701,48680.6431261946,52045.8873719093,68440.8975927746,50884.2495239198,6962.3804574811
5544415898,6263,5,0,11513.7196217993,44503.0834405803,37403.5973752983,48397.5738273057,48849.2022302828,48684.0865843955,52047.2258185598,68442.6619088140,50883.3977851422,6959.0951793389
5544415898,6263,5,0,11513.4032616819,44498.4840511812,37394.5932796493,48390.5408985420,48845.5397535391,48657.5488376246,52040.7769392437,68434.8015766663,50878.8592342273,6953.5467095876
5544415898,6263,5,0,11502.5253407222,44489.3582785640,37380.8924530267,48375.3677806038,48836.3166393473,48650.8079335847,52030.0571983426,68423.7654756479,50870.4513557226,6951.1618410103
5544415898,6263,5,0,11503.5474272554,44495.1866053422,37392.2205787688,48382.8022433626,48845.6614305073,48696.4611320644,52034.6444200449,68434.3513718839,50875.7321361438,6964.7044875742
5544452570,6264,5,0,11525.5222877176,44521.4444950861,37422.5059761611,48407.1254693117,48869.8873148818,48716.5378318223,52054.4290950790,68458.6624301361,50899.4591449485,6978.3444757128
5544452570,6264,5,0,11531.1924344371,44529.1344794782,37425.1220309781,48406.7117676197,48874.1216733762,48684.6219630557,52058.0063979449,68458.1392191727,50908.2442220547,6966.6878221564
5544452570,6264,5,0,11521.8233078834,44519.4733282008,37412.9299987615,48393.9965244397,48864.6795406416,48676.2505876415,52050.4989290052,68447.9183538415,50901.0774486260,6948.8986494012
5544452570,6264,5,0,11526.3375234047,44519.1569680834,37418.7583255397,48398.0727028754,48866.8088875856,48704.3457996057,52053.6990332696,68452.7976002675,50901.4668149243,6953.5953803749
5544452570,6264,5,0,11534.5507187602,44525.9465429106,37427.3365517999,48405.7626872675,48873.5376239287,48698.6878205830,52058.9068075098,68457.6281759062,50907.2099678247,6960.6404768354
5544452570,6264,5,0,11528.3086902900,44526.4089153898,37424.7691677702,48403.9983712282,48872.2721834591,48698.0551003482,52057.2520007419,68454.9999533924,50903.9976958635,6960.1416012656
5544452570,6264,5,0,11529.7323108183,44531.2759941190,37426.4969807191,48408.9019530478,48875.5939646918,48696.8018275755,52059.5030246542,68454.9756179988,50903.1946278732,6957.8905773534
5544452570,6264,5,0,11526.0089955905,44530.3269137668,37418.4663008159,48401.9298627683,48872.3816927305,48674.8026317196,52056.5706097198,68447.6506645114,50900.0553620928,6948.0104075332
5544497757,6265,5,0,11512.8313799313,44519.4003220198,37402.6361272493,48384.8099133384,48859.5326048855,48670.0937330491,52042.4925844957,68432.6843974191,50889.3599565855,6943.5083597087
5544497757,6265,5,0,11518.3311788952,44523.3791588809,37413.8060729327,48393.3638042049,48865.6894594779,48718.9835388837,52045.7048564570,68442.5523995425,50892.8155824832,6960.2997813243
5544497757,6265,5,0,11550.9527740775,44552.6546374369,37450.6863620031,48427.6523738520,48894.4417270705,48748.7700607062,52072.8144849785,68472.2780828810,50924.0378925309,6982.7735173563
5544497757,6265,5,0,11560.6625961422,44560.3811249195,37453.7404539056,48430.3901056371,48896.4859001368,48710.6973373473,52076.6594771745,68472.7647907539,50933.0784912703,6980.8510212583
5544497757,6265,5,0,11546.0613599547,44542.6527906485,37430.1472897659,48408.1597235416,48879.0617582863,48683.5025349480,52059.2718384145,68452.0553707613,50916.7494421339,6971.2263730713
5544497757,6265,5,0,11534.1126816746,44529.1466471750,37416.3856246592,48397.3183056724,48867.5024463045,48685.1816771095,52047.7490295232,68442.0535239728,50900.3352191198,6967.4787224499
5544497757,6265,5,0,11528.7467273757,44524.6567670473,37412.0904276807,48395.4079772712,48864.4848574924,48683.8797335495,52047.7246941296,68439.4374691559,50894.6407370066,6958.8883284929
5544497757,6265,5,0,11533.0540920510,44526.1898968470,37417.9917606398,48402.8546077268,48866.6872106174,48708.1421210144,52053.3218346681,68445.4361436896,50894.8719232463,6960.1659366593
5544519182,6266,5,0,11546.1830369229,44533.9407197232,37431.6560841720,48416.8839621637,48879.0252551958,48714.8951927512,52064.0659109628,68455.7543505954,50901.5884918925,6977.1033706368
5544519182,6266,5,0,11548.8477625272,44531.9817205347,37424.6596584988,48413.4891747501,48878.1248456309,48675.5326935289,52062.5814519504,68449.3176389761,50899.4348095549,6978.6365004365
5544519182,6266,5,0,11531.1559313466,44511.1262881802,37396.4306018696,48390.4435569674,48857.3059163669,48649.8710209294,52045.4493348237,68426.9047414282,50882.5703817583,6963.9865934617
5544519182,6266,5,0,11525.4614492335,44501.3556276314,37392.9263051846,48384.3840439496,48849.8227828208,48691.6183887289,52038.4772445441,68427.7929832963,50877.2409305498,6966.3349589485
5544519182,6266,5,0,11541.3159581938,44517.7333475551,37413.3071973630,48402.1610490079,48863.3532616879,48710.0524494156,52053.7477040569,68445.4969821737,50895.2734572414,6979.3665622459
5544519182,6266,5,0,11544.7959194851,44522.4787493160,37414.6456440135,48400.7739315701,48864.0346527100,48686.2767698236,52052.8959652793,68443.2702936551,50898.7412508360,6980.3643133854
5544519182,6266,5,0,11536.8747488534,44514.3142247478,37403.8528969316,48390.5774016325,48855.8822958386,48677.3943511429,52043.9283727208,68435.7141539281,50889.5546397346,6975.2660484166
5544519182,6266,5,0,11532.8472412050,44510.8099280628,37402.2710963446,48388.9956010455,48854.2274890707,48685.5953788015,52044.6097637429,68434.5460550330,50888.1796899937,6969.1578646114
5544545195,6267,5,0,11530.6813911705,44511.6373314468,37399.9714016451,48391.2587926546,48853.8381227723,48686.3741113982,52045.5831794887,68435.9453401677,50889.3356211918,6965.3007047186
5544545195,6267,5,0,11533.1149305351,44516.9181118679,37409.1093419591,48401.4918256826,48859.9584742743,48715.7712669224,52055.9500571819,68443.3676352297,50893.7159920481,6978.3323080159
5544545195,6267,5,0,11546.4750616467,44530.3269137668,37429.3685571693,48416.0322233861,48872.6615497574,48717.6572599300,52067.7162200097,68458.3095669283,50902.6105784257,6996.5960209472
5544545195,6267,5,0,11538.1036862325,44523.7320220888,37420.4009646108,48404.2052220742,48864.2536712528,48673.7075390055,52058.2132487909,68446.0080254403,50895.9061774762,6986.9227019729
5544545195,6267,5,0,11517.0779061225,44499.7981624381,37394.7757951017,48377.8134876652,48841.5122458907,48660.2257309257,52034.8999416782,68419.8353095741,50878.0439985401,6965.3737108995
5544545195,6267,5,0,11514.6930375452,44495.5394685500,37397.7203777328,48379.1641020125,48838.9813649515,48693.3583693746,52032.6245823723,68423.3882770464,50877.6789676355,6968.2939581370
5544545195,6267,5,0,11524.7070520305,44509.4349783218,37413.9764206883,48392.3295499750,48851.7209435251,48699.3692116051,52044.0378819922,68437.0526005786,50887.9850068445,6979.1110406126
5544545195,6267,5,0,11524.4150273067,44513.0122811878,37413.9277499010,48389.9933521850,48854.2883275548,48687.3840302345,52045.7291918506,68437.6853208134,50892.3532100039,6977.9186063240
5544576296,6268,5,0,11522.6750466610,44512.5377410117,37410.4599563064,48386.9514279792,48855.9796374132,48693.7964064602,52046.8607876551,68439.1697798258,50893.2049487815,6976.4463150084
5544576296,6268,5,0,11530.7543973515,44518.9744526310,37416.2031092069,48393.6801643223,48863.9494788322,48698.0185972577,52055.0861507074,68444.1950386136,50903.0851186018,6982.6396726913
5544576296,6268,5,0,11528.5155411360,44518.2565585185,37414.9620041309,48392.6824131828,48863.9008080449,48692.8959968953,52056.2785849961,68442.9052627504,50907.4046509739,6976.8600167004
5544576296,6268,5,0,11529.8296523929,44521.7608552035,37423.7227458434,48399.6788388560,48869.9116502754,48723.6924375541,52060.5007757936,68450.5222409616,50912.6975990919,6987.6892668728
5544576296,6268,5,0,11551.1109541362,44544.3927712941,37450.5890204285,48422.7001212450,48891.3754674711,48744.0733297326,52079.7014013803,68473.8112126807,50930.2190825169,7010.3090152666
5544576296,6268,5,0,11556.2457221955,44549.3693592947,37449.6764431668,48422.7122889419,48892.6409079407,48696.3151197025,52082.4391331654,68469.6741957609,50929.8418839154,7004.7483778185
5544576296,6268,5,0,11533.6624768921,44528.5504300307,37423.6497396625,48397.3548087628,48872.1140034004,48679.4263565123,52062.8978120678,68447.9061861446,50909.8260226417,6983.7104300117
5544576296,6268,5,0,11528.1991810186,44525.4841704313,37423.4428888165,48398.2065475405,48872.7467236352,48712.9970320468,52060.4156019159,68452.6759232992,50907.4411540644,6985.4990814446
5544607776,6269,5,0,11540.0140146337,44538.4914383350,37436.0486227251,48414.4869258895,48885.5106376025,48718.9105327027,52072.8266526753,68471.0491455019,50919.5480124032,6995.9389653187
5544607776,6269,5,0,11540.6467348685,44540.6329529759,37430.1472897659,48414.2557396499,48885.9486746881,48706.7063327893,52072.5346279515,68471.3290025288,50918.2095657527,6993.7001091033
5544607776,6269,5,0,11538.1158539293,44539.8907234697,37423.9174289926,48410.1795612142,48884.0870170742,48711.5855792153,52070.0767531933,68471.2681640447,50916.5182558943,6989.8672846041
5544607776,6269,5,0,11539.1866112498,44538.0047304621,37417.5415558574,48408.8532822605,48884.8292465804,48703.8347563391,52068.5679587873,68469.8445435164,50920.1077264571,6984.0754609164
5544607776,6269,5,0,11527.1284236982,44527.3944988325,37402.3927733128,48397.4521503374,48873.6227978064,48685.6440495888,52058.7121243607,68456.8372756127,50907.8426880595,6968.7928337067
5544607776,6269,5,0,11523.7823070719,44522.6734324652,37404.3639401981,48400.7860992669,48870.8607306276,48710.8555174059,52058.4444350306,68461.3636588308,50901.6858334671,6975.0713652674
5544607776,6269,5,0,11539.2596174307,44539.7082080173,37430.0134451009,48422.6757858514,48886.6422334070,48731.8934652128,52076.2214400889,68480.6616259920,50913.6345117473,6996.3283316171
5544607776,6269,5,0,11544.1631992503,44545.5730378860,37433.8219342065,48424.3670957098,48891.9716846154,48704.3944703930,52080.9303387594,68481.1726692586,50919.5115093127,7003.0692356570
5544636753,6270,5,0,11536.2176932250,44534.8776323786,37416.9696741067,48409.1939777716,48882.7607381205,48687.5543779900,52068.9086542983,68466.9486316726,50910.7994383875,6999.9664729671
5544636753,6270,5,0,11538.7729095578,44528.7086100894,37414.9863395246,48406.0425442944,48878.5142119293,48704.7595012977,52064.2727618088,68463.2253164447,50903.9003542889,6998.6645294071
5544636753,6270,5,0,11547.6918313290,44529.7793674098,37422.7249947040,48411.5545109552,48879.1590998609,48708.8478474302,52067.3998598923,68467.1068117312,50907.4411540644,6998.5671878325
5544636753,6270,5,0,11552.4372330899,44529.9740505590,37429.4902341375,48415.3021615767,48878.3195287801,48711.4882376407,52068.3246048508,68465.2938249046,50911.9675372825,6993.1038919590
5544636753,6270,5,0,11558.1073798094,44532.0060559284,37435.0630392824,48420.3882588487,48880.2420248781,48720.5166686834,52072.9970004308,68468.4330906850,50917.0292991609,6990.7433587753
5544636753,6270,5,0,11558.6184230760,44533.1376517329,37428.4924829980,48419.4513461933,48879.9621678512,48695.4633809249,52071.1110074233,68464.5272600048,50917.5160070338,6984.5986718798
5544636753,6270,5,0,11542.0703553968,44522.3084015605,37410.4112855191,48401.8203534969,48868.5123651408,48680.3145983804,52056.6314482040,68449.3298066729,50906.2122166853,6980.2548041140
5544636753,6270,5,0,11538.2983693817,44523.0384633699,37415.4122089134,48403.2074709347,48870.7633890530,48719.6649299058,52058.4809381210,68456.1680522874,50905.2874717267,6999.6866159402
5544669263,6271,5,0,11554.1650460388,44544.2710943259,37443.6290978458,48428.6622926883,48889.2096174366,48741.5059457029,52079.5675567152,68481.6715448283,50925.8630470543,7021.0774269549
5544669263,6271,5,0,11560.6139253550,44553.9565809970,37450.0901448588,48434.4297809823,48894.9771057307,48712.4981564770,52086.4788085106,68485.8085617481,50933.8693915638,7019.5442971552
5544669263,6271,5,0,11551.0014448648,44539.7568788046,37433.2743878494,48419.7677063107,48881.4587945604,48703.3115453757,52075.1141796780,68470.3190836925,50923.4538430834,7004.0183160092
5544669263,6271,5,0,11552.8144316914,44535.3765079483,37432.7146737956,48418.4292596602,48877.3826161247,48712.4738210834,52071.2691874820,68467.4231718486,50919.7061924619,6995.2697419935
5544669263,6271,5,0,11554.3597291880,44536.1917436355,37435.1725485538,48421.4468484723,48881.3614529858,48713.3012244674,52071.3178582692,68470.5624376290,50923.9283832595,6990.9015388340
5544669263,6271,5,0,11549.2127934319,44534.8289615913,37434.1382943239,48419.2444953473,48881.3857883795,48718.8131911282,52067.5215368605,68471.1464870765,50921.8842101932,6990.9380419245
5544669263,6271,5,0,11556.2578898923,44543.3706847610,37444.6633520757,48426.9344797394,48888.6499033828,48732.8303778682,52073.4472052133,68481.0753276840,50925.0113082767,7005.5757812025
5544669263,6271,5,0,11563.8505327099,44549.5153716566,37444.7971967408,48427.9930693630,48892.2515416424,48701.3890492777,52076.5864709936,68481.4281908918,50927.8950524237,7012.0368282155
5544701863,6272,5,0,11549.1154518573,44534.7194523199,37420.0724367966,48410.6784367840,48876.5917158312,48681.4340264881,52064.6864635007,68467.1554825185,50914.6322628867,7004.4441853980
5544701863,6272,5,0,11544.9906026343,44528.7694485735,37422.9926840341,48412.8321191216,48875.9468278996,48721.3684074610,52065.0514944054,68471.4871825875,50912.4664128522,7008.6542084987
5544701863,6272,5,0,11563.5463402893,44547.0209938079,37450.2483249174,48437.8489037896,48897.8851852714,48748.1251727746,52084.6658216840,68494.7031481257,50931.1316597786,7012.8398962058
5544701863,6272,5,0,11571.2241569846,44559.6753985038,37458.9847312363,48443.5920566900,48904.5774185240,48730.3116646258,52090.4698130686,68499.4850529771,50940.9753265084,7009.3964380049
5544701863,6272,5,0,11564.0573835558,44559.5658892324,37455.0423974657,48437.0215004056,48904.5044123431,48728.9002117944,52086.1502806964,68496.1876071381,50940.2939354863,7008.9218978288
5544701863,6272,5,0,11561.7698565531,44564.6276511107,37457.5246076176,48440.4892940002,48909.2741494977,48739.3522633653,52087.2088703200,68498.0492647520,50941.5228728654,7013.7646411643
5544701863,6272,5,0,11560.8816146851,44566.5744826024,37456.8553842923,48441.0976788413,48911.6225149845,48727.7686159898,52087.2818765009,68498.2074448107,50940.2574323958,7009.3234318240
5544701863,6272,5,0,11554.6517539117,44563.1188567047,37453.2294106391,48437.7758976087,48908.3980753264,48734.2296630028,52082.6459840114,68495.9199178080,50933.3340129036,7005.6609550803
5544744425,6273,5,0,11566.2962397713,44573.6925852438,37464.8130580145,48449.8462528570,48919.8113749463,48752.1283450294,52094.4608176265,68511.1052034430,50940.7076371783,7013.6672995898
5544744425,6273,5,0,11574.8622983346,44578.4501547016,37458.6683711189,48449.8584205538,48921.8312126189,48717.4139059935,52096.9430277784,68508.4891486261,50942.1312577066,7007.6321219656
5544744425,6273,5,0,11562.4025767879,44561.2328636971,37430.9625254531,48427.7983862138,48904.3340645876,48698.3836281624,52080.6261463388,68485.3705246625,50925.8508793575,6988.1273039584
5544744425,6273,5,0,11563.3394894433,44557.0350082932,37427.3852225871,48429.9277331579,48904.8329401573,48739.0115678542,52080.0299291945,68488.9113244380,50924.8896313085,6989.9281230882
5544744425,6273,5,0,11577.7338747848,44570.9791888523,37449.7007785604,48448.8485017175,48917.1953201294,48753.4181208926,52093.7307558171,68503.5977345032,50938.4687809629,6996.5716855535
5544744425,6273,5,0,11575.1056522711,44569.0323573606,37452.8643797344,48445.5023850912,48914.6522714934,48726.4301693393,52091.6622473572,68498.3169540821,50937.7873899408,6993.7487798906
5544744425,6273,5,0,11560.5287514772,44556.9620021122,37439.4434101387,48432.4221110066,48902.4602392768,48708.2029594985,52080.8573325784,68485.4191954498,50925.7778731766,6986.4238264032
5544744425,6273,5,0,11551.6950035837,44546.2787643017,37426.8863470174,48421.1791591422,48891.8986784345,48689.3308617262,52072.9361619467,68475.0523177566,50912.9531207252,6978.8190158889
5544764383,6274,5,0,11538.1523570198,44534.6342784422,37410.6181363651,48406.8456122847,48880.7895712352,48680.4606107422,52061.5837008109,68460.6822678087,50900.5907407531,6973.5990739518
5544764383,6274,5,0,11538.6025618023,44533.9407197232,37411.0926765412,48409.1088038938,48878.9035782276,48708.8235120365,52059.5273600478,68458.7719394075,50896.0400221413,6981.6175861581
5544764383,6274,5,0,11558.8009385283,44547.6902171332,37432.0576181671,48427.1900013727,48892.6044048502,48730.7375340146,52072.1209262596,68474.7481253361,50908.1347127833,6993.4689228637
5544764383,6274,5,0,11569.7762010626,44553.5672146986,37434.8318530428,48431.0228258719,48896.8752664351,48693.2731954968,52076.7324833555,68475.1618270280,50915.5691755421,6989.9037876946
5544764383,6274,5,0,11553.4836550167,44537.4693518019,37411.2751919936,48413.5986840215,48884.2086940424,48671.4321796996,52062.7883027964,68458.1513868696,50901.9413551004,6975.5824085340
5544764383,6274,5,0,11550.8189294125,44536.5689422370,37415.7529044244,48417.2976638557,48887.9198415734,48706.7793389703,52066.9009843225,68464.2717383715,50898.9237662883,6976.6409981575
5544764383,6274,5,0,11563.3273217465,44551.3648615737,37439.2730623832,48434.7826441902,48901.9126929198,48722.7311895051,52080.5288047642,68479.2988439478,50913.3181516299,6985.4747460510
5544764383,6274,5,0,11560.7964408073,44554.6623074127,37444.2496503837,48431.8867323464,48900.6472524502,48710.7946789218,52077.8884145536,68478.5444467448,50915.5083370580,6987.3120682713
5544788906,6275,5,0,11554.3232260975,44551.0241660626,37441.5605893859,48425.5960330889,48895.3908074227,48713.3133921642,52072.0479200786,68473.8355480743,50915.8612002658,6988.3219871076
5544788906,6275,5,0,11550.7702586252,44547.2643477444,37433.7124249351,48416.7136144081,48890.5602317840,48693.3462016777,52066.7549719606,68467.8855443279,50912.7706052728,6982.7005111754
5544788906,6275,5,0,11541.5593121302,44539.0146492984,37420.0481014029,48407.6000094878,48883.9166693186,48678.8909778521,52059.3935153828,68460.0617152708,50905.9445273552,6983.0168712928
5544788906,6275,5,0,11531.4236206767,44530.7892862461,37414.2441100184,48405.5801718152,48876.7863989804,48695.2443623821,52054.2344119298,68457.4699958475,50897.6218227283,6989.5387567899
5544788906,6275,5,0,11540.8535857145,44540.0975743157,37430.2689667342,48420.1449049122,48885.1091036073,48714.0556216704,52063.0316567328,68470.1487359370,50902.9269385431,6998.4698462579
5544788906,6275,5,0,11546.2925461944,44542.9448153722,37430.5123206706,48421.9943948293,48886.0095131722,48683.3686902829,52065.5868730656,68465.8657066553,50906.7719307391,6991.4977559784
5544788906,6275,5,0,11531.4966268577,44527.2971572579,37405.0209958266,48400.9686147193,48867.8553095124,48658.3640733118,52048.6129359976,68446.9449380956,50889.3721242823,6968.0992749878
5544788906,6275,5,0,11524.2203441575,44518.6702602104,37395.5423600015,48395.8216789632,48860.9440577169,48679.3168472409,52044.6462668334,68441.4329714348,50880.9642457776,6960.0807627815
5544844366,6276,5,0,11533.8206569508,44528.5625977275,37404.8384803742,48408.1353881480,48870.8850660213,48697.1668584801,52055.6823678518,68453.5276620768,50892.1950299452,6974.9375206023
5544844366,6276,5,0,11539.3326236116,44534.6099430485,37411.6280552014,48414.1340626817,48875.4357846331,48691.8982457558,52059.9288940430,68455.9977045319,50898.1328659948,6986.5333356746
5544844366,6276,5,0,11537.5683075723,44534.8654646818,37418.8556671143,48415.8862110242,48875.9224925060,48691.0830100687,52060.0019002239,68455.3649842971,50896.3320468650,6987.0565466380
5544844366,6276,5,0,11528.7710627693,44529.6333550479,37415.3878735197,48409.4373317080,48870.4470289357,48669.2054911810,52055.2808338566,68446.6894164624,50891.7448251628,6973.9154340692
5544844366,6276,5,0,11510.7507037745,44513.2191320338,37395.8222170284,48387.6693220918,48854.6533584595,48648.5325742788,52040.3267344612,68427.6591386313,50878.0683339338,6962.3317866938
5544844366,6276,5,0,11502.8538685364,44505.5778184290,37393.9483917177,48383.4714666879,48848.4113299893,48681.8963989673,52034.6687554385,68426.9412445187,50874.9534035471,6963.8770841903
5544844366,6276,5,0,11519.1220791887,44522.6612647684,37419.6952381950,48404.9961223677,48866.6628752237,48709.0181951857,52048.9779669023,68448.1008692938,50889.4816335537,6977.8212647494
5544844366,6276,5,0,11527.2135975760,44534.3057506279,37425.1585340685,48407.6121771846,48873.1482576303,48681.7260512118,52052.3727543159,68450.7777625949,50896.9282640094,6977.9307740208
5544881743,6277,5,0,11516.9318937606,44526.5792631454,37408.4766217243,48392.8040901511,48863.4262678688,48668.1834046479,52039.9495358597,68437.5149730579,50885.1986042720,6970.1677834477
5544881743,6277,5,0,11516.3721797067,44521.7486875067,37401.9912393177,48389.7499982485,48858.2428290222,48677.1388295096,52033.2329672134,68433.1102668079,50880.6965564475,6966.5783128850
5544881743,6277,5,0,11519.6331224553,44518.6337571200,37398.4017687549,48392.1592022195,48855.5294326307,48673.9873960324,52034.4984076830,68432.3437019081,50881.7673137680,6964.2542827918
5544881743,6277,5,0,11516.6520367337,44514.6184171684,37396.6496204124,48390.4800600579,48853.4609241708,48685.5710434079,52034.3767307148,68432.6722297223,50884.8092379737,6959.2655270944
5544881743,6277,5,0,11531.1559313466,44527.0781387151,37418.7583255397,48409.0479654097,48868.6705451995,48710.4661511076,52053.6746978760,68451.6295013725,50901.6128272862,6975.5215700498
5544881743,6277,5,0,11544.5769009423,44536.1674082418,37425.4870618828,48416.9448006478,48875.7886478409,48674.1699114848,52061.2673406935,68453.8318544974,50906.0540366266,6981.7149277327
5544881743,6277,5,0,11530.6813911705,44519.4976635944,37397.6595392487,48391.1127802927,48856.8313761908,48638.9809322728,52039.6818465296,68428.5960512866,50885.7461506291,6968.1114426847
5544881743,6277,5,0,11517.0535707288,44505.5534830353,37385.8325379368,48378.2150216604,48843.5807543506,48670.9698072203,52025.6889951832,68419.8231418773,50870.6703742654,6956.7589815489
5544890617,6278,5,0,11532.8715765986,44520.6779301862,37406.5541256263,48397.9266905135,48857.1477363082,48698.4322989497,52038.8666108425,68440.0215186034,50885.1377657879,6963.5485563761
5544890617,6278,5,0,11536.0960162567,44525.2043134044,37407.1503427706,48399.8370189147,48857.8412950271,48669.6313605698,52039.0369585980,68441.3843006476,50891.0269310502,6959.4723779404
5544890617,6278,5,0,11523.8918163433,44513.7058399067,37386.6964444112,48385.3939627859,48847.5474235149,48645.0039422002,52028.5970747239,68427.4279523916,50881.7186429807,6948.7648047362
5544890617,6278,5,0,11517.9783156874,44505.5778184290,37375.5386664246,48378.9572511666,48841.4514074066,48651.3676476386,52024.0220207185,68423.9723264939,50874.8438942757,6947.6332089317
5544890617,6278,5,0,11519.3289300347,44504.8599243164,37373.9690335344,48380.0645115774,48841.9137798859,48655.0544597759,52025.5794859118,68425.0430838143,50875.2210928772,6951.1740087071
5544890617,6278,5,0,11522.3221834532,44505.4439737639,37379.8703664936,48385.6373167224,48843.5077481697,48676.0072337050,52029.6799997411,68430.9687521671,50879.5527929462,6964.9843446012
5544890617,6278,5,0,11544.2118700376,44523.6225128174,37405.1183374012,48407.7581895465,48863.0612369641,48704.8081720849,52047.8220357041,68448.7092541350,50893.8498367131,6982.2016356056
5544890617,6278,5,0,11555.6616727480,44535.1574894055,37412.8813279742,48413.0511376644,48870.9702398990,48667.5385167163,52054.7332874996,68451.1792965900,50901.3451379561,6975.1078683579
5544919366,6279,5,0,11537.0694320026,44518.4634093645,37385.0903084306,48386.6472355587,48850.9057078380,48637.9466780429,52036.0558728764,68428.3040265629,50882.1445123695,6956.4304537346
5544919366,6279,5,0,11525.6804677763,44503.9351793579,37376.0375419943,48379.7968222473,48842.4248231524,48668.9134664573,52027.5263174035,68424.0453326749,50872.8362242999,6960.2632782339
5544919366,6279,5,0,11533.3947875620,44512.8906042196,37392.9506405782,48394.3615553444,48850.8692047475,48679.8157228106,52036.7615992921,68433.8646640110,50881.0737550491,6972.3458011790
5544919366,6279,5,0,11530.2555217817,44514.2655539605,37394.1187394732,48394.2520460730,48849.0805533146,48654.3852364507,52034.9242770718,68430.2508580546,50879.4189482811,6967.6612379022
5544919366,6279,5,0,11522.3465188468,44507.9261839158,37384.9442960687,48386.4038816222,48843.1548849618,48649.9683625039,52027.0639449242,68420.9425699850,50872.7632181190,6955.4083672015
5544919366,6279,5,0,11522.5412019960,44508.1208670650,37384.4940912863,48385.4791366637,48846.0872998961,48649.3843130564,52028.1590376383,68419.6162910313,50871.8871439477,6947.8035566872
5544919366,6279,5,0,11513.1112369582,44500.6742366093,37374.2488905614,48373.8468185009,48841.6217551621,48634.0895181500,52019.0089296274,68411.0137293775,50864.0268118001,6947.3046811174
5544919366,6279,5,0,11506.9057115785,44499.0072621446,37375.6603433928,48370.7318881142,48843.0697110840,48662.4524194443,52014.9692542822,68413.1309086247,50861.8366263720,6958.1704343803
5544944239,6280,5,0,11524.2568472480,44520.1912223133,37402.6361272493,48393.8870151683,48865.6407886906,48706.0371094641,52036.3357299033,68438.4032149259,50882.0228354013,6979.5369100014
5544944239,6280,5,0,11535.0495943300,44535.8023773372,37416.8723325321,48402.7694338491,48878.1248456309,48679.5236980869,52046.1915643299,68446.7867580369,50897.3176303077,6980.8145181678
5544944239,6280,5,0,11517.0535707288,44519.6558436531,37396.0655709649,48380.0766792743,48860.2383313012,48642.7894213784,52028.4388946652,68425.0309161175,50884.5050455531,6963.1591900777
5544944239,6280,5,0,11503.8029488886,44509.6174937742,37388.0957295459,48371.5714591950,48852.8768747233,48661.9170407841,52018.5587248450,68420.0786635106,50874.2963479187,6959.2898624880
5544944239,6280,5,0,11513.0138953836,44521.2011411496,37403.8528969316,48385.0776026685,48863.0125661768,48683.8797335495,52026.4798954767,68433.6943162555,50884.4198716754,6968.5859828608
5544944239,6280,5,0,11518.4406881666,44528.6234362116,37409.9489130399,48389.3484642534,48867.0279061284,48673.3911788881,52030.6655831838,68436.9674267008,50890.6862355392,6970.0947772668
5544944239,6280,5,0,11517.8444710223,44528.5504300307,37405.8727346042,48387.2434527030,48865.4947763287,48670.4222608633,52027.2951311638,68435.0936013901,50887.4861312748,6969.7540817558
5544944239,6280,5,0,11515.4230993545,44525.8857044265,37399.0344889897,48383.8243298957,48863.0247338737,48654.1053794237,52025.8836783324,68429.9831687244,50883.2761081740,6968.0141011101
5544982698,6281,5,0,11502.4645022381,44513.5111567575,37383.3746631786,48371.5592914982,48852.3901668504,48634.8195799594,52017.3297874659,68417.9493165666,50873.1282490237,6955.6760565316
5544982698,6281,5,0,11495.6019212300,44505.0911105560,37382.6811044597,48369.8071431557,48846.9998771578,48661.8440346031,52016.5510548692,68419.2877632171,50868.4558534437,6953.8874050986
5544982698,6281,5,0,11514.1941619754,44524.2917361426,37401.3341836892,48394.7995924300,48864.3631805242,48696.9600076341,52035.3866495511,68440.4352202954,50885.8313245068,6975.3633899911
5544982698,6281,5,0,11527.6881377521,44536.8244638703,37404.0110769903,48403.5359987489,48872.3938604273,48664.9467972930,52042.7116030385,68444.0490262518,50895.7601651143,6984.4283241242
5544982698,6281,5,0,11512.8800507186,44518.0010368852,37377.8505288209,48379.7359837632,48853.1202286598,48628.1395144036,52025.1779519167,68420.5897067771,50878.5185387162,6968.0992749878
5544982698,6281,5,0,11501.8804527906,44502.9252605216,37366.7535893184,48367.3614360943,48841.0498734114,48639.6866586886,52015.7236514852,68410.8555493188,50860.7658690516,6958.6936453437
5544982698,6281,5,0,11506.8813761848,44507.2326251969,37376.2808959308,48370.3911926032,48845.0530456662,48652.2437218098,52018.6804018132,68419.0079061901,50861.9339679466,6961.5165510066
5544982698,6281,5,0,11512.5393552075,44516.7234287188,37387.0493076191,48379.5169652204,48852.8890424201,48664.5574309947,52026.5163985672,68429.3626161865,50873.0552428427,6967.0163499706
5545023902,6282,5,0,11524.0499964020,44531.1178140603,37401.1029974496,48392.2930468845,48867.5267816982,48681.3731880040,52038.3312321823,68443.9395169804,50884.9795857292,6980.8023504710
5545023902,6282,5,0,11529.6836400310,44538.8077984524,37406.4202809612,48396.9411070709,48872.5885435765,48661.0653020065,52044.6706022270,68443.4163060170,50890.5280554805,6984.7081811512
5545023902,6282,5,0,11516.9562291542,44522.4909170129,37387.4021708270,48380.2470270298,48859.4839340982,48636.5473929082,52030.1788753109,68425.0552515112,50881.3171089855,6974.6333281818
5545023902,6282,5,0,11508.4753444686,44511.5156544786,37375.9158650261,48372.8003965742,48851.6114342537,48657.5610053215,52022.8660895203,68418.9227323124,50871.8141377668,6970.3502989001
5545023902,6282,5,0,11521.9328171548,44524.9609594679,37394.4959380747,48388.2047007520,48864.4118513115,48691.4967117606,52035.8368543335,68436.2495325883,50885.1864365752,6987.2390620903
5545023902,6282,5,0,11532.0563409115,44537.5180225892,37408.8659880226,48394.1668721952,48873.1969284176,48674.3159238467,52040.3023990676,68441.3356298603,50898.0841952075,6998.9687218276
5545023902,6282,5,0,11525.6804677763,44529.4508395956,37397.6838746423,48380.2105239393,48861.0413992915,48650.9904490371,52027.3681373448,68426.9655799124,50886.5370509226,6991.8992899735
5545023902,6282,5,0,11520.9472337122,44520.0573776483,37395.7735462411,48374.6498864912,48852.6456884837,48670.1667392300,52022.7079094616,68419.8839803614,50877.7641415132,6985.4260752637
5545038828,6283,5,0,11522.4803635119,44520.2763961911,37402.6726303397,48377.6066368192,48851.5870988601,48674.5471100863,52023.2189527282,68420.7113837454,50880.2220162715,6980.6806735028
5545038828,6283,5,0,11517.2482538780,44514.0222000241,37398.2435886962,48372.3988625790,48845.4545796613,48669.6921990539,52017.3176197690,68413.5811134071,50873.9799878013,6978.4296495905
5545038828,6283,5,0,11524.3541888226,44517.7333475551,37409.1215096559,48381.9505045850,48851.4654218919,48697.3128708420,52025.1414488262,68421.8308118531,50882.4608724869,6989.5387567899
5545038828,6283,5,0,11532.8959119923,44522.1867245923,37416.3856246592,48383.5931436561,48856.1256497751,48675.3501780766,52029.7651736189,68425.2986054476,50890.8687509915,6988.5896764377
5545038828,6283,5,0,11518.2825081079,44506.0158555146,37392.9993113655,48360.4380166020,48838.6893402278,48642.8745952562,52013.4726275730,68404.6135208486,50876.3770240754,6971.6035716728
5545038828,6283,5,0,11504.9588800868,44496.9995921688,37383.8857064451,48352.3708336084,48833.4085598066,48664.0585554249,52006.2571833570,68400.1723115082,50867.2877545487,6969.4012185479
5545038828,6283,5,0,11513.0990692614,44510.1163693439,37400.2755940656,48369.1622552241,48844.9192010011,48686.2524344300,52018.5343894513,68418.4360244395,50876.9002350388,6974.9618559960
5545038828,6283,5,0,11520.4970289297,44519.7896883182,37407.0286658024,48380.6850641154,48854.0693090120,48673.7562097928,52027.7331682495,68425.8583195015,50887.5834728493,6977.6022462066
5545090124,6284,5,0,11515.4839378387,44512.6837533736,37397.4648560995,48374.2361847993,48850.0418013636,48658.8386134879,52023.7178282979,68417.1827516667,50884.5415486436,6982.6518403881
5545090124,6284,5,0,11511.4929332807,44506.5634018716,37393.4251807543,48368.8215597130,48844.1404684045,48662.7687795617,52019.7146560432,68413.0579024437,50880.6600533571,6986.7523542174
5545090124,6284,5,0,11508.4388413782,44502.4507203455,37388.1565680300,48365.0374060011,48839.2490542816,48651.7448462401,52014.5677202870,68408.6531961938,50874.0894970727,6978.1741279572
5545090124,6284,5,0,11500.6758508051,44493.2154384569,37381.1723100536,48357.7002848169,48828.5658164711,48649.1166237263,52003.4464453909,68399.9654606622,50859.5490993693,6961.7234018526
5545090124,6284,5,0,11505.2144017201,44497.0969337434,37386.3070781129,48365.1955860598,48828.4076364124,48663.0121334981,52007.2062637092,68406.6941970053,50855.5459271145,6961.1758554956
5545090124,6284,5,0,11512.2716658774,44505.0789428592,37389.5923562551,48368.7363858353,48833.3720567162,48645.7948424937,52012.6330564922,68410.2714998713,50860.8023721420,6961.8815819113
5545090124,6284,5,0,11502.0873036366,44496.1843564817,37372.6670899744,48351.9084611292,48825.4873891749,48615.0835757126,52002.3270172832,68397.2885673612,50855.3999147526,6958.0244220184
5545090124,6284,5,0,11490.6861717135,44483.3961071207,37361.2781257481,48340.5438322965,48818.2111064748,48627.7014773180,51993.5906109643,68389.3065582454,50842.6725038759,6955.5422118666
5545108759,6285,5,0,11497.5730881153,44490.1370111607,37373.9446981408,48352.3464982148,48827.6045684221,48651.9030262988,52002.6798804910,68403.0803910489,50848.7928553778,6968.0871072910
5545108759,6285,5,0,11500.8583662575,44496.2330272689,37376.9379515592,48359.3185884943,48832.6541626036,48637.1314423557,52009.7736477388,68405.9884705896,50855.8501195351,6966.3957974326
5545108759,6285,5,0,11493.8741082811,44490.6602221240,37368.0677005753,48354.7557021857,48828.1156116886,48633.4446302184,52007.4496176456,68398.3349892880,50855.6676040828,6958.1704343803
5545108759,6285,5,0,11492.4504877528,44490.3681974003,37370.9636124192,48356.3618381664,48828.2129532632,48642.5704028356,52009.5789645896,68399.9776283591,50861.2890800150,6967.1380269388
5545108759,6285,5,0,11487.2305458158,44486.3041866614,37369.0897871084,48346.2748175001,48823.2241975658,48630.0863458953,52003.9453209606,68393.3705689842,50861.2039061372,6966.9920145770
5545108759,6285,5,0,11483.2273735610,44483.1284177906,37370.3552275780,48341.7606019788,48818.2719449589,48644.2617126940,51999.2242545933,68390.2921416880,50858.2106527187,6964.6558167869
5545108759,6285,5,0,11497.7677712645,44496.6588966577,37390.5901073946,48358.5641912913,48831.1210328039,48674.3889300276,52011.4162868099,68407.2904141497,50871.7411315859,6975.6067439276
5545108759,6285,5,0,11509.3392509431,44507.2204575001,37396.8199681679,48369.1500875273,48838.1539615676,48643.3734708259,52020.3108731875,68411.9871451233,50879.7353083985,6973.3070492281
5545143886,6286,5,0,11492.9250279289,44486.6448821725,37367.3619741596,48346.3478236811,48821.6667323725,48608.1844916140,52003.2152591512,68389.6837568469,50865.5964446903,6961.4922156130
5545143886,6286,5,0,11482.5094794485,44472.7737077943,37350.5340494534,48338.1832991129,48812.0420841855,48630.8894138856,51995.5739455464,68381.5679030660,50853.0758846595,6965.2885370217
5545143886,6286,5,0,11498.7533547071,44487.6304656151,37373.8838596567,48359.1847438293,48828.2494563537,48668.4510939780,52009.3721137436,68400.9145410144,50864.4161780985,6984.2701440655
5545143886,6286,5,0,11512.1256535155,44503.6188192405,37393.4738515416,48375.3312775133,48842.8020217539,48674.0360668197,52021.1017734810,68414.1651628546,50876.4500302563,6997.0827288201
5545143886,6286,5,0,11520.4240227488,44516.2853916332,37410.5938009715,48388.4358869916,48854.6533584595,48702.9708498647,52033.6466689054,68429.7398147880,50883.8479899247,7009.6762950318
5545143886,6286,5,0,11534.8184080903,44533.6243596058,37436.8638584122,48409.4738347985,48871.9193202512,48724.9943811142,52050.3285812497,68450.5709117489,50899.1792879216,7020.2013527837
5545143886,6286,5,0,11538.1645247166,44543.5288648197,37448.1311456703,48416.2877450193,48880.4975465114,48718.3994894362,52056.9843114118,68459.1004672218,50911.4321586223,7017.8286519032
5545143886,6286,5,0,11533.3826198652,44544.5509513528,37450.7350327904,48416.5189312590,48883.1136013283,48724.5320086349,52057.1181560769,68461.4610004054,50914.9851260946,7011.2945987093
5545169004,6287,5,0,11541.7904983699,44552.6303020433,37461.9536492611,48428.2850940868,48892.7260818185,48733.7186197363,52068.6774680587,68468.7616184992,50925.7048669956,7018.7168937713
5545169004,6287,5,0,11540.9995980764,44547.2521800475,37450.1144802524,48419.5365200711,48885.7053207516,48682.7846408354,52065.9275685767,68457.1414680333,50920.9594652347,7008.2405068067
5545169004,6287,5,0,11511.2374116475,44516.0298699999,37403.1958413031,48378.8599095920,48853.8016196819,48629.2832779049,52035.9341959081,68417.5599502682,50894.5433954321,6979.8776055124
5545169004,6287,5,0,11487.7537567792,44494.0550095376,37376.4634113831,48353.7457833494,48834.2237954938,48649.4451515406,52015.0422604631,68399.3570758211,50873.5419507157,6964.1447735204
5545169004,6287,5,0,11493.8619405843,44504.4705580181,37395.7613785443,48363.2487545681,48843.9944560426,48690.9735007973,52021.9048414713,68413.4107656516,50885.4054551180,6968.1601134720
5545169004,6287,5,0,11508.5726860432,44524.2917361426,37419.8899213442,48380.2470270298,48859.5934433696,48700.2939565636,52038.1365490331,68431.4797954337,50903.7786773207,6979.5855807887
5545169004,6287,5,0,11519.0855760983,44532.9916393711,37431.3032209641,48393.1204502685,48866.2126704413,48697.8969202895,52048.4790913326,68439.0602705544,50905.4943225727,6991.6072652498
5545169004,6287,5,0,11521.4096061914,44532.0912298062,37426.2171236921,48395.3349710902,48863.7912987735,48672.5759432010,52049.5985194403,68432.7087328128,50897.0742763712,6989.7212722422
5545218910,6288,5,0,11512.3811751488,44516.2853916332,37406.7974795627,48377.8256553620,48849.1292241019,48653.8498577905,52035.0581217369,68415.4671064147,50885.4662936021,6977.3588922701
5545218910,6288,5,0,11508.7065307083,44506.2470417542,37405.9335730883,48372.8612350583,48843.9214498616,48697.6170632626,52029.5948258634,68413.0579024437,50880.9885811713,6978.5026557715
5545218910,6288,5,0,11535.0252589363,44528.2097345196,37444.4808366234,48404.3755698297,48868.9747376201,48752.9557484133,52055.1591568884,68446.4947333132,50907.0882908565,7004.0061483123
5545218910,6288,5,0,11559.5310003377,44553.0926745226,37471.6634713258,48430.6821303609,48890.1221946983,48742.1143305441,52078.1926069742,68467.8368735406,50930.8152996612,7020.3717005392
5545218910,6288,5,0,11561.4656641326,44553.9444133002,37465.4457782493,48430.6942980577,48889.8910084587,48713.3377275578,52080.0299291945,68464.6854400635,50932.7134603656,7015.7114726560
5545218910,6288,5,0,11553.1672948993,44546.2787643017,37448.7273628146,48425.6447038762,48882.0915147952,48706.5724881243,52074.7491487733,68457.7376851776,50922.7237812740,7004.8578870899
5545218910,6288,5,0,11545.2339565708,44541.4846917535,37440.8426952733,48421.3130038072,48875.7034739632,48698.6391497957,52068.7018034523,68451.5443274947,50911.6025063778,6993.7001091033
5545218910,6288,5,0,11537.7629907215,44537.7735442225,37438.0806280945,48413.4526716596,48868.4393589599,48696.8991691500,52063.0316567328,68447.0666150639,50906.5772475899,6987.3364036649
5545235656,6289,5,0,11541.3402935874,44540.0732389220,37443.5317562712,48415.0466399434,48870.4835320261,48703.2385391948,52062.9951536424,68446.3730563449,50905.2388009394,6995.6347728982
5545235656,6289,5,0,11541.2186166192,44539.5256925650,37443.4222469998,48409.7171887350,48867.4659432140,48677.6620404730,52059.8315524684,68438.9750966766,50903.1337893891,6994.8317049078
5545235656,6289,5,0,11517.4916078144,44519.3394835357,37417.7970774907,48382.4980509420,48844.6880147615,48645.6123270413,52036.5669161429,68414.7613799989,50885.5271320863,6977.0425321527
5545235656,6289,5,0,11495.0543748729,44501.0636029076,37399.5090291658,48363.5407792919,48829.5270645201,48658.5465887641,52019.2644512607,68401.8757890635,50865.6207800839,6965.3128724154
5545235656,6289,5,0,11502.0629682430,44508.5224010601,37412.5162970695,48379.3831205554,48837.7524275724,48687.2866886599,52029.3393042301,68416.8177207620,50869.1980829499,6970.5084789588
5545235656,6289,5,0,11511.4199270998,44518.4269062740,37419.4153811681,48386.8784217983,48844.5785054901,48670.3857577728,52034.1333767783,68423.2422646845,50877.9831600560,6965.2033631440
5545235656,6289,5,0,11505.4942587470,44512.9271073100,37406.5297902326,48373.3601106280,48837.7402598756,48654.7015965681,52024.4843931977,68411.7924619742,50875.4522791169,6947.8643951713
5545235656,6289,5,0,11507.3437486641,44513.7910137844,37400.2025878847,48371.9729931902,48839.2125511912,48664.5087602074,52021.4303012952,68412.3156729375,50873.7366338648,6945.7228805305
5545258420,6290,5,0,11513.9994788263,44519.6315082595,37397.3796822218,48376.1830162909,48844.3716546441,48656.3685710328,52022.3063754664,68415.7469634416,50871.9236470382,6954.1064236415
5545258420,6290,5,0,11507.3315809673,44515.1294604350,37396.6374527156,48371.2429313808,48840.4658239639,48659.0941351212,52015.7601545757,68410.5270215046,50865.0367306364,6962.2587805128
5545258420,6290,5,0,11512.1743243028,44519.1691357802,37416.9088356226,48380.9527534455,48846.0507968057,48690.8883269195,52023.7299959947,68420.3706882343,50869.8673062751,6978.0159478985
5545258420,6290,5,0,11521.3244323137,44526.2020645438,37427.4217256776,48390.4192215738,48852.4875084250,48668.5971063399,52032.4785700104,68422.6703829339,50877.5816260609,6980.9240274392
5545258420,6290,5,0,11501.8317820033,44505.8698431527,37397.3310114345,48367.6412931212,48830.7438342024,48621.3986103637,52015.9061669376,68397.3250704517,50864.0876502842,6957.3186956027
5545258420,6290,5,0,11479.2485366999,44485.8904849694,37376.1105481753,48350.1319773930,48813.4170339265,48638.0805227079,52002.6798804910,68383.9406039464,50848.3548182922,6944.6034524227
5545258420,6290,5,0,11482.2661255120,44492.4610412538,37388.3877542696,48364.1248287394,48820.5716396584,48664.5330956010,52012.2680255875,68394.4291586078,50852.5283383024,6954.4106160620
5545258420,6290,5,0,11491.2458857674,44502.6454034946,37396.4792726569,48371.4376145300,48825.8280846859,48648.0823694964,52019.4591344099,68400.2209822955,50860.1088134231,6961.4070417352
5545297631,6291,5,0,11486.2084592827,44496.8170767164,37387.7428663380,48361.9711464017,48819.7320685776,48634.0530150595,52011.9273300765,68390.5598310181,50853.8546172561,6954.8729885413
5545297631,6291,5,0,11484.1399508228,44490.1005080702,37378.5805906303,48356.4105089536,48814.4026173692,48629.5753026287,52004.4320288335,68381.3488845231,50842.0276159442,6946.6962962763
5545297631,6291,5,0,11480.3314617172,44483.6881318445,37365.7801735726,48353.3442493543,48809.6450479114,48620.1575052877,52000.0638256741,68372.6368135979,50836.7590032199,6940.2717523538
5545297631,6291,5,0,11472.4467941759,44477.6651219171,37357.7616613663,48345.8002773240,48803.5611994999,48622.6518831364,51992.9335553359,68368.0374241988,50827.4507151504,6939.6025290285
5545297631,6291,5,0,11482.6311564167,44487.5939625247,37375.8671942388,48357.7367879073,48813.9889156772,48654.7989381427,52001.8403094102,68380.6918288947,50833.8995944665,6957.3673663900
5545297631,6291,5,0,11494.2513068826,44496.1356856944,37388.2417419077,48365.0009029106,48822.6888189056,48630.6460599491,52009.2504367754,68386.6174972475,50842.0519513379,6963.2686993491
5545297631,6291,5,0,11481.9497653946,44481.2302570863,37368.9316070497,48346.7980284635,48807.5400363610,48592.8531936171,51996.1458272971,68368.0495918957,50828.2781185343,6950.1154190835
5545297631,6291,5,0,11470.9258320730,44466.4708408400,37357.2627857965,48333.4865681392,48793.9243836162,48611.4941051498,51986.5576822006,68359.4957010291,50817.7408930856,6945.2848434448
5545332987,6292,5,0,11484.0669446418,44476.7038738681,37375.7090141801,48350.7525299310,48805.6053725662,48652.2072187194,52001.2075891755,68376.4818057940,50832.8410048429,6952.5489584481
5545332987,6292,5,0,11500.3229875973,44491.9013272000,37393.6320316003,48367.8846470577,48819.2210253111,48657.6340115024,52018.2180293339,68392.2754762702,50851.6400964344,6956.7589815489
5545332987,6292,5,0,11501.1138878908,44495.2717792199,37393.8632178399,48371.5349561046,48821.0340121377,48644.8944329288,52022.5132263124,68393.1880535319,50854.4264990068,6956.7711492457
5545332987,6292,5,0,11502.5253407222,44496.6953997482,37388.5215989347,48373.8468185009,48821.6545646757,48634.6857352943,52024.6060701660,68393.5044136493,50852.5770090897,6957.8540742629
5545332987,6292,5,0,11491.8299352149,44489.1879308085,37374.8816107961,48361.6426185875,48812.3341089093,48608.5738579123,52014.6650618616,68380.0104378726,50842.4291499394,6953.5467095876
5545332987,6292,5,0,11475.5982276531,44478.1883328805,37365.8653474503,48348.3433259600,48803.1718332016,48624.2458514202,52001.9863217721,68370.8603298618,50829.6530682753,6950.4682822914
5545332987,6292,5,0,11486.2084592827,44490.3560297035,37388.8987975362,48365.5849523581,48819.3061991888,48672.7706263501,52016.0765146931,68388.9536950375,50841.9911128538,6961.8085757304
5545332987,6292,5,0,11507.3559163609,44510.1163693439,37404.3517725013,48383.7391560180,48836.8276826139,48657.6096761088,52034.1090413847,68405.9276321055,50859.0867268900,6969.9731002986
5545352563,6293,5,0,11500.7853600765,44504.1420302039,37384.3967497117,48368.3591872338,48829.6122383979,48623.2481002808,52024.6669086501,68394.0641277031,50854.7428591242,6956.2601059791
5545352563,6293,5,0,11488.9826941583,44492.3636996792,37374.4922444978,48355.7534533252,48820.7176520203,48644.2130419067,52015.3221174901,68384.8531812082,50846.6635084338,6955.4570379888
5545352563,6293,5,0,11498.2423114406,44503.2781237294,37392.3422557371,48367.8359762704,48829.0038535567,48667.1491504179,52023.6326544201,68395.4755805346,50854.4021636132,6968.6468213449
5545352563,6293,5,0,11505.8471219549,44512.3430578625,37404.9601573425,48372.9220735424,48834.4306463397,48661.6980222413,52026.8327586846,68397.9699583833,50857.5414293935,6973.3922231058
5545352563,6293,5,0,11505.9687989231,44514.6184171684,37409.4622051670,48375.4894575720,48835.1120373618,48664.5695986915,52026.8084232909,68397.3859089358,50856.7261937064,6971.9564348807
5545352563,6293,5,0,11509.5947725764,44519.5950051690,37410.3504470350,48379.0789281348,48839.3220604626,48653.4604914921,52030.7629247584,68400.8050317430,50861.7514524942,6969.3647154574
5545352563,6293,5,0,11496.7456847313,44510.1772078280,37388.2417419077,48364.3195118886,48829.2350397964,48619.3422696006,52018.2180293339,68387.0555343331,50856.3124920144,6953.2546848639
5545352563,6293,5,0,11485.0890311750,44496.9144182910,37369.9780289765,48351.8111195546,48818.5518019858,48633.4567979152,52006.1355063887,68377.0415198478,50844.1569628882,6944.9684833274
5545389421,6294,5,0,11498.0476282914,44508.5467364538,37381.8780364693,48369.4542799478,48831.0966974103,48673.5371912500,52019.1549419893,68394.2223077618,50856.3611628017,6954.9946655095
5545389421,6294,5,0,11515.4352670514,44527.4553373166,37399.2900106230,48384.8220810352,48846.0021260184,48666.4677593959,52032.3082222549,68406.6333585212,50874.4180248869,6968.2939581370
5545389421,6294,5,0,11506.2121528596,44517.5508321027,37384.7374452227,48369.2352614050,48834.5279879143,48629.6726442033,52023.1946173345,68390.0366200547,50865.5477739030,6954.7148084826
5545389421,6294,5,0,11492.9493633226,44503.0226020961,37367.8973528198,48356.6051921028,48821.0461798345,48630.1836874698,52010.4550387609,68377.6012339017,50847.2840609717,6944.2505892149
5545389421,6294,5,0,11489.8466006327,44501.1609444822,37369.0897871084,48356.1914904108,48821.8005770375,48635.4523001942,52010.1873494308,68379.4263884251,50842.4413176362,6952.6341323259
5545389421,6294,5,0,11490.4184823834,44505.1762844338,37375.1736355199,48358.5155205040,48827.6775746030,48642.8989306498,52012.7790688541,68383.6242438290,50846.5539991624,6964.8261645425
5545389421,6294,5,0,11497.2932310884,44512.7445918577,37387.3656677365,48368.3105164465,48837.9592784184,48662.2455685983,52021.6614875348,68394.9158664807,50856.7261937064,6969.2430384892
5545389421,6294,5,0,11509.0228908257,44522.1745568955,37395.9925647839,48376.7305626480,48846.9998771578,48652.6209204113,52028.6944162985,68400.3913300511,50865.6451154776,6969.6689078780
5545440637,6295,5,0,11498.9602055531,44510.0311954662,37375.9280327229,48358.3816758390,48833.4450628971,48609.8271306851,52017.0134273485,68382.9793558974,50855.0105484543,6954.9338270254
5545440637,6295,5,0,11482.5946533263,44489.8693218305,37357.8346675472,48340.4829938124,48815.5463808705,48623.7104727600,52001.0859122072,68367.8427410497,50836.4304754057,6947.3411842079
5545440637,6295,5,0,11495.0300394793,44499.9685101936,37379.7365218285,48358.4425143231,48826.9231774000,48670.4709316506,52012.2801932843,68384.2569640638,50848.0749612652,6961.7112341558
5545440637,6295,5,0,11515.8976395306,44518.5242478486,37398.8763089310,48377.5579660319,48841.7921029176,48658.9237873656,52028.9134348413,68399.4179143052,50866.7280404948,6969.8635910272
5545440637,6295,5,0,11510.5316852317,44511.3331390262,37384.7252775259,48368.4565288084,48832.1431193370,48622.7370570142,52020.1283577351,68387.3232236632,50858.2593235060,6957.6715588106
5545440637,6295,5,0,11499.3982426387,44502.4385526486,37365.9870244186,48358.7832098341,48823.7839116197,48621.4472811510,52012.5843857049,68381.7504185183,50846.8825269766,6950.4439468978
5545440637,6295,5,0,11494.0687914303,44499.0924360223,37360.9617656307,48357.1284030662,48822.5914773310,48616.1421653362,52011.0390882084,68380.3876364741,50844.7775154262,6942.4619377819
5545440637,6295,5,0,11488.1066199870,44492.8260721585,37358.2970400265,48352.4316720925,48816.7509828560,48621.3377718796,52008.5568780565,68377.4187184493,50842.1006221252,6936.4267601577
5545454342,6296,5,0,11495.5289150490,44499.7494916508,37368.0433651817,48363.5529469887,48825.7915815955,48650.6984243133,52018.2788678180,68389.0632043089,50851.3115686201,6943.6057012833
5545454342,6296,5,0,11508.7308661019,44512.1118716229,37377.7166841559,48374.7472280658,48835.1607081491,48642.6069059261,52027.3924727384,68400.6590193812,50860.0479749390,6949.7138850884
5545454342,6296,5,0,11496.7091816409,44500.5890627316,37362.9816033033,48356.9702230075,48825.0980228765,48598.6693526984,52014.8962481013,68383.8189269782,50850.6423452949,6944.2870923053
5545454342,6296,5,0,11484.3589693656,44486.4623667201,37353.3569551164,48342.0404590058,48813.0763384155,48616.1178299425,52004.6632150732,68374.6323158769,50838.0001082958,6946.9153148191
5545454342,6296,5,0,11495.6749274109,44491.9865010777,37370.1240413384,48357.2014092471,48822.3602910914,48649.4694869342,52018.4370478767,68391.2777251307,50842.7698454504,6957.5498818424
5545454342,6296,5,0,11506.8083700039,44503.8013346928,37381.6468502297,48369.3326029796,48833.9804415573,48645.1012837748,52028.3172176970,68403.2142357140,50853.8302818625,6953.0600017147
5545454342,6296,5,0,11503.1458932602,44506.0523586051,37377.7288518527,48366.4853619230,48837.5942475137,48643.1666199799,52029.2054595650,68404.9298809660,50856.5436782540,6950.8333131961
5545454342,6296,5,0,11500.7245215924,44509.4714814123,37377.2543116766,48365.4511076931,48841.1593826828,48646.9386059950,52029.7651736189,68405.8181228341,50858.8677083472,6954.0699205510
5545488030,6297,5,0,11495.1030456602,44507.7801715539,37372.5332453093,48360.1216564846,48839.9182776069,48632.8970838614,52024.3262131390,68401.1822303446,50855.8622872319,6951.5512073086
5545488030,6297,5,0,11489.1530419138,44501.8180001107,37369.4061472258,48357.7002848169,48835.0390311809,48639.8570064441,52018.9359234465,68396.8992010629,50851.7131026153,6949.7017173916
5545488030,6297,5,0,11500.7123538956,44513.1461258528,37386.6964444112,48373.6034645645,48846.1603060771,48672.1622415090,52029.9111859808,68414.8952246640,50866.3630095901,6960.1172658720
5545488030,6297,5,0,11518.5867005285,44530.2174044954,37403.1715059095,48386.2335338667,48860.6033622059,48664.9833003835,52042.5655906766,68429.3747838833,50884.3955362817,6970.2286219319
5545488030,6297,5,0,11507.4167548451,44520.5197501275,37382.2065642836,48367.1059144610,48847.4622496371,48622.5667092587,52030.8237632425,68412.6198653581,50877.4842844863,6958.5963037691
5545488030,6297,5,0,11492.7060093861,44506.4173895097,37365.2569626092,48353.6606094717,48834.6253294889,48637.8615041651,52020.9679288159,68402.1678137872,50863.8321286510,6956.4791245219
5545488030,6297,5,0,11500.7975277734,44513.6084983321,37381.6225148361,48366.6922127690,48843.2157234459,48667.1613181148,52029.1202856873,68414.7613799989,50868.4801888373,6975.4607315657
5545488030,6297,5,0,11509.7286172414,44522.5030847097,37395.1043229159,48375.4651221784,48849.0927210114,48661.4181652143,52032.7949301278,68421.4292778579,50875.4766145105,6985.6572615033
5545521416,6298,5,0,11507.5384318133,44522.4179108319,37392.8532990036,48370.2086771509,48845.4789150550,48656.2468940646,52028.4145592716,68415.0290693291,50872.7145473317,6979.0015313412
5545521416,6298,5,0,11509.8259588160,44518.8041048755,37388.8014559616,48365.6457908423,48840.0521222719,48641.5239809088,52023.5109774519,68409.2615810350,50865.8763017172,6969.4133862447
5545521416,6298,5,0,11506.2973267373,44507.1596190159,37371.1096247810,48354.2203235255,48825.8524200796,48608.1601562203,52012.3653671621,68394.1614692777,50851.1777239551,6959.4480425467
5545521416,6298,5,0,11499.6415965752,44492.8139044617,37353.2596135418,48342.5393345755,48811.9204072173,48614.0736568763,52002.5703712196,68384.4516472130,50836.1992891660,6956.7589815489
5545521416,6298,5,0,11513.7196217993,44502.7792481597,37368.8829362624,48359.6714517022,48822.8226635707,48654.5555842062,52014.2148570792,68402.0218014253,50846.9068623702,6969.2552061860
5545521416,6298,5,0,11526.9580759427,44516.2123854522,37381.3669932028,48373.5061229899,48836.2071300759,48644.3590542686,52028.2077084256,68413.7149580722,50863.3089176876,6977.1763768178
5545521416,6298,5,0,11515.7516271688,44506.4660602970,37365.7801735726,48359.8539671545,48825.2562029352,48608.7442056678,52017.8651661261,68398.3228215912,50858.8068698631,6967.8437533546
5545521416,6298,5,0,11498.7046839198,44490.4290358844,37350.8869126613,48344.1089674657,48811.8230656427,48615.9353144902,52001.8889801975,68385.1330382351,50844.0474536168,6960.9446692560
5545570582,6299,5,0,11500.9070370448,44492.7165628871,37357.7129905790,48349.5235925519,48813.5873816820,48631.9845065996,52005.0039105842,68389.4038998199,50840.6648339001,6964.7653260584
5545570582,6299,5,0,11502.9147070206,44496.3182011467,37357.5548105203,48349.7426110947,48814.8163190612,48622.8343985888,52002.2783464959,68388.7711795852,50840.9568586238,6967.7099086895
5545570582,6299,5,0,11499.9579566926,44497.4741323449,37359.3677973469,48348.2703197791,48815.8262378975,48632.0210096901,52002.0106571658,68387.2502174823,50840.9446909270,6971.9807702744
5545570582,6299,5,0,11504.8737062091,44504.3488810498,37366.9482724676,48353.0522246305,48821.2895337710,48632.0088419933,52005.8434816650,68391.1803835561,50848.2939798081,6977.3588922701
5545570582,6299,5,0,11496.6483431567,44495.9410025452,37356.0825192047,48341.5294157392,48812.0420841855,48595.3962422531,51996.9245598938,68377.9906002000,50840.9203555334,6967.6734055990
5545570582,6299,5,0,11477.7275745971,44475.5844457604,37337.7214646989,48323.7889137713,48794.5206007605,48594.6783481405,51980.8023616034,68361.8927373033,50822.6079718148,6956.9536646980
5545570582,6299,5,0,11484.6266586957,44479.0035685677,37350.4002047884,48333.6934189852,48800.2029151768,48636.9245915097,51987.8109549734,68373.5250554660,50827.9860938106,6967.9654303228
5545570582,6299,5,0,11505.5307618375,44496.8414121101,37368.1528744531,48353.2104046892,48813.4170339265,48632.1183512647,52001.3779369310,68386.8608511839,50843.4269010789,6981.3620645248
5545580301,6300,5,0,11496.5631692790,44491.3902839334,37354.7805756446,48340.2153044823,48805.5688694757,48591.7094301157,51990.7433699077,68373.3182046200,50836.0411091073,6973.3313846217
5545580301,6300,5,0,11476.9610096972,44476.9350601078,37342.0653324647,48320.2116109054,48793.8392097384,48599.3020729332,51975.0713763998,68359.4957010291,50823.0095058100,6967.0163499706
5545580301,6300,5,0,11472.4467941759,44477.7989665822,37350.6800618153,48318.6054749248,48798.6211145898,48619.6221266275,51975.0592087030,68364.2167673964,50828.7526587104,6967.0041822738
5545580301,6300,5,0,11472.0087570903,44481.3762694481,37355.3524573953,48319.2746982500,48800.9208092894,48616.1543330330,51975.2052210648,68368.7796537050,50836.0654445010,6965.4102139900
5545580301,6300,5,0,11471.0475090413,44479.6971272866,37354.0383461384,48319.3963752183,48797.7572081154,48622.2138460508,51972.2728061305,68366.6138036706,50832.5489801192,6967.3692131785
5545580301,6300,5,0,11479.2363690031,44483.9558211746,37355.3402896985,48326.7578317961,48801.9793989130,48619.1597541483,51978.0402944246,68369.3272000621,50838.7058347116,6971.0195222253
5545580301,6300,5,0,11472.3494526013,44475.8277996969,37338.4758619019,48313.7627315892,48792.9266324767,48582.1212850192,51966.9798580125,68354.3365975762,50829.8964222118,6961.5773894907
5545580301,6300,5,0,11456.3976020665,44460.3139862476,37325.7362833283,48297.4580178465,48780.3452339618,48592.5003304092,51952.1961063726,68340.7087771345,50814.6989688799,6951.7702258515
5545602905,6301,5,0,11467.3606969039,44470.1089821901,37345.4357844846,48313.1908498386,48794.4110914891,48638.6159013681,51963.0861950292,68358.1937574691,50823.5813875607,6964.3881274568
5545602905,6301,5,0,11485.5270682606,44486.0730004218,37361.4119704132,48328.7533340751,48807.7955579943,48627.7866511957,51975.8014382091,68373.2330307423,50839.6305796701,6967.4665547530
5545602905,6301,5,0,11478.2021147732,44481.3519340545,37350.9234157518,48321.9515915511,48801.3223432845,48605.5684367970,51974.8645255538,68367.4168716609,50839.8739336066,6954.4106160620
5545602905,6301,5,0,11470.0132548113,44474.7692100733,37342.9779097264,48316.1962709538,48797.7572081154,48607.3935913205,51970.9830302673,68363.1703454697,50837.7324189657,6960.4092905957
5545602905,6301,5,0,11472.1060986649,44476.2049982984,37343.1969282692,48317.0358420346,48797.9762266582,48596.4183287862,51969.5350743453,68362.1847620270,50832.8410048429,6971.8834286998
5545602905,6301,5,0,11467.2998584198,44471.0337271486,37335.7868009040,48310.2949379947,48788.8991248283,48582.9608561000,51962.0762761929,68354.2027529112,50819.7485630614,6972.8325090520
5545602905,6301,5,0,11468.4071188307,44469.0017217792,37334.8742236423,48313.9817501321,48786.5142562510,48602.1371462930,51963.3173812688,68357.4515279629,50816.8526512176,6974.0979495216
5545602905,6301,5,0,11478.9686796730,44476.0589859365,37338.9869051685,48324.8961741822,48792.6589431466,48600.2511532854,51971.1290426291,68365.4822078660,50825.3700389936,6970.9465160444
5545634660,6302,5,0,11472.2642787236,44465.4244189133,37322.0251357973,48311.7307262198,48783.2654811993,48560.2315984347,51962.7576672150,68350.4185991992,50818.1545947776,6950.3709407168
5545634660,6302,5,0,11451.8590511515,44445.9561039965,37304.6253293405,48294.0875658265,48767.9950216865,48562.8963240390,51948.0955925433,68334.1260531533,50801.1319869223,6937.5461882654
5545634660,6302,5,0,11449.8757165694,44448.1341217279,37315.4424118161,48301.0231530156,48773.7503422837,48587.0978730198,51951.8797462552,68342.7529502008,50801.8742164285,6950.3952761105
5545634660,6302,5,0,11455.5701986825,44458.1724716068,37324.3004951032,48307.6423800873,48780.3574016586,48578.0572742804,51958.1582778159,68349.7980466613,50806.6682889768,6959.4723779404
5545634660,6302,5,0,11452.8689699878,44456.3716524770,37316.9025354348,48300.8284698665,48777.6196698734,48569.4547126265,51955.6638999672,68342.8381240785,50805.3663454167,6954.2281006097
5545634660,6302,5,0,11451.7495418801,44455.4955783057,37313.6659280799,48299.1006569176,48777.7656822353,48576.3172936347,51956.3696263829,68338.5672624937,50800.8521298954,6950.1032513867
5545634660,6302,5,0,11454.8279691763,44456.5054971420,37312.5099968817,48301.9478979742,48779.8463583920,48575.5385610380,51957.7689115176,68340.8669571932,50799.1851554307,6951.2470148881
5545634660,6302,5,0,11458.3444335581,44459.3892412891,37322.1711481592,48310.1975964201,48785.2609834782,48616.8722271455,51960.5918171805,68349.3235064852,50801.3145023747,6963.7189041316
5545686721,6303,5,0,11491.0268672245,44490.1005080702,37373.8960273535,48357.8462971788,48820.4012919029,48709.4562322713,51997.9588141237,68396.7410210042,50832.5733155128,7000.5140193242
5545686721,6303,5,0,11541.0969396510,44539.0876554793,37436.2311381774,48417.5166823985,48867.6362909696,48750.0233334790,52048.1383958215,68451.1427934995,50880.6965564475,7037.5768238468
5545686721,6303,5,0,11558.3994045332,44557.1445175646,37449.6277723795,48431.6190430163,48879.2442737386,48703.3845515567,52064.9298174372,68459.0274610408,50898.3640522345,7043.0522874172
5545686721,6303,5,0,11541.4132997684,44541.9713996264,37428.1882905775,48411.8465356790,48860.7858776582,48675.8855567368,52049.8540410736,68439.5591461241,50883.7263129565,7025.8958348968
5545686721,6303,5,0,11534.5385510634,44533.1133163393,37418.0647668208,48403.9618681377,48850.8692047475,48675.8612213432,52041.3609886912,68428.7663990422,50875.4401114200,7012.2801821519
5545686721,6303,5,0,11530.8030681387,44526.5305923581,37403.1350028190,48391.2101218673,48841.3540658320,48642.1080303563,52029.8746828903,68415.3697648401,50870.0376540307,6999.6014420624
5545686721,6303,5,0,11510.8723807428,44505.5291476417,37371.1947986588,48361.0585691400,48818.9898390714,48614.6333709301,52006.5492080807,68388.9780304311,50850.1678051188,6985.8154415620
5545686721,6303,5,0,11493.6550897383,44489.0175830529,37351.8359930135,48342.5758376660,48802.6242868446,48614.2075015413,51989.4049232572,68373.6467324342,50832.8288371461,6978.4174818937
5545705039,6304,5,0,11483.0083550182,44478.9670654772,37343.4281145088,48331.6614136158,48792.8049555085,48608.6833671837,51980.4738337892,68365.0563384772,50826.5624732823,6970.0826095700
5545705039,6304,5,0,11474.5761411199,44469.2450757157,37341.6637984695,48322.8276657223,48784.9567910577,48609.1579073598,51972.7716817002,68356.5267830043,50820.9775004405,6961.6868987622
5545705039,6304,5,0,11476.9123389099,44470.9242178772,37351.3857882310,48329.2278742512,48788.6679385887,48624.0390005743,51976.9938724978,68365.4822078660,50820.7098111104,6966.3106235549
5545705039,6304,5,0,11488.2526323489,44482.5443683431,37358.5038908725,48340.8845278076,48799.7770457880,48613.8911414239,51985.1462293692,68375.4597192608,50830.2614531165,6970.1191126604
5545705039,6304,5,0,11479.0295181571,44476.5335261126,37343.4767852961,48327.6825767547,48795.1776563889,48584.3966443251,51977.1520525565,68362.6714698999,50823.2650274433,6951.3078533722
5545705039,6304,5,0,11467.0565044834,44470.2184914615,37340.1306686698,48322.7911626319,48791.5516827357,48612.7230425289,51971.8956075290,68361.3208555526,50819.1280105235,6952.4881199640
5545705039,6304,5,0,11477.6545684161,44484.7223860744,37368.8464331720,48346.4208298620,48809.5233709432,48658.3275702213,51989.2954139858,68384.7680073304,50833.5467312586,6979.7924316347
5545705039,6304,5,0,11497.7069327803,44504.8234212259,37398.5599488136,48370.3790249064,48828.0182701141,48675.8733890400,52011.2946098417,68406.5238492498,50853.5625925324,7000.3923423559
5545725087,6305,5,0,11511.4077594030,44517.4413228313,37419.6100643173,48388.2777069329,48838.6406694405,48684.1717582732,52029.2541303523,68421.9159857308,50862.9317190861,7011.6352942203
5545725087,6305,5,0,11521.9206494580,44525.0948041330,37431.2545501768,48401.2119686557,48841.9624506731,48687.6152164741,52039.1708032630,68428.0485049296,50867.1174067931,7010.5280338094
5545725087,6305,5,0,11524.4271950035,44525.1069718298,37427.9692720346,48402.7085953649,48841.2080534701,48664.3749155423,52041.5313364467,68424.3860281859,50872.5441995762,6994.8682079983
5545725087,6305,5,0,11514.5348574865,44516.7234287188,37415.8989167863,48392.6580777892,48834.1386216160,48668.3050816161,52034.6565877417,68419.1539185520,50874.5275341583,6984.6351749702
5545725087,6305,5,0,11521.2635938296,44524.0362145094,37426.4848130222,48404.3755698297,48845.1747226344,48702.0947756934,52044.5610929556,68431.8204909447,50883.5803005946,6994.5396801841
5545725087,6305,5,0,11536.2663640122,44541.7158779931,37440.7575213956,48415.5698509068,48860.1653251203,48684.6828015398,52054.5386043504,68441.2382882857,50894.4095507670,7002.3635092412
5545725087,6305,5,0,11512.6731998726,44522.2232276827,37409.3283605019,48382.1451877342,48835.8542668680,48614.0128183921,52023.2067850313,68405.4774273230,50869.6117846418,6983.4184052879
5545725087,6305,5,0,11473.3593714376,44482.6538776145,37361.4606412004,48335.8105982324,48799.0591516755,48579.3835532341,51983.4062487235,68366.3826174309,50828.8256648913,6960.0442596911
5545762524,6306,5,0,11457.3831855091,44464.0373014754,37337.3077630069,48318.9583381326,48785.9545421971,48584.2871350537,51967.2110442522,68355.4925287744,50810.8174735934,6949.1906741250
5545762524,6306,5,0,11452.2970882371,44459.1215519590,37336.5898688943,48318.7879903771,48783.1073011406,48588.9838660274,51962.0762761929,68353.7403804319,50807.7268786004,6938.5804424954
5545762524,6306,5,0,11450.0825674153,44458.1116331227,37342.6615496090,48322.4504671208,48782.9734564755,48606.5661879365,51963.7189152640,68357.8530619581,50808.9558159795,6933.3605005583
5545762524,6306,5,0,11464.9514929330,44475.9008058778,37357.6643197917,48340.2274721791,48799.2173317342,48628.5167130051,51979.0502132609,68374.3402911531,50826.2096100744,6940.1987461728
5545762524,6306,5,0,11472.4102910854,44484.5398706221,37357.5669782171,48342.2838129422,48803.2448393825,48605.2764120733,51981.7514419556,68375.3623776863,50836.0289414105,6940.7706279235
5545762524,6306,5,0,11464.4404496664,44476.9958985919,37350.2663601233,48330.9556872001,48795.3845072349,48614.6820417174,51973.3313957541,68367.9522503211,50830.9550118354,6952.7679769909
5545762524,6306,5,0,11472.9821728361,44489.2609369894,37373.1416301505,48346.4695006493,48809.1218369480,48662.9756304077,51985.9006265722,68388.1992978345,50843.5607457439,6977.8090970525
5545762524,6306,5,0,11491.2337180705,44510.7734249724,37397.0389867107,48369.1014167400,48828.1277793855,48659.8363646274,52004.1035010193,68408.0083082622,50862.0434772180,6987.7744407505
5545811299,6307,5,0,11489.8466006327,44512.0875362292,37389.2881638345,48366.6800450722,48825.5117245685,48628.1516821004,52002.2418434054,68403.6036020123,50855.9596288065,6974.6576635754
5545811299,6307,5,0,11478.3359594382,44501.4894722965,37377.1813054957,48353.6849448653,48815.4125362055,48626.7280615721,51990.8772145728,68390.6936756832,50839.6305796701,6961.4557125225
5545811299,6307,5,0,11475.0871843865,44501.3799630251,37381.0019622981,48351.7746164641,48816.3737842545,48642.8989306498,51988.2003212717,68390.9491973165,50839.3993934305,6956.0654228300
5545811299,6307,5,0,11478.2386178636,44507.8410100380,37387.6211893698,48357.1040676726,48821.4598815265,48648.7272574280,51993.8704679912,68393.1393827446,50845.8726081403,6962.7941591730
5545811299,6307,5,0,11476.9488420004,44508.4128917887,37387.7915371253,48360.3041719370,48820.1822733601,48655.2734783187,51994.1868281086,68392.6161717812,50845.7630988689,6964.7896614520
