steady_timestamp,sequence,battery,flags,EEG-ch1,EEG-ch2,EEG-ch3,EEG-ch4,EEG-ch5,EEG-ch6,EEG-ch7,EEG-ch8,EEG-ch9,EEG-ch10
8342582210,7507,-2,0,57489.7392658872,61417.2162786996,41007.0729571094,60189.3496569029,57624.4600051108,63186.6062476013,67641.7841039279,58739.1183756669,69647.8722791264,27524.7051632358
8342582210,7507,-2,0,57482.9496910600,61339.4768636978,40960.0326411919,60117.3047240142,57535.2586197018,63193.6026732745,67603.7113805689,58636.7028715082,69636.1669547827,27529.1950433635
8342582210,7507,-2,0,57492.3674884009,61267.9308063789,40936.7193340791,60077.3216722540,57433.9625436508,63229.0228387261,67603.4558589356,58554.8994457675,69655.0268848582,27534.5366622687
8342582210,7507,-2,0,57507.4554324614,61305.2613002317,40973.1250829734,60135.0330582853,57465.3795368477,63240.1319459255,67646.3226548429,58613.3652290018,69681.9296625338,27531.9692782391
8342582210,7507,-2,0,57507.8934695470,61398.3563486240,41023.2681615807,60210.0955799860,57587.8352376738,63225.5185420411,67674.1866805674,58731.1363665510,69683.3411153652,27532.4803215057
8342582210,7507,-2,0,57493.1218856040,61419.1752778881,41016.3204066948,60199.0716466644,57635.4474353419,63201.8158686300,67648.0504677917,58747.5992603525,69659.8939635874,27531.7015889090
8342582210,7507,-2,0,57479.7130837051,61346.6801402170,40967.2845884984,60125.2502300396,57555.6273441834,63203.3003276424,67609.2963534107,58658.3127010657,69645.4874105491,27527.6132427765
8342582210,7507,-2,0,57488.7415147477,61283.2986074663,40944.2389707157,60085.9242339079,57460.2569364852,63233.0990171618,67608.5784592981,58589.1515123241,69662.8142108249,27528.1242860430
8342610020,7508,-2,0,57507.6379479137,61305.1882940508,40970.7645497897,60125.7734410030,57467.4723807012,63246.5321544543,67642.8791966420,58622.2233122889,69683.4992954239,27528.3554722827
8342610020,7508,-2,0,57515.7659693915,61391.5059353127,41019.6786910180,60199.0716466644,57579.1109990517,63230.1787699243,67671.7409735060,58724.3224563302,69685.4947977029,27530.9593594028
8342610020,7508,-2,0,57499.9114604312,61425.0644431504,41024.3997573853,60206.6156186946,57641.7503022962,63195.6468463408,67652.8810434304,58758.4406782217,69658.9692186289,27531.8354335740
8342610020,7508,-2,0,57484.8843548548,61363.0943632311,40980.3283594926,60138.7807089067,57574.3290942003,63202.7892843759,67611.8759051371,58672.9626080405,69637.9556062157,27538.1626359220
8342610020,7508,-2,0,57497.8672873649,61289.7353190856,40950.3714899145,60088.6011272089,57467.3750391266,63236.5303076659,67606.3639384763,58582.8121422794,69655.5014250344,27547.6412717470
8342610020,7508,-2,0,57520.3045203064,61310.8462730734,40977.9556586121,60133.9866363585,57470.2101124864,63246.4104774861,67650.1798147357,58618.8650279657,69683.4141215462,27542.0319635117
8342610020,7508,-2,0,57521.5456253824,61394.9737289073,41020.1653988909,60207.0658234771,57576.8478074426,63226.1634299727,67677.9586665825,58725.8920892203,69683.1585999129,27529.3653911190
8342610020,7508,-2,0,57505.6059425443,61431.2943039237,41023.1708200061,60213.6363797615,57643.4051090641,63211.2093305773,67662.9072256125,58763.7944648238,69662.5951922821,27526.7493363021
8342633740,7509,-2,0,57496.2733190811,61380.6401820498,40989.7583245303,60157.0687572316,57593.9190860852,63210.7104550076,67630.5411520635,58699.4638517209,69651.0358803003,27537.9436173792
8342633740,7509,-2,0,57494.4481645577,61297.7659989888,40956.7960338370,60101.0000102715,57484.1664607423,63228.3657830977,67616.0250897537,58612.4161486496,69662.4248445266,27545.3659124411
8342633740,7509,-2,0,57505.8492964808,61287.4721274766,40967.5036070412,60115.7594265177,57452.9928214819,63247.9436072858,67638.4379873016,58618.1106307627,69683.3532830621,27546.0108003728
8342633740,7509,-2,0,57512.8822252444,61366.6351630066,41014.2884013254,60187.7070178318,57546.3677269012,63237.5402265022,67673.5174572421,58717.3990368379,69693.6958253616,27542.0441312085
8342633740,7509,-2,0,57501.4324225340,61426.0743619867,41034.4016041737,60218.3939492192,57636.8588881734,63209.4085114475,67670.2930175841,58782.4718794470,69672.9012314912,27538.9048654282
8342633740,7509,-2,0,57479.0560280767,61379.7519401817,40993.8831737533,60156.1196768794,57597.1070226528,63198.1168887958,67624.9561792218,58715.4278699526,69644.6721748619,27538.5154991298
8342633740,7509,-2,0,57476.6711594994,61287.4234566893,40947.0983794691,60081.8115523817,57476.3547993820,63221.9169037815,67602.5676170676,58603.7892516021,69645.9497830283,27541.8737834530
8342633740,7509,-2,0,57500.8605407834,61284.7952341755,40961.2250754805,60106.1104429371,57448.5516121415,63255.2685607732,67635.4690692768,58608.5468210599,69673.8624795402,27545.3902478348
8342666187,7510,-2,0,57523.5289599645,61374.9213645430,41012.8161100098,60189.6903524139,57549.1662971704,63242.6993299551,67675.8901581226,58714.9046589892,69683.0369229447,27540.7056845580
8342666187,7510,-2,0,57518.6253781449,61438.0352079636,41029.1329914494,60221.7035627551,57643.6484630006,63213.6185345483,67671.0352470903,58782.1190162392,69664.1769928691,27535.5344134082
8342666187,7510,-2,0,57498.1593120887,61405.5109543559,40994.7227448341,60170.3680498591,57617.2567285916,63199.5891801114,67631.0765307237,58734.8718494757,69640.2309655216,27532.3221414470
8342666187,7510,-2,0,57493.0975502103,61325.2528261118,40956.3823321450,60102.7399909172,57512.2495050096,63229.1323479975,67606.0354106621,58637.8953057968,69645.7429321823,27536.3983198826
8342666187,7510,-2,0,57514.2693426822,61302.8520962608,40968.3188427283,60102.4479661934,57459.4051977076,63271.4759329414,67630.2856304302,58617.4535751343,69679.5204585628,27543.1270562257
8342666187,7510,-2,0,57535.9400107239,61383.1223922017,41027.1618245641,60181.4284862711,57545.8445159378,63278.6062032796,67678.7373991792,58716.7298135127,69705.5471620671,27546.1933158251
8342666187,7510,-2,0,57529.1504358967,61462.1759184604,41059.9781028955,60235.9641034316,57656.7409047821,63238.6109838226,67687.1087745934,58811.7473580030,69693.6106514838,27545.8647880109
8342666187,7510,-2,0,57503.0872293020,61431.5133224665,41022.5137643777,60187.4393285017,57640.2901786775,63218.7167995171,67645.6412638208,58767.5177800516,69663.2644156074,27545.1590615952
8342717249,7511,-2,0,57495.1903940639,61336.6052872476,40969.3652646551,60111.1965402091,57524.4415372262,63237.3577110498,67615.5627172745,58652.6790574367,69660.9282178174,27546.7043590917
8342717249,7511,-2,0,57506.2386627791,61295.7339936193,40961.8942988058,60104.3217915041,57457.3610246413,63245.5344033149,67632.0864495600,58615.4702405521,69678.0116641568,27546.6800236980
8342717249,7511,-2,0,57516.5325342913,61349.8437413910,40997.8620106144,60164.0165121175,57514.8047213425,63229.5947204768,67663.3087596077,58683.0617964036,69679.3379431105,27539.9026165677
8342717249,7511,-2,0,57509.6577855864,61416.6809000394,41020.7129452479,60207.3456805040,57610.2846383121,63196.9244545072,67667.9811551877,58750.9575446756,69657.3265795578,27536.6051707286
8342717249,7511,-2,0,57490.5179984839,61405.9124883511,40995.7691667609,60178.8732699383,57615.9912881220,63180.6684115517,67635.4934046705,58726.6099833329,69626.4084619307,27535.7534319510
8342717249,7511,-2,0,57487.2205526448,61327.2726637844,40951.0650486334,60112.3889744978,57521.4361161110,63202.7406135886,67604.3197654101,58629.5482657763,69624.9726737056,27542.0806342990
8342717249,7511,-2,0,57501.3837517467,61274.0876609713,40937.0600295902,60087.9319038836,57435.8850397488,63234.6443146583,67614.5284630445,58574.0879036573,69646.7285156250,27538.6736791885
8342717249,7511,-2,0,57518.9660736559,61328.9639736428,40981.5937999621,60152.0191630501,57488.4129869335,63241.2392063364,67661.7391267175,58649.2355992358,69667.5352771922,27533.9891159117
8342724707,7512,-2,0,57518.0778317878,61416.3523722252,41024.3389189011,60216.5809623926,57607.6320804047,63209.2624990857,67682.3755405292,58757.0778961775,69657.4482565260,27527.9539382875
8342724707,7512,-2,0,57497.9646289395,61413.6024727432,41002.8872694023,60189.3253215092,57626.8570413849,63186.6792537823,67650.9950504229,58742.8051878042,69627.6252316130,27530.8376824346
8342724707,7512,-2,0,57489.5567504349,61336.8851442745,40956.9298785020,60115.0780354956,57532.3748755548,63211.7325415407,67618.1909397882,58641.0710746676,69625.2525307325,27544.4776705731
8342724707,7512,-2,0,57501.6514410769,61289.0660957604,40948.3273168482,60094.5146278649,57451.1433315648,63244.9381861705,67627.0490230753,58587.9225749450,69652.3621592540,27547.6899425343
8342724707,7512,-2,0,57518.8808997781,61333.4660214673,40991.8024975966,60147.8699784335,57488.2791422684,63256.0229579762,67661.1307418764,58647.7876433139,69678.4131981519,27541.4479140642
8342724707,7512,-2,0,57519.0877506241,61419.1509424944,41038.3074348539,60209.4385243575,57597.6545690099,63245.5830741021,67679.8811626805,58739.7875989921,69680.8345698197,27539.5254179661
8342724707,7512,-2,0,57503.2940801479,61438.9964560127,41039.7553907758,60204.4741040538,57641.5677868439,63220.7244694929,67656.8598802915,58754.4983444511,69663.3009186978,27545.7796141331
8342724707,7512,-2,0,57491.1385510218,61364.0921143706,40992.4838886187,60133.1592329745,57557.7810265211,63219.3860228424,67616.6334745949,58658.6777319704,69649.0647134150,27556.2803364913
8342770271,7513,-2,0,57495.8109466018,61283.4446198282,40954.7640284676,60081.0449874819,57444.3050859503,63242.3099636568,67605.0133241290,58564.9621310401,69656.0854744818,27557.7161247164
8342770271,7513,-2,0,57511.6776232590,61312.8661107460,40982.0075016541,60126.3939935410,57460.8653213264,63251.6425871200,67643.6457615418,58607.5490699204,69677.4397824061,27551.8269594541
8342770271,7513,-2,0,57517.2260930102,61404.6470478815,41029.4250161731,60203.0626512223,57581.3741906608,63229.7163974450,67672.6413830709,58722.0470970243,69672.7552191293,27545.7552787395
8342770271,7513,-2,0,57510.7650459972,61434.4214020072,41030.1794133762,60206.8346372374,57638.8422227555,63214.5189441132,67658.0279791865,58751.7484449691,69649.9286198894,27543.5529256145
8342770271,7513,-2,0,57506.4455136251,61374.6050044256,40991.9485099585,60145.1322466483,57572.3335919213,63223.2431827352,67628.3387989386,58677.6715067110,69643.8204360843,27544.0639688811
8342770271,7513,-2,0,57513.1864176650,61308.4735721930,40969.2192522932,60103.0806864282,57474.9920173378,63247.6759179557,67628.4483082100,58611.2480497546,69659.9791374652,27545.4510863189
8342770271,7513,-2,0,57524.7700650404,61322.4542558425,40992.0945223203,60135.0452259821,57473.3980490540,63256.2663119127,67659.1960780815,58640.6452052788,69680.8710729102,27545.4754217126
8342770271,7513,-2,0,57527.7998215494,61402.4325270597,41032.3574311075,60201.0063104592,57573.1001568212,63238.0512697687,67686.4882220554,58737.5244073831,69680.7737313356,27541.7277710911
8342798071,7514,-2,0,57511.4707724130,61438.8382759540,41034.4989457483,60214.7679755660,57641.0202404868,63207.1453198385,67670.8770670316,58779.2839428794,69654.7591955281,27538.5154991298
8342798071,7514,-2,0,57493.3774072373,61378.0849657170,40987.5559714054,60146.6532087512,57581.9339047146,63202.6432720140,67628.5699851782,58697.4683494419,69633.3683845134,27541.0220446754
8342798071,7514,-2,0,57496.2489836875,61292.5703924454,40950.0429621003,60081.2153352374,57465.8419093269,63232.0160921446,67611.9245759244,58592.5706351314,69645.7307644855,27545.9864649791
8342798071,7514,-2,0,57520.0003278858,61304.6894184810,40975.0840821619,60116.4773206303,57459.3321915267,63257.6412616537,67651.7372799291,58617.1980535010,69675.8944849096,27547.5560978693
8342798071,7514,-2,0,57535.3316258828,61399.1107458270,41025.8355456104,60201.5538568163,57570.2042449773,63235.9097551279,67687.2912900457,58730.1629508052,69681.1752653307,27540.7908584357
8342798071,7514,-2,0,57522.0323332553,61442.8779512992,41032.3087603202,60218.0167506177,57645.4614498272,63205.5270161610,67674.4665375943,58774.1248394265,69653.9074567505,27534.3419791196
8342798071,7514,-2,0,57504.8637130381,61392.8930527505,40993.9318445406,60160.5122154325,57596.6811532640,63206.9263012957,67635.3352246118,58706.4116066068,69634.7555019512,27536.7998538778
8342798071,7514,-2,0,57505.3625886079,61314.3992405457,40961.2494108742,60103.9932636899,57489.8244397650,63236.2747860326,67622.7903291873,58616.6991779313,69645.4752428522,27548.4078366469
8342852817,7515,-2,0,57523.0300843948,61308.9359446722,40974.1350018097,60118.8743569044,57458.5777943236,63259.0648821820,67647.9044554299,58615.3363958871,69670.6015367916,27552.3988412048
8342852817,7515,-2,0,57535.6236506065,61392.8200465696,41021.6985286906,60193.7421954559,57553.3154817871,63245.5344033149,67686.3665450872,58712.4346165342,69683.7669847540,27543.1270562257
8342852817,7515,-2,0,57520.4261972747,61454.7779587920,41040.3759433138,60227.6657341983,57650.1825161945,63212.3530940787,67682.7162360403,58780.8414080727,69662.7655400376,27540.0486289295
8342852817,7515,-2,0,57501.7852857419,61416.8877508854,41004.9071070749,60175.8313457326,57623.1702292476,63205.5391838578,67644.7286865591,58725.8190830394,69640.2918040057,27545.5727632871
8342852817,7515,-2,0,57501.1160624166,61325.4840123514,40959.0592254461,60103.6525681789,57506.2143273855,63236.8588354801,67623.3378755443,58617.0033703518,69647.4342420407,27551.9851395128
8342852817,7515,-2,0,57517.2504284039,61304.5312384223,40965.2160800385,60113.8612658133,57459.6120485536,63253.9787849100,67651.2992428435,58610.4328140674,69673.2905977895,27549.2474077277
8342852817,7515,-2,0,57528.6515603270,61375.7609356238,41009.7011796231,60188.6560981840,57543.7030012969,63246.0454465814,67689.1772830533,58711.1570083678,69686.2126918155,27542.6646837465
8342852817,7515,-2,0,57517.8223101545,61434.3240604326,41025.1663222851,60219.4403711460,57633.6831193026,63215.0543227734,67685.3931293413,58774.8062304486,69664.2134959596,27539.3794056043
8342863142,7516,-2,0,57498.5608460838,61402.7975579644,40995.5136451276,60173.0571108569,57614.2756428700,63206.5612703910,67647.0162135618,58731.4162235780,69641.4112321134,27539.7322688121
8342863142,7516,-2,0,57492.3188176137,61320.0328841748,40954.3138236851,60103.7377420566,57507.5892771264,63228.5239631564,67618.7871569326,58632.8578793121,69640.1944624311,27541.7521064847
8342863142,7516,-2,0,57510.8867229655,61290.2341946554,40958.5968529668,60097.4592104960,57445.4853525421,63261.1942291260,67636.0896218148,58597.6323970097,69663.1184032455,27541.8007772720
8342863142,7516,-2,0,57535.4167997605,61363.0821955343,41011.8426942640,60170.8669254288,57517.8466455482,63256.3271503968,67680.9397523041,58686.1280560030,69682.1243456829,27534.4514883910
8342863142,7516,-2,0,57538.0450222743,61448.2682409917,41047.3602012901,60234.5161475096,57635.1797460118,63219.7632214439,67696.7699258708,58788.0690199856,69667.5109417986,27532.8088493199
8342863142,7516,-2,0,57515.4861123645,61430.1627081192,41014.6777676237,60194.7399465954,57635.1797460118,63197.6666840134,67660.3155061892,58760.2901681388,69636.6171595651,27534.9746993544
8342863142,7516,-2,0,57499.7411126756,61334.8774742987,40959.3877532603,60111.6832480820,57522.7137242774,63214.9934842893,67625.8687564835,58649.8683194706,69627.9050886399,27535.8751089193
8342863142,7516,-2,0,57506.5915259870,61289.2607789095,40952.3791598903,60100.2212776748,57452.6034551836,63247.1527069923,67643.7066000259,58616.5409978726,69650.5735078211,27533.4294018578
8342885107,7517,-2,0,57523.3829476026,61349.1258472784,40993.1287765503,60169.5284787783,57514.5370320123,63248.9291907285,67685.6851540651,58696.3002505469,69667.4014325272,27529.3167203317
8342885107,7517,-2,0,57527.2157721019,61430.1627081192,41027.1861599577,60232.6179868052,57628.3658357910,63231.4685457875,67705.3116490405,58788.1055230760,69664.2256636564,27532.0179490264
8342885107,7517,-2,0,57518.8443966877,61438.9477852254,41018.0238842500,60221.2533579726,57655.6336443712,63222.6834686814,67684.2371981432,58786.1586915844,69654.9173755868,27542.1779758735
8342885107,7517,-2,0,57506.1656565982,61362.8266739010,40974.7068835604,60145.0592404674,57559.2168147462,63233.7074020030,67644.3393202607,58685.5561742523,69653.3234073030,27547.9454641676
8342885107,7517,-2,0,57506.7618737425,61299.9926875074,40959.8866288300,60101.3407057825,57460.8166505391,63267.4605929898,67638.4866580889,58611.8686022925,69674.0814980830,27550.5736866814
8342885107,7517,-2,0,57519.6231292843,61341.1925089498,41001.5974935391,60151.9948276564,57495.9326235701,63278.0829923162,67673.8459850564,58670.5777394632,69697.6381591322,27545.9499618887
8342885107,7517,-2,0,57525.0134189769,61434.9811160611,41048.2241077646,60228.1037712839,57619.3130693547,63250.4014820440,67699.9091916511,58782.1676870264,69694.1947009313,27542.4700005973
8342885107,7517,-2,0,57510.3026735180,61443.2308145070,41033.0631575232,60213.4051935218,57649.5619636565,63223.7055552145,67672.3858614376,58781.8999976963,69662.9358877932,27540.4988337120
8342917656,7518,-2,0,57501.1525655071,61360.3809668396,40982.0075016541,60137.9533055228,57552.3420660412,63221.9534068720,67634.8971875261,58674.9702780163,69645.0980442507,27544.1491427589
8342917656,7518,-2,0,57508.6478667500,61293.7993298245,40955.8226180912,60106.0496044530,57452.3357658535,63239.7912504144,67636.5884973845,58606.1254493921,69654.8200340123,27541.4600817610
8342917656,7518,-2,0,57522.8962397297,61321.7363617300,40984.0516747204,60154.2945223560,57474.5904833426,63247.7610918335,67674.3448606261,58655.8426586107,69671.9278157453,27539.7931072962
8342917656,7518,-2,0,57521.6551346538,61398.6970441351,41023.0856461284,60212.8211440743,57575.9230624841,63232.4176261397,67691.5499839337,58751.2495693993,69666.1724951481,27538.7588530663
8342917656,7518,-2,0,57505.6181102411,61421.1342770766,41022.6597767396,60210.4849462843,57626.0296380010,63212.8032988611,67671.0595824839,58773.5042868885,69646.8866956837,27540.0972997168
8342917656,7518,-2,0,57489.6419243126,61355.7207389564,40981.5572968717,60141.4697699046,57554.3497360170,63225.1778465301,67631.0643630269,58692.7837861651,69636.3616379319,27544.2099812430
8342917656,7518,-2,0,57502.0529750720,61286.8759103322,40962.0038080772,60098.1040984276,57454.9153175799,63272.3033363253,67630.6628290317,58612.8055149479,69661.8529627759,27552.7273690190
8342917656,7518,-2,0,57535.2586197018,61324.6201058770,41005.7831812462,60153.7104729085,57476.9996873136,63296.4318791252,67682.4972174975,58663.9098416043,69699.8526799540,27558.0081494402
8342976692,7519,-2,0,57541.9873560449,61417.3744587583,41054.2471176919,60231.7784157245,57590.4634601875,63257.9211186806,67710.6045971585,58775.6214661357,69697.6989976163,27548.0671411358
8342976692,7519,-2,0,57518.8687320813,61440.2253933918,41038.9036519982,60223.7112327309,57640.0346570442,63213.2656713404,67681.3047832088,58790.4782239565,69661.0498947856,27534.0499543958
8342976692,7519,-2,0,57496.1638098097,61370.1394596916,40979.7321423482,60143.9641477533,57565.2641600672,63206.1840717895,67630.2491273398,58693.1366493730,69634.1836202006,27531.6529181217
8342976692,7519,-2,0,57497.3440764015,61296.9142602112,40944.7743493759,60090.1342570086,57462.0577556150,63234.1332713918,67616.3536175680,58607.3057159839,69641.6180829594,27537.5420833840
8342976692,7519,-2,0,57516.1675033866,61313.9977065506,40967.7834640681,60122.7680198877,57461.2425199279,63251.7399286946,67649.7904484374,58630.7407000649,69663.0940678519,27542.4456652036
8342976692,7519,-2,0,57528.6393926301,61401.1305834997,41015.7728603378,60200.1424039848,57565.0086384339,63240.2657905905,67686.9262591410,58733.4117258569,69665.7952965466,27542.1901435704
8342976692,7519,-2,0,57525.0377543705,61453.2691643860,41030.0699041047,60231.5107263944,57647.6516352553,63206.0623948212,67686.9019237474,58789.0546034282,69642.7861818544,27544.7088568127
8342976692,7519,-2,0,57510.4000150925,61399.2567581889,40985.3049474931,60172.4973968031,57593.2620304568,63192.7144314065,67646.1036363001,58716.3161118207,69617.1366769516,27545.6944402554
8342982172,7520,-2,0,57508.5018543882,61304.5555738160,40939.3840596834,60101.6327305063,57467.8860823932,63222.3427731703,67624.4329682584,58602.5359788294,69623.3178669377,27546.6070175171
8342982172,7520,-2,0,57525.6461392117,61298.2770422553,40955.1412270691,60123.4007401225,57441.3970064096,63249.0752030903,67657.6629482819,58611.8442668989,69653.5424258459,27540.5110014088
8342982172,7520,-2,0,57532.3383724643,61378.5108351058,41005.4911565224,60200.2640809530,57540.0040214628,63230.8358255527,67692.7302505256,58718.1412663441,69663.3495894851,27532.5654953834
8342982172,7520,-2,0,57516.6055404723,61423.9815181331,41015.0549662252,60215.2303480453,57615.5654187332,63200.7451113096,67677.5693002842,58761.3609254592,69640.6203318199,27523.7195797931
8342982172,7520,-2,0,57497.3927471888,61378.4499966217,40979.0020805389,60156.8132355983,57577.5170307679,63202.5215950458,67638.6813412381,58693.6841957300,69624.1331026248,27520.3856308636
8342982172,7520,-2,0,57492.6960162152,61297.5713158396,40939.6760844071,60096.8386579580,57473.4588875381,63221.7587237228,67621.0625162384,58597.2795338018,69631.3607145376,27521.6510713332
8342982172,7520,-2,0,57502.3449997958,61281.5342914270,40945.4192373075,60101.4623827508,57432.2590660956,63241.8232557839,67642.8426935515,58587.4845378594,69653.4329165744,27522.9530148933
8342982172,7520,-2,0,57512.0548218605,61355.7572420469,40991.9485099585,60169.0174355117,57515.6077893328,63236.2017798517,67678.7373991792,58682.6480947116,69663.1062355487,27518.3292901006
8343013968,7521,-2,0,57507.6257802169,61428.5200690481,41018.6809398785,60213.0036595267,57619.9336218927,63209.1043190270,67681.6454787199,58767.6272893230,69648.4076577866,27521.7362452110
8343013968,7521,-2,0,57496.0299651447,61402.4081916661,40986.2661955422,60173.3248001871,57608.2039621554,63194.1015488443,67645.8116115763,58725.7460768585,69626.6031450799,27533.0522032563
8343013968,7521,-2,0,57495.1538909734,61311.3208132495,40936.9261849251,60099.3330358067,57493.1462209976,63216.1129123970,67617.2418594360,58615.0565388602,69626.6153127767,27539.1117162742
8343013968,7521,-2,0,57511.2274184765,61285.7321468309,40940.9050217862,60104.1027729613,57439.3041625561,63243.7092487914,67641.6502592629,58593.8604109946,69651.2305634495,27537.6515926554
8343013968,7521,-2,0,57530.7322364837,61361.5612334315,40993.8588383597,60184.2392242372,57526.5830518671,63244.7921738087,67688.2038673074,58690.6422715243,69667.0364016225,27537.2865617507
8343013968,7521,-2,0,57531.1459381757,61435.7963517482,41023.5115155172,60230.6346522231,57631.2130768475,63220.0065753803,67697.0862859882,58766.3618488534,69655.5622635185,27538.1139651347
8343013968,7521,-2,0,57510.9353937528,61413.9066651637,40994.6619063500,60187.0012914160,57620.2256466164,63201.4265023317,67659.8409660132,58725.8677538267,69630.2169510363,27535.5465811050
8343013968,7521,-2,0,57502.5883537322,61331.0446497995,40949.1182171417,60116.3678113589,57515.2914292154,63213.0466527976,67626.0756073295,58625.1070564359,69625.8244124832,27541.0463800690
8343071713,7522,-2,0,57514.5978704965,61284.3937001804,40938.3863085439,60098.9923402957,57440.1437336369,63244.2811305421,67633.8142625089,58578.6386222691,69645.6090875173,27539.6470949344
8343071713,7522,-2,0,57533.7498252958,61343.5408744367,40984.6600595615,60163.3959595795,57498.8772062012,63247.9801103763,67675.6589718830,58656.3658695741,69667.6812895541,27537.6394249586
8343071713,7522,-2,0,57526.3640333243,61421.7791650082,41018.6809398785,60219.5133773269,57608.0092790062,63216.8186388127,67684.8699183780,58750.0084643234,69655.8177851517,27531.7867627867
8343071713,7522,-2,0,57502.4058382799,61408.6380524394,40990.3180385842,60184.0810441785,57613.1927178528,63191.0961277290,67645.2153944320,58726.3666293964,69624.9483383119,27529.6452481459
8343071713,7522,-2,0,57490.6031723616,61317.5263386292,40938.9338549009,60103.4213819392,57503.5374340844,63208.5811080636,67608.8948194155,58615.7987683664,69617.7328940959,27535.7655996478
8343071713,7522,-2,0,57502.9168815464,61271.7757985750,40932.3146278292,60086.1797555411,57424.0093676497,63237.0656863261,67622.9241738524,58572.8954693687,69642.2629708910,27541.5087525483
8343071713,7522,-2,0,57519.0390798368,61330.9351405281,40978.1990125485,60150.3156854949,57477.9000968785,63244.5123167817,67664.8540571042,58656.9255836279,69661.5487703554,27542.5673421719
8343071713,7522,-2,0,57520.2680172160,61415.9751736237,41018.9364615118,60208.7449656386,57589.4048705639,63233.6100604284,67682.1565219864,58755.4839278937,69656.0733067850,27541.7764418784
8343096475,7523,-2,0,57510.9353937528,61428.9216030433,41013.8746996334,60195.2874929525,57623.4014154872,63216.1859185779,67660.5345247321,58758.2338273757,69639.1723758979,27537.3960710221
8343096475,7523,-2,0,57504.1701543192,61355.5503912009,40970.9348975453,60130.1538118593,57538.1423638489,63220.2255939231,67628.5456497846,58666.6110702990,69631.6162361709,27535.5952518923
8343096475,7523,-2,0,57509.8768041292,61285.4644575008,40943.2777226667,60087.9927423678,57436.0188844139,63237.7714127418,67623.6785710554,58588.4457859084,69645.9741184220,27528.8908509429
8343096475,7523,-2,0,57524.2711894707,61319.8138656319,40972.6383751005,60134.5463504123,57459.2956884362,63245.8750988259,67657.4317620422,58634.0503136008,69666.1603274512,27525.5934051039
8343096475,7523,-2,0,57522.1296748299,61408.4677046839,41012.5605883765,60202.6611172272,57576.0569071491,63216.2224216684,67678.9320823283,58740.1039591095,69661.6704473236,27523.4275550694
8343096475,7523,-2,0,57504.5351852239,61425.5876541138,41001.1959595439,60193.0243013434,57619.2765662642,63202.0470548697,67652.5160125258,58745.9566212814,69634.4269741370,27529.1220371825
8343096475,7523,-2,0,57498.6946907489,61355.9275898024,40959.8136226491,60124.4228266556,57539.5051458930,63220.1039169549,67619.1643555341,58652.1558464733,69630.0831063712,27538.8196915504
8343096475,7523,-2,0,57512.8700575476,61297.4131357809,40944.2511384125,60093.5168767254,57448.1257427527,63253.7232632767,67626.5379798088,58587.8130656736,69654.0047983251,27540.5961752866
8343098746,7524,-2,0,57532.7399064595,61333.3565121959,40977.2377644995,60143.3922660026,57471.1835282322,63265.5745999822,67663.2600888204,58638.6497029998,69678.6078813011,27539.4402440884
8343098746,7524,-2,0,57541.9751883481,61419.3821287341,41022.0513918984,60211.8477283285,57582.2624325288,63248.1869612223,67693.7280016650,58741.7831012711,69679.4474523819,27539.2942317265
8343098746,7524,-2,0,57528.4325417841,61449.1321474662,41021.9783857175,60217.3718626861,57639.6696261395,63217.7920545585,67677.7518157365,58774.0274978519,69658.4095045750,27539.4524117852
8343098746,7524,-2,0,57513.6122870538,61386.6753596740,40978.3085218199,60152.1895108056,57576.4949442348,63217.3053466856,67639.8494401331,58695.9352196423,69641.0218658150,27544.0518011843
8343098746,7524,-2,0,57515.6807955137,61305.0057785984,40942.1461268622,60092.3244424367,57464.9658351557,63243.3563855835,67626.5866505961,58603.0226867023,69649.1620549896,27544.3559936048
8343098746,7524,-2,0,57533.0684342737,61317.0761338468,40965.4959370654,60126.4913351155,57464.0775932876,63262.4109988083,67663.3574303950,58632.6875315566,69671.0274061804,27535.7047611637
8343098746,7524,-2,0,57539.1036118979,61404.6105447910,41015.7971957314,60205.4718551933,57574.6819574082,63237.6619034704,67694.9447713473,58748.4023283428,69672.9864053689,27529.4870680872
8343098746,7524,-2,0,57522.4095318568,61437.7918540272,41015.7120218537,60212.0910822649,57640.4483587362,63209.0434805429,67674.6247176530,58783.9441707626,69646.7285156250,27531.9206074518
8343134157,7525,-2,0,57509.3049223785,61380.9687098640,40974.8650636191,60149.2327604776,57577.5535338584,63206.9749720829,67636.0774541180,58700.8388014619,69629.3287091682,27541.9102865434
8343134157,7525,-2,0,57509.2562515912,61302.8399285639,40940.2236307641,60096.9238318358,57466.6328096204,63229.6677266577,67622.8876707619,58608.8388457836,69639.5982452868,27546.2054835219
8343134157,7525,-2,0,57527.3131136764,61310.9314469512,40961.7969572312,60128.0366326121,57452.4331074281,63254.3803189051,67656.3731724186,58623.6347651203,69666.5010229623,27547.4830916883
8343134157,7525,-2,0,57534.3460424401,61388.2571602610,41008.8372731487,60196.7719519649,57543.6421628128,63234.0359298172,67688.2768734884,58715.5738823145,69672.0981635008,27536.2888106112
8343134157,7525,-2,0,57514.5857027996,61432.9977814789,41018.5470952134,60216.3497761530,57620.8948699417,63204.1885695105,67674.0285005087,58769.1360837291,69648.3346516056,27525.0336910500
8343134157,7525,-2,0,57494.0953013498,61387.3689183929,40980.5960488227,60159.3684519311,57581.3255198735,63200.3922481017,67629.2027054130,58709.4778662062,69627.8320824590,27529.0733663952
8343134157,7525,-2,0,57494.6915184941,61296.6344031842,40935.9284337856,60087.0801651060,57461.4615384707,63226.7961502075,67601.3751827789,58599.6400669855,69633.7820862054,27535.8994443129
8343134157,7525,-2,0,57514.6465412838,61286.7907364545,40952.6955200077,60103.2023633964,57426.4794101047,63247.7854272271,67630.2369596429,58598.8004959047,69662.8020431281,27541.2167278245
8343192667,7526,-2,0,57523.9913324438,61365.6374118671,41001.3663072994,60179.8710210778,57521.7159731379,63228.8403232738,67666.5088638721,58700.5102736477,69667.9854819747,27537.7611019268
8343192667,7526,-2,0,57515.7416339978,61421.5723141622,41018.3767474579,60210.7648033112,57611.8786065959,63205.0524759849,67663.4426042727,58760.6673667403,69648.0426268819,27534.9260285671
8343192667,7526,-2,0,57506.6036936838,61389.7416192734,40990.2450324033,60168.2021998246,57589.5752183194,63213.0953235849,67637.1847145288,58712.7023058643,69634.9988558877,27541.1315539468
8343192667,7526,-2,0,57508.9763945643,61311.2843101591,40953.8027804185,60111.9996081994,57489.9826198237,63234.7781593234,67621.2937024781,58623.0993864601,69642.4576540401,27546.3636635806
8343192667,7526,-2,0,57524.2955248643,61290.6235609537,40960.1543181601,60115.2727186448,57443.1004839649,63253.3947354625,67639.7520985585,58608.1087839743,69664.7488746198,27546.0351357664
8343192667,7526,-2,0,57532.3627078580,61356.6819870055,41000.8430963360,60175.1377870137,57513.2715915428,63236.0557674898,67670.1226698285,58694.3534190553,69671.2342570264,27538.8318592472
8343192667,7526,-2,0,57519.1850921987,61425.4903125392,41027.4295138942,60217.4083657766,57611.6960911435,63205.8920470657,67670.4755330364,58776.5583787911,69649.9164521926,27536.6781769096
8343192667,7526,-2,0,57500.9213792675,61401.8728130059,40998.8475940571,60177.7416741338,57602.2782938026,63190.4634074942,67633.0476976090,58743.9976220929,69624.4494627422,27540.6570137707
8343224096,7527,-2,0,57494.9713755211,61309.2766401833,40945.5165788821,60099.9292529511,57486.2836399895,63208.0457294034,67599.7447114047,58629.5969365636,69620.9208306635,27538.5641699171
8343224096,7527,-2,0,57510.9718968432,61274.7447165998,40944.9081940410,60097.2888627405,57427.2338073077,63238.3067914020,67622.2792859207,58603.5824007561,69645.6699260014,27538.1017974379
8343224096,7527,-2,0,57526.4127041115,61345.3660289601,40998.4582277587,60173.1787878252,57509.0615684420,63239.5478964780,67664.5863677741,58697.5291879261,69662.4005091330,27535.7412642542
8343224096,7527,-2,0,57519.4527815288,61419.3577933404,41030.5201088872,60215.6683851309,57615.1760524349,63207.5711892273,67669.1370863859,58774.8305658422,69645.4874105491,27533.3320602833
8343224096,7527,-2,0,57503.2940801479,61407.3239411825,41011.2951479069,60177.1211215958,57618.3639890025,63197.2408146246,67635.1405414626,58743.6325911882,69624.6806489818,27540.9003677071
8343224096,7527,-2,0,57494.7401892814,61327.0658129384,40966.7127067477,60104.1636114455,57516.2283418707,63210.4914364648,67600.6937917568,58639.0512369950,69620.5923028493,27547.0815576932
8343224096,7527,-2,0,57509.3779285594,61281.3031051873,40958.7185299350,60086.2040909348,57439.4380072211,63253.5042447339,67612.8006500957,58592.0595918648,69646.8866956837,27550.5736866814
8343224096,7527,-2,0,57533.7984960831,61343.0054957765,41010.6137568849,60156.9957510507,57500.2156528517,63272.3763425063,67661.9094744731,58672.5732417422,69677.5249562839,27551.5105993367
8343230339,7528,-2,0,57536.7674141079,61436.5507489512,41055.6342351297,60231.3160432452,57624.8372037123,63242.4559760186,67685.1984461922,58781.1334327965,69675.7119694572,27552.0946487842
8343230339,7528,-2,0,57512.7362128826,61434.5309112786,41031.7247108727,60205.1554950759,57643.4659475482,63204.7482835644,67652.2604908925,58767.0189044819,69644.9033611016,27549.9531341434
8343230339,7528,-2,0,57495.1173878829,61343.6382160113,40973.0399090956,60118.9230276917,57535.5384767287,63218.4004393997,67612.3869484037,58652.5208773780,69634.4634772275,27548.9553830039
8343230339,7528,-2,0,57505.6667810284,61289.4189589682,40959.9596350110,60094.8674910727,57449.5858663715,63252.6525059563,67622.7416584000,58601.6842400517,69659.2125725653,27543.1513916194
8343230339,7528,-2,0,57522.7867304583,61340.2555962945,41003.1184556419,60157.9448314029,57497.9281258490,63261.8756201481,67664.4038523218,58677.0022833858,69681.9053271401,27537.4204064158
8343230339,7528,-2,0,57522.2513517981,61420.8787554433,41041.5683776024,60217.3110242020,57609.2260486885,63236.8710031769,67681.1709385438,58773.5407899790,69675.2252615843,27531.6164150312
8343230339,7528,-2,0,57504.2431605001,61430.2478819970,41031.1041583347,60198.2199078868,57639.7669677141,63209.2990021761,67647.4299152538,58774.2708517884,69649.4054089260,27536.9336985429
8343230339,7528,-2,0,57491.2237248996,61359.6144019398,40989.5149705939,60127.6716017074,57557.3429894355,63222.1724254148,67608.1525899093,58683.8405290003,69637.0065258635,27553.6886170680
8343261035,7529,-2,0,57498.6946907489,61293.8114975213,40967.5522778285,60085.2306751889,57457.9450740888,63250.9368607042,67603.1151634246,58606.3323002381,69652.1674761049,27561.0014028586
8343261035,7529,-2,0,57519.5136200129,61328.6719489190,41001.5609904486,60135.6779462169,57481.3313873825,63269.3222506037,67646.8458658063,58656.3658695741,69678.9120737217,27555.0270637186
8343261035,7529,-2,0,57526.6195549575,61422.8985931159,41047.9442507377,60215.4128634976,57601.1101949076,63243.3807209772,67681.1709385438,58770.9247351621,69677.0382484110,27550.1964880799
8343261035,7529,-2,0,57507.1025692535,61441.8436970692,41036.9689882034,60206.8224695406,57646.7268902968,63203.9938863613,67653.0392234891,58785.4773005623,69640.9245242405,27548.0063026517
8343261035,7529,-2,0,57489.6419243126,61364.0556112802,40984.3436994441,60128.0122972184,57561.1028077537,63212.8276342548,67609.9169059486,58686.8094470251,69623.7315686296,27553.0072260460
8343261035,7529,-2,0,57491.2845633837,61286.3161962784,40953.0727186092,60080.6556211835,57453.5647032326,63228.8524909706,67602.1174122851,58608.7780072995,69633.2832106357,27554.7837097821
8343261035,7529,-2,0,57502.2719936148,61303.3996426178,40976.7997274139,60119.1055431440,57462.6418050625,63244.1229504834,67636.5641619909,58652.6182189526,69653.5059227554,27551.5957732145
8343261035,7529,-2,0,57507.9664757280,61385.3369130235,41020.5669328860,60189.6051785361,57569.6810340139,63229.6190558704,67666.6305408404,58756.8102068474,69656.1341452691,27550.0991465053
8343309253,7530,-2,0,57492.7568546993,61420.3190413894,41025.6773655517,60198.9864727866,57635.0945721341,63203.2759922488,67655.1198996459,58789.0667711251,69634.3296325624,27547.6047686566
8343309253,7530,-2,0,57478.3624693577,61362.1452828790,40984.7330657425,60137.6369454054,57575.0591560097,63195.4643308884,67615.8182389078,58705.7180478879,69614.9829946140,27549.6367740260
8343309253,7530,-2,0,57484.0082806836,61276.7158834851,40945.9789513614,60079.7430439218,57463.1163452386,63230.5559685258,67604.4292746815,58599.2750360808,69624.4981335295,27551.5714378209
8343309253,7530,-2,0,57517.8466455482,61293.5194727976,40976.6537150520,60121.5634179023,57459.3443592235,63264.7350289015,67649.5227591073,58620.3616546750,69660.9038824237,27553.5426047062
8343309253,7530,-2,0,57532.2531985865,61390.7515381097,41035.5818707655,60208.1487484943,57574.6089512272,63248.7953460634,67688.2647057915,58741.7465981806,69671.5384494470,27552.4718473858
8343309253,7530,-2,0,57512.9673991222,61437.4511585161,41042.6026318324,60220.0487559871,57649.0995911773,63212.3165909882,67669.8549804984,58791.2934596437,69646.9475341678,27551.6566116986
8343309253,7530,-2,0,57491.0290417504,61377.5860901473,40992.9949318852,60147.6631275875,57587.1416789548,63207.8510462542,67620.9286715734,58712.6658027738,69625.2525307325,27555.6111131661
8343309253,7530,-2,0,57491.5765881075,61293.2031126802,40951.9289551078,60088.0779162455,57474.8703403696,63227.1246780217,67605.1228334004,58619.5585866847,69636.4589795064,27558.0203171370
8343327797,7531,-2,0,57504.8028745540,61284.3085263026,40958.3656667271,60107.1325294702,57446.8724699800,63243.1860378280,67629.5068978336,58621.4445796922,69655.9272944231,27547.7386133216
8343327797,7531,-2,0,57519.8056447367,61364.0434435833,41006.4280691778,60181.8421879631,57544.6155785587,63246.5929929385,67668.1149998528,58720.8911658261,69669.4212701998,27543.5285902209
8343327797,7531,-2,0,57516.1796710834,61429.7490064272,41030.8851397919,60218.9414955763,57639.6452907458,63225.5185420411,67670.7310546697,58793.8973467638,69658.7380323892,27547.6777748375
8343327797,7531,-2,0,57501.3107455658,61397.6627899051,41001.5244873581,60172.1567012920,57615.9061142443,63219.4711967201,67635.2622184308,58749.0715516680,69642.8591880353,27560.1618317778
8343327797,7531,-2,0,57496.8938716191,61307.8651873518,40959.9474673141,60099.1991911417,57499.2179017123,63243.1617024344,67609.7222227995,58639.4041002029,69649.1377195960,27569.9689954171
8343327797,7531,-2,0,57510.0471518847,61286.7420656672,40966.8952222000,60101.9734260173,57449.9874003666,63265.4285876204,67633.6317470565,58621.5419212668,69676.0039941810,27565.3574383212
8343327797,7531,-2,0,57516.7272174405,61360.8311716221,41013.6556810906,60176.1233704563,57538.7629163868,63249.2090477554,67667.8838136131,58719.5527191756,69682.3068611353,27552.1433195715
8343327797,7531,-2,0,57509.3657608626,61423.0446054778,41034.0122378754,60212.2735977173,57633.9264732391,63225.6523867062,67666.4601930848,58789.5048082107,69662.1449874997,27542.8106961083
8343368019,7532,-2,0,57501.2255716881,61394.6817041835,41003.8363497545,60171.9498504461,57615.0178723762,63218.2422593410,67635.7002555164,58744.1801375452,69641.6789214435,27545.2077323825
8343368019,7532,-2,0,57501.2134039912,61315.3604885947,40961.5901063852,60111.9022666248,57513.4297716015,63229.1445156944,67616.9376670155,58649.0895868739,69642.6523371893,27554.7593743885
8343368019,7532,-2,0,57512.8822252444,61283.6514706742,40958.0736420034,60108.2641252748,57455.8765656289,63251.3870654867,67632.3784742838,58624.5108392916,69661.1229009665,27559.0910744574
8343368019,7532,-2,0,57527.0210889527,61348.7121455864,41001.0621148789,60173.2517940061,57526.4978779893,63248.3816443714,67670.5972100046,58705.0123214722,69673.8138087529,27558.9572297924
8343368019,7532,-2,0,57518.2360118465,61419.3821287341,41026.2492473023,60215.8143974928,57626.9178798690,63208.7514558191,67672.8969047042,58782.8734134422,69653.8101151760,27552.5448535667
8343368019,7532,-2,0,57492.9758732421,61396.5798648879,40997.2657934701,60171.0616085780,57620.0187957704,63187.2998063203,67630.6993321222,58746.7110184844,69620.6653090303,27548.7120290675
8343368019,7532,-2,0,57483.0348649377,61304.8962693270,40944.7500139823,60087.7980592186,57500.6901930278,63206.1110656085,67594.2327447439,58628.2341545194,69613.5107032984,27547.1180607837
8343368019,7532,-2,0,57498.0254674236,61267.7847940170,40944.1902999284,60080.2905902788,57429.4118250390,63242.7723361360,67611.4135326579,58592.7653182805,69639.9267731010,27546.8747068472
8343395179,7533,-2,0,57517.1774222229,61337.3353490570,40994.7714156214,60158.6262224249,57499.8019511598,63243.0278577693,67658.1983269421,58683.5485042765,69656.7668655039,27540.1824735946
8343395179,7533,-2,0,57516.0093233279,61416.6565646457,41026.8576321435,60215.1208387739,57611.0268678183,63216.6361233604,67671.6436319314,58771.5209523064,69644.6235040746,27532.5776630802
8343395179,7533,-2,0,57499.1813986218,61410.2441884200,41008.4479068504,60187.7921917095,57626.4068366025,63210.5887780394,67647.8557846426,58753.4397548275,69629.8275847379,27537.1527170857
8343395179,7533,-2,0,57490.6031723616,61332.2979225723,40964.7050367719,60119.3975678678,57532.3870432516,63219.7632214439,67619.1156847468,58660.5637249780,69629.6085661951,27546.2784897029
8343395179,7533,-2,0,57495.2999033353,61273.3210960715,40947.3782364960,60088.6863010867,57445.4488494517,63241.9936035394,67619.4685479546,58601.9884324723,69650.6343463052,27547.7507810184
8343395179,7533,-2,0,57506.1291535077,61317.0639661500,40980.2796887053,60137.4909330435,57481.1488719302,63247.3838932319,67650.9220442419,58660.2230294669,69669.2752578379,27544.3924966953
8343395179,7533,-2,0,57503.2819124511,61406.0706684098,41021.9662180207,60200.2884163467,57596.5108055085,63219.8118922312,67666.0221559992,58762.7358752002,69662.8385462186,27543.1392239226
8343395179,7533,-2,0,57486.7703478624,61416.8147447044,41010.5529184007,60184.0080379976,57628.0616433704,63201.8402040237,67637.4037330717,58763.8796387016,69634.5608188021,27550.0869788085
8343427229,7534,-2,0,57482.3169708252,61338.2114232282,40965.9583095447,60109.5295657444,57534.8570857067,63212.0975724454,67601.1683319329,58655.3194476473,69625.8000770895,27556.0126471612
8343427229,7534,-2,0,57497.0885547682,61278.1760071038,40952.7806938854,60083.3203467877,57443.7697072901,63246.2157943369,67611.7420604721,58588.4944566957,69646.6555094441,27554.8688836599
8343427229,7534,-2,0,57516.7515528341,61318.1955619545,40991.8755037775,60144.8523896214,57477.6689106388,63244.0012735152,67654.0856454159,58643.1517508243,69665.5032718228,27550.2086557767
8343427229,7534,-2,0,57514.6465412838,61393.8299654059,41026.8697998403,60204.9608119267,57579.4151914723,63212.5842803183,67670.8162285475,58731.0755280669,69653.0435502761,27543.9057888224
8343427229,7534,-2,0,57492.6716808215,61403.4667812897,41013.2054763081,60189.4469984774,57613.2900594273,63188.6869237581,67642.1491348326,58733.3387196760,69625.0821829770,27539.2820640297
8343427229,7534,-2,0,57472.2421178558,61332.1519102104,40964.4008443513,60116.3069728747,57534.5650609829,63193.1037977048,67600.1584130966,58642.5068628927,69611.1014993274,27543.0540500448
8343427229,7534,-2,0,57476.9753519199,61260.8735422216,40932.3754663133,60068.0498872750,57431.8818674941,63222.4644501386,67592.6266087632,58560.5939278807,69624.4007919549,27541.3384047928
8343427229,7534,-2,0,57497.1858963428,61285.7808176182,40960.2881628252,60111.2208756028,57444.7066199455,63236.8223323896,67634.3131380786,58604.4098041401,69650.3666569751,27537.3717356285
8343490134,7535,-2,0,57503.6104402653,61381.3094053751,41008.6060869091,60192.1603948690,57562.7576145217,63210.5887780394,67669.2709310509,58724.2251147556,69647.5924220994,27537.5420833840
8343490134,7535,-2,0,57487.5125773686,61415.0990994524,41009.3726518089,60195.7133623413,57625.7132778836,63185.0852854985,67650.5326779436,58760.7890437085,69622.5999728251,27546.4610051552
8343490134,7535,-2,0,57471.3417082909,61344.5872963634,40961.5657709916,60119.1298785377,57550.5412469114,63185.9856950634,67602.6892940358,58669.3974728714,69603.4358503290,27554.2483311219
8343490134,7535,-2,0,57477.0848611913,61267.8699678948,40933.1298635164,60071.1891530553,57440.7764538717,63214.9934842893,67595.5468560007,58584.7589737710,69615.7252241201,27555.7936286184
8343490134,7535,-2,0,57499.9722989153,61286.6812271831,40961.9186341995,60115.2240478575,57443.3681732950,63228.5482985500,67634.7998459516,58615.2755574030,69640.3648101866,27552.9098844714
8343490134,7535,-2,0,57509.0494007452,61365.6374118671,41004.3473930210,60183.5456655183,57542.0725299227,63203.7505324249,67665.0000694661,58706.7888052083,69636.9456873794,27543.7232733701
8343490134,7535,-2,0,57496.6383499858,61401.3130989520,41008.5087453345,60191.6128485119,57606.2814660573,63178.1496983094,67648.5858464519,58739.2157172415,69613.4742002079,27535.4249041368
8343490134,7535,-2,0,57478.4476432355,61349.9654183592,40971.0930776039,60128.9127067833,57555.4326610343,63178.4903938204,67606.4856154446,58667.6088214385,69598.6174423871,27540.0972997168
8343495482,7536,-2,0,57477.9731030594,61264.3048327257,40932.6796587339,60064.3387397440,57441.7620373143,63206.0867302149,67587.2849898580,58568.1013968204,69609.8968973420,27543.5772610082
8343495482,7536,-2,0,57497.7577780935,61271.3134260957,40952.5373399490,60095.7070621535,57424.2892246766,63229.7772359291,67626.2337873882,58581.9117327145,69644.1246285049,27542.7133545337
8343495482,7536,-2,0,57509.0250653516,61364.7491699991,41003.2279649133,60181.6718402076,57533.8836699608,63218.3882717029,67666.7035470213,58699.3786778431,69654.8200340123,27537.7002634427
8343495482,7536,-2,0,57495.4459156971,61418.4452160787,41013.5461718192,60202.3204217161,57618.1693058533,63185.4868194936,67655.0225580713,58754.8633753558,69631.3607145376,27535.2302209876
8343495482,7536,-2,0,57477.7054137293,61364.7004992118,40968.8420536917,60136.1768217866,57571.0803191486,63184.8419315620,67611.5473773229,58681.6381758753,69609.3858540754,27537.0067047238
8343495482,7536,-2,0,57486.6365031973,61286.8150718481,40939.8707675563,60083.1256636386,57468.2997840852,63221.9290714783,67601.5698659281,58594.5174666230,69624.8874998278,27550.0869788085
8343495482,7536,-2,0,57508.2219973612,61281.6316330015,40957.8424557638,60105.4898903991,57440.5209322384,63238.1972821306,67631.3685554475,58600.3214580076,69650.0016260704,27551.0360591606
8343495482,7536,-2,0,57514.0381564426,61351.8149082763,41001.2081272407,60170.0638574385,57521.5577930792,63218.2057562505,67660.6318663066,58685.5805096459,69653.4937550586,27542.7133545337
8343507407,7537,-2,0,57496.7113561667,61408.6502201362,41017.1478100788,60199.6191930214,57609.3112225662,63183.1019509163,67655.5336013378,58745.0318763228,69629.7910816475,27537.2378909634
8343507407,7537,-2,0,57474.5296448585,61377.9146179615,40984.3680348378,60152.2503492897,57588.7964857228,63174.4020476879,67617.0958470742,58697.9185542244,69605.6625388476,27538.5520022203
8343507407,7537,-2,0,57469.5408891611,61287.8736614717,40933.7017452670,60078.8913051442,57474.2741232252,63200.9519621556,67589.2683244401,58588.9081583877,69606.8671408330,27541.0828831595
8343507407,7537,-2,0,57488.4616577208,61265.2782484715,40936.6828309887,60082.3104279514,57423.8025168037,63235.8124135533,67616.9863378028,58572.6399477354,69639.2332143821,27542.0806342990
8343507407,7537,-2,0,57511.3125923543,61347.2276865740,40992.1310254108,60168.1535290373,57517.5667885213,63237.0656863261,67667.1537518038,58682.7211008925,69661.3419195094,27540.4014921374
8343507407,7537,-2,0,57509.7064563736,61422.1685313065,41020.9197960939,60214.7679755660,57626.0661410914,63206.1354010022,67672.6048799804,58763.7457940365,69645.1223796444,27541.0342123722
8343507407,7537,-2,0,57497.0033808905,61396.0809893181,40990.0503492541,60171.3049625144,57612.2558051974,63190.0618734991,67638.8881920841,58718.6888127012,69621.6022216856,27548.0428057422
8343507407,7537,-2,0,57488.5711669922,61307.9990320169,40939.2988858056,60098.2136076990,57498.6703553552,63196.1822250010,67607.0696648921,58606.9893558665,69616.3944474454,27550.4763451068
8343565306,7538,2,0,57499.3030755900,61269.8898055674,40931.0978581469,60087.9319038836,57431.8696997973,63221.8438976006,67618.1301013041,58566.1910684192,69631.5797330804,27549.7584509942
8343565306,7538,2,0,57520.2923526096,61334.1352447925,40977.9921617026,60153.8321498767,57495.4215803035,63228.2076030390,67658.5876932404,58641.4726086628,69650.7681909702,27546.2906573997
8343565306,7538,2,0,57516.4230250199,61410.7673993834,41010.9057816086,60209.4263566607,57603.0448587024,63192.0695434748,67670.1713406158,58730.7835033432,69637.5175691300,27539.7809395994
8343565306,7538,2,0,57493.8154443229,61398.3076778367,40985.6943137915,60178.9584438161,57609.9682781947,63172.6864024359,67635.5664108514,58714.1745971798,69609.5318664373,27538.9413685186
8343565306,7538,2,0,57480.1997915780,61306.5754114886,40932.2416216483,60097.6538936452,57500.6658576342,63195.2209769520,67596.7757933799,58607.6950822823,69605.9423958745,27546.9598807250
8343565306,7538,2,0,57493.7181027483,61262.4431751118,40926.7418226843,60082.0062355309,57424.6785909749,63230.1787699243,67611.3891972642,58571.6908673832,69636.8483458048,27552.4718473858
8343565306,7538,2,0,57510.8258844814,61324.2672426691,40978.5397080596,60153.3697773974,57489.7757689777,63237.9052574069,67658.1983269421,58666.9152627195,69661.7799565950,27547.7264456248
8343565306,7538,2,0,57512.3955173715,61406.4113639208,41020.6156036733,60214.3056030867,57607.1575402286,63209.9073870173,67675.5494626116,58770.9855736462,69653.2260657284,27543.0418823480
8343581281,7539,2,0,57497.5387595507,61401.3252666488,40999.6384943506,60189.4713338711,57622.0629688367,63186.7644276600,67647.4055798601,58756.3478343682,69624.6563135882,27539.1603870615
8343581281,7539,2,0,57492.8055254866,61329.2681660634,40955.8956242721,60125.3232362205,57538.2518731203,63201.9132102046,67620.8434976956,58667.0734427782,69619.6918932844,27546.0716388569
8343581281,7539,2,0,57503.3792540257,61275.2314244727,40936.2934646903,60096.0720930582,57450.8634745379,63226.3216100314,67624.8466699504,58605.0668597685,69636.4103087191,27549.1013953658
8343581281,7539,2,0,57515.9241494502,61312.7687691715,40965.7636263955,60140.5206895524,57475.8924269027,63228.0980937676,67658.4903516658,58652.1558464733,69652.3378238604,27542.1414727831
8343581281,7539,2,0,57512.5536974302,61401.2644281647,41005.4546534319,60205.5691967679,57584.4769533506,63200.4530865859,67677.6544741619,58751.1765632184,69642.8713557321,27533.5024080388
8343581281,7539,2,0,57492.6595131247,61417.1676079123,40995.6109867022,60194.7764496859,57623.3405770031,63175.2902895560,67648.4520017869,58760.4483481975,69615.8469010884,27533.5024080388
8343581281,7539,2,0,57476.5373148343,61334.7923004210,40942.0731206812,60111.6710803852,57529.3816221363,63184.7567576843,67604.0034052927,58655.1247644981,69600.6494477565,27537.9071142887
8343581281,7539,2,0,57483.7284236567,61263.7329509750,40916.2897711134,60067.4780055243,57429.0224587407,63219.1061658154,67603.2976788769,58576.5336107187,69621.2980292651,27545.7309433458
8343612765,7540,2,0,57502.9290492433,61301.1729540992,40953.0605509123,60120.8941945770,57456.4241119860,63231.6388935431,67645.3249037034,58626.1899814531,69647.6289251899,27545.5605955903
8343612765,7540,2,0,57512.2251696160,61392.5280218458,40999.4803142919,60194.7399465954,57570.7882944248,63206.7924566306,67672.5075384058,58715.7442300700,69645.7185967887,27544.9765461428
8343612765,7540,2,0,57498.3783306315,61414.7340685477,40993.1166088535,60191.7345254802,57618.9845415405,63178.3808845490,67652.0901431369,58718.8956635471,69619.8622410400,27541.6060941229
8343612765,7540,2,0,57490.6031723616,61352.8978332935,40952.1723090443,60134.2786610822,57554.8121084963,63189.5143271420,67619.4807156515,58634.9750585593,69608.2542582709,27547.4465885979
8343612765,7540,2,0,57496.7965300445,61280.1836770796,40920.3051110650,60086.8124757759,57451.8247225869,63209.9438901077,67610.9389924818,58550.7015903636,69619.0956761401,27547.8602902899
8343612765,7540,2,0,57507.4919355519,61290.3558716236,40938.0577807297,60113.1798747912,57445.7287064786,63217.3053466856,67639.0463721428,58575.0978224936,69636.3859733255,27538.0652943474
8343612765,7540,2,0,57509.0615684420,61378.1214688075,40985.0980966472,60186.1252172448,57555.5908410930,63203.2273214615,67671.7044704155,58691.1533147908,69635.6194084257,27531.9571105423
8343612765,7540,2,0,57497.1615609492,61421.6453203431,40995.0391049515,60201.1523228211,57631.0427290920,63186.3750613617,67661.5809466588,58746.1269690369,69615.1290069758,27535.1085440194
8343630088,7541,2,0,57485.3223919405,61362.9970216566,40955.3967487024,60133.1835683682,57570.9951452708,63193.3593193381,67620.6853176369,58674.8364333513,69604.8351354636,27544.2221489398
8343630088,7541,2,0,57494.3386552863,61290.1125176871,40929.6985730123,60083.0648251545,57468.7621565644,63235.1553579249,67615.5505495776,58600.5526442472,69629.2313675936,27554.7958774789
8343630088,7541,2,0,57517.5181177340,61307.4149825694,40954.9587116167,60123.8631126018,57465.0266736398,63250.4623205281,67654.7061979539,58631.5437680552,69659.2125725653,27557.3389261149
8343630088,7541,2,0,57523.9669970501,61388.4396757133,40995.5258128244,60192.7322766196,57561.6016833235,63222.6469655909,67684.1398565686,58723.3977113716,69660.5631869127,27550.3546681386
8343630088,7541,2,0,57511.1787476892,61433.4723216550,41001.9625244437,60212.9306533457,57632.7583743441,63188.1028743106,67671.7774765965,58765.5101100758,69639.2940528662,27548.2861596787
8343630088,7541,2,0,57490.4084892125,61385.8601239869,40961.9551372899,60154.3310254464,57588.5531317863,63177.5291457714,67632.4636481615,58700.6806214032,69614.3502743792,27551.1334007352
8343630088,7541,2,0,57487.7924343955,61295.2959565337,40918.2731056956,60086.0215754824,57472.2664532494,63203.2029860678,67610.2454337628,58598.6909866333,69617.4773724627,27553.0315614396
8343630088,7541,2,0,57508.6600344469,61285.3306128357,40933.3123789687,60102.8129970981,57439.4501749180,63235.8489166438,67641.6015884756,58603.3390468197,69647.0692111360,27549.8314571752
8343675353,7542,2,0,57521.5942961697,61372.8893591736,40990.2937031906,60185.8088571274,57542.7539209447,63226.5649639679,67686.3057066031,58719.3702037232,69660.2954975826,27538.7831884599
8343675353,7542,2,0,57509.2805869848,61427.9116842070,41006.8904416570,60218.0167506177,57636.5060249655,63201.0979745175,67681.3899570866,58786.1830269780,69641.3868967197,27535.2302209876
8343675353,7542,2,0,57489.7514335840,61381.5284239179,40967.3089238920,60158.2611915203,57596.9853456846,63191.2908108782,67639.4357384411,58718.7131480948,69621.3101969619,27540.9855415849
8343675353,7542,2,0,57482.6089955490,61292.2783677216,40926.2794502051,60087.9684069741,57482.6820017299,63212.0732370518,67612.2044329513,58611.6860868402,69627.2845361019,27545.3537447443
8343675353,7542,2,0,57497.8307842744,61276.5090326391,40935.2713781572,60094.3807831998,57441.7011988302,63232.7096508635,67632.6583313107,58602.9861836118,69649.5149181975,27545.3659124411
8343675353,7542,2,0,57519.0999183209,61354.6013108487,40986.2661955422,60169.3337956291,57528.4933802683,63236.9926801452,67673.9068235405,58694.1952389966,69662.3153352552,27545.6944402554
8343675353,7542,2,0,57526.7777350162,61433.8616879534,41023.6575278791,60224.3074498752,57638.5136949413,63220.4202770723,67688.7635813613,58775.3416091088,69655.9029590295,27553.9441387013
8343675353,7542,2,0,57511.0449030242,61413.2982803226,40997.4604766193,60184.8232736847,57627.5140970134,63196.6080943898,67655.6187752156,58735.7357559501,69632.8330058532,27556.0248148580
8343698900,7543,2,0,57497.0520516778,61316.6259290643,40943.4480704222,60101.6570658999,57503.9633034732,63212.0732370518,67618.5803060866,58615.7987683664,69625.9704248451,27550.0261403243
8343698900,7543,2,0,57508.3436743295,61280.6460495589,40940.3939785197,60091.0103311798,57439.1703178910,63246.1306204592,67633.9967779612,58581.9969065922,69649.2107257769,27547.9454641676
8343698900,7543,2,0,57524.1251771088,61358.1421106242,40991.9728453521,60167.1922809883,57516.5690373818,63237.1265248102,67677.2894432573,58678.6814255473,69664.8583838912,27540.8882000103
8343698900,7543,2,0,57511.7871325304,61427.5223179086,41013.8746996334,60209.4628597512,57618.9967092373,63199.1754784194,67678.9564177220,58758.5015167058,69642.5063248274,27534.3906499069
8343698900,7543,2,0,57487.0258694957,61398.8795595874,40981.9101600795,60161.8871651735,57609.7005888646,63185.7058380364,67636.2599695703,58716.9001612682,69615.9807457534,27536.7146800000
8343698900,7543,2,0,57484.3489761946,61317.4411647515,40945.2610572488,60097.8972475816,57511.7262940462,63215.9303969446,67613.8714074161,58619.4734128069,69620.0325887955,27549.6124386324
8343698900,7543,2,0,57507.9299726375,61284.8560726596,40949.1912233227,60095.9017453027,57450.3889343618,63250.2189665917,67636.0287833307,58590.1370957668,69652.6176808873,27557.7647955037
8343698900,7543,2,0,57524.5753818913,61342.3362724512,40993.6276521200,60157.8718252219,57507.2120785249,63253.7354309735,67675.8414873353,58667.5479829543,69672.1955050754,27552.3623381143
8343727689,7544,2,0,57518.3941919052,61420.7449107782,41027.0036445054,60210.5701201621,57614.1904689922,63220.3107678009,67688.4715566375,58765.2302530489,69661.3540872062,27548.3591658596
8343727689,7544,2,0,57492.2214760391,61416.3158691347,41004.3352253242,60184.4704104769,57633.5614423344,63197.9952118276,67656.0933153917,58760.6308636498,69633.5143968753,27548.4808428278
8343727689,7544,2,0,57482.3169708252,61329.2194952761,40954.2043144137,60104.2974561105,57529.0287589285,63213.6550376387,67617.0958470742,58650.1360088007,69624.5833074072,27552.8490459873
8343727689,7544,2,0,57498.2688213601,61277.2269267516,40948.8991985989,60081.1423290564,57443.7210365028,63251.9954503278,67627.0368553785,58594.5296343199,69652.2161468922,27554.9783929313
8343727689,7544,2,0,57520.7303896952,61333.5633630419,40999.9913575584,60149.5612882918,57495.2268971543,63257.7142678346,67671.8869858679,58675.3353089210,69674.5803736527,27550.8657114051
8343727689,7544,2,0,57518.9782413527,61416.7295708267,41039.3295213870,60211.8720637221,57611.1485447865,63235.3622087709,67687.3764639235,58778.4687071923,69667.9489788842,27547.2032346614
8343727689,7544,2,0,57504.9002161286,61426.2690451359,41028.9504759970,60193.1581460084,57642.5655379833,63220.6636310088,67659.9261398909,58778.5782164637,69650.0867999481,27556.1099887358
8343727689,7544,2,0,57494.4846676481,61352.2407776651,40982.6158864953,60122.5003305576,57557.3916602227,63227.7817336502,67623.8367511141,58685.7386897046,69643.1147096686,27561.0744090396
8343788013,7545,2,0,57502.4180059767,61290.8425794965,40961.9916403804,60089.5137044706,57465.4160399381,63254.5506666607,67623.8854219014,58614.2413031730,69657.8619582180,27559.6994592986
8343788013,7545,2,0,57521.5456253824,61325.4353415641,40995.9516822132,60137.7829577672,57488.1696329970,63261.8391170576,67660.2668354020,58655.3802861314,69678.8877383280,27552.9828906523
8343788013,7545,2,0,57523.5289599645,61411.9476659753,41035.3628522227,60206.1410785185,57596.4986378117,63223.2066796448,67681.5481371453,58755.1797354732,69668.1923328207,27541.7399387879
8343788013,7545,2,0,57502.7952045782,61431.7445087062,41023.6331924854,60198.5241003074,57641.1905882424,63187.4214832885,67652.7350310686,58770.7908904970,69633.5995707531,27539.7809395994
8343788013,7545,2,0,57487.6829251241,61356.0979375579,40970.3995188850,60119.4462386551,57557.2699832545,63199.0538014512,67608.0187452442,58669.7016652920,69614.9829946140,27545.7431110427
8343788013,7545,2,0,57501.2620747785,61289.2851143032,40948.7410185402,60081.4830245675,57459.9649117615,63241.1783678522,67613.4455380273,58589.7112263780,69637.8582646411,27554.8445482662
8343788013,7545,2,0,57523.7114754169,61324.5714350897,40986.4122079040,60134.8505428329,57486.4053169577,63247.7245887430,67657.8941345215,58639.0512369950,69664.5906945611,27553.2505799824
8343788013,7545,2,0,57521.0224144190,61405.6447990210,41026.9428060213,60198.6214418820,57589.5630506226,63217.5243652284,67680.5260506122,58738.3518107670,69655.9637975136,27546.0351357664
8343795918,7546,2,0,57498.8042000203,61425.2104555123,41018.6687721816,60191.5641777246,57636.1653294545,63189.1492962373,67653.5137636652,58760.8012114054,69625.4593815785,27539.6957657217
8343795918,7546,2,0,57482.8645171822,61363.7514188596,40974.4756973207,60127.8662848565,57571.3723438723,63191.0839600322,67616.9741701059,58687.3813287757,69609.7873880705,27543.1878947098
8343795918,7546,2,0,57484.4584854660,61286.0850100387,40939.1285380501,60076.9201382589,57465.9392509015,63220.8948172484,67605.1471687940,58602.4021341643,69623.7559040233,27545.9621295855
8343795918,7546,2,0,57504.5351852239,61296.5005585192,40959.4242563507,60110.6611615489,57457.9572417857,63240.6551568889,67640.1049617664,58620.7145178828,69652.0092960462,27548.2618242850
8343795918,7546,2,0,57517.8466455482,61388.2449925642,41014.3005690222,60196.1148963364,57568.0383949428,63227.2220195963,67681.1344354533,58731.0876957637,69663.2157448201,27550.4276743195
8343795918,7546,2,0,57506.1413212045,61434.6890913373,41026.2735826960,60216.5687946958,57645.2180958907,63198.0438826149,67666.6062054467,58780.8414080727,69639.4157298344,27548.2496565882
8343795918,7546,2,0,57490.0556260046,61374.9943707240,40984.3802025346,60146.6410410543,57587.1660143485,63199.3944969623,67622.4861367667,58700.7292921905,69622.5634697346,27546.9355453313
8343795918,7546,2,0,57490.4206569093,61286.7907364545,40945.9181128773,60081.5925338389,57471.1226897481,63222.5374563195,67603.9669022022,58600.7716627900,69633.7090800245,27545.2929062602
8343871396,7547,2,0,57499.3882494678,61284.4545386645,40961.3467524488,60100.1239361002,57449.6588725524,63233.7439050934,67628.4483082100,58612.5621610115,69650.5856755179,27541.1680570372
8343871396,7547,2,0,57499.5707649201,61363.3012140771,41004.2013806592,60165.0020955602,57546.5015715662,63220.5541217374,67655.1929058268,58709.8672325045,69653.3842457872,27536.4956614572
8343871396,7547,2,0,57482.6333309426,61411.9354982784,41014.6047614428,60184.7502675038,57624.4235020203,63194.7342690791,67644.0229601433,58762.9183906526,69631.0565221171,27534.3419791196
8343871396,7547,2,0,57466.3164495030,61374.2886443082,40982.7862342508,60135.0573936789,57592.3737885887,63192.1790527463,67611.1580110246,58712.6292996833,69613.1091693032,27541.5330879419
8343871396,7547,2,0,57470.8063296307,61294.8457517513,40949.7996081638,60075.8615486353,57484.9086902485,63229.4000373276,67595.0114773405,58617.4414074375,69624.2547795930,27552.2649965398
8343871396,7547,2,0,57501.8947950133,61290.2463623522,40970.7888851834,60096.5344655375,57450.3524312713,63263.1775637081,67631.4780647189,58608.2426286393,69660.0643113430,27553.6886170680
8343871396,7547,2,0,57525.0377543705,61377.2697300299,41027.1983276545,60182.5965851661,57548.5822477229,63242.6749945615,67678.5062129396,58711.0353313995,69674.5803736527,27543.5529256145
8343871396,7547,2,0,57512.8578898508,61439.6413439443,41047.9442507377,60214.9018202310,57643.1130843404,63203.3489984297,67670.3781914618,58776.3393602483,69648.8943656595,27537.4690772031
8343910258,7548,2,0,57486.2228015054,61397.9183115384,41009.6890119263,60154.1485099941,57609.8952720137,63198.7374413338,67619.9187527371,58717.1678505983,69622.1619357395,27535.4735749241
8343910258,7548,2,0,57484.6896717057,61315.9688734359,40970.1439972518,60085.3523521572,57501.2985778690,63227.4288704423,67597.2138304655,58623.7442743917,69628.9150074762,27543.7841118542
8343910258,7548,2,0,57503.5739371749,61298.0458560157,40977.2499321964,60094.3321124125,57455.8522302353,63248.6493337015,67620.4541313973,58614.9957003760,69652.4473331318,27544.6966891159
8343910258,7548,2,0,57520.5722096365,61368.1561251095,41026.0545641532,60163.4446303668,57532.0098446501,63242.3464667472,67658.7215379055,58702.3232604743,69661.1837394507,27538.5763376140
8343910258,7548,2,0,57522.0688363458,61439.3979900078,41059.5035627194,60212.1397530522,57632.8800513123,63219.1426689059,67668.1271675496,58781.4011221266,69646.3634847203,27534.0742897895
8343910258,7548,2,0,57509.2684192880,61424.5047290965,41039.8770677440,60183.0102868581,57635.1432429214,63208.0335617065,67638.8030182063,58750.7506938296,69624.8144936469,27534.5244945719
8343910258,7548,2,0,57505.7154518157,61339.3795221232,40993.7614967851,60111.9022666248,57533.2387820292,63237.2603694753,67612.7641470052,58642.4095213181,69630.0831063712,27543.2122301035
8343910258,7548,2,0,57521.8254824093,61298.4595577077,40984.0881778109,60099.7589051955,57465.8297416301,63264.5890165396,67630.9426860587,58597.3160368923,69659.0908955971,27546.0229680696
8343914887,7549,2,0,57528.8340757793,61358.1786137147,41022.2460750476,60164.4788845968,57530.2820317012,63250.3163081663,67668.1515029432,58679.7156797773,69672.6700452515,27539.0143746996
8343914887,7549,2,0,57520.6452158175,61438.1447172350,41054.6486516871,60218.2357691605,57644.5488725655,63231.6510612399,67679.0294239029,58775.9743293436,69660.9525532110,27541.8007772720
8343914887,7549,2,0,57502.6248568227,61424.6142383679,41029.3641776890,60177.7051710433,57646.0941700620,63208.6784496382,67639.0585398396,58748.4266637364,69635.2422098242,27542.4334975068
8343914887,7549,2,0,57491.9659544058,61340.2920993849,40981.0462536051,60101.1581903302,57538.7142455995,63219.3495197519,67604.1737530482,58644.3685205066,69626.1164372069,27542.8715345924
8343914887,7549,2,0,57510.5581951513,61294.9065902354,40969.3530969583,60088.9783258104,57465.1726860017,63248.4789859460,67616.2076052061,58597.1821922273,69646.0592922997,27540.7786907389
8343914887,7549,2,0,57529.7831561315,61349.2353565498,41009.3604841121,60152.7978956467,57517.2504284039,63260.2086456833,67657.4074266486,58661.7196561761,69670.0418227378,27534.7435131147
8343914887,7549,2,0,57529.0530943221,61434.5187435818,41049.5503867183,60213.8432306074,57632.3568403489,63237.4915557149,67676.8879092621,58757.0292253903,69665.9169735148,27529.9372728697
8343914887,7549,2,0,57508.1124880898,61438.7287666826,41036.4214418463,60195.2631575588,57661.7904989636,63203.2273214615,67646.3956610238,58756.6641944856,69640.4621517612,27530.9836947964
8343921463,7550,2,0,57490.0556260046,61348.4931270436,40980.9245766369,60110.8315093044,57559.2289824430,63209.1773252079,67601.9105614391,58649.9169902579,69624.4372950454,27534.7191777211
8343921463,7550,2,0,57501.5175964118,61285.5252959849,40961.2007400869,60076.4699334764,57463.4205376592,63245.0841985324,67607.0209941048,58588.0442519132,69645.2318889158,27540.9003677071
8343921463,7550,2,0,57524.1860155929,61333.1496613499,41005.7588458525,60141.3724283300,57504.8272099476,63253.1270461324,67651.8711245941,58666.3555486657,69669.2995932316,27542.8228638052
8343921463,7550,2,0,57523.3951152994,61415.1234348460,41047.3845366838,60205.9342276725,57613.8619411780,63226.5649639679,67670.1348375254,58770.6692135288,69658.9692186289,27541.0342123722
8343921463,7550,2,0,57505.6424456348,61425.3564678741,41036.0199078512,60188.2058934015,57644.8530649861,63205.1498175595,67643.1590536689,58772.3483556903,69631.7865839264,27542.1414727831
8343921463,7550,2,0,57496.9303747096,61353.9564229171,40989.8921691954,60119.3488970805,57561.2609878124,63206.0380594276,67608.0795837284,58680.4335738898,69616.9054907120,27542.3726590227
8343921463,7550,2,0,57502.6856953068,61286.2918608847,40963.0137269135,60078.5141065427,57464.8198227938,63234.2914514505,67604.7091317084,58607.8289269473,69628.0267656081,27539.6227595407
8343921463,7550,2,0,57522.9327428202,61315.8593641645,40990.2085293128,60121.3200639658,57483.1200388155,63251.0707053693,67640.8958620598,58649.7101394119,69650.9628741194,27539.4767471788
8343954295,7551,2,0,57522.6893888837,61404.7930602434,41032.3087603202,60191.4059976659,57597.3868796798,63228.7308140024,67669.3682726255,58755.6056048620,69649.6487628625,27537.9436173792
8343954295,7551,2,0,57504.5595206175,61436.4412396798,41032.2722572297,60193.8638724242,57661.1334433352,63202.3634149871,67650.8612057578,58788.4583862839,69627.1750268305,27540.8030261325
8343954295,7551,2,0,57489.5810858285,61366.8785169431,40986.3026986326,60120.7360145183,57589.0763427497,63212.5356095310,67608.7731424473,58694.6697791727,69616.2606027804,27549.5881032387
8343954295,7551,2,0,57502.1624843434,61292.9475910469,40959.9718027078,60077.2730014667,57478.4841463260,63241.0810262777,67606.6924662906,58605.9429339398,69636.2521286604,27557.3024230245
8343954295,7551,2,0,57523.1030905757,61314.8494453282,40987.1422697134,60124.3984912620,57480.3823070303,63250.6448359805,67648.6831880265,58646.0598303650,69660.6848638809,27555.0027283249
8343954295,7551,2,0,57527.8849954271,61397.9183115384,41029.1694945398,60196.4434241506,57581.8852339273,63219.4468613265,67676.7783999907,58747.6966019271,69656.4140022961,27546.0351357664
8343954295,7551,2,0,57506.0318119331,61421.0369355020,41022.0148888080,60194.2532387225,57634.7173735325,63185.4868194936,67653.3555836065,58769.3794376655,69623.4030408154,27532.6141661707
8343954295,7551,2,0,57486.6365031973,61358.3611291670,40974.6947158635,60131.5287616002,57573.6233677846,63182.8829323735,67613.2386871813,58693.1001462825,69602.3894284022,27533.2103833150
8343983270,7552,2,0,57490.0799613982,61278.1516717102,40936.3299677808,60079.3658453203,57466.2921141094,63216.1859185779,67601.7523813804,58604.6653257734,69612.3061013129,27537.9922881664
8343983270,7552,2,0,57517.2382607070,61291.6943182741,40962.1984912264,60112.8270115834,57461.6318862262,63263.2018991018,67642.8670289452,58629.2440733557,69651.6807682319,27549.1135630626
8343983270,7552,2,0,57537.4609728268,61390.5446872637,41027.5268554688,60200.4830994959,57577.2615091346,63256.6313428174,67691.1362822418,58752.5515129594,69675.0062430415,27553.2870830729
8343983270,7552,2,0,57519.9151540081,61443.5106715340,41043.5152090941,60219.0145017572,57661.6444866017,63217.8285576490,67678.3236974872,58811.0537992841,69655.7447789708,27549.0283891849
8343983270,7552,2,0,57491.0412094472,61384.5095096395,40998.6650786047,60141.3480929364,57603.6654112404,63204.4197557501,67624.6276514076,58724.5414748730,69627.1993622242,27541.0950508563
8343983270,7552,2,0,57488.0601237256,61293.7263236436,40955.7982826975,60070.7997867569,57482.1344553729,63231.5050488780,67600.4991086077,58612.8906888257,69630.7401619997,27538.1139651347
8343983270,7552,2,0,57511.4221016257,61295.3081242305,40977.6879692820,60099.8562467701,57460.9869982946,63256.2541442159,67633.9116040835,58622.8925356141,69657.9714674894,27542.2874851449
8343983270,7552,2,0,57527.4712937351,61376.9168668220,41025.4705147057,60179.0071146034,57555.6881826675,63239.1220270892,67670.7797254570,58723.0326804669,69663.4225956661,27546.4610051552
8344020297,7553,2,0,57516.2891803549,61427.6926656641,41038.7941427268,60202.5637756526,57634.8268828040,63202.3025765029,67664.0509891139,58778.9189119747,69637.2133767095,27547.7751164121
8344020297,7553,2,0,57492.4891653692,61387.0403905787,40999.7723390156,60147.5657860129,57603.8600943896,63185.8640180951,67625.2117008551,58726.6343187265,69611.1501701147,27551.7417855764
8344020297,7553,2,0,57481.0150272651,61293.3856281325,40950.2011421590,60071.7975378964,57487.1110433734,63201.3778315444,67595.7658745435,58616.6383394471,69609.0329908675,27555.3434238360
8344020297,7553,2,0,57489.3012288016,61261.6157717278,40947.8162735817,60068.3784150892,57429.2658126772,63228.7186463055,67614.4067860763,58589.4557047447,69631.4580561122,27548.8823768230
8344020297,7553,2,0,57503.9024649891,61339.8662299961,41003.1671264292,60150.8875672455,57518.1630056656,63228.7794847897,67661.0455679986,58692.2727428986,69648.5171670580,27549.1135630626
8344020297,7553,2,0,57495.4459156971,61409.2099341901,41028.9748113907,60198.3902556423,57620.2986527974,63187.8960234646,67663.7102936029,58772.5187034459,69628.2336164541,27547.2275700551
8344020297,7553,2,0,57476.4521409565,61373.4004024402,40991.1332742713,60145.9596500323,57599.0295187509,63173.1244395215,67620.7704915147,58720.9520043102,69600.0897337027,27549.7949540847
8344020297,7553,2,0,57472.5219748827,61280.7555588303,40939.0190287787,60070.4590912459,57482.1466230697,63194.5639213235,67589.7550323130,58607.0501943507,69599.3475041965,27550.1964880799
8344036239,7554,2,0,57490.4206569093,61253.4999179469,40941.9027729257,60073.9025494468,57429.1441357089,63227.4897089264,67612.2409360418,58584.5886260155,69625.8244124832,27551.8634625446
8344036239,7554,2,0,57511.3612631416,61326.1775710703,40995.4163035530,60147.6996306779,57502.7100307005,63234.3644576314,67655.9959738171,58671.1252858203,69650.8533648480,27553.9441387013
8344036239,7554,2,0,57508.6235313564,61405.1702588449,41033.1118283105,60199.5096837500,57608.5933284537,63216.5631171794,67670.4877007332,58757.0413930871,69646.4486585981,27556.7062058801
8344036239,7554,2,0,57493.0975502103,61397.8574730543,41014.8481153792,60171.7551672969,57615.3464001904,63197.5571747420,67642.5263334341,58742.4523245964,69628.0389333050,27560.6850427412
8344036239,7554,2,0,57485.4197335150,61310.8949438607,40962.0768142581,60096.7413163835,57513.0525729999,63213.4238513991,67607.9214036697,58639.8664726821,69624.3521211676,27562.2303402377
8344036239,7554,2,0,57498.5121752965,61262.3093304467,40947.3173980119,60074.3770896229,57433.7435251080,63245.0355277451,67616.4144560521,58589.6260525002,69647.4950805249,27557.9473109561
8344036239,7554,2,0,57515.9849879343,61324.6201058770,40992.9097580075,60145.1079112547,57499.2787401964,63247.0188623273,67662.1649961063,58673.1572911897,69671.1977539359,27547.6291040502
8344036239,7554,2,0,57511.1787476892,61408.5528785617,41027.4538492878,60201.6511983909,57615.5775864301,63216.2467570620,67673.9068235405,58767.4447738707,69656.6695239293,27543.7719441573
8344094168,7555,2,0,57489.4959119507,61401.5929559789,41001.9381890501,60167.3261256533,57628.4023388814,63190.5850844625,67636.6615035655,58740.8218532221,69624.8753321310,27548.9553830039
8344094168,7555,2,0,57474.7121603109,61316.5407551866,40948.9113662957,60089.3676921088,57525.8043192704,63197.5085039547,67601.7402136836,58637.6641195572,69614.4841190442,27556.2316657040
8344094168,7555,2,0,57481.6842505904,61260.1921511995,40933.9329315067,60061.3211509319,57441.2144909573,63221.7222206324,67605.3783550337,58583.8585642061,69633.1858690611,27558.2515033766
8344094168,7555,2,0,57497.7212750030,61301.7570035467,40970.7523820929,60113.5692410896,57480.6621640573,63239.9737658668,67643.1590536689,58646.5708736316,69654.3089907457,27551.0482268575
8344094168,7555,2,0,57509.9984810974,61394.0368162519,41021.9783857175,60188.8021105458,57598.4819723938,63220.9191526420,67672.6657184645,58752.1986497515,69656.9128778658,27555.3677592296
8344094168,7555,2,0,57488.8145209287,61405.9003206543,41010.6745953690,60176.6709168134,57635.3135906769,63183.9171866035,67645.8602823636,58759.3532554834,69628.6716535398,27557.9473109561
8344094168,7555,2,0,57469.1636905596,61323.9630502486,40958.1831512748,60096.1937700264,57543.7395043874,63195.4034924043,67602.1052445883,58656.6943973883,69610.8946484814,27560.5146949857
8344094168,7555,2,0,57479.8590960670,61259.5350955711,40937.6440790377,60059.1918039879,57445.7043710850,63230.4221238608,67605.6703797574,58583.3840240300,69632.1272794375,27559.6142854208
8344105160,7556,2,0,57498.5365106902,61300.7470847104,40976.1183363918,60115.1267062829,57478.8370095338,63234.2062775727,67646.7971950190,58647.0332461109,69653.3842457872,27551.2794130971
8344105160,7556,2,0,57498.4148337220,61389.9728055130,41015.3469909490,60183.0711253422,57594.1259369312,63209.4693499317,67668.8572293590,58759.5844417231,69646.0349569061,27544.0152980938
8344105160,7556,2,0,57486.0889568403,61407.5186243317,41006.4159014809,60174.4928990821,57637.0657390194,63193.5540024872,67644.8138604368,58773.2852683457,69621.1763522968,27548.8337060357
8344105160,7556,2,0,57483.7162559598,61345.8770722267,40969.0245691441,60116.8545192318,57566.8094575637,63211.2214982742,67618.4464614215,58691.8468735097,69618.2926081498,27566.1361709179
8344105160,7556,2,0,57496.3828283525,61277.4094422040,40944.8108524664,60080.8138012422,57468.7986596549,63229.4487081149,67618.9940077785,58614.2656385667,69632.5288134326,27570.7720634075
8344105160,7556,2,0,57510.6433690290,61286.9367488163,40963.2814162436,60111.7562542630,57466.0365924761,63231.5415519685,67647.5272568283,58634.7925431070,69648.7605209944,27558.1784971957
8344105160,7556,2,0,57512.9917345158,61367.6329141461,41007.2189694713,60180.5402444031,57569.1456553537,63218.9601534535,67673.4079479707,58734.7258371138,69650.1841415227,27547.9332964708
8344105160,7556,2,0,57493.4990842055,61405.5961282337,41013.1568055209,60188.1085518269,57632.7340389504,63194.9167845314,67655.0347257681,58774.3438579693,69628.2822872414,27547.3857501138
8344139033,7557,2,0,57474.4688063744,61343.3096881970,40972.1029964402,60115.0415324052,57566.2619112067,63205.3810037991,67611.3283587801,58691.3114948495,69613.8148957189,27554.7593743885
8344139033,7557,2,0,57481.8911014364,61268.0646510440,40941.7932636543,60063.3166532108,57457.7017201524,63239.7060765367,67604.0885791704,58601.5382276899,69631.6040684741,27560.4416888048
8344139033,7557,2,0,57506.1534889013,61285.0750912024,40964.9970614957,60104.3704622914,57459.3321915267,63247.8706011049,67643.9134508719,58634.2693321436,69657.7159458561,27549.8801279625
8344139033,7557,2,0,57512.6023682175,61368.5089883173,41004.9679455590,60179.7371764127,57562.8062853090,63222.7443071655,67673.1645940343,58737.5122396862,69653.0922210634,27531.2270487329
8344139033,7557,2,0,57497.1007224651,61407.9444937205,41005.5884980970,60189.1428060569,57630.6168597032,63193.5661701841,67657.6629482819,58771.0464121303,69626.0555987228,27529.6209127523
8344139033,7557,2,0,57482.8280140918,61358.7261600717,40969.2800907773,60132.7333635857,57583.4426991207,63192.7387668001,67618.8114923262,58701.2038323666,69609.4953633468,27538.2113067093
8344139033,7557,2,0,57483.2538834806,61278.3098517689,40933.4218882401,60071.9435502583,57474.2862909221,63215.7357137955,67597.6031967638,58604.1542825068,69617.1731800421,27546.2906573997
8344139033,7557,2,0,57504.4865144366,61276.4968649423,40949.8726143447,60090.1707600991,57449.1843323763,63242.6263237742,67625.1143592805,58606.9650204729,69646.5216647790,27551.6687793954
8344164250,7558,2,0,57510.6190336354,61358.9695140082,40998.3730538810,60162.0453452322,57544.1045352921,63222.1724254148,67659.4029289275,58708.4801150667,69652.9097056111,27543.7597764605
8344164250,7558,2,0,57498.2323182696,61416.6565646457,41011.4411602688,60190.3839111328,57635.4352676451,63180.9847716691,67652.8080372495,58771.9954924825,69626.6031450799,27530.2049621998
8344164250,7558,2,0,57479.2750466195,61368.3873113491,40967.5644455253,60128.2069803676,57593.1403534886,63172.5647254677,67609.9655767359,58702.9681484059,69598.1429022110,27528.8421801556
8344164250,7558,2,0,57482.6941694267,61281.6803037888,40929.4917221663,60065.5068386390,57479.4332266782,63209.6518653840,67594.8532972818,58603.4485560911,69607.3416810091,27540.7543553453
8344164250,7558,2,0,57503.0507262115,61275.9493185852,40950.6026761541,60092.8111503096,57450.0604065476,63241.8840942680,67631.4658970221,58612.8176826447,69638.9898604456,27548.2861596787
8344164250,7558,2,0,57519.6109615875,61358.4341353480,41009.1292978725,60176.5735752388,57545.7228389696,63237.5767295926,67674.8924069831,58718.7496511853,69656.9858840467,27552.9342198650
8344164250,7558,2,0,57509.2075808039,61418.2505329295,41032.6007850439,60205.6543706456,57637.8688070097,63209.8952193205,67674.6855561371,58782.8977488358,69644.4044855318,27553.3357538602
8344164250,7558,2,0,57485.4805719992,61381.7596101575,40995.1607819197,60150.7658902773,57611.7690973245,63185.7423411269,67630.6628290317,58730.2359569861,69615.0194977044,27548.7241967643
8344192257,7559,2,0,57472.7774965160,61288.8349095207,40942.1704622558,60071.0553083902,57492.4283268851,63196.7784421453,67594.9993096437,58614.3021416571,69605.9180604808,27543.2243978003
8344192257,7559,2,0,57488.2183037843,61257.0163823287,40939.4570658643,60065.8231987564,57432.3320722765,63231.5902227558,67609.9534090391,58581.1086647242,69627.9050886399,27543.2243978003
8344192257,7559,2,0,57507.0295630726,61337.0919951205,40992.0215161394,60147.6144568002,57516.3500188390,63238.1242759497,67658.0523145802,58682.4899146529,69648.8943656595,27544.7940306905
8344192257,7559,2,0,57508.1489911803,61420.9274262306,41029.0356498748,60206.0315692471,57632.9895605837,63211.4770199074,67668.6868816034,58780.6223895299,69637.2498797999,27552.2406611461
8344192257,7559,2,0,57490.7370170267,61396.7137095529,40999.2126249618,60160.7312339753,57625.4090854630,63186.3872290585,67626.4041351437,58740.1282945032,69610.2619282466,27554.7228712980
8344192257,7559,2,0,57480.7230025414,61299.4816442408,40944.3728153808,60076.7862935938,57506.6158613806,63197.6180132261,67589.9375477654,58620.2886484940,69603.1559933020,27552.0094749065
8344192257,7559,2,0,57497.3562440984,61260.8248714343,40940.3696431260,60072.8317921264,57440.1559013337,63227.1855165059,67609.4788688630,58584.2357628076,69627.5278900384,27549.0770599721
8344192257,7559,2,0,57513.6122870538,61321.8702063950,40983.3581160015,60139.8271308335,57502.0164719815,63226.7596471171,67649.3159082613,58659.2739491147,69646.4243232044,27544.7088568127
8344251393,7560,2,0,57504.9123838254,61394.4505179439,41013.1568055209,60187.3541546239,57602.8745109469,63197.2408146246,67657.4195943454,58737.5244073831,69632.1394471343,27539.0873808805
8344251393,7560,2,0,57484.5436593438,61389.8632962416,40995.5258128244,60160.2566937992,57614.0566243272,63173.9640106023,67627.0368553785,58720.8911658261,69606.8184700457,27539.7322688121
8344251393,7560,2,0,57474.8216695823,61307.5853303249,40944.6283370141,60082.3590987387,57512.7483805794,63192.1182142621,67588.3557471784,58613.9249430556,69597.7778713063,27543.9666273065
8344251393,7560,2,0,57492.4769976724,61255.0938862307,40929.7594114964,60057.7438480659,57429.0467941344,63228.5361308532,67598.1750785145,58557.4059913131,69623.2326930599,27544.0883042747
8344251393,7560,2,0,57514.1476657140,61313.0607938952,40975.9358209395,60129.1682284166,57483.6310820821,63236.3599599104,67647.9774616108,58636.8488838701,69647.8236083391,27540.9368707976
8344251393,7560,2,0,57514.6100381933,61402.0309930646,41019.3623309006,60199.5948576278,57603.6532435436,63208.3377541271,67668.3705214860,58745.3604041370,69639.3548913503,27539.4402440884
8344251393,7560,2,0,57494.7888600687,61402.7367194803,41000.8917671233,60175.0891162264,57626.6866936294,63181.5688211166,67638.4744903921,58737.4148981117,69609.9212327356,27541.8981188466
8344251393,7560,2,0,57484.6653363120,61325.8855463466,40952.0627997729,60102.4966369807,57534.3095393496,63197.6180132261,67605.1958395813,58640.5721990979,69604.1780798352,27549.1378984563
8344277185,7561,2,0,57494.4846676481,61274.3310149078,40938.4349793312,60074.4014250165,57449.1356615890,63228.6213047310,67613.1048425162,58588.6283013607,69626.0677664196,27553.3722569506
8344277185,7561,2,0,57508.6356990532,61311.7345149415,40970.8375559707,60119.3123939900,57480.1754561844,63232.0282598414,67646.4078287206,58639.0755723886,69643.3215605146,27544.8670368714
8344277185,7561,2,0,57508.4896866913,61392.8200465696,41010.3095644643,60176.9142707498,57585.2070151600,63208.3499218239,67662.9802317935,58733.3508873728,69636.8483458048,27535.9359474034
8344277185,7561,2,0,57490.7978555108,61407.4699535444,41000.4050592504,60167.5573118930,57627.9277987053,63180.7657531263,67634.9093552229,58744.8858639610,69608.9843200802,27529.7060866300
8344277185,7561,2,0,57476.1236131423,61329.0734829142,40947.4755780706,60091.6430514146,57543.1554549399,63188.8451038168,67591.3124975064,58645.6582963699,69592.1077245868,27533.6605880975
8344277185,7561,2,0,57488.7293470509,61260.0583065345,40922.8968304883,60051.5139872926,57442.4190929428,63234.9728424725,67594.2327447439,58568.0040552458,69613.3525232397,27544.9765461428
8344277185,7561,2,0,57518.6497135385,61303.1927917718,40971.1052453008,60119.4584063519,57476.7441656803,63261.6809369989,67650.4961748531,58635.8876358210,69652.5933454937,27551.2672454003
8344277185,7561,2,0,57528.2378586350,61399.7312983650,41026.3830919674,60203.3668436429,57598.4211339097,63231.6632289367,67685.0280984367,58753.0503885291,69655.2824064915,27553.9806417918
8344289048,7562,2,0,57505.3869240015,61418.2261975359,41016.3690774821,60189.6903524139,57642.3830225310,63191.8991957193,67654.0248069318,58762.3100058114,69625.3012015198,27548.7972029452
8344289048,7562,2,0,57482.0857845856,61343.4435328621,40965.7636263955,60109.0428578714,57561.7111925949,63191.2908108782,67604.4657777720,58669.0324419667,69605.6868742412,27547.0085515122
8344289048,7562,2,0,57486.6000001069,61270.5225258022,40937.8144267932,60058.6685930245,57457.1055030081,63218.3517686124,67594.7559557072,58587.0099976833,69616.3214412645,27540.7056845580
8344289048,7562,2,0,57505.4842655761,61288.1656861955,40963.6221117547,60091.7768960797,57454.5989574625,63238.5866484290,67626.1972842977,58611.0168635149,69641.5694121721,27536.8606923619
8344289048,7562,2,0,57515.6807955137,61376.5396682205,41013.9112027239,60169.1877832672,57564.0352226881,63220.0309107740,67661.1672449669,58713.8582370624,69647.1422173170,27537.7611019268
8344289048,7562,2,0,57500.8483730865,61420.8057492624,41021.5281809350,60188.2423964920,57640.0468247410,63189.2466378119,67650.4961748531,58761.0689007355,69623.3787054218,27539.7322688121
8344289048,7562,2,0,57483.7405913535,61363.0943632311,40976.2886841473,60121.6729271737,57582.6152957367,63188.3827313375,67607.6050435523,58684.2055599049,69604.6891231017,27548.3348304659
8344289048,7562,2,0,57486.1984661117,61279.5266214512,40938.0821161233,60060.2747290051,57467.6427284567,63227.9885844962,67597.1651596782,58585.3795263090,69618.1344280911,27555.5502746820
8344318972,7563,2,0,57511.9453125891,61292.5703924454,40965.3620924003,60099.2600296258,57462.6539727593,63250.1337927139,67639.7155954680,58614.4846571095,69648.5049993611,27558.3610126481
8344318972,7563,2,0,57520.4018618810,61378.9853752819,41013.2906501859,60176.5370721483,57567.3691716176,63225.3846973761,67672.6170476773,58724.2616178461,69654.3333261393,27550.5250158941
8344318972,7563,2,0,57503.4400925098,61419.0901040103,41017.3546609248,60189.9702094408,57640.0468247410,63195.4034924043,67653.8422914795,58765.8751409805,69628.0145979113,27542.2996528418
8344318972,7563,2,0,57485.8577706007,61373.2422223815,40980.9002412432,60135.6536108232,57596.1457746038,63193.2498100667,67615.6965619395,58707.1781715067,69610.4201083053,27543.1757270130
8344318972,7563,2,0,57482.3899770061,61288.8957480048,40938.0212776392,60073.0751460628,57483.1930449964,63206.7316181465,67592.4197579172,58613.6085829382,69611.9654058019,27544.5263413604
8344318972,7563,2,0,57499.6316034042,61276.8253927565,40942.1826299526,60084.1112470812,57446.1667435642,63232.4054584429,67617.9597535486,58609.0335289328,69633.1615336674,27542.9080376829
8344318972,7563,2,0,57515.4617769709,61360.5148115047,40991.1332742713,60162.9092517066,57540.6124063039,63230.2639438021,67659.2934196561,58713.5783800355,69644.7695164365,27539.9269519613
8344318972,7563,2,0,57512.6267036111,61429.7733418209,41019.8490387735,60206.8103018438,57645.9724930938,63202.1687318379,67664.4525231091,58791.2082857659,69630.1561125522,27544.6358506318
8344378894,7564,2,0,57490.4936630902,61387.0890613660,40982.0318370478,60147.6874629811,57611.2337186643,63180.3398837375,67619.6632311038,58726.4883063647,69602.9004716688,27545.9377941918
8344378894,7564,2,0,57482.1952938570,61291.1954427044,40932.3876340102,60068.9746322335,57488.1574653002,63207.1818229289,67590.8622927239,58610.5909941261,69605.1758309747,27546.3393281870
8344378894,7564,2,0,57499.1083924409,61272.9804005604,40942.5719962510,60080.7042919708,57441.9445527667,63235.9097551279,67619.4442125610,58601.0515198170,69633.5265645721,27547.1667315709
8344378894,7564,2,0,57510.8502198750,61346.1204261631,40989.4419644129,60153.1629265514,57523.6019661454,63231.3468688193,67657.7116190691,58694.6941145663,69643.3945666955,27538.9048654282
8344378894,7564,2,0,57504.8272099476,61409.7331451535,41013.8746996334,60190.7002712502,57618.1084673692,63203.3976692170,67658.8432148737,58764.6705389951,69626.0677664196,27534.2324698482
8344378894,7564,2,0,57487.6707574273,61386.5050119185,40986.3148663294,60151.8731506882,57607.7050865856,63190.4877428879,67625.5767317597,58731.5013974557,69603.7278750527,27536.8606923619
8344378894,7564,2,0,57483.8135975344,61303.2292948623,40942.0487852876,60082.9188127926,57500.6901930278,63207.6563631050,67598.3210908764,58631.4707618743,69602.7544593069,27541.8251126657
8344378894,7564,2,0,57503.6226079622,61266.5193535475,40938.2281284852,60071.6636932314,57435.4104995728,63239.0733563019,67614.1877675335,58590.6359713365,69628.9271751730,27546.6678560012
8344390139,7565,2,0,57519.9881601890,61332.4439349341,40985.9863385152,60141.4819376014,57503.3549186321,63237.4063818371,67657.9671407024,58672.3177201089,69646.8988633805,27543.5529256145
8344390139,7565,2,0,57512.8457221540,61411.4852934960,41019.1311446609,60196.2365733047,57615.4680771586,63203.1543152805,67666.0099883024,58764.0134833666,69633.6360738435,27541.8737834530
8344390139,7565,2,0,57490.5301661807,61393.0147297188,40988.4807163639,60153.8686529672,57613.3265625178,63186.1682105157,67625.1873654614,58728.4594732500,69606.5021099284,27546.2419866124
8344390139,7565,2,0,57482.9618587568,61307.3541440852,40938.3984762407,60075.5938593052,57505.9588057522,63204.6022712025,67592.6631118537,58617.3197304692,69605.1879986715,27550.0869788085
8344390139,7565,2,0,57500.4468390914,61273.4671084334,40936.7436694728,60071.6636932314,57441.4335095001,63236.9926801452,67611.4743711420,58582.4836144651,69633.1250305769,27546.1568127346
8344390139,7565,2,0,57521.0832529031,61333.8067169783,40980.9732474242,60139.8636339240,57502.4545090672,63241.6650757252,67652.1874847115,58657.6313100436,69652.4351654350,27543.2974039813
8344390139,7565,2,0,57521.8133147125,61413.9066651637,41017.3789963184,60195.1171451969,57611.0755386056,63213.6185345483,67665.2434234025,58745.7741058290,69640.9123565436,27542.7985284115
8344390139,7565,2,0,57496.5045053208,61410.0495052709,40998.3122153969,60170.1977021036,57629.2540776590,63181.1064486374,67630.8088413936,58734.9813587471,69610.3592698212,27542.0806342990
8344419266,7566,2,0,57473.5318937190,61321.6268524586,40941.4647358401,60089.4650336833,57526.1328470846,63184.7567576843,67584.5837611633,58630.3756691602,69593.0568049390,27540.8638646167
8344419266,7566,2,0,57486.3566461704,61261.5792686373,40924.7584881022,60061.6983495334,57437.1626479153,63231.1156825797,67591.0691435699,58570.0117252216,69616.4431182327,27544.4289997858
8344419266,7566,2,0,57513.8434732934,61313.5353340713,40969.0610722345,60129.2655699912,57484.2881377105,63240.0954428350,67641.5894207787,58645.6461286730,69646.0957953902,27544.4411674826
8344419266,7566,2,0,57516.1066649025,61401.1427511965,41010.8571108213,60198.2442432804,57600.7451640029,63200.7937820969,67662.5665301015,58753.1720654974,69635.2543775210,27538.2721451934
8344419266,7566,2,0,57497.1737286460,61404.1603400086,40991.4374666919,60172.3757198349,57626.8083705976,63173.2096133993,67628.9106806892,58746.6501800003,69604.7742969795,27536.8363569683
8344419266,7566,2,0,57486.1132922340,61329.9495570854,40948.3516522419,60098.7854894497,57536.0738553890,63195.4643308884,67595.1818250960,58647.7998110107,69598.3254176633,27548.4200043437
8344419266,7566,2,0,57490.9438678727,61269.0624021834,40932.2294539515,60066.0422172992,57441.1049816859,63217.8285576490,67598.4062647541,58581.5345341130,69616.0294165407,27551.6322763050
8344419266,7566,2,0,57499.7046095852,61296.2937076732,40962.0768142581,60108.2884606684,57461.1938491406,63226.8691563885,67629.8962641319,58622.6856847681,69633.6482415403,27544.2221489398
8344450134,7567,2,0,57499.2057340154,61377.5009162695,41007.2676402586,60174.0426942996,57567.6125255540,63214.2269193894,67651.4574229022,58718.7496511853,69631.7135777455,27540.0729643232
8344450134,7567,2,0,57489.4229057698,61410.2441884200,41015.0914693157,60183.5700009120,57627.5140970134,63187.1781293520,67640.6890112138,58752.8800407736,69615.6522179392,27545.0860554142
8344450134,7567,2,0,57472.8748380906,61338.2600940155,40962.8068760675,60108.9333486000,57548.0590367596,63178.0523567348,67595.8632161181,58659.3226199020,69595.0644749148,27546.6678560012
8344450134,7567,2,0,57476.2087870201,61254.0961350912,40924.3326187134,60050.4553976690,57434.8629532157,63204.8577928358,67584.2065625618,58560.6669340616,69606.7576315616,27547.5195947788
8344450134,7567,2,0,57493.8762828070,61275.4139399250,40951.8681166237,60092.3609455272,57443.3560055981,63219.2278427836,67619.2130263214,58591.7675671410,69630.0101001903,27540.5961752866
8344450134,7567,2,0,57501.5297641086,61367.9979450508,41005.8926905176,60174.9066007740,57561.8572049568,63211.2336659710,67653.6597760271,58703.7225456089,69634.0741109291,27535.8629412224
8344450134,7567,2,0,57491.1628864155,61402.9070672358,41009.9201981660,60184.2635596309,57626.5650166612,63183.1506217036,67636.7588451400,58729.9804353528,69615.3601932155,27538.5763376140
8344450134,7567,2,0,57475.8802592059,61341.0221611943,40964.9483907084,60117.3898978920,57559.1559762621,63178.4903938204,67597.5058551892,58644.0156572988,69598.3010822697,27544.0396334874
8344523873,7568,2,0,57476.2696255042,61268.1133218313,40932.6188202498,60064.5334228931,57454.3191004356,63204.6022712025,67582.3327372510,58562.4069147073,69608.7653015374,27550.3303327449
8344523873,7568,2,0,57490.3719861220,61275.3409337441,40948.8261924180,60086.2527617221,57440.5452676320,63214.8839750179,67607.8970682760,58579.0523239611,69628.1119394859,27544.5628444508
8344523873,7568,2,0,57493.8641151102,61352.9586717776,40994.4672232008,60153.2967712165,57536.7309110174,63198.8469506052,67636.2112987830,58678.9369471806,69627.8442501558,27533.8066004594
8344523873,7568,2,0,57478.7883387465,61400.7290495045,41009.7863535009,60176.4275628769,57618.2666474279,63173.2339487929,67626.7569983516,58735.4072281359,69607.5241964615,27526.6276593338
8344523873,7568,2,0,57459.0036637124,61351.1335172542,40973.0764121861,60113.5814087864,57572.1632441658,63174.6210662307,67584.0970532903,58671.0401119425,69590.3434085475,27530.6916700727
8344523873,7568,2,0,57460.4881227248,61265.3025838652,40934.3831362891,60044.4932262257,57454.2582619515,63204.2980787819,67565.5169802417,58573.6985373590,69601.7932112579,27540.6570137707
8344523873,7568,2,0,57478.8370095338,61266.9817260267,40952.8537000664,60068.3662473924,57431.6020104672,63223.8515675764,67600.3044254585,58593.6657278454,69630.8131681806,27546.1689804315
8344523873,7568,2,0,57491.7226004693,61353.7860751616,41002.8629340086,60149.4396113236,57536.0495199953,63206.6342765719,67638.8760243872,58707.3363515654,69637.5297368269,27545.4754217126
8344535324,7569,2,0,57480.7230025414,61399.2080874016,41008.9102793296,60170.7209130669,57614.7866861366,63167.8558267972,67626.6109859897,58755.6177725588,69607.5606995519,27533.6605880975
8344535324,7569,2,0,57463.0433390577,61354.7108201201,40971.0444068167,60118.6796737552,57582.0920847733,63165.0694242247,67591.5193483523,58697.7847095593,69587.2406458576,27527.8930998034
8344535324,7569,2,0,57461.0356690819,61270.8023828291,40932.2416216483,60056.5514137773,57474.6026510395,63188.8694392104,67572.9392753037,58602.2926248929,69593.9815498976,27534.2324698482
8344535324,7569,2,0,57475.3570482425,61252.7698561375,40939.5057366516,60062.5865914015,57430.5434208436,63217.3296820793,67596.2160793260,58586.7666437468,69618.6819744481,27543.4069132527
8344535324,7569,2,0,57489.5324150412,61330.9473082249,40990.9142557285,60137.6126100117,57517.5911239149,63218.2057562505,67638.9977013555,58682.3317345942,69635.3638867924,27547.3005762360
8344535324,7569,2,0,57481.9762753142,61405.7664759892,41020.0072188322,60183.5091624279,57622.9755460984,63192.4224066827,67642.6236750087,58766.4470227312,69622.2957804045,27552.9220521682
8344535324,7569,2,0,57465.3917045445,61374.3008120051,40986.4608786913,60135.6171077328,57602.5216477390,63174.9374263481,67602.7379648231,58721.2440290340,69596.9748033160,27557.3754292054
8344535324,7569,2,0,57461.6318862262,61279.2102613338,40937.5589051599,60059.6298410735,57484.8113486739,63197.5085039547,67574.0830388051,58610.7491741848,69599.7003674043,27557.4971061736
8344542632,7570,2,0,57475.6855760567,61247.7932681369,40944.3971507744,60063.2923178172,57430.3000669071,63221.9412391752,67596.7757933799,58590.6724744270,69624.8388290405,27552.1189841779
8344542632,7570,2,0,57487.3543973099,61316.3947428247,40993.9196768438,60135.9578032438,57507.7474571851,63220.5906248278,67635.6880878196,58684.1568891177,69639.4887360154,27549.6854448133
8344542632,7570,2,0,57477.7905876071,61382.6235166320,41017.2573193502,60172.2783782603,57606.0381121209,63184.5985776256,67633.9359394771,58755.8246234048,69621.4683770206,27541.5452556387
8344542632,7570,2,0,57454.3312681324,61362.9605185661,40986.5460525691,60131.6869416589,57600.8790086679,63168.3303669733,67597.7613768225,58721.5238860609,69595.7215305432,27538.4668283425
8344542632,7570,2,0,57450.0482388508,61281.1570928255,40940.0289476150,60064.7889445264,57501.1160624166,63192.8604437683,67567.4029732493,58622.9533740983,69595.2469903671,27543.4555840399
8344542632,7570,2,0,57472.0596024035,61242.0744506302,40936.3299677808,60054.8966070094,57434.2302329809,63230.9696702178,67585.2773198822,58581.8630619272,69624.9605060088,27549.0162214880
8344542632,7570,2,0,57495.2634002448,61306.7944300314,40988.8335795718,60127.8176140692,57499.4612556487,63239.5722318716,67632.6096605234,58668.1076970082,69652.2648176794,27545.9377941918
8344542632,7570,2,0,57498.1471443918,61396.6163679783,41034.6084550197,60194.1072263606,57622.9998814921,63211.0876536091,67655.7769552743,58775.6336338325,69647.4585774344,27544.1734781525
8344573097,7571,2,0,57474.9920173378,61384.7771989696,41006.4402368746,60157.5554651045,57629.1810714781,63177.3709657127,67616.9133316218,58751.4199171549,69613.4985356016,27541.3384047928
8344573097,7571,2,0,57459.7702286123,61291.5969766995,40944.4701569554,60071.3473331140,57513.5879516602,63180.7779208232,67574.0952065019,58634.9385554688,69599.7125351011,27538.2234744061
8344573097,7571,2,0,57465.7810708428,61240.7603393733,40926.7053195939,60048.5937400551,57428.5357508678,63206.4274257259,67581.2376445370,58579.5998703181,69614.0217465649,27535.6317549828
8344573097,7571,2,0,57481.6842505904,61294.7240747830,40969.3287615646,60109.9797705268,57477.3647182183,63214.2390870862,67621.3423732654,58642.2270058658,69632.4314718580,27540.1094674136
8344573097,7571,2,0,57483.5702435980,61379.6789340008,41013.4853333351,60171.1711178494,57589.7090629845,63199.8081986542,67640.6890112138,58728.9583488197,69628.5621442683,27549.0648922753
8344573097,7571,2,0,57470.4291310292,61390.3378364177,41003.9093559354,60160.7312339753,57622.3549935604,63177.3344626223,67618.4221260279,58731.1241988542,69607.9865689408,27555.0027283249
8344573097,7571,2,0,57458.0667510571,61311.1748008876,40955.6279349420,60087.9440715805,57533.3361236038,63186.0952043348,67580.8604459354,58640.3653482519,69597.0478094969,27557.4849384768
8344573097,7571,2,0,57468.7864919581,61242.0866183270,40931.4263859612,60044.8582571304,57432.7822770590,63216.4901109985,67580.6170919990,58571.2406626007,69614.3746097728,27553.2870830729
8344610994,7572,2,0,57487.6099189432,61282.1913470554,40971.2512576626,60098.4934647260,57463.7977362607,63227.9764167993,67624.3356266838,58635.6686172782,69641.3868967197,27546.3514958838
8344610994,7572,2,0,57487.4760742781,61375.2012215700,41019.0703061768,60169.6014849592,57585.7302261234,63201.6576885713,67648.3303248187,58748.1468067095,69637.4323952523,27543.4312486463
8344610994,7572,2,0,57468.1051009360,61387.8312908722,41005.1139579209,60153.5887959402,57626.0174703041,63172.8445824946,67619.4442125610,58751.0913893407,69606.5264453220,27545.4267509253
8344610994,7572,2,0,57455.3046838783,61311.0896270099,40954.5085068343,60077.3460076477,57538.6047363281,63180.6684115517,67579.8140240087,58647.6294632552,69591.8278675599,27548.5781844024
8344610994,7572,2,0,57464.7103135224,61246.4426537896,40932.4119694038,60044.0551891401,57442.1514036127,63209.0678159365,67579.9600363705,58575.9982320585,69608.1690843931,27551.7296178796
8344610994,7572,2,0,57487.7802666987,61280.0011616273,40966.7370421413,60096.1207638455,57461.6440539230,63229.6920620514,67621.5492241114,58621.6027597509,69635.0353589782,27553.5061016157
8344610994,7572,2,0,57495.9447912669,61371.0642046502,41016.7219406900,60166.9732624455,57573.6598708750,63218.1205823728,67652.2604908925,58724.7604934158,69641.2043812674,27548.4078366469
8344610994,7572,2,0,57482.8766848791,61406.9467425810,41026.2249119087,60174.5050667789,57636.9805651416,63192.6049221351,67636.3694788417,58758.6110259772,69624.3642888644,27547.6291040502
8344635432,7573,2,0,57462.4714573070,61340.0365777517,40979.2941052626,60103.7377420566,57565.8603772115,63182.1893736546,67593.4783475408,58667.9616846463,69604.1415767447,27549.9166310529
8344635432,7573,2,0,57466.4259587744,61255.9821280988,40940.0046122213,60047.1701195268,57450.7417975697,63213.2778390372,67582.1623894955,58567.7607013094,69614.1920943205,27557.4727707800
8344635432,7573,2,0,57485.3102242436,61269.4882715722,40963.0867330945,60085.5105322159,57448.7097922002,63232.8678309222,67619.2251940182,58593.5927216645,69640.2309655216,27556.1586595231
8344635432,7573,2,0,57496.3463252620,61361.9749351234,41015.0306308316,60167.9588458881,57563.7918687516,63213.7645469102,67654.9617195872,58709.0154937269,69643.8326037811,27553.1654061047
8344635432,7573,2,0,57484.2881377105,61403.1747565659,41017.7075241326,60175.8435134294,57635.0215659531,63190.5120782815,67637.7079254922,58742.8173555011,69620.6409736366,27552.0459779969
8344635432,7573,2,0,57472.0230993130,61353.6157274061,40975.9479886363,60113.6300795737,57581.6175445972,63200.6234343414,67601.5698659281,58668.7769203334,69608.9356492930,27557.9959817434
8344635432,7573,2,0,57477.3282151278,61282.8970734711,40945.1515479774,60064.1805596853,57478.9708541989,63229.1445156944,67591.4706775650,58585.6228802455,69624.9118352215,27560.4781918952
8344635432,7573,2,0,57495.7501081177,61285.0385881120,40962.7217021898,60087.5425375853,57462.0212525245,63247.2743839605,67621.0503485416,58594.6756466817,69650.7681909702,27554.2118280314
8344677578,7574,2,0,57505.9588057522,61362.4008045122,41007.9977020679,60157.7623159505,57555.6638472739,63226.6988086329,67652.9053788241,58690.1068928641,69653.9439598410,27548.3835012532
8344677578,7574,2,0,57493.5599226896,61414.3568699462,41020.4939267051,60183.9715349071,57640.9594020027,63188.3097251566,67643.7066000259,58751.1643955216,69629.6572369824,27547.8116195026
8344677578,7574,2,0,57470.9645096894,61362.6198230551,40977.7001369788,60123.5832555749,57596.2309484816,63176.9694317176,67599.5743636491,58684.0960506335,69599.7855412821,27549.3325816054
8344677578,7574,2,0,57474.3106263157,61272.9804005604,40934.5048132574,60057.1232955280,57476.0992777487,63212.7424603770,67583.0749667572,58576.2415859950,69606.2830913855,27558.6287019782
8344677578,7574,2,0,57500.5076775755,61267.1155706918,40953.7297742376,60084.4397748955,57445.6191972072,63246.5199867575,67621.8899196224,58582.7999745825,69640.8880211500,27563.5444514946
8344677578,7574,2,0,57522.0445009521,61354.4918015773,41010.6867630658,60172.5338998936,57547.7913474294,63228.7916524865,67670.7432223665,58696.6409460580,69655.5257604280,27562.5101972647
8344677578,7574,2,0,57506.5063521092,61404.9025695148,41019.0216353895,60195.8715424000,57629.0107237226,63185.2921363445,67660.8752202431,58752.4298359912,69626.0312633292,27552.6665305349
8344677578,7574,2,0,57477.7784199102,61357.6675704481,40973.8551447828,60133.4512576983,57590.1714354638,63169.5106335651,67613.3725318463,58692.9541339206,69596.5489339272,27545.5362601967
8344710893,7575,2,0,57468.3727902661,61272.6275373526,40929.8932561615,60066.0665526928,57481.7085859841,63192.7022637096,67587.9542131832,58592.1569334394,69595.6606920591,27547.2154023582
8344710893,7575,2,0,57486.6243355005,61253.5120856437,40938.3863085439,60070.8484575442,57437.5520142136,63228.9863356357,67611.2066818119,58574.7327915889,69625.9339217546,27554.6376974202
8344710893,7575,2,0,57505.0097254000,61328.9518059460,40990.5005540365,60142.2485025013,57519.7448062526,63230.5924716163,67653.0757265796,58667.2802936242,69645.2318889158,27555.8666347993
8344710893,7575,2,0,57497.8307842744,61406.0219976225,41022.7936214046,60189.5200046584,57625.5307624312,63202.9474644346,67659.8774691036,58753.8047857322,69634.9258497067,27554.3700080901
8344710893,7575,2,0,57479.6522452210,61384.8380374537,40993.9318445406,60147.9551523112,57619.4347463229,63196.1700573042,67622.6443168254,58716.5716334540,69614.6788021934,27553.7007847649
8344710893,7575,2,0,57475.4665575139,61294.2738700006,40946.7455162612,60071.4690100822,57505.3869240015,63220.7001340992,67590.2660755796,58603.5093945752,69618.4507882085,27560.3808503207
8344710893,7575,2,0,57488.6076700827,61261.5427655469,40947.3052303151,60070.1792342190,57442.9179685125,63242.7236653488,67610.5617938802,58576.3875983569,69644.1732992922,27564.1893394262
8344710893,7575,2,0,57497.6604365189,61325.4840123514,40988.3468716989,60137.7099515863,57510.0836549752,63227.9034106184,67645.3370714002,58662.8634196775,69651.8754513811,27561.0865767364
8344735918,7576,2,0,57489.3620672857,61391.2869167699,41011.8670296576,60178.1918789162,57609.0435332361,63197.1799761405,67648.1964801536,58735.6992528596,69629.9249263125,27551.0603945543
8344735918,7576,2,0,57475.9289299932,61382.0638025781,40990.6709017921,60149.4761144141,57616.8308592028,63188.9424453914,67620.9773423607,58707.1538361130,69608.9843200802,27549.9774695370
8344735918,7576,2,0,57476.1601162328,61308.8142677040,40951.4787503254,60085.0968305239,57525.9746670259,63208.0822324938,67598.9294757175,58608.1087839743,69611.3448532639,27554.7472066916
8344735918,7576,2,0,57492.6595131247,61264.0493110924,40943.9226105983,60067.0521361355,57450.5957852078,63242.4194729282,67610.4522846088,58553.4636575424,69636.2521286604,27563.1307498026
8344735918,7576,2,0,57507.7596248820,61316.0905504041,40985.3292828868,60128.5963466659,57497.1250578587,63239.0611886050,67650.7881995769,58621.9677906556,69654.7226924377,27562.5101972647
8344735918,7576,2,0,57500.1061435803,61398.4171871081,41021.7350317810,60190.6759358566,57607.1940433191,63199.0294660576,67664.9270632852,58723.1908605256,69642.0682877418,27561.4394399443
8344735918,7576,2,0,57479.3723881940,61391.4572645254,40997.4969797097,60161.9358359608,57620.2378143132,63168.5128824256,67626.5501475056,58708.0420779811,69605.8207189063,27557.1199075721
8344735918,7576,2,0,57471.6337330147,61304.8475985397,40944.6405047109,60082.7484650371,57519.6352969812,63185.8761857920,67587.9542131832,58598.0947694890,69595.1374810957,27554.8932190535
8344761162,7577,2,0,57484.4463177692,61252.7576884407,40930.0271008265,60056.3688983249,57435.8363689616,63216.8794772968,67594.4882663771,58546.9661074390,69614.4476159537,27552.7638721095
8344761162,7577,2,0,57502.1016458593,61300.7227493167,40969.0975753250,60114.5669922291,57481.2218781111,63229.8745775037,67635.1770445531,58617.8794445231,69638.0772831839,27550.4276743195
8344761162,7577,2,0,57504.3648374684,61384.9840498156,41010.9544523959,60176.2815505150,57589.5630506226,63206.8046243274,67656.2028246631,58718.7009803980,69635.5585699415,27549.1500661531
8344761162,7577,2,0,57486.5634970164,61399.6461244873,41005.7953489430,60167.8128335263,57627.1977368960,63180.5832376740,67632.6339959171,58734.1052845758,69612.5007844621,27549.8801279625
8344761162,7577,2,0,57475.1501973965,61333.3686798927,40966.4571851144,60102.4844692839,57549.3609803196,63186.0100304570,67597.8587183971,58651.2432692116,69601.2578325977,27560.4660241984
8344761162,7577,2,0,57482.8158463949,61263.6964478845,40940.4183139133,60058.7781022959,57446.1302404738,63209.9438901077,67593.9650554137,58570.0238929185,69614.3381066823,27563.7147992501
8344761162,7577,2,0,57499.7289449788,61291.9255045138,40967.0899053492,60104.3704622914,57461.9482463436,63217.5243652284,67631.5754062935,58612.1727947131,69636.1547870859,27557.9351432593
8344761162,7577,2,0,57496.5045053208,61375.3350662350,41003.4591511530,60173.3126324902,57573.7572124496,63190.9136122767,67652.3943355575,58716.2674410334,69629.8884232221,27544.7331922064
8344792802,7578,2,0,57478.1799539054,61394.1219901296,40992.8124164329,60162.3252022591,57622.9390430079,63169.5471366556,67625.3212101265,58730.1751185020,69603.8982228082,27540.5231691056
8344792802,7578,2,0,57463.6882269893,61321.2861569475,40945.8329389995,60087.4451960107,57544.5912431650,63181.5566534198,67585.4111645472,58630.8137062459,69594.1518976531,27547.6412717470
8344792802,7578,2,0,57469.3218706183,61252.7211853502,40922.9211658819,60045.4058034875,57443.4046763854,63210.6861196140,67582.4787496129,58552.0400370141,69612.8293122763,27555.1730760804
8344792802,7578,2,0,57486.8433540433,61274.6108719347,40951.6247626872,60086.8003080791,57452.6521259709,63223.4500335812,67620.6001437592,58584.8198122551,69636.9456873794,27553.4452631316
8344792802,7578,2,0,57498.0132997268,61363.5324003168,41002.5952446785,60163.9556736334,57563.2078193041,63220.6392956151,67658.1739915484,58686.7729439346,69646.8988633805,27554.6011943298
8344792802,7578,2,0,57492.3309853105,61410.1955176328,41015.7120218537,60186.3564034844,57640.7647188535,63190.6702583402,67655.8986322425,58733.0101918618,69631.2998760535,27560.8067197095
8344792802,7578,2,0,57472.7166580319,61350.4156231416,40971.8109717165,60121.0280392420,57581.0091597561,63179.0501078743,67612.6546377338,58657.8259931928,69610.2010897625,27562.1573340568
8344792802,7578,2,0,57467.6427284567,61259.6689402361,40926.0604316622,60047.9123490330,57458.1275895412,63202.1443964442,67588.3679148752,58553.2933097869,69616.0780873280,27561.8166385458
8344812656,7579,2,0,57484.0569514709,61266.3368380951,40943.5089089063,60072.5397674026,57442.0662297349,63225.5185420411,67617.4122071916,58571.7152027768,69639.5495744995,27560.2591733524
8344812656,7579,2,0,57500.2643236390,61364.7491699991,41000.5632393091,60161.0962648800,57557.7445234306,63216.4171048176,67658.9892272356,58695.1321516519,69650.8898679384,27564.1163332453
8344812656,7579,2,0,57490.0069552173,61414.1013483129,41010.4069060389,60180.3455612539,57636.6277019338,63186.8252661442,67648.7561942075,58743.5352496136,69630.0466032807,27563.4471099200
8344812656,7579,2,0,57474.4566386776,61359.3953833970,40968.6473705425,60117.1343762587,57584.4647856538,63180.1086974979,67607.1183356793,58667.6939953162,69607.2808425250,27559.2735899098
8344812656,7579,2,0,57472.9965150588,61278.0178270451,40935.5390674873,60056.7217615328,57475.0650235187,63199.4431677496,67587.9663808800,58572.3844261021,69614.9829946140,27556.0369825549
8344812656,7579,2,0,57490.3111476379,61273.6617915825,40953.4012464234,60074.4744311975,57451.1676669585,63223.8637352732,67614.2729414112,58573.8932205082,69638.0894508807,27559.5534469367
8344812656,7579,2,0,57504.4500113461,61354.4796338805,41003.1184556419,60146.4706932988,57545.8445159378,63220.2742647104,67650.9463796356,58670.9671057616,69650.2571477037,27561.5489492157
8344812656,7579,2,0,57495.7744435114,61417.3622910615,41023.1708200061,60180.6740890681,57639.7304646236,63189.9158611372,67651.8346215037,58737.8529351973,69632.4193041612,27557.3389261149
8344863864,7580,2,0,57472.6558195478,61372.9258622641,40982.3725325588,60123.3155662448,57605.2228764337,63170.0095091349,67609.6370489217,58676.0653707304,69605.5043587889,27555.3555915328
8344863864,7580,2,0,57464.6616427351,61277.7379700182,40931.6454045040,60044.8339217368,57483.3390573583,63195.5981755535,67580.9334521164,58561.1779773282,69608.0352397281,27558.7382112496
8344863864,7580,2,0,57483.1078711187,61259.8879587789,40937.9604391551,60057.0137862565,57438.8052869864,63226.9664979630,67608.5906269949,58549.8620192828,69634.9380174036,27562.5101972647
8344863864,7580,2,0,57506.2873335664,61347.9090775961,40995.1729496165,60146.4585256020,57535.8913399366,63227.9277460121,67656.0446446044,58663.0215997362,69654.6618539536,27566.1118355243
8344863864,7580,2,0,57502.4788444608,61414.6853977604,41020.1288958004,60185.8940310051,57631.2130768475,63195.3669893139,67656.8842156852,58734.3121354218,69637.4932337364,27563.7878054311
8344863864,7580,2,0,57480.7595056319,61376.2598111936,40984.0151716299,60134.9722198011,57603.9817713578,63170.3380369491,67614.6379723159,58679.8495244423,69609.7143818896,27555.5624423788
8344863864,7580,2,0,57468.9933428041,61286.8880780291,40935.6850798492,60064.2170627757,57493.0610471199,63188.3340605502,67585.2164813980,58576.0469028458,69604.8473031604,27558.9085590051
8344863864,7580,2,0,57483.2782188742,61257.2475685684,40934.3588008955,60057.5735003104,57434.7777793380,63217.8042222554,67602.5797847644,58548.3775602704,69629.6207338919,27564.4813641500
8344908685,7581,2,0,57500.4590067882,61323.6953609185,40980.1580117370,60124.3011496874,57503.5130986908,63215.2733413162,67644.4609972290,58633.4662641533,69645.6942613951,27559.7116269954
8344908685,7581,2,0,57494.0953013498,61398.9282303747,41008.7034284837,60176.0868673659,57608.3743099109,63180.2668775566,67654.4141732301,58724.8334995967,69631.0565221171,27553.3844246475
8344908685,7581,2,0,57469.1028520755,61373.5829178925,40973.4536107876,60135.4589276741,57601.2562072695,63159.1802589624,67612.8858239734,58693.9153819697,69600.4304292137,27548.2496565882
8344908685,7581,2,0,57457.4583662159,61276.3265171867,40917.1171744974,60051.8425151068,57484.0934545613,63181.6661626912,67575.3606469715,58579.0401562643,69594.5534316482,27546.8382037567
8344908685,7581,2,0,57473.9334277142,61235.9054283409,40914.1482564726,60045.9290144508,57420.3833939964,63218.8384764853,67593.7825399614,58547.2824675564,69621.8455756221,27549.9287987498
8344908685,7581,2,0,57490.2989799410,61299.4816442408,40962.5270190406,60116.1731282097,57493.4382457214,63220.6514633119,67637.0021990765,58639.1607462664,69641.7640953212,27549.3204139086
8344908685,7581,2,0,57488.2791422684,61376.3571527681,40997.5334828002,60167.7884981326,57602.8745109469,63192.3737358954,67647.1865613173,58726.3301263060,69632.0421055597,27548.7363644611
8344908685,7581,2,0,57473.5197260222,61372.8163529927,40977.1890937122,60139.7054538653,57615.5654187332,63175.1199418005,67616.9133316218,58710.4391142552,69605.9667312681,27552.3136673271
8344918629,7582,2,0,57466.4259587744,61299.1409487298,40932.7039941276,60075.2653314910,57523.0787551821,63192.7022637096,67589.2683244401,58617.5265813152,69600.6737831502,27563.6539607660
8344918629,7582,2,0,57486.1984661117,61255.9577927051,40925.7319038480,60058.8024376895,57446.4222651975,63235.8002458565,67602.8718094881,58564.4145846831,69629.6450692856,27572.0253361802
8344918629,7582,2,0,57508.0516496057,61309.3253109706,40974.2688464747,60119.6895925915,57491.1142156282,63243.9039319406,67648.0991385790,58629.5969365636,69656.5356792643,27573.2786089530
8344918629,7582,2,0,57504.0606450478,61398.2711747463,41020.6764421574,60184.1783857531,57605.3202180083,63210.6739519171,67667.2510933783,58733.9471045171,69648.2008069406,27569.0320827618
8344918629,7582,2,0,57482.9375233632,61407.0319164588,41006.5132430555,60166.0606851838,57632.2351633807,63181.7026657817,67636.0287833307,58733.1683719205,69617.8059002769,27568.2655178619
8344918629,7582,2,0,57466.3286171999,61321.5295108840,40948.0961306086,60079.2806714425,57531.2554474471,63185.5963287650,67592.6874472473,58622.5275047094,69598.5931069934,27565.9293200719
8344918629,7582,2,0,57473.6535706873,61259.4742570870,40927.8612507920,60045.6613251207,57434.9724624871,63213.0101497071,67592.3224163426,58556.8462772592,69614.7031375870,27566.1970094020
8344918629,7582,2,0,57487.9384467574,61293.8845037022,40960.9817215441,60097.8364090975,57464.6373073415,63217.3783528666,67628.0346065180,58609.9582738913,69631.1538636916,27560.1131609906
8344970280,7583,2,0,57485.7847644197,61369.6405841219,40994.5037262913,60157.1417634125,57565.0451415244,63190.9744507608,67642.6480104023,58697.9550573149,69620.8964952699,27547.3370793265
8344970280,7583,2,0,57476.6346564089,61391.9804754888,40989.0891012051,60158.1395145520,57615.6992633983,63182.8342615862,67627.6452402197,58717.4233722316,69603.9468935955,27552.8612136841
8344970280,7583,2,0,57474.7364957045,61332.6142826897,40949.9577882225,60102.0342645014,57551.8553581683,63191.4611586337,67598.6131156001,58639.8786403790,69600.0288952186,27568.7157226444
8344970280,7583,2,0,57484.4584854660,61259.6081017520,40922.2032717694,60057.4761587358,57448.9409784399,63218.3030978251,67594.5734402549,58552.4294033125,69616.6134659882,27572.7432302928
8344970280,7583,2,0,57502.1624843434,61283.8704892170,40952.4643337680,60096.3397823883,57460.3664457566,63231.7970736018,67628.6064882687,58587.5332086467,69642.6888402798,27565.4912829863
8344970280,7583,2,0,57497.6482688221,61371.9767819119,40997.4483089224,60164.5153876872,57570.8004621216,63201.9497132951,67651.2627397530,58696.2759151533,69636.0574455113,27550.6345251655
8344970280,7583,2,0,57476.3182962915,61400.2180062379,40993.8223352692,60159.4536258089,57626.3338304215,63174.0978552674,67623.3135401507,58721.5603891514,69607.1104947695,27540.8882000103
8344970280,7583,2,0,57461.6440539230,61331.9207239708,40948.4976646037,60087.2748482552,57552.5854199777,63180.7049146422,67580.6049243022,58630.7893708522,69593.2879911786,27543.2365654971
8344985020,7584,2,0,57466.7179834982,61257.1137239033,40920.1104279158,60042.8140840642,57447.6755379703,63210.6009457362,67575.9081933285,58547.3311383437,69609.8968973420,27548.5295136151
8344985020,7584,2,0,57489.6540920094,61275.1219152013,40948.0596275181,60086.7759726855,57453.1875046311,63234.7051531424,67616.4387914457,58579.4538579562,69639.1115374138,27551.9243010287
8344985020,7584,2,0,57506.1413212045,61363.4837295295,40999.5168173823,60165.1237725284,57559.8738703746,63225.5793805252,67653.8301237826,58678.2068853712,69645.9011122410,27553.5182693125
8344985020,7584,2,0,57494.5698415259,61410.0495052709,41007.8638574029,60181.8543556599,57633.5492746375,63185.5111548873,67645.8481146668,58720.1002655326,69620.8113213921,27556.9617275134
8344985020,7584,2,0,57469.5165537675,61354.2484476409,40959.6067718031,60115.3457248257,57576.2272549047,63169.5958074429,67600.1462453998,58647.9944941599,69591.9495445281,27557.2537522372
8344985020,7584,2,0,57464.5886365542,61264.4386773907,40914.8661505851,60043.0696056975,57455.6210439957,63197.9830441308,67574.7279267367,58548.1828771213,69595.6606920591,27556.2925041882
8344985020,7584,2,0,57482.9983618473,61266.1178195523,40932.4119694038,60067.7700302480,57436.9557970693,63226.4919577870,67607.9335713665,58564.7431124973,69626.1894433879,27553.2749153761
8344985020,7584,2,0,57495.8717850860,61355.7694097437,40988.3225363052,60152.2381815929,57544.5304046809,63211.0633182155,67645.4952514589,58680.4700769803,69636.7023334429,27543.5772610082
8345013896,7585,2,0,57486.2106338085,61406.6060470700,41002.0233629279,60177.0359477180,57628.1711526418,63182.5179014688,67636.1261249052,58733.7159182775,69613.5228709952,27543.3339070717
8345013896,7585,2,0,57480.2606300621,61364.0799466738,40969.9614817994,60125.0312114968,57591.7897391412,63185.1704593762,67605.0498272195,58669.4826467492,69599.6395289202,27560.8432227999
