steady_timestamp,sequence,battery,flags,EEG-ch1,EEG-ch2,EEG-ch3,EEG-ch4,EEG-ch5,EEG-ch6,EEG-ch7,EEG-ch8,EEG-ch9,EEG-ch10
5583864905,7908,-2,0,-6718.8196701762,-80320.9743982159,-37305.5135712086,-12639.7912919753,-80543.6189146821,-42079.6067612644,-80477.2441285130,-80465.4171272011,-80506.1545761643,-2415.7501918333
5583864905,7908,-2,0,-6718.9170117508,-80321.4611060888,-37282.4436180323,-12639.8277950658,-80545.5292430833,-42248.8229209811,-80476.8912653051,-80465.4657979884,-80506.3857624039,-2416.6019306109
5583864905,7908,-2,0,-6719.3672165333,-80321.6557892380,-37272.3565973660,-12640.1319874864,-80546.8676897338,-42239.6363098798,-80476.5384020972,-80466.6338968834,-80506.1545761643,-2417.6605202345
5583864905,7908,-2,0,-6719.2942103523,-80321.4246029984,-37289.3305344340,-12640.3388383324,-80546.0281186531,-42067.6459152875,-80477.2927993003,-80466.0985182232,-80506.3370916166,-2417.4293339948
5583864905,7908,-2,0,-6719.3672165333,-80321.5097768761,-37311.6339227105,-12639.6574473103,-80543.8866040122,-41963.4295919990,-80476.3558866449,-80465.3197856265,-80506.0694022865,-2416.8817876378
5583864905,7908,-2,0,-6719.6470735602,-80321.4976091793,-37313.2887294784,-12640.2049936673,-80544.4828211565,-42070.0794546521,-80477.1346192416,-80465.7456550153,-80506.2519177389,-2416.9669615156
5583864905,7908,-2,0,-6719.1968687777,-80321.5097768761,-37291.5815583463,-12639.8034596721,-80546.7946835529,-42251.4876465853,-80476.9521037892,-80465.7213196216,-80506.2032469516,-2417.6605202345
5583864905,7908,-2,0,-6720.4136384600,-80323.1645836441,-37279.0001598314,-12640.8742169926,-80547.8289377829,-42268.3642420787,-80478.2783827429,-80467.4004617832,-80507.9188922036,-2417.8308679900
5583890210,7909,-2,0,-6719.2698749587,-80321.9113108713,-37290.9366704147,-12639.7912919753,-80546.8555220370,-42103.3581054628,-80477.4388116621,-80466.8650831230,-80508.0527368687,-2417.4780047821
5583890210,7909,-2,0,-6720.1824522204,-80322.6535403775,-37316.1603059286,-12640.8012108116,-80545.3223922373,-41986.0736757865,-80476.8304268210,-80466.3175367660,-80507.2496688783,-2417.9890480487
5583890210,7909,-2,0,-6719.8782597998,-80321.7166277221,-37318.8615346233,-12640.4726829974,-80546.0524540467,-42071.0650380947,-80477.1711223320,-80466.4757168247,-80506.9211410641,-2417.4780047821
5583890210,7909,-2,0,-6719.9756013744,-80322.6900434680,-37298.2981269926,-12640.0711490023,-80547.2205529417,-42254.8459309084,-80477.7065009922,-80466.6582322770,-80507.1279919101,-2417.3928309044
5583890210,7909,-2,0,-6719.0265210222,-80322.0694909300,-37281.4458668928,-12640.0103105181,-80547.5734161496,-42300.6329740532,-80477.3414700876,-80465.8673319835,-80506.8968056705,-2416.2977381903
5583890210,7909,-2,0,-6719.3915519269,-80322.0938263236,-37292.6523156667,-12640.3023352419,-80547.9019439638,-42151.7247003340,-80476.9277683956,-80466.5000522183,-80506.2154146484,-2417.4658370853
5583890210,7909,-2,0,-6719.5497319856,-80321.2907583333,-37314.1648036497,-12639.4140933738,-80545.1885475723,-42005.9800277888,-80477.2441285130,-80465.9768412549,-80506.6291163404,-2417.2346508457
5583890210,7909,-2,0,-6720.5109800346,-80321.1447459714,-37320.5650121785,-12640.0711490023,-80543.8744363154,-42063.3142152185,-80476.8060914273,-80465.2102763551,-80506.6412840372,-2416.6871044886
5583912677,7910,-2,0,-6719.2942103523,-80321.2177521524,-37299.4175551003,-12639.3045841024,-80545.3710630246,-42249.6381566682,-80476.6844144591,-80465.5509718661,-80506.4952716753,-2417.2224831488
5583912677,7910,-2,0,-6720.2554584013,-80321.9234785681,-37280.6306312056,-12640.3145029387,-80547.8046023892,-42316.9011847054,-80478.7164198285,-80467.0232631817,-80507.8093829322,-2418.1837311978
5583912677,7910,-2,0,-6719.4645581078,-80321.8869754776,-37286.5197964679,-12639.7547888849,-80546.6121681006,-42178.4936333445,-80478.1810411683,-80466.8042446389,-80507.5781966926,-2417.5631786599
5583912677,7910,-2,0,-6718.6979932080,-80321.0109013064,-37309.2247187396,-12639.3532548897,-80545.1520444818,-42022.1752322601,-80477.4509793590,-80466.9259216071,-80507.4686874212,-2415.9327072856
5583912677,7910,-2,0,-6718.4668069684,-80321.5219445730,-37318.1558082076,-12639.6331119166,-80545.0303675136,-42053.0446790999,-80477.1589546352,-80466.8529154262,-80506.8968056705,-2415.8962041951
5583912677,7910,-2,0,-6718.9413471445,-80320.5485288271,-37301.1332003523,-12639.5722734325,-80544.5679950343,-42234.0878401285,-80476.2342096767,-80466.1471890104,-80506.2884208293,-2416.8087814569
5583912677,7910,-2,0,-6719.2577072619,-80319.9523116828,-37280.2899356946,-12639.9008012467,-80545.8942739880,-42330.6628498122,-80476.5992405814,-80465.5753072598,-80505.7287067755,-2417.2711539361
5583912677,7910,-2,0,-6719.5618996824,-80320.7675473699,-37284.2079340716,-12640.1684905768,-80546.9163605211,-42214.1328173389,-80476.2463773735,-80464.8452454504,-80506.9819795482,-2417.6848556281
5583946413,7911,-2,0,-6718.6006516334,-80319.8184670177,-37305.2337141816,-12639.6817827039,-80543.6432500758,-42043.5538755781,-80476.4410605227,-80465.0642639932,-80505.6800359882,-2416.0300488602
5583946413,7911,-2,0,-6719.8417567094,-80320.0253178637,-37319.2509009217,-12640.3996768165,-80545.0668706040,-42049.9540841069,-80477.0859484543,-80465.9646735581,-80506.7751287023,-2417.0521353933
5583946413,7911,-2,0,-6719.9512659808,-80321.0839074873,-37306.2801361084,-12640.3510060292,-80545.6144169611,-42226.6168742792,-80477.1467869384,-80466.6825676707,-80507.7850475385,-2417.8552033836
5583946413,7911,-2,0,-6720.0972783426,-80320.8405535509,-37282.2732702767,-12639.4627641611,-80546.2228018022,-42339.9346347913,-80477.1711223320,-80466.1836921009,-80506.7872963991,-2417.3198247234
5583946413,7911,-2,0,-6720.2797937950,-80321.1204105778,-37282.4436180323,-12641.3609248655,-80547.3787330004,-42244.8805872105,-80476.8182591242,-80466.6825676707,-80507.3956812402,-2417.7091910218
5583946413,7911,-2,0,-6719.4645581078,-80319.5021069004,-37303.7857582597,-12639.3775902833,-80545.8456032007,-42067.4755675320,-80476.7330852464,-80465.4171272011,-80506.2762531325,-2416.4559182490
5583946413,7911,-2,0,-6719.4158873206,-80320.0861563479,-37318.8493669265,-12640.5091860879,-80544.7870135771,-42043.0063292210,-80477.1467869384,-80465.6483134407,-80506.7994640959,-2416.9426261219
5583946413,7911,-2,0,-6719.2942103523,-80320.0374855606,-37306.3653099862,-12639.5722734325,-80544.9816967263,-42205.6641003501,-80476.1855388894,-80465.5874749566,-80505.9477253183,-2416.1517258284
5583984581,7912,-2,0,-6719.1360302936,-80320.2565041034,-37282.4314503354,-12639.2680810119,-80545.8334355039,-42347.0770728263,-80476.6235759750,-80466.7799092452,-80506.2762531325,-2417.4293339948
5583984581,7912,-2,0,-6719.7809182252,-80320.7553796731,-37278.8784828631,-12640.3388383324,-80547.1718821544,-42276.4800958596,-80477.1467869384,-80466.9015862135,-80506.8724702768,-2417.5996817503
5583984581,7912,-2,0,-6720.0972783426,-80320.6945411890,-37298.5658163227,-12640.1076520927,-80545.2007152691,-42092.3341721412,-80477.0737807574,-80466.2932013723,-80506.7872963991,-2417.9038741709
5583984581,7912,-2,0,-6720.3284645823,-80320.1591625288,-37315.6979334494,-12640.0103105181,-80543.6675854694,-42040.7796407024,-80475.8448433783,-80465.6239780471,-80506.6169486436,-2417.9890480487
5583984581,7912,-2,0,-6720.5839862156,-80320.4268518589,-37307.6794212430,-12640.7647077212,-80544.8843551517,-42190.7951748325,-80477.1102838479,-80466.2445305850,-80506.6047809467,-2418.0377188360
5583984581,7912,-2,0,-6718.9778502349,-80318.7355420005,-37281.9690778562,-12638.8543793200,-80545.4684045992,-42342.5871926987,-80475.7475018038,-80465.0764316900,-80504.9134710883,-2416.5410921267
5583984581,7912,-2,0,-6719.5253965920,-80320.6823734922,-37275.8730617479,-12640.3631737260,-80547.0137020957,-42302.3972900925,-80477.2684639066,-80466.7555738516,-80506.5561101594,-2417.0521353933
5583984581,7912,-2,0,-6718.6736578144,-80319.8428024114,-37293.5162221411,-12639.5844411293,-80545.3467276310,-42123.9823515777,-80476.8060914273,-80465.6361457439,-80506.7264579150,-2416.6871044886
5584005293,7913,-2,0,-6718.7588316921,-80319.7454608368,-37314.4203252829,-12639.2680810119,-80544.4219826724,-42048.6764759405,-80475.9421849529,-80465.4292948979,-80506.9819795482,-2416.4802536426
5584005293,7913,-2,0,-6718.8926763572,-80319.0397344211,-37308.1052906318,-12639.8521304594,-80544.1664610391,-42179.4183783030,-80476.7087498528,-80465.8551642867,-80506.8481348832,-2416.6140983077
5584005293,7913,-2,0,-6720.5961539124,-80320.8770566413,-37286.1791009569,-12640.7525400243,-80546.7460127656,-42350.3988540590,-80477.9133518382,-80466.3297044628,-80506.8724702768,-2417.8187002932
5584005293,7913,-2,0,-6718.3938007874,-80318.4678526704,-37274.4737766132,-12639.8277950658,-80545.2980568437,-42332.1716442182,-80476.2463773735,-80464.8939162377,-80506.0815699833,-2416.7722783664
5584005293,7913,-2,0,-6719.0386887190,-80319.0762375115,-37290.6081426005,-12639.2437456183,-80545.0425352104,-42155.5575248332,-80476.4288928258,-80464.9182516313,-80506.7264579150,-2416.3464089776
5584005293,7913,-2,0,-6718.9656825381,-80319.6116161718,-37314.2743129211,-12640.0346459118,-80544.1299579487,-42058.7634966067,-80476.7087498528,-80465.8551642867,-80507.3956812402,-2416.7844460632
5584005293,7913,-2,0,-6718.9535148413,-80319.1127406020,-37312.4491583976,-12640.1563228800,-80544.1299579487,-42170.2195995049,-80476.5262344004,-80465.7091519248,-80506.6291163404,-2416.5410921267
5584005293,7913,-2,0,-6721.0220233012,-80320.5971996144,-37292.6523156667,-12641.2757509877,-80545.8821062912,-42349.0117366212,-80477.0616130606,-80467.1084370595,-80507.8337183258,-2417.6605202345
5584049130,7914,-2,0,-6720.0242721617,-80319.8549701082,-37278.9514890441,-12639.7547888849,-80546.0281186531,-42366.0951829606,-80476.4045574322,-80465.5996426534,-80505.6313652009,-2417.9647126550
5584049130,7914,-2,0,-6719.3428811396,-80319.1492436925,-37295.7672460534,-12639.5479380389,-80544.7140073962,-42205.0922185994,-80476.0030234370,-80465.3927918074,-80505.8747191374,-2417.0156323028
5584049130,7914,-2,0,-6719.6835766507,-80318.7842127878,-37320.3824967262,-12639.2559133151,-80544.1664610391,-42085.7149450696,-80476.0151911338,-80464.5653884235,-80505.3515081740,-2416.9426261219
5584049130,7914,-2,0,-6719.9512659808,-80319.6967900495,-37324.1179796508,-12640.2901675451,-80544.0812871614,-42175.7437338625,-80476.7817560337,-80465.3806241106,-80506.3492593134,-2416.8574522441
5584049130,7914,-2,0,-6719.8052536189,-80320.4876903430,-37305.2215464848,-12640.2171613641,-80545.0912059977,-42362.7612340311,-80475.7961725910,-80465.9768412549,-80506.9698118514,-2417.1251415743
5584049130,7914,-2,0,-6719.1360302936,-80320.1956656193,-37289.2453605563,-12639.1342363469,-80546.7460127656,-42401.8560439232,-80477.0372776670,-80465.9646735581,-80507.3835135434,-2416.5045890363
5584049130,7914,-2,0,-6719.5618996824,-80320.8527212477,-37301.9362683426,-12639.4870995548,-80546.1132925308,-42249.2122872794,-80476.9764391829,-80466.1836921009,-80507.4443520275,-2417.3563278139
5584049130,7914,-2,0,-6718.6858255112,-80319.1735790861,-37325.3347493331,-12639.4749318579,-80545.1885475723,-42110.9629159772,-80476.5018990068,-80464.9912578123,-80506.1424084675,-2416.2247320094
5584071643,7915,-2,0,-6719.1968687777,-80319.4777715067,-37332.4163488841,-12639.3775902833,-80543.8501009218,-42175.1231813245,-80476.8669299115,-80465.1981086583,-80505.8017129564,-2416.3342412808
5584071643,7915,-2,0,-6720.6083216092,-80319.8062993209,-37314.8461946718,-12640.7890431148,-80545.4197338119,-42361.2646073219,-80477.6699979018,-80465.2711148392,-80506.9576441546,-2418.0255511391
5584071643,7915,-2,0,-6720.0121044649,-80320.9257274286,-37296.4121339850,-12640.4726829974,-80546.7338450688,-42427.9557536084,-80477.3293023907,-80466.3662075533,-80506.4100977976,-2418.6704390708
5584071643,7915,-2,0,-6719.5618996824,-80319.6481192622,-37303.7979259565,-12640.7768754180,-80547.0988759735,-42289.2440098269,-80477.0007745765,-80464.8695808440,-80507.2861719688,-2417.8552033836
5584071643,7915,-2,0,-6719.6227381665,-80319.8914731987,-37327.2572454312,-12639.3775902833,-80544.6531689121,-42133.0594534076,-80475.8083402879,-80464.6140592108,-80505.2541665994,-2416.6749367918
5584071643,7915,-2,0,-6719.6470735602,-80320.0009824701,-37337.2104214323,-12640.1928259705,-80543.8379332249,-42170.6454688937,-80477.2562962098,-80466.0620151327,-80505.9355576215,-2417.6848556281
5584071643,7915,-2,0,-6718.5763162398,-80319.6724546559,-37319.5915964327,-12639.0733978628,-80545.1155413913,-42356.2880193213,-80476.0030234370,-80464.8209100567,-80506.5196070690,-2415.2026454762
5584071643,7915,-2,0,-6718.5398131493,-80319.5142745972,-37299.5757351590,-12639.8399627626,-80546.2228018022,-42445.9396095127,-80475.9908557402,-80465.2224440519,-80506.6291163404,-2416.6262660045
5584116482,7916,-2,0,-6719.3550488364,-80319.1005729052,-37303.0921995408,-12640.0103105181,-80546.5634973133,-42326.2094727750,-80475.4068062927,-80465.3197856265,-80506.1424084675,-2418.0863896233
5584116482,7916,-2,0,-6720.5231477314,-80318.6138650323,-37327.6952825168,-12639.6452796135,-80543.9717778900,-42161.0329884036,-80475.8691787720,-80465.4171272011,-80505.6800359882,-2417.5266755694
5584116482,7916,-2,0,-6720.1094460395,-80318.2853372181,-37340.4105256968,-12640.7890431148,-80543.5824115916,-42167.8347309276,-80476.1247004053,-80464.2611960029,-80504.8891356947,-2417.5753463567
5584116482,7916,-2,0,-6719.5375642888,-80318.3461757022,-37325.5294324823,-12640.3145029387,-80543.0957037187,-42341.5529384687,-80475.3581355054,-80464.3707052743,-80505.8260483501,-2417.5145078726
5584116482,7916,-2,0,-6719.2455395650,-80318.4556849736,-37303.2625472963,-12639.0977332564,-80545.3588953278,-42456.8662012597,-80476.0151911338,-80464.8087423599,-80504.2685831567,-2416.4802536426
5584116482,7916,-2,0,-6719.3063780491,-80319.1005729052,-37304.9538571547,-12640.3631737260,-80545.6144169611,-42362.8342402121,-80475.9908557402,-80465.8794996803,-80506.6899548245,-2417.8795387773
5584116482,7916,-2,0,-6719.3307134428,-80318.5530265482,-37327.3424193089,-12639.7669565817,-80544.1299579487,-42182.9713457753,-80476.5870728845,-80465.5266364725,-80506.3127562230,-2417.4049986012
5584116482,7916,-2,0,-6719.5010611983,-80318.4678526704,-37342.1870094329,-12639.5966088262,-80543.3877284425,-42162.1402488144,-80476.1977065862,-80464.9547547218,-80506.2884208293,-2417.1859800584
5584137801,7917,-2,0,-6720.2432907045,-80319.5872807781,-37331.4185977446,-12640.7890431148,-80545.3223922373,-42331.7944456167,-80477.2806316034,-80466.4635491278,-80507.3956812402,-2417.8673710805
5584137801,7917,-2,0,-6719.1238625968,-80318.1393248562,-37308.9691971063,-12639.6939504007,-80545.8091001102,-42465.0550612216,-80476.8790976083,-80466.0498474359,-80506.2397500420,-2417.3928309044
5584137801,7917,-2,0,-6719.7687505284,-80319.8549701082,-37305.7569251450,-12640.0711490023,-80546.8798574307,-42392.8641159711,-80477.0981161511,-80466.1228536168,-80507.6268674798,-2418.5244267089
5584137801,7917,-2,0,-6718.8805086603,-80318.8572189687,-37326.7218667709,-12639.1464040437,-80546.2106341054,-42212.1129796663,-80476.5140667036,-80465.4414625947,-80506.4344331912,-2416.5289244299
5584137801,7917,-2,0,-6719.4523904110,-80320.5971996144,-37344.6327164943,-12639.6087765230,-80546.4783234355,-42163.9167325506,-80478.6799167381,-80467.8750019593,-80508.5759478320,-2416.9912969092
5584137801,7917,-2,0,-6719.5497319856,-80320.6580380985,-37336.3951857452,-12640.0103105181,-80547.0380374894,-42312.8128385729,-80478.3757243175,-80466.8042446389,-80507.9918983845,-2417.4658370853
5584137801,7917,-2,0,-6718.5033100588,-80319.9644793796,-37311.8894443438,-12639.8642981563,-80547.2570560322,-42466.8193772609,-80477.8646810509,-80466.6095614897,-80507.8702214163,-2417.0277999997
5584137801,7917,-2,0,-6719.1481979904,-80319.5751130813,-37306.5964962258,-12639.7426211880,-80547.5004099686,-42421.8962405906,-80477.7551717795,-80467.3152879055,-80507.2253334847,-2416.8696199410
5584166453,7918,-2,0,-6718.7344962985,-80318.9423928465,-37325.2739108490,-12638.6231930803,-80545.4805722960,-42241.4857997969,-80476.3923897354,-80465.6969842280,-80506.8603025800,-2416.5532598236
5584166453,7918,-2,0,-6719.1116949000,-80319.6846223527,-37345.6791384211,-12639.4870995548,-80545.9916155626,-42170.8644874365,-80477.2197931193,-80467.3761263896,-80506.3249239198,-2417.1859800584
5584166453,7918,-2,0,-6719.9025951935,-80320.1469948320,-37342.1018355551,-12640.5578568752,-80546.3201433768,-42305.6825682347,-80477.7916748700,-80467.1936109372,-80507.0671534260,-2416.4924213395
5584166453,7918,-2,0,-6718.9656825381,-80320.0618209542,-37318.9467085011,-12639.6696150071,-80546.6973419783,-42468.5228548161,-80477.4509793590,-80466.7190707611,-80506.9333087609,-2417.6605202345
5584166453,7918,-2,0,-6719.5010611983,-80319.2709206607,-37308.3364768715,-12639.9494720340,-80545.6144169611,-42449.1762168677,-80476.7452529432,-80465.8308288931,-80506.1545761643,-2417.3928309044
5584166453,7918,-2,0,-6717.8827575209,-80317.6404492864,-37325.1522338808,-12639.4992672516,-80544.3124734010,-42275.6405247788,-80475.9421849529,-80465.1494378710,-80505.0594834502,-2416.2490674030
5584166453,7918,-2,0,-6719.4037196237,-80317.2875860786,-37347.7719822746,-12640.0224782150,-80543.3755607457,-42180.7203218631,-80476.1368681021,-80464.7114007853,-80506.5439424626,-2416.4924213395
5584166453,7918,-2,0,-6719.5010611983,-80317.4214307436,-37345.6548030274,-12640.2779998482,-80544.4949888534,-42292.8821511770,-80475.5893217451,-80464.8209100567,-80504.7674587265,-2417.2468185425
5584195147,7919,-2,0,-6719.2212041714,-80318.6382004259,-37323.4365886287,-12640.0833166991,-80546.0159509562,-42473.8279706309,-80475.7109987133,-80465.2102763551,-80505.7530421691,-2417.5510109631
5584195147,7919,-2,0,-6719.7444151348,-80318.7112066069,-37311.6217550137,-12640.2414967578,-80547.2692237290,-42483.0632525195,-80476.6722467623,-80465.1251024773,-80507.0063149419,-2417.1738123615
5584195147,7919,-2,0,-6719.0995272032,-80318.6138650323,-37326.4785128345,-12639.1342363469,-80545.9794478658,-42313.4820618982,-80476.8790976083,-80465.6483134407,-80506.4709362817,-2416.8817876378
5584195147,7919,-2,0,-6719.8782597998,-80319.5142745972,-37351.2154404755,-12640.1806582737,-80544.5923304280,-42198.0592898358,-80476.9764391829,-80466.0620151327,-80506.8724702768,-2417.6483525376
5584195147,7919,-2,0,-6719.8295890125,-80319.3804299321,-37353.3812905100,-12640.6673661466,-80545.9429447753,-42290.6311272647,-80477.4631470558,-80466.6217291865,-80506.6047809467,-2417.3928309044
5584195147,7919,-2,0,-6719.5010611983,-80319.7211254432,-37332.9760629379,-12640.1319874864,-80546.3201433768,-42473.7184613595,-80477.2441285130,-80466.3297044628,-80507.3348427561,-2417.5631786599
5584195147,7919,-2,0,-6718.8926763572,-80318.4070141863,-37317.2432309459,-12640.0711490023,-80547.0988759735,-42510.5014088553,-80477.2197931193,-80465.9403381645,-80507.2496688783,-2417.0643030901
5584195147,7919,-2,0,-6719.3793842301,-80318.8085481814,-37328.9850583800,-12639.6574473103,-80546.5269942228,-42357.1762611894,-80476.7330852464,-80466.3175367660,-80506.0328991961,-2417.3076570266
5584231223,7920,-2,0,-6718.9778502349,-80317.5917784991,-37353.8923337766,-12638.9638885914,-80544.2272995233,-42221.6159508850,-80476.0395265275,-80464.2368606092,-80506.1059053770,-2417.0764707870
5584231223,7920,-2,0,-6719.3307134428,-80317.9203063134,-37360.1465299436,-12639.7182857944,-80543.6675854694,-42287.4553583939,-80476.9764391829,-80465.1494378710,-80505.6557005945,-2416.5410921267
5584231223,7920,-2,0,-6719.2333718682,-80319.2222498734,-37341.6394630759,-12640.7890431148,-80545.4197338119,-42476.1641684209,-80476.8547622146,-80464.8330777536,-80506.2640854357,-2417.1738123615
5584231223,7920,-2,0,-6719.1725333841,-80318.7355420005,-37323.0593900272,-12639.4627641611,-80546.5634973133,-42536.8201370833,-80477.2562962098,-80465.7578227121,-80506.3370916166,-2417.6240171440
5584231223,7920,-2,0,-6719.7930859221,-80319.9401439860,-37332.1121564635,-12639.7669565817,-80546.9893667021,-42393.7158547487,-80477.7065009922,-80466.3540398564,-80507.5416936021,-2417.1008061806
5584231223,7920,-2,0,-6720.3771353696,-80320.4268518589,-37356.7152394395,-12640.8620492957,-80546.4539880419,-42243.7854944964,-80477.6213271145,-80467.1084370595,-80506.9819795482,-2418.3054081661
5584231223,7920,-2,0,-6719.0143533254,-80318.6016973355,-37364.6607454649,-12639.4992672516,-80544.9451936358,-42281.4810192539,-80476.1977065862,-80465.8794996803,-80506.8968056705,-2416.8087814569
5584231223,7920,-2,0,-6719.1725333841,-80317.7256231642,-37346.5917156828,-12639.2315779215,-80545.0668706040,-42463.3880867568,-80476.5870728845,-80464.8330777536,-80506.4100977976,-2416.8696199410
5584259059,7921,-2,0,-6719.5984027729,-80319.0032313306,-37328.0359780278,-12640.5821922688,-80547.9019439638,-42553.2586954911,-80476.5384020972,-80466.3662075533,-80506.9576441546,-2417.7456941122
5584259059,7921,-2,0,-6719.4402227142,-80319.1614113893,-37332.5136904587,-12640.2536644546,-80547.2813914258,-42433.4068817851,-80477.2197931193,-80466.0376797390,-80506.6169486436,-2418.0498865328
5584259059,7921,-2,0,-6720.4501415505,-80319.4899392035,-37356.9829287696,-12641.3487571687,-80546.9285282180,-42263.9595358288,-80478.1445380779,-80466.6703999738,-80507.3226750593,-2419.0233022786
5584259059,7921,-2,0,-6719.9512659808,-80319.0275667243,-37367.0821171326,-12640.8255462053,-80543.6797531662,-42271.9658803383,-80475.9543526497,-80466.0985182232,-80507.2131657879,-2417.7091910218
5584259059,7921,-2,0,-6719.6957443475,-80319.1370759957,-37352.2131916150,-12640.6673661466,-80545.9916155626,-42450.0279556453,-80477.1832900289,-80466.1715244041,-80507.5416936021,-2417.2346508457
5584259059,7921,-2,0,-6719.1481979904,-80317.3727599563,-37329.2162446196,-12639.4140933738,-80545.6995908388,-42558.3569604599,-80476.5018990068,-80465.5023010788,-80506.2884208293,-2416.4315828553
5584259059,7921,-2,0,-6719.3793842301,-80318.8085481814,-37329.7029524926,-12639.7426211880,-80546.6000004037,-42455.6494315775,-80476.1612034957,-80466.3418721596,-80506.1424084675,-2417.9403772614
5584259059,7921,-2,0,-6720.3162968855,-80318.4556849736,-37351.2276081723,-12639.4140933738,-80546.0524540467,-42281.6878700998,-80476.1977065862,-80465.8308288931,-80506.2154146484,-2416.8452845473
5584293827,7922,-2,0,-6720.2067876140,-80319.0397344211,-37367.3498064627,-12639.8399627626,-80545.2007152691,-42267.0501308219,-80477.2562962098,-80466.0741828295,-80506.8846379736,-2417.1616446647
5584293827,7922,-2,0,-6719.5132288951,-80318.6990389100,-37355.3767927890,-12640.5578568752,-80545.4319015087,-42431.6425657458,-80477.3049669971,-80465.9160027708,-80506.4222654944,-2418.6339359803
5584293827,7922,-2,0,-6721.0341909980,-80319.0032313306,-37332.1364918571,-12640.7647077212,-80547.0258697925,-42563.7472501525,-80477.8768487478,-80467.5221387514,-80508.3690969861,-2418.5852651930
5584293827,7922,-2,0,-6719.8660921030,-80318.2975049149,-37326.7218667709,-12640.3753414228,-80546.6121681006,-42486.4093691459,-80475.9300172561,-80465.9038350740,-80506.6047809467,-2417.9647126550
5584293827,7922,-2,0,-6719.2455395650,-80318.1271571594,-37348.4168702062,-12639.0612301659,-80545.6874231420,-42302.4094577893,-80474.9687692071,-80465.0277609027,-80506.2762531325,-2417.2468185425
5584293827,7922,-2,0,-6719.7687505284,-80318.8815543624,-37365.5733227266,-12639.9738074277,-80545.1155413913,-42260.3700652661,-80476.9764391829,-80465.5388041693,-80506.4344331912,-2417.2711539361
5584293827,7922,-2,0,-6719.4645581078,-80318.6503681227,-37357.0924380410,-12640.1319874864,-80545.5779138706,-42415.6907152109,-80476.8912653051,-80466.0133443454,-80507.2983396656,-2417.7821972027
5584293827,7922,-2,0,-6718.7223286016,-80318.3096726117,-37333.1342429966,-12639.7182857944,-80546.2349694991,-42564.8301751697,-80476.1977065862,-80466.3053690691,-80506.2884208293,-2417.3198247234
5584371858,7923,-2,0,-6719.5375642888,-80318.7720450910,-37326.9895561010,-12640.6430307529,-80547.1840498512,-42516.4027418144,-80476.4410605227,-80466.6338968834,-80507.6998736608,-2418.1228927137
5584371858,7923,-2,0,-6719.7444151348,-80319.3074237512,-37347.6016345191,-12639.8642981563,-80546.0402863499,-42340.3848395737,-80476.9521037892,-80465.7578227121,-80507.2496688783,-2417.6483525376
5584371858,7923,-2,0,-6719.9512659808,-80319.3317591448,-37368.6639177196,-12640.8742169926,-80545.5170753865,-42271.6373525241,-80477.5118178431,-80467.1692755436,-80508.0040660814,-2417.8430356868
5584371858,7923,-2,0,-6719.2577072619,-80318.2244987339,-37362.9085971224,-12639.4262610706,-80544.9695290295,-42405.9565577526,-80476.1125327084,-80465.5753072598,-80506.1180730738,-2416.1760612221
5584371858,7923,-2,0,-6720.0121044649,-80318.3705110958,-37341.3231029585,-12640.0954843959,-80546.1011248340,-42574.1749663297,-80477.1954577257,-80465.7578227121,-80506.1424084675,-2417.0764707870
5584371858,7923,-2,0,-6719.7444151348,-80318.4921880640,-37333.4262677204,-12640.7282046307,-80547.4395714845,-42553.0153415546,-80476.9642714860,-80465.9403381645,-80506.5439424626,-2417.3198247234
5584371858,7923,-2,0,-6719.4645581078,-80317.8229647388,-37350.8504095708,-12640.2049936673,-80545.2493860564,-42375.6468249666,-80475.5528186546,-80464.3950406679,-80505.4001789613,-2417.7091910218
5584371858,7923,-2,0,-6720.7908370615,-80317.4092630468,-37374.7964369184,-12640.3631737260,-80545.4562369024,-42284.2309187358,-80476.1490357989,-80465.1372701741,-80506.1910792547,-2417.9890480487
5584379023,7924,-2,0,-6719.1238625968,-80317.0563998389,-37372.8131023362,-12639.3532548897,-80544.5071565502,-42402.6469442167,-80475.7961725910,-80465.1616055678,-80505.9720607119,-2416.6262660045
5584379023,7924,-2,0,-6718.7344962985,-80318.5773619418,-37352.3105331896,-12639.9859751245,-80545.6387523547,-42576.1826363055,-80475.5284832609,-80465.8064934994,-80505.8503837437,-2417.3319924202
5584379023,7924,-2,0,-6719.9999367681,-80318.7720450910,-37340.3253518190,-12640.4483476038,-80546.3688141641,-42579.0663804526,-80477.5604886304,-80466.7555738516,-80506.7872963991,-2418.1958988947
5584379023,7924,-2,0,-6718.5763162398,-80317.8959709197,-37354.4398801336,-12640.0103105181,-80545.5657461738,-42410.6046179389,-80476.7817560337,-80465.9403381645,-80506.2519177389,-2416.5045890363
5584379023,7924,-2,0,-6718.6128193302,-80317.9324740102,-37378.2033920288,-12639.4627641611,-80544.8235166676,-42296.6906402825,-80476.3680543417,-80464.9669224186,-80506.6291163404,-2416.7114398823
5584379023,7924,-2,0,-6719.0508564159,-80317.7864616483,-37380.3570743665,-12640.1198197895,-80545.2128829659,-42393.0709668171,-80477.3171346939,-80466.5122199151,-80506.7021225213,-2416.9669615156
5584379023,7924,-2,0,-6718.8075024794,-80318.3826787926,-37359.5989835865,-12640.0833166991,-80545.7725970198,-42581.4390813330,-80476.5018990068,-80466.3297044628,-80507.1158242133,-2417.2346508457
5584379023,7924,-2,0,-6719.3185457460,-80318.1758279466,-37344.2676855896,-12639.6817827039,-80547.2813914258,-42615.2896138945,-80476.8182591242,-80466.3297044628,-80506.4466008880,-2417.3928309044
5584386910,7925,-2,0,-6719.9025951935,-80319.2952560544,-37356.8855871950,-12640.7038692370,-80547.4882422718,-42458.2654863944,-80477.8890164446,-80466.1958597977,-80506.6291163404,-2417.9160418677
5584386910,7925,-2,0,-6720.0364398585,-80319.5386099908,-37380.1502235205,-12640.7768754180,-80546.0524540467,-42323.6907595326,-80477.6578302049,-80466.5243876120,-80507.6633705703,-2417.9890480487
5584386910,7925,-2,0,-6720.5718185187,-80320.6702057954,-37384.6887744354,-12640.4726829974,-80545.9551124721,-42391.1971415063,-80477.9741903223,-80466.9989277881,-80507.8823891131,-2418.5730974962
5584386910,7925,-2,0,-6719.1968687777,-80319.1735790861,-37363.3466342080,-12639.4262610706,-80546.2228018022,-42570.9991974589,-80476.7574206400,-80465.8308288931,-80507.3835135434,-2416.9547938187
5584386910,7925,-2,0,-6719.9147628903,-80319.0153990274,-37344.1825117119,-12639.9738074277,-80546.5756650101,-42626.3500503065,-80476.3802220385,-80465.5996426534,-80506.5196070690,-2417.7578618090
5584386910,7925,-2,0,-6719.8417567094,-80318.5651942450,-37351.7021483484,-12640.3753414228,-80546.3688141641,-42481.1772595120,-80477.2441285130,-80466.0863505263,-80507.3956812402,-2417.5631786599
5584386910,7925,-2,0,-6719.5984027729,-80317.3484245627,-37374.6260891629,-12639.5601057357,-80545.4440692056,-42324.5303306134,-80476.2463773735,-80464.7844069663,-80505.2298312057,-2417.5388432662
5584386910,7925,-2,0,-6719.5010611983,-80316.5818596628,-37380.2110620046,-12640.1076520927,-80543.0470329314,-42362.0555076154,-80475.0296076912,-80463.9326681887,-80505.1568250248,-2417.2346508457
5584431715,7926,-2,0,-6719.5618996824,-80317.4579338341,-37361.3754673227,-12640.4240122101,-80544.4219826724,-42547.7953996176,-80474.8349245420,-80464.5653884235,-80504.8648003010,-2417.6361848408
5584431715,7926,-2,0,-6719.1116949000,-80316.3628411200,-37340.6538796332,-12639.8642981563,-80544.5436596407,-42630.8399304342,-80474.9200984198,-80463.6893142522,-80505.4001789613,-2417.6970233249
5584431715,7926,-2,0,-6719.8417567094,-80317.6039461960,-37344.8882381276,-12640.2658321514,-80545.5535784770,-42504.6122435930,-80475.8083402879,-80465.2589471424,-80506.1059053770,-2418.0377188360
5584431715,7926,-2,0,-6720.5109800346,-80318.1758279466,-37367.4593157342,-12640.6673661466,-80545.7239262325,-42341.7841247084,-80476.3437189481,-80466.3905429469,-80506.5074393721,-2417.9647126550
5584431715,7926,-2,0,-6719.3793842301,-80317.6891200737,-37377.5098333099,-12639.4384287675,-80543.6189146821,-42355.7161375706,-80475.7961725910,-80464.8452454504,-80505.4366820517,-2416.9061230314
5584431715,7926,-2,0,-6719.1847010809,-80317.2632506849,-37361.1807841735,-12639.2802487088,-80544.6896720025,-42531.3203381193,-80476.1733711925,-80465.8673319835,-80505.0959865407,-2416.3950797649
5584431715,7926,-2,0,-6718.4181361811,-80317.4944369246,-37337.9769863322,-12639.1707394374,-80545.5900815674,-42639.0896288801,-80475.9421849529,-80465.1859409614,-80505.9112222278,-2416.4437505522
5584431715,7926,-2,0,-6719.1847010809,-80317.3484245627,-37340.3618549095,-12639.5236026452,-80546.8798574307,-42536.6862924182,-80477.0007745765,-80466.1715244041,-80507.0063149419,-2417.4415016916
5584466798,7927,-2,0,-6719.5375642888,-80317.9933124943,-37362.8234232446,-12639.8764658531,-80545.8942739880,-42361.2524396251,-80476.2463773735,-80465.4536302915,-80506.7629610054,-2417.3928309044
5584466798,7927,-2,0,-6719.5253965920,-80317.1537414135,-37376.0253742975,-12639.9616397308,-80544.5193242470,-42344.9598935792,-80476.1733711925,-80465.2102763551,-80506.2275823452,-2416.6871044886
5584466798,7927,-2,0,-6720.2189553109,-80317.7012877706,-37361.8743428924,-12640.8620492957,-80545.1885475723,-42512.9836190072,-80476.8912653051,-80465.8794996803,-80506.6656194308,-2418.1715635010
5584466798,7927,-2,0,-6719.5253965920,-80317.1172383231,-37337.3442660974,-12640.4240122101,-80545.8212678071,-42637.0332881171,-80476.1733711925,-80464.7965746631,-80505.3880112644,-2418.5365944057
5584466798,7927,-2,0,-6720.7908370615,-80317.3970953500,-37334.1076587425,-12640.4970183911,-80546.6486711910,-42551.7133979946,-80476.7209175496,-80465.6848165312,-80505.9233899246,-2418.8164514326
5584466798,7927,-2,0,-6720.3406322791,-80318.5408588513,-37354.6467309796,-12640.9837262640,-80545.5657461738,-42370.4512184232,-80477.0616130606,-80465.5144687757,-80507.3348427561,-2418.7312775549
5584466798,7927,-2,0,-6720.5109800346,-80317.7621262547,-37369.6860042527,-12640.3145029387,-80544.8113489708,-42329.0567138316,-80476.4167251290,-80465.0520962964,-80506.5561101594,-2418.3419112565
5584466798,7927,-2,0,-6719.1238625968,-80316.3750088169,-37357.6034813076,-12639.4749318579,-80544.9816967263,-42478.4760308173,-80475.3946385959,-80464.4315437584,-80504.6701171519,-2416.3464089776
5584470193,7928,-2,0,-6719.9147628903,-80316.9225551739,-37333.6087831727,-12639.3897579802,-80545.1642121786,-42625.9850194018,-80475.8083402879,-80464.5532207266,-80505.9233899246,-2418.0620542296
5584470193,7928,-2,0,-6720.2554584013,-80316.7035366311,-37327.0868976756,-12640.7647077212,-80545.4684045992,-42569.8554339576,-80475.2486262340,-80464.8939162377,-80505.5705267168,-2418.3662466502
5584470193,7928,-2,0,-6720.4014707632,-80317.1172383231,-37345.5696291497,-12640.4605153006,-80545.8091001102,-42383.4463186301,-80476.2220419798,-80465.2102763551,-80506.4222654944,-2418.1472281074
5584470193,7928,-2,0,-6719.6349058634,-80316.5331888755,-37361.8135044083,-12639.6452796135,-80543.7162562567,-42311.8029197366,-80476.2098742830,-80464.6018915139,-80505.5948621104,-2417.3076570266
5584470193,7928,-2,0,-6719.4402227142,-80316.5575242692,-37354.8900849161,-12639.5479380389,-80544.2516349169,-42449.4560738946,-80475.8935141656,-80465.9281704676,-80505.9112222278,-2417.4171662980
5584470193,7928,-2,0,-6719.4645581078,-80318.3583433990,-37330.7007036320,-12639.9129689436,-80547.1718821544,-42611.4932924857,-80477.2684639066,-80466.0255120422,-80506.5074393721,-2416.8817876378
5584470193,7928,-2,0,-6719.2455395650,-80317.7256231642,-37320.4068321198,-12639.4019256770,-80547.8046023892,-42583.5684282770,-80476.2098742830,-80465.8551642867,-80506.7507933086,-2417.0156323028
5584470193,7928,-2,0,-6719.7687505284,-80318.3340080053,-37337.6971293052,-12640.4605153006,-80546.0767894404,-42407.9642277283,-80477.0616130606,-80466.3540398564,-80507.1401596069,-2418.1228927137
5584513541,7929,-2,0,-6718.9291794476,-80317.6404492864,-37358.3092077233,-12639.4627641611,-80544.7383427898,-42317.5460726371,-80476.8182591242,-80466.1228536168,-80505.8503837437,-2416.7114398823
5584513541,7929,-2,0,-6720.1337814331,-80318.8815543624,-37357.5669782171,-12641.0567324449,-80546.2106341054,-42435.8404211497,-80476.9642714860,-80466.6095614897,-80506.7142902181,-2417.8795387773
5584513541,7929,-2,0,-6719.7200797411,-80317.6891200737,-37334.6795404931,-12639.9373043372,-80546.6365034942,-42610.6050506176,-80476.8912653051,-80465.5996426534,-80506.4831039785,-2417.2833216329
5584513541,7929,-2,0,-6719.5253965920,-80318.0784863721,-37323.3149116605,-12640.0103105181,-80547.3300622131,-42612.1260127205,-80476.3802220385,-80465.7821581058,-80506.3979301007,-2417.4780047821
5584513541,7929,-2,0,-6720.3041291886,-80318.7842127878,-37339.8386439461,-12640.4605153006,-80547.1353790640,-42442.5569897960,-80477.6578302049,-80466.5608907024,-80507.2375011815,-2418.0012157455
5584513541,7929,-2,0,-6719.7444151348,-80317.8594678293,-37362.0690260416,-12640.1198197895,-80545.5170753865,-42331.9647933723,-80475.7840048942,-80466.4148783406,-80506.2275823452,-2416.5654275204
5584513541,7929,-2,0,-6719.0508564159,-80317.8351324356,-37363.6873297190,-12640.0346459118,-80544.7870135771,-42430.6691500000,-80475.8935141656,-80464.8209100567,-80506.5439424626,-2416.2125643125
5584513541,7929,-2,0,-6718.7223286016,-80317.5187723182,-37342.2965187043,-12638.9638885914,-80546.0889571372,-42611.7609818158,-80475.5893217451,-80464.5775561203,-80505.7773775628,-2417.6118494472
5584540241,7930,-2,0,-6720.2919614918,-80318.1879956435,-37328.5713566880,-12640.6186953593,-80546.3201433768,-42638.8219395500,-80476.2463773735,-80465.3927918074,-80505.7773775628,-2418.2567373788
5584540241,7930,-2,0,-6720.1581168268,-80318.1028217657,-37340.4713641809,-12641.2392478973,-80546.6365034942,-42482.3696938006,-80476.8790976083,-80465.9403381645,-80506.2275823452,-2417.5875140535
5584540241,7930,-2,0,-6720.6083216092,-80316.8373812961,-37364.9771055823,-12640.3023352419,-80544.9330259390,-42348.4763579610,-80475.5284832609,-80465.3562887170,-80505.5096882327,-2418.0012157455
5584540241,7930,-2,0,-6719.5375642888,-80317.0685675358,-37368.0555328785,-12640.2049936673,-80544.0204486773,-42417.9052360327,-80475.9908557402,-80465.0399285996,-80506.1424084675,-2417.6605202345
5584540241,7930,-2,0,-6719.5984027729,-80317.3849276532,-37348.9887519569,-12640.4483476038,-80545.4319015087,-42603.3044325239,-80476.1855388894,-80465.3319533233,-80505.7043713818,-2417.9768803519
5584540241,7930,-2,0,-6719.4888935015,-80317.3240891690,-37331.8809702239,-12640.0589813054,-80546.7338450688,-42658.5214407064,-80475.7596695006,-80465.4049595042,-80506.9941472451,-2417.9160418677
5584540241,7930,-2,0,-6719.2820426555,-80317.3727599563,-37339.5587869191,-12639.9981428213,-80546.9528636116,-42510.3188934029,-80476.1247004053,-80465.2832825360,-80505.8138806532,-2417.4171662980
5584540241,7930,-2,0,-6719.4767258047,-80316.6792012374,-37363.8211743841,-12639.6817827039,-80545.0547029072,-42360.3763654538,-80475.6623279260,-80464.2855313965,-80505.1811604184,-2417.0643030901
5584579194,7931,-2,0,-6719.4037196237,-80316.3141703327,-37371.4989910794,-12639.8277950658,-80543.3268899584,-42406.1634085985,-80475.4554770800,-80464.2733636997,-80504.6579494551,-2416.8087814569
5584579194,7931,-2,0,-6719.1847010809,-80315.5962762202,-37353.1136011799,-12639.6696150071,-80544.5314919438,-42586.6225201796,-80475.4919801705,-80464.2003575188,-80505.3758435676,-2417.2346508457
5584579194,7931,-2,0,-6719.4767258047,-80315.9004686408,-37332.4163488841,-12640.3996768165,-80545.1277090882,-42663.1938362864,-80475.7596695006,-80464.3707052743,-80504.5484401837,-2417.4293339948
5584579194,7931,-2,0,-6718.9048440540,-80315.4380961615,-37337.5754523370,-12639.2559133151,-80544.4828211565,-42531.9165552637,-80473.5816517693,-80463.9935066728,-80504.9256387852,-2417.8552033836
5584579194,7931,-2,0,-6719.5740673793,-80315.4015930710,-37360.0126852785,-12639.3289194961,-80543.6432500758,-42361.0699241727,-80475.0782784785,-80463.7744881300,-80505.4366820517,-2416.3585766744
5584579194,7931,-2,0,-6719.3793842301,-80315.7057854916,-37370.3552275780,-12640.4726829974,-80544.2516349169,-42375.3913033333,-80475.7961725910,-80463.6284757681,-80504.7796264233,-2416.4924213395
5584579194,7931,-2,0,-6720.0729429490,-80317.0198967485,-37356.0095130238,-12640.9958939608,-80545.5049076897,-42556.4344643619,-80476.7330852464,-80465.9281704676,-80506.5439424626,-2418.3905820438
5584579194,7931,-2,0,-6718.5641485429,-80316.2289964550,-37333.9981494711,-12639.2315779215,-80544.8478520612,-42663.4128548292,-80475.6136571387,-80464.7235684822,-80505.3393404771,-2416.6384337013
5584609302,7932,-2,0,-6719.9512659808,-80316.3141703327,-37336.2248379897,-12639.7669565817,-80545.5657461738,-42558.7828298487,-80476.3193835544,-80465.0885993868,-80506.1059053770,-2417.3198247234
5584609302,7932,-2,0,-6719.6349058634,-80316.4480149978,-37360.9617656307,-12640.3510060292,-80545.2493860564,-42389.3476515892,-80475.4068062927,-80465.6239780471,-80505.0959865407,-2417.8673710805
5584609302,7932,-2,0,-6720.1337814331,-80316.1194871836,-37375.5021633341,-12640.9837262640,-80544.4463180661,-42380.9762761751,-80476.8060914273,-80466.2810336755,-80506.5804455531,-2418.1107250169
5584609302,7932,-2,0,-6719.1847010809,-80315.9369717312,-37361.6188212591,-12639.7182857944,-80543.7284239535,-42546.5907976321,-80475.1026138721,-80464.1273513378,-80504.4145955186,-2416.1273904348
5584609302,7932,-2,0,-6719.8052536189,-80316.4480149978,-37338.5853711733,-12640.4240122101,-80546.0281186531,-42669.9955788104,-80475.1269492658,-80464.5045499393,-80505.5948621104,-2418.0742219264
5584609302,7932,-2,0,-6719.2090364746,-80314.7567051394,-37336.5046950166,-12639.6209442198,-80545.4197338119,-42585.3327443164,-80475.4433093832,-80464.2003575188,-80504.9013033915,-2417.2833216329
5584609302,7932,-2,0,-6719.3793842301,-80316.1559902740,-37360.2925423054,-12640.8133785085,-80544.8721874549,-42403.5230183880,-80475.8813464688,-80464.3707052743,-80506.0937376802,-2417.8917064741
5584609302,7932,-2,0,-6719.8052536189,-80315.1217360441,-37376.8406099846,-12639.9008012467,-80542.9253559632,-42362.6152216692,-80474.8105891484,-80464.0421774601,-80504.5484401837,-2416.9791292124
5584628900,7933,-2,0,-6720.1094460395,-80315.6327793106,-37367.0821171326,-12640.6430307529,-80543.9717778900,-42521.8173669006,-80475.7353341069,-80465.7821581058,-80506.5561101594,-2417.6726879313
5584628900,7933,-2,0,-6719.4280550174,-80314.9878913790,-37344.4502010420,-12640.0954843959,-80545.0425352104,-42665.7612203160,-80475.8326756815,-80464.6262269076,-80506.1180730738,-2417.4901724789
5584628900,7933,-2,0,-6719.5010611983,-80316.3020026359,-37338.5123649924,-12640.4118445133,-80546.1741310149,-42602.8298923478,-80475.3946385959,-80464.5288853330,-80506.4100977976,-2418.0985573201
5584628900,7933,-2,0,-6719.3672165333,-80315.8152947630,-37358.0536860900,-12639.9616397308,-80546.1619633181,-42417.7592236708,-80476.0151911338,-80465.7334873185,-80505.6922036850,-2417.4901724789
5584628900,7933,-2,0,-6720.4014707632,-80316.9347228707,-37377.0961316179,-12640.3631737260,-80545.0790383009,-42353.6841322012,-80476.4897313100,-80466.1715244041,-80506.9211410641,-2418.3905820438
5584628900,7933,-2,0,-6718.5641485429,-80316.2289964550,-37368.7369239006,-12639.2315779215,-80544.2638026137,-42490.4003737038,-80474.9687692071,-80464.0908482474,-80504.4997693964,-2416.5532598236
5584628900,7933,-2,0,-6719.8660921030,-80316.5210211787,-37346.2875232622,-12639.7182857944,-80545.2737214500,-42652.5714369599,-80476.2950481608,-80465.3076179297,-80505.7895452596,-2417.4536693885
5584628900,7933,-2,0,-6719.2455395650,-80314.7810405331,-37336.5168627134,-12639.3775902833,-80545.3710630246,-42622.1400272058,-80474.7984214516,-80464.3950406679,-80504.1955769758,-2416.6384337013
5584658254,7934,-2,0,-6719.4888935015,-80314.2091587824,-37354.2451969844,-12639.4505964643,-80544.3489764915,-42440.6223260011,-80474.0805273390,-80464.3098667902,-80504.6579494551,-2417.1373092711
5584658254,7934,-2,0,-6719.6470735602,-80314.8783821076,-37376.0375419943,-12640.4726829974,-80543.1443745060,-42351.4939467731,-80474.7010798770,-80464.5167176362,-80505.2541665994,-2417.4171662980
5584658254,7934,-2,0,-6719.2455395650,-80315.2799161028,-37373.3971517837,-12640.0346459118,-80543.4729023202,-42472.2461700439,-80475.0661107817,-80464.9304193282,-80505.1811604184,-2416.8209491537
5584658254,7934,-2,0,-6719.5862350761,-80315.1339037409,-37349.6093044949,-12640.1563228800,-80544.9086905453,-42642.0463792081,-80475.8326756815,-80465.6361457439,-80505.4488497485,-2418.3297435597
5584658254,7934,-2,0,-6718.9900179317,-80315.5354377361,-37336.3951857452,-12640.0711490023,-80546.3809818609,-42638.3108962835,-80475.3581355054,-80465.3441210201,-80506.3370916166,-2418.2202342883
5584658254,7934,-2,0,-6719.7444151348,-80315.8274624598,-37351.7751545294,-12640.3510060292,-80546.3931495577,-42466.6490295054,-80475.9908557402,-80465.0642639932,-80506.2275823452,-2417.4536693885
5584658254,7934,-2,0,-6719.1968687777,-80315.4380961615,-37374.8694430993,-12639.4749318579,-80542.6576666331,-42354.9982434581,-80474.8349245420,-80465.0277609027,-80505.6800359882,-2417.0277999997
5584658254,7934,-2,0,-6718.7101609048,-80315.3164191933,-37375.1614678231,-12639.5236026452,-80543.8379332249,-42451.0500421784,-80476.6722467623,-80464.5410530298,-80506.1302407706,-2416.4680859458
5584697910,7935,-2,0,-6719.6227381665,-80316.5331888755,-37354.4642155273,-12639.2680810119,-80545.7725970198,-42633.5046560384,-80476.1490357989,-80465.8916673772,-80506.4831039785,-2417.6605202345
5584697910,7935,-2,0,-6720.5353154283,-80316.3506734232,-37340.7512212078,-12640.2536644546,-80547.3787330004,-42658.9959808825,-80477.0859484543,-80466.4878845215,-80506.8846379736,-2418.0498865328
5584697910,7935,-2,0,-6720.1702845236,-80316.2168287582,-37354.1600231067,-12639.9859751245,-80546.2349694991,-42494.2940366871,-80476.3802220385,-80465.7334873185,-80506.3249239198,-2417.9525449582
5584697910,7935,-2,0,-6719.2090364746,-80315.7787916725,-37377.4368271290,-12639.6452796135,-80544.5923304280,-42360.6927255712,-80476.3437189481,-80464.8330777536,-80506.4831039785,-2417.3319924202
5584697910,7935,-2,0,-6719.9634336776,-80316.1194871836,-37382.4985890073,-12640.0954843959,-80544.5923304280,-42436.6434891400,-80476.5018990068,-80465.9890089517,-80506.5561101594,-2416.7114398823
5584697910,7935,-2,0,-6718.8926763572,-80315.1217360441,-37361.1199456894,-12639.4992672516,-80545.1033736945,-42619.0737676064,-80476.0760296180,-80464.3950406679,-80505.7895452596,-2416.9304584251
5584697910,7935,-2,0,-6719.4280550174,-80316.1924933645,-37344.2311824992,-12639.9251366404,-80546.1619633181,-42669.6183802089,-80476.4775636131,-80465.4901333820,-80506.2397500420,-2417.3441601171
5584697910,7935,-2,0,-6719.1603656873,-80315.9856425185,-37354.3668739527,-12640.6308630561,-80546.3931495577,-42522.9246273115,-80477.1589546352,-80466.3053690691,-80506.6777871277,-2417.3441601171
5584731430,7936,-2,0,-6719.6227381665,-80315.7909593693,-37378.3494043907,-12639.1220686501,-80544.1299579487,-42374.8802600668,-80476.8182591242,-80465.7456550153,-80506.5926132499,-2417.6361848408
5584731430,7936,-2,0,-6718.5641485429,-80315.8883009439,-37385.9542149050,-12639.7547888849,-80543.7770947408,-42418.4892854802,-80475.1391169626,-80464.6140592108,-80505.6191975041,-2417.0643030901
5584731430,7936,-2,0,-6720.0851106458,-80316.2776672423,-37368.9681101402,-12640.6551984498,-80544.4463180661,-42602.4770291399,-80476.9156006987,-80466.6582322770,-80506.3005885262,-2417.4293339948
5584731430,7936,-2,0,-6718.8318378731,-80316.2533318486,-37349.5606337076,-12640.3023352419,-80546.0524540467,-42679.2186930022,-80476.6114082782,-80465.6239780471,-80504.9864772693,-2417.8065325963
5584731430,7936,-2,0,-6719.4037196237,-80316.6305304501,-37354.9874264906,-12639.7182857944,-80546.5391619196,-42547.0896732019,-80477.5239855399,-80466.6338968834,-80506.9941472451,-2417.6970233249
5584731430,7936,-2,0,-6719.8782597998,-80317.4092630468,-37379.4323294079,-12640.3631737260,-80545.2858891469,-42384.0303680776,-80477.4753147526,-80466.4878845215,-80506.7142902181,-2417.4658370853
5584731430,7936,-2,0,-6718.5763162398,-80317.0198967485,-37389.1908222599,-12640.2293290610,-80544.5679950343,-42404.4964341338,-80477.2806316034,-80465.8916673772,-80506.1545761643,-2416.5532598236
5584731430,7936,-2,0,-6719.6227381665,-80315.9856425185,-37372.4237360379,-12639.6452796135,-80545.4319015087,-42578.8716973034,-80476.4167251290,-80465.5631395629,-80506.3370916166,-2416.7722783664
5584771620,7937,-2,0,-6718.9291794476,-80315.6449470075,-37350.8869126613,-12638.8665470168,-80546.1862987118,-42678.1357679849,-80475.9421849529,-80465.7334873185,-80505.9842284088,-2416.2003966157
5584771620,7937,-2,0,-6719.4523904110,-80315.9126363376,-37352.9919242117,-12639.8156273690,-80547.6464223305,-42568.5048196102,-80476.9521037892,-80466.4757168247,-80506.9089733673,-2418.2567373788
5584771620,7937,-2,0,-6720.0486075553,-80317.2024122008,-37376.2930636276,-12640.9228877799,-80547.0380374894,-42393.6550162646,-80477.2076254225,-80466.4757168247,-80507.7120413576,-2417.9038741709
5584771620,7937,-2,0,-6719.0873595063,-80317.1294060199,-37388.3025803918,-12640.6430307529,-80545.2980568437,-42382.5945798525,-80477.8768487478,-80466.6460645802,-80507.1766626974,-2417.1129738774
5584771620,7937,-2,0,-6720.1459491299,-80316.5940273597,-37373.6040026297,-12640.6065276625,-80545.5049076897,-42554.4146266893,-80476.7939237305,-80466.4392137342,-80507.3348427561,-2417.6240171440
5584771620,7937,-2,0,-6719.6714089538,-80316.7278720247,-37351.0329250232,-12640.6551984498,-80546.2714725895,-42674.7166451777,-80477.0859484543,-80466.5730583993,-80507.2983396656,-2417.7456941122
5584771620,7937,-2,0,-6718.7101609048,-80315.9613071249,-37347.8693238492,-12639.0733978628,-80546.9528636116,-42582.6436833185,-80476.9034330019,-80466.1228536168,-80507.0671534260,-2416.6627690950
5584771620,7937,-2,0,-6720.2067876140,-80317.7499585578,-37370.9757801160,-12641.3365894718,-80546.9406959148,-42403.2674967547,-80477.9255195351,-80467.6073126292,-80508.2352523210,-2418.1837311978
5584807386,7938,-2,0,-6718.9656825381,-80316.4966857851,-37386.2340719320,-12639.2559133151,-80544.8721874549,-42369.4047964964,-80477.0616130606,-80465.8064934994,-80506.2032469516,-2416.5897629140
5584807386,7938,-2,0,-6719.4767258047,-80316.7035366311,-37376.3660698085,-12640.3631737260,-80545.7117585357,-42526.4654270870,-80477.4266439653,-80466.6338968834,-80507.2375011815,-2417.4901724789
5584807386,7938,-2,0,-6719.7687505284,-80316.0586486995,-37353.0770980894,-12640.6673661466,-80546.4174849514,-42665.7368849224,-80477.3779731780,-80466.0133443454,-80506.2762531325,-2418.4027497407
5584807386,7938,-2,0,-6719.5253965920,-80314.5376865966,-37346.8350696193,-12640.8133785085,-80545.9551124721,-42602.3066813844,-80475.9300172561,-80464.7722392695,-80505.1446573280,-2418.5000913152
5584807386,7938,-2,0,-6719.2942103523,-80313.9779725427,-37366.6805831375,-12638.8057085327,-80543.6675854694,-42415.9219014506,-80475.6014894419,-80463.2877802571,-80504.4997693964,-2417.6483525376
5584807386,7938,-2,0,-6719.0751918095,-80314.9757236822,-37384.4454204990,-12640.3023352419,-80543.8622686186,-42351.0559096874,-80475.3581355054,-80464.2490283061,-80505.5461913231,-2416.6627690950
5584807386,7938,-2,0,-6719.0143533254,-80314.9392205917,-37377.3638209480,-12639.4992672516,-80543.6675854694,-42494.0506827507,-80474.7375829674,-80464.7844069663,-80505.5218559295,-2416.9061230314
5584807386,7938,-2,0,-6719.5375642888,-80315.1825745282,-37354.4642155273,-12639.9981428213,-80545.1763798755,-42652.4010892044,-80476.2950481608,-80465.0520962964,-80505.5461913231,-2417.0277999997
5584820190,7939,1,0,-6719.6835766507,-80315.9248040344,-37345.4966229687,-12640.8985523862,-80546.0159509562,-42615.4599616500,-80476.2220419798,-80465.7213196216,-80506.5926132499,-2418.5365944057
5584820190,7939,1,0,-6719.5497319856,-80314.3551711442,-37362.4462246431,-12639.3654225865,-80545.0303675136,-42434.4046329246,-80476.0030234370,-80464.5167176362,-80505.5583590200,-2416.8331168505
5584820190,7939,1,0,-6720.1459491299,-80314.4038419315,-37384.3967497117,-12639.4749318579,-80544.1421256455,-42348.0261531785,-80475.8813464688,-80464.6140592108,-80505.8868868342,-2417.4171662980
5584820190,7939,1,0,-6719.1968687777,-80313.8806309682,-37379.7243541317,-12639.8156273690,-80542.8158466918,-42466.0771477547,-80475.0296076912,-80464.8939162377,-80505.2663342962,-2416.6627690950
5584820190,7939,1,0,-6718.5154777557,-80314.0509787237,-37355.8756683587,-12639.5114349484,-80544.6896720025,-42634.7944319016,-80475.1756200531,-80464.6748976949,-80505.2176635089,-2416.4315828553
5584820190,7939,1,0,-6719.4158873206,-80313.9293017554,-37344.4136979515,-12640.2901675451,-80545.7117585357,-42627.6763292602,-80475.7718371974,-80464.9182516313,-80505.7652098659,-2417.1738123615
5584820190,7939,1,0,-6719.1847010809,-80314.2456618728,-37358.7594125058,-12639.8399627626,-80544.3611441883,-42451.1717191466,-80474.6280736960,-80464.7235684822,-80505.5340236263,-2416.8087814569
5584820190,7939,1,0,-6718.5519808461,-80314.1726556919,-37380.3205712760,-12639.7547888849,-80542.7793436013,-42339.2045729819,-80474.4212228500,-80463.3364510443,-80504.4024278218,-2417.8065325963
5584852952,7940,1,0,-6718.6128193302,-80312.0919795352,-37377.7166841559,-12638.5380192026,-80541.5017354349,-42440.4398105488,-80472.4257205711,-80461.9128305161,-80503.0639811712,-2415.8110303174
5584852952,7940,1,0,-6720.2432907045,-80313.3452523079,-37357.5791459139,-12640.7647077212,-80544.4706534597,-42620.7894128584,-80475.1756200531,-80464.2611960029,-80504.8039618169,-2418.7069421612
5584852952,7940,1,0,-6719.6714089538,-80314.2091587824,-37342.5033695503,-12640.6551984498,-80544.7505104867,-42638.7854364596,-80475.0052722976,-80464.4072083648,-80505.6191975041,-2417.4171662980
5584852952,7940,1,0,-6719.0995272032,-80312.9193829191,-37354.3060354686,-12639.0125593787,-80543.8135978313,-42474.6310386212,-80475.4919801705,-80463.7014819490,-80506.5074393721,-2417.0764707870
5584852952,7940,1,0,-6719.7079120443,-80314.7323697458,-37379.7608572222,-12639.4262610706,-80544.0326163741,-42348.6345380197,-80475.5406509578,-80464.3098667902,-80505.6557005945,-2416.7357752759
5584852952,7940,1,0,-6719.0873595063,-80313.4182584889,-37383.0217999707,-12638.9882239850,-80542.6820020267,-42422.9548302142,-80474.9809369039,-80464.1881898220,-80505.0351480566,-2416.5045890363
5584852952,7940,1,0,-6719.0751918095,-80313.2357430365,-37362.4218892495,-12639.2315779215,-80544.5193242470,-42607.0764185390,-80474.9931046007,-80463.5919726776,-80504.1712415821,-2417.1616446647
5584852952,7940,1,0,-6719.1968687777,-80313.4669292762,-37347.8084853651,-12640.3875091196,-80544.0204486773,-42657.1343232686,-80474.4455582437,-80463.9570035823,-80504.0860677044,-2417.6240171440
5584888114,7941,1,0,-6718.6979932080,-80313.4669292762,-37357.8224998504,-12639.5844411293,-80543.9961132836,-42506.1332056958,-80475.1269492658,-80464.2855313965,-80504.2685831567,-2417.4049986012
5584888114,7941,1,0,-6719.8782597998,-80313.0410598874,-37382.5472597946,-12640.4483476038,-80543.1808775965,-42360.6440547839,-80474.7254152706,-80463.8961650982,-80504.2199123694,-2417.7578618090
5584888114,7941,1,0,-6719.8174213157,-80313.4304261857,-37390.8699644215,-12640.3875091196,-80542.5968281490,-42412.4906109465,-80474.3725520627,-80464.2003575188,-80504.5119370932,-2417.0643030901
5584888114,7941,1,0,-6719.9025951935,-80313.0288921905,-37372.2047174951,-12640.8133785085,-80544.1056225550,-42596.2471683665,-80474.4333905469,-80463.3729541348,-80504.1712415821,-2417.3198247234
5584888114,7941,1,0,-6718.9656825381,-80312.2501595939,-37353.0649303926,-12639.1707394374,-80542.6941697236,-42666.8684807269,-80473.1679500773,-80462.2656937239,-80503.7818752838,-2417.0521353933
5584888114,7941,1,0,-6719.5375642888,-80311.9216317797,-37359.0271018359,-12639.3167517992,-80543.1687098997,-42536.5281123595,-80472.8515899599,-80462.2048552398,-80502.8084595380,-2417.2711539361
5584888114,7941,1,0,-6719.5132288951,-80313.2722461270,-37385.9542149050,-12640.3510060292,-80542.2804680316,-42378.1655382090,-80474.5915706056,-80462.6307246286,-80503.6967014061,-2418.0498865328
5584888114,7941,1,0,-6718.0166021859,-80311.9459671733,-37395.6883723634,-12639.0490624691,-80541.1732076207,-42401.9168824073,-80473.6059871629,-80462.7158985064,-80503.5871921346,-2416.5410921267
5584934076,7942,1,0,-6720.0364398585,-80312.5056812272,-37380.7586083616,-12639.7791242785,-80543.3512253520,-42584.1159746341,-80474.0926950358,-80462.9349170492,-80504.3780924281,-2416.9304584251
5584934076,7942,1,0,-6720.4258061569,-80313.2114076429,-37361.2051195672,-12639.8277950658,-80543.4607346234,-42683.1488590760,-80474.5307321214,-80463.8596620077,-80504.9986449661,-2416.9304584251
5584934076,7942,1,0,-6718.8926763572,-80312.8463767382,-37364.0645283206,-12639.5114349484,-80544.5801627311,-42567.3245530184,-80475.1756200531,-80463.6284757681,-80505.0473157534,-2418.0985573201
5584934076,7942,1,0,-6718.3938007874,-80312.7490351636,-37385.5891840003,-12639.9494720340,-80542.6333312395,-42394.6040966168,-80473.2531239550,-80462.7402339000,-80503.2343289268,-2417.1129738774
5584934076,7942,1,0,-6719.4402227142,-80313.3452523079,-37400.0079047355,-12639.6817827039,-80543.3633930488,-42393.5333392963,-80474.3238812755,-80463.2269417729,-80504.0617323107,-2417.3563278139
5584934076,7942,1,0,-6719.6592412570,-80313.5034323666,-37386.3557489002,-12639.6939504007,-80542.5359896649,-42564.3678026904,-80474.5672352119,-80464.2490283061,-80504.9621418756,-2417.0643030901
5584934076,7942,1,0,-6719.2212041714,-80313.5521031539,-37363.7481682032,-12639.4505964643,-80545.0668706040,-42682.0415986651,-80475.7596695006,-80464.9547547218,-80505.6922036850,-2416.9304584251
5584934076,7942,1,0,-6720.0607752522,-80314.8175436235,-37362.7382493668,-12640.2901675451,-80546.4296526482,-42592.6576978038,-80475.8083402879,-80465.5996426534,-80506.0572345897,-2417.5875140535
5584949695,7943,1,0,-6719.0751918095,-80314.3551711442,-37384.1777311689,-12639.9129689436,-80544.5314919438,-42410.5316117580,-80476.1612034957,-80465.3684564138,-80505.9842284088,-2417.0156323028
5584949695,7943,1,0,-6719.7930859221,-80314.7688728362,-37399.9348985546,-12640.0711490023,-80544.4828211565,-42377.5693210646,-80476.3072158576,-80464.7965746631,-80505.7287067755,-2416.7236075791
5584949695,7943,1,0,-6719.7687505284,-80314.8053759267,-37388.5215989347,-12640.7282046307,-80544.1177902519,-42537.5745342863,-80476.0395265275,-80465.2224440519,-80506.7751287023,-2417.7456941122
5584949695,7943,1,0,-6719.2820426555,-80314.3916742347,-37364.5755715871,-12639.6209442198,-80545.2250506627,-42676.1889364933,-80474.7375829674,-80464.3098667902,-80505.2541665994,-2417.5388432662
5584949695,7943,1,0,-6719.5618996824,-80314.1239849046,-37360.6575732101,-12640.4726829974,-80546.5269942228,-42608.8163991846,-80476.1612034957,-80465.1494378710,-80505.7773775628,-2418.2080665915
5584949695,7943,1,0,-6719.5497319856,-80313.4304261857,-37379.4931678920,-12639.5601057357,-80544.7626781835,-42425.7655681803,-80475.6866633196,-80464.6018915139,-80505.2054958121,-2417.0156323028
5584949695,7943,1,0,-6718.5398131493,-80313.7224509095,-37398.3044271803,-12639.3045841024,-80543.1200391124,-42368.8815855331,-80476.1490357989,-80464.5653884235,-80506.0450668929,-2417.0034646060
5584949695,7943,1,0,-6719.1116949000,-80313.1870722492,-37391.2958338103,-12639.4749318579,-80543.2538837774,-42511.4139861170,-80475.0052722976,-80464.3828729711,-80505.1811604184,-2417.2103154520
5585002594,7944,1,0,-6718.8805086603,-80313.6859478190,-37368.0677005753,-12639.2924164056,-80545.1033736945,-42667.9392380473,-80475.2851293245,-80465.0885993868,-80505.1446573280,-2416.9912969092
5585002594,7944,1,0,-6720.2676260982,-80314.5620219902,-37360.2195361245,-12640.1319874864,-80545.8091001102,-42631.7403399991,-80476.9399360924,-80466.0376797390,-80505.8260483501,-2418.4392528311
5585002594,7944,1,0,-6719.9025951935,-80315.1582391346,-37379.2984847429,-12640.4483476038,-80544.6410012152,-42449.1275460804,-80476.0273588307,-80465.0642639932,-80505.1689927216,-2417.1738123615
5585002594,7944,1,0,-6719.2212041714,-80312.9437183128,-37399.1318305643,-12639.9616397308,-80542.4021449998,-42361.7391474980,-80473.7641672216,-80463.4702957094,-80503.7697075870,-2416.0908873443
5585002594,7944,1,0,-6719.3793842301,-80313.5642708508,-37394.8122981921,-12639.6817827039,-80543.3147222616,-42488.4048714248,-80475.4068062927,-80464.6870653917,-80504.5849432741,-2417.3806632075
5585002594,7944,1,0,-6719.3307134428,-80313.2965815207,-37371.7545127127,-12639.7669565817,-80544.8721874549,-42657.0734847844,-80475.0782784785,-80465.1494378710,-80505.1324896312,-2417.1494769679
5585002594,7944,1,0,-6719.9269305871,-80314.3551711442,-37361.0834425989,-12639.9738074277,-80546.2836402863,-42644.8692848710,-80475.1756200531,-80465.3562887170,-80505.7408744723,-2417.2711539361
5585002594,7944,1,0,-6719.1481979904,-80313.4669292762,-37378.0452119701,-12639.3045841024,-80544.7748458803,-42468.2673331828,-80475.4554770800,-80464.5775561203,-80505.6800359882,-2417.3198247234
5585007138,7945,1,0,-6719.7687505284,-80314.1361526014,-37399.9348985546,-12639.4262610706,-80544.9086905453,-42364.1605191658,-80476.7695883369,-80465.8916673772,-80506.3614270103,-2418.4514205280
5585007138,7945,1,0,-6719.3915519269,-80314.5985250807,-37399.8497246768,-12640.2779998482,-80544.7018396994,-42465.9554707865,-80477.0129422733,-80466.2201951914,-80506.6047809467,-2417.4415016916
5585007138,7945,1,0,-6720.3649676727,-80316.1681579709,-37377.3394855544,-12640.6430307529,-80546.6000004037,-42643.0928011349,-80477.6943332954,-80467.5099710546,-80507.8458860227,-2417.6118494472
5585007138,7945,1,0,-6719.5740673793,-80315.7301208852,-37364.2227083793,-12640.3145029387,-80547.1962175481,-42660.6872907408,-80477.2927993003,-80466.4148783406,-80506.3979301007,-2418.1958988947
5585007138,7945,1,0,-6719.6957443475,-80316.5696919660,-37378.8361122636,-12641.1540740195,-80548.1696332939,-42495.6568187313,-80476.9521037892,-80466.8285800325,-80506.8237994895,-2418.1958988947
5585007138,7945,1,0,-6719.8904274966,-80315.1460714377,-37402.3319348287,-12639.9129689436,-80545.3467276310,-42366.4115430780,-80476.2098742830,-80465.5996426534,-80506.3249239198,-2417.7578618090
5585007138,7945,1,0,-6718.4059684842,-80314.7445374426,-37405.7632253328,-12639.7182857944,-80544.3733118851,-42446.9251929554,-80475.6623279260,-80465.4901333820,-80506.1180730738,-2416.4680859458
5585007138,7945,1,0,-6718.9900179317,-80312.7977059509,-37386.0758918733,-12638.9517208945,-80543.7162562567,-42629.8908500820,-80475.1634523563,-80464.5410530298,-80505.4001789613,-2416.6506013982
5585059622,7946,1,0,-6719.5984027729,-80314.2821649633,-37369.3331410449,-12640.6065276625,-80545.4927399929,-42672.5021243559,-80476.4045574322,-80465.3319533233,-80505.7165390787,-2417.7578618090
5585059622,7946,1,0,-6719.4037196237,-80315.0852329536,-37380.1623912173,-12640.5700245720,-80545.2737214500,-42520.5032556437,-80476.6722467623,-80464.8939162377,-80506.1910792547,-2418.0012157455
5585059622,7946,1,0,-6719.1968687777,-80314.2456618728,-37405.4712006090,-12640.3753414228,-80543.8379332249,-42376.0118558713,-80475.6014894419,-80464.2125252156,-80506.0450668929,-2417.2954893298
5585059622,7946,1,0,-6718.5398131493,-80314.4768481125,-37410.7154779397,-12639.3654225865,-80543.1930452933,-42425.5465496375,-80475.2607939308,-80464.8330777536,-80504.9013033915,-2416.2855704935
5585059622,7946,1,0,-6719.5618996824,-80314.1483202982,-37392.2449141625,-12639.7669565817,-80545.5414107801,-42609.5099579036,-80476.5749051877,-80465.8551642867,-80506.5196070690,-2416.4680859458
5585059622,7946,1,0,-6720.2676260982,-80315.9248040344,-37375.1493001262,-12640.2536644546,-80546.6000004037,-42681.7495739414,-80476.7574206400,-80466.7434061548,-80507.1644950006,-2417.7700295059
5585059622,7946,1,0,-6719.0143533254,-80316.0951517899,-37382.2674027677,-12639.3654225865,-80546.8920251275,-42545.7633942482,-80477.0494453638,-80466.1958597977,-80506.3614270103,-2416.6262660045
5585059622,7946,1,0,-6718.0287698827,-80314.9513882886,-37405.5807098804,-12639.4262610706,-80545.2250506627,-42383.7626787475,-80475.9786880434,-80465.4049595042,-80506.2762531325,-2415.8110303174
5585072010,7947,1,0,-6719.7322474379,-80315.3407545869,-37416.5073016274,-12639.3532548897,-80544.6653366089,-42413.7803868097,-80476.1368681021,-80465.1007670837,-80506.2640854357,-2417.5145078726
5585072010,7947,1,0,-6719.5740673793,-80315.3042514964,-37401.6383761098,-12639.9616397308,-80545.5414107801,-42593.4607657941,-80477.1102838479,-80465.2832825360,-80507.3226750593,-2417.9403772614
5585072010,7947,1,0,-6719.4645581078,-80314.9757236822,-37379.3593232270,-12640.0468136086,-80545.9429447753,-42684.1466102155,-80476.4532282195,-80465.5388041693,-80505.7530421691,-2417.9647126550
5585072010,7947,1,0,-6718.7709993889,-80313.6981155158,-37381.5495086551,-12639.4992672516,-80545.8577708975,-42568.3466395515,-80475.3581355054,-80464.1273513378,-80505.2785019930,-2416.6019306109
5585072010,7947,1,0,-6719.3550488364,-80313.4425938825,-37406.1525916311,-12639.9981428213,-80544.4098149756,-42398.4977596001,-80475.6136571387,-80464.9425870250,-80505.0108126629,-2416.8696199410
5585072010,7947,1,0,-6719.7687505284,-80313.5277677603,-37419.0990210507,-12639.7304534912,-80543.3512253520,-42395.4801707880,-80475.6258248355,-80465.1129347805,-80504.8891356947,-2417.0399676965
5585072010,7947,1,0,-6719.5618996824,-80312.5908551049,-37405.3130205503,-12640.2293290610,-80543.8014301345,-42569.1740429355,-80474.7254152706,-80463.8109912204,-80504.8404649074,-2418.0377188360
5585072010,7947,1,0,-6718.9900179317,-80311.9946379606,-37382.5229244010,-12639.2680810119,-80543.7284239535,-42688.0281055020,-80473.3869686201,-80463.7501527363,-80503.7088691029,-2417.0277999997
5585115525,7948,1,0,-6720.3649676727,-80313.2844138238,-37383.2286508167,-12640.4483476038,-80545.3710630246,-42594.7627093542,-80474.8227568452,-80464.6383946044,-80505.0716511470,-2418.4027497407
5585115525,7948,1,0,-6720.3527999759,-80314.5133512029,-37405.4225298217,-12641.2514155941,-80544.8965228485,-42414.8754795238,-80474.9566015103,-80464.5410530298,-80505.0229803597,-2418.3419112565
5585115525,7948,1,0,-6721.2045387535,-80314.4038419315,-37421.8610882295,-12641.4217633496,-80544.1299579487,-42387.3034785230,-80476.0881973148,-80465.0764316900,-80504.9743095725,-2417.9525449582
5585115525,7948,1,0,-6720.0972783426,-80312.9558860096,-37410.6181363651,-12640.0589813054,-80542.8158466918,-42544.4857860818,-80475.7231664101,-80464.6992330885,-80504.8891356947,-2417.8673710805
5585115525,7948,1,0,-6719.0873595063,-80312.3596688653,-37386.2097365383,-12639.7304534912,-80544.1542933423,-42677.8194078676,-80474.2265397009,-80464.3585375775,-80504.1834092790,-2416.5775952172
5585115525,7948,1,0,-6718.9535148413,-80312.7490351636,-37382.8757876088,-12639.9008012467,-80544.2638026137,-42608.6460514291,-80474.3117135786,-80463.4824634062,-80504.0617323107,-2417.0156323028
5585115525,7948,1,0,-6719.0995272032,-80313.7346186063,-37404.3761078950,-12640.0833166991,-80543.5337408044,-42425.8872451485,-80475.4189739895,-80463.9813389760,-80504.4997693964,-2417.3684955107
5585115525,7948,1,0,-6718.9656825381,-80313.5886062444,-37422.1774483469,-12640.4726829974,-80542.8888528727,-42367.1659402810,-80475.5893217451,-80464.8939162377,-80504.4510986091,-2417.6605202345
5585135515,7949,1,0,-6719.5132288951,-80312.2136565034,-37412.5649678568,-12639.8521304594,-80542.7915112982,-42512.9227805230,-80474.8592599357,-80464.4193760616,-80504.7309556360,-2417.4536693885
5585135515,7949,1,0,-6719.2090364746,-80312.5178489240,-37390.3710888518,-12639.5966088262,-80544.8356843644,-42668.9734922773,-80474.8349245420,-80464.8087423599,-80504.9621418756,-2417.7943648995
5585135515,7949,1,0,-6720.0607752522,-80312.7246997700,-37382.9487937898,-12640.3145029387,-80544.6531689121,-42625.7781685558,-80474.7862537547,-80464.6505623012,-80505.0716511470,-2417.8795387773
5585135515,7949,1,0,-6719.0143533254,-80311.6417747527,-37400.4824449116,-12639.5601057357,-80543.6797531662,-42441.7174187152,-80474.0561919454,-80464.2125252156,-80504.0373969171,-2416.4924213395
5585135515,7949,1,0,-6719.0630241127,-80312.4570104399,-37419.5857289236,-12640.2779998482,-80542.3169711221,-42361.3132781092,-80473.5816517693,-80463.2512771666,-80503.9643907361,-2416.8817876378
5585135515,7949,1,0,-6719.0143533254,-80311.4470916036,-37414.4631285612,-12640.2049936673,-80542.8280143886,-42483.8176497226,-80474.0075211581,-80463.8353266141,-80504.2320800663,-2416.6262660045
5585135515,7949,1,0,-6719.2942103523,-80310.2668250117,-37389.6045239519,-12639.5357703420,-80543.3512253520,-42646.6336009104,-80474.0196888549,-80463.7014819490,-80503.9522230393,-2417.1251415743
5585135515,7949,1,0,-6719.6470735602,-80311.6417747527,-37378.6049260240,-12639.8521304594,-80544.1421256455,-42631.1806259452,-80474.4333905469,-80463.8718297046,-80503.7697075870,-2417.7943648995
5585174965,7950,1,0,-6719.6105704697,-80311.2767438480,-37392.8046282163,-12639.0855655596,-80542.6820020267,-42451.6705947164,-80473.2166208646,-80462.7767369905,-80503.5871921346,-2415.9205395888
5585174965,7950,1,0,-6719.6227381665,-80311.8729609924,-37414.0980976565,-12640.3388383324,-80542.6698343299,-42342.8062112415,-80474.0318565517,-80463.0322586238,-80503.8183783743,-2417.7091910218
5585174965,7950,1,0,-6719.6105704697,-80311.6417747527,-37411.1413473285,-12639.7304534912,-80542.9010205696,-42444.9175229796,-80473.4843101947,-80462.9105816555,-80503.6358629219,-2416.8209491537
5585174965,7950,1,0,-6719.4158873206,-80311.2280730607,-37386.1123949637,-12639.9981428213,-80543.0592006283,-42616.9079175719,-80474.4698936373,-80463.3972895285,-80504.5241047900,-2417.4293339948
5585174965,7950,1,0,-6719.0143533254,-80312.4691781367,-37371.1826309620,-12640.1928259705,-80544.9695290295,-42625.3766345607,-80474.7132475738,-80463.6528111617,-80504.2807508535,-2417.6970233249
5585174965,7950,1,0,-6718.8440055699,-80312.7612028604,-37383.3503277849,-12639.3289194961,-80544.0569517678,-42458.0708032452,-80474.5307321214,-80464.2246929124,-80504.8404649074,-2417.0156323028
5585174965,7950,1,0,-6718.6614901175,-80312.5908551049,-37405.6537160614,-12639.2194102246,-80543.6919208631,-42335.4447546636,-80474.8227568452,-80463.8231589173,-80504.7066202423,-2416.7722783664
5585174965,7950,1,0,-6719.3185457460,-80312.2258242002,-37407.9290753673,-12639.4505964643,-80543.0105298410,-42417.7105528835,-80474.7010798770,-80463.5798049808,-80504.5484401837,-2416.7114398823
5585187318,7951,1,0,-6718.7831670858,-80312.2014888066,-37385.4553393353,-12639.4140933738,-80543.2660514742,-42600.2746760149,-80474.6524090897,-80464.3463698806,-80504.2320800663,-2416.3585766744
5585187318,7951,1,0,-6719.0265210222,-80313.3452523079,-37369.0046132307,-12639.6574473103,-80545.6874231420,-42642.9954595603,-80475.7231664101,-80466.1228536168,-80506.8846379736,-2417.8673710805
5585187318,7951,1,0,-6719.8782597998,-80313.2114076429,-37379.2254785619,-12640.3631737260,-80545.4927399929,-42487.8451573710,-80476.5140667036,-80465.6848165312,-80505.5461913231,-2417.9647126550
5585187318,7951,1,0,-6719.1481979904,-80313.0410598874,-37401.4680283543,-12639.4262610706,-80542.9740267505,-42339.2532437692,-80475.5163155641,-80465.3806241106,-80505.6313652009,-2416.6627690950
5585187318,7951,1,0,-6720.3284645823,-80313.2600784302,-37407.4058644039,-12640.5091860879,-80544.8721874549,-42398.8141197175,-80475.6379925323,-80465.3197856265,-80506.0694022865,-2418.2932404693
5585187318,7951,1,0,-6719.1968687777,-80312.9437183128,-37387.5968539761,-12640.2293290610,-80544.1177902519,-42583.1303911914,-80475.5893217451,-80464.7479038758,-80505.4001789613,-2417.1008061806
5585187318,7951,1,0,-6719.0021856286,-80312.7612028604,-37369.0897871084,-12639.1342363469,-80545.3588953278,-42648.1667307100,-80476.1368681021,-80464.8087423599,-80505.1081542375,-2417.1981477552
5585187318,7951,1,0,-6718.9900179317,-80313.3452523079,-37376.4390759895,-12640.2901675451,-80545.5657461738,-42510.8664397600,-80476.0760296180,-80464.3220344870,-80505.6800359882,-2417.0034646060
5585232648,7952,1,0,-6719.1968687777,-80313.3209169143,-37399.5698676499,-12639.9738074277,-80544.1056225550,-42354.0248277122,-80475.7353341069,-80464.6262269076,-80506.2762531325,-2417.5631786599
5585232648,7952,1,0,-6719.5010611983,-80314.2334941760,-37409.3770312892,-12640.1806582737,-80544.6775043057,-42382.8379337890,-80476.7452529432,-80466.0133443454,-80506.7021225213,-2417.9525449582
5585232648,7952,1,0,-6719.0873595063,-80314.9148851981,-37392.0989018006,-12640.0346459118,-80545.8212678071,-42562.4209711988,-80477.7430040827,-80465.0764316900,-80506.0085638024,-2417.1129738774
5585232648,7952,1,0,-6719.1847010809,-80313.8441278777,-37370.2700537003,-12640.1076520927,-80545.8942739880,-42653.2284925884,-80477.2197931193,-80465.4779656852,-80506.6169486436,-2417.7578618090
5585232648,7952,1,0,-6719.5984027729,-80314.4403450220,-37373.4214871774,-12639.8034596721,-80545.5170753865,-42532.5127724080,-80475.8083402879,-80465.4049595042,-80505.3393404771,-2415.9692103761
5585232648,7952,1,0,-6717.9070929145,-80313.7467863031,-37394.9461428572,-12639.1829071342,-80544.6531689121,-42357.9428260892,-80475.3824708991,-80463.7014819490,-80505.8382160469,-2415.9935457697
5585232648,7952,1,0,-6717.8219190367,-80313.2235753397,-37407.1138396801,-12640.0589813054,-80543.3025545647,-42360.8144025394,-80476.2585450703,-80464.2733636997,-80505.9233899246,-2416.3585766744
5585232648,7952,1,0,-6718.8805086603,-80314.5255188998,-37392.0258956197,-12639.5357703420,-80544.6410012152,-42534.0824052981,-80475.8813464688,-80465.0642639932,-80505.8260483501,-2416.9669615156
5585254203,7953,1,0,-6718.8805086603,-80313.8319601809,-37369.0776194116,-12639.6452796135,-80545.8212678071,-42646.4875885485,-80475.8570110752,-80465.0885993868,-80506.6047809467,-2417.0277999997
5585254203,7953,1,0,-6719.5862350761,-80314.7202020489,-37369.0776194116,-12640.2049936673,-80546.2958079832,-42551.2023547280,-80477.3658054812,-80465.5996426534,-80506.6656194308,-2417.7456941122
5585254203,7953,1,0,-6720.6083216092,-80315.0974006504,-37391.0646475707,-12641.1662417163,-80545.5170753865,-42372.2520375530,-80477.0494453638,-80465.1129347805,-80505.8625514405,-2418.0133834423
5585254203,7953,1,0,-6720.6204893060,-80314.8540467140,-37406.1769270248,-12640.9472231735,-80544.9086905453,-42343.9134716524,-80476.3802220385,-80465.8916673772,-80506.7021225213,-2417.5266755694
5585254203,7953,1,0,-6719.5132288951,-80313.9293017554,-37391.9893925292,-12640.4118445133,-80543.7892624376,-42503.0182753092,-80474.7254152706,-80465.0034255091,-80505.0838188439,-2417.4415016916
5585254203,7953,1,0,-6719.7200797411,-80313.0288921905,-37368.9194393529,-12640.3996768165,-80545.0668706040,-42638.6880948850,-80475.5284832609,-80464.6992330885,-80506.0207314992,-2417.4658370853
5585254203,7953,1,0,-6718.7223286016,-80312.8828798287,-37364.2227083793,-12639.2559133151,-80545.3953984183,-42564.0879456635,-80474.0075211581,-80463.2512771666,-80503.9035522520,-2416.9669615156
5585254203,7953,1,0,-6719.0265210222,-80312.7733705573,-37384.4819235894,-12639.7061180976,-80544.3976472788,-42380.8789346005,-80475.1147815689,-80464.1273513378,-80504.0130615234,-2416.1760612221
5585288227,7954,1,0,-6718.8318378731,-80311.9337994765,-37401.8208915621,-12639.9494720340,-80543.3390576552,-42331.6727686485,-80474.7740860579,-80463.4459603158,-80504.2442477631,-2416.8696199410
5585288227,7954,1,0,-6718.7466639953,-80312.3840042589,-37393.6685346908,-12639.8034596721,-80542.6333312395,-42478.8167263283,-80475.2121231435,-80463.4581280126,-80504.3659247313,-2416.7236075791
5585288227,7954,1,0,-6720.0121044649,-80314.5376865966,-37371.1217924779,-12640.9472231735,-80544.7748458803,-42628.7470865806,-80476.5627374909,-80465.5631395629,-80505.9598930151,-2417.9403772614
5585288227,7954,1,0,-6719.3793842301,-80313.2965815207,-37362.4462246431,-12640.2171613641,-80545.6144169611,-42582.2056462329,-80475.5893217451,-80465.2224440519,-80505.2785019930,-2417.6970233249
5585288227,7954,1,0,-6719.1725333841,-80312.7246997700,-37382.4255828264,-12639.8521304594,-80544.2638026137,-42399.4833430428,-80475.2486262340,-80464.5167176362,-80504.9621418756,-2417.1616446647
5585288227,7954,1,0,-6718.8075024794,-80313.9171340586,-37401.6870468971,-12639.1707394374,-80543.2903868679,-42320.5758291460,-80474.9444338134,-80464.2368606092,-80505.2541665994,-2416.8696199410
5585288227,7954,1,0,-6718.7344962985,-80312.2988303812,-37396.4671049600,-12639.4505964643,-80543.5580761980,-42451.0135390879,-80475.6501602292,-80464.5288853330,-80505.8503837437,-2415.9813780729
5585288227,7954,1,0,-6717.4812235257,-80313.0775629778,-37372.0952082237,-12639.2559133151,-80544.5314919438,-42617.9665071955,-80476.1368681021,-80464.9304193282,-80504.7187879392,-2415.8962041951
5585339217,7955,1,0,-6719.8417567094,-80314.3186680538,-37363.1519510588,-12640.7403723275,-80546.7460127656,-42599.0822417263,-80476.5140667036,-80466.2810336755,-80506.8846379736,-2417.6361848408
5585339217,7955,1,0,-6719.5253965920,-80314.6715312616,-37379.4444971047,-12640.2536644546,-80546.4539880419,-42420.2292661259,-80477.2684639066,-80466.4270460374,-80506.8481348832,-2417.6483525376
5585339217,7955,1,0,-6720.1824522204,-80314.9513882886,-37401.3828544765,-12641.1419063227,-80544.9330259390,-42319.4685687351,-80477.7065009922,-80466.8894185166,-80507.1401596069,-2417.6240171440
5585339217,7955,1,0,-6720.1459491299,-80313.8684632713,-37399.1318305643,-12641.1297386259,-80543.2660514742,-42425.5830527280,-80475.3459678086,-80464.8330777536,-80506.3735947071,-2417.5145078726
5585339217,7955,1,0,-6719.9877690712,-80313.1384014620,-37375.8915296324,-12639.8034596721,-80544.8965228485,-42597.4761057457,-80476.3802220385,-80465.4779656852,-80505.5340236263,-2417.9282095646
5585339217,7955,1,0,-6718.7466639953,-80312.4570104399,-37361.5823181687,-12638.8908824104,-80544.0812871614,-42605.7258041916,-80474.7254152706,-80464.5897238171,-80505.0959865407,-2417.5266755694
5585339217,7955,1,0,-6719.2090364746,-80312.8828798287,-37376.8649453783,-12639.8277950658,-80544.8478520612,-42436.2297874480,-80475.1269492658,-80463.8474943109,-80505.0351480566,-2417.4049986012
5585339217,7955,1,0,-6719.2942103523,-80312.7977059509,-37399.1196628674,-12640.0954843959,-80543.0957037187,-42308.7366601373,-80475.6866633196,-80464.4315437584,-80505.4366820517,-2416.7357752759
5585351624,7956,1,0,-6719.4158873206,-80313.4425938825,-37401.4680283543,-12640.3023352419,-80544.0447840709,-42393.8496994137,-80476.1733711925,-80465.2711148392,-80505.3515081740,-2417.9160418677
5585351624,7956,1,0,-6718.8318378731,-80312.3961719558,-37379.5661740730,-12639.3289194961,-80544.8235166676,-42575.7445992199,-80474.7862537547,-80464.4923822425,-80505.0959865407,-2417.0399676965
5585351624,7956,1,0,-6718.5884839366,-80313.2114076429,-37364.0036898364,-12640.2414967578,-80545.4684045992,-42610.9579138255,-80475.1026138721,-80465.3441210201,-80505.4610174454,-2418.0012157455
5585351624,7956,1,0,-6718.7953347826,-80313.0288921905,-37375.3318155786,-12640.2171613641,-80545.7604293230,-42455.8927855139,-80475.3824708991,-80464.2611960029,-80505.9233899246,-2417.6118494472
5585351624,7956,1,0,-6718.5519808461,-80313.4912646698,-37400.8961466036,-12639.6696150071,-80543.8987717090,-42320.5636614492,-80475.7109987133,-80463.5311341935,-80505.0108126629,-2416.6384337013
5585351624,7956,1,0,-6719.5497319856,-80314.0753141173,-37407.4667028880,-12640.2171613641,-80542.7793436013,-42384.3345604982,-80475.5406509578,-80463.6528111617,-80505.4123466581,-2416.7357752759
5585351624,7956,1,0,-6719.2942103523,-80313.1384014620,-37389.4341761964,-12640.5821922688,-80543.9231071027,-42567.6530808326,-80475.8813464688,-80464.7600715726,-80506.3249239198,-2418.0863896233
5585351624,7956,1,0,-6719.4767258047,-80312.9072152223,-37370.0145320670,-12639.5357703420,-80545.0668706040,-42629.4528129964,-80474.4212228500,-80462.9105816555,-80504.4024278218,-2417.0643030901
5585454292,7957,1,0,-6719.3307134428,-80312.6151904986,-37379.3593232270,-12640.1684905768,-80544.4949888534,-42487.7964865837,-80474.0561919454,-80464.0421774601,-80505.4366820517,-2417.4171662980
5585454292,7957,1,0,-6719.3307134428,-80312.7003643763,-37403.0254935476,-12640.0711490023,-80543.6919208631,-42327.0368761590,-80475.4311416863,-80464.2855313965,-80504.8161295138,-2417.6970233249
5585454292,7957,1,0,-6719.8904274966,-80313.7224509095,-37413.0273403361,-12640.3753414228,-80543.3390576552,-42360.7657317522,-80475.3459678086,-80464.7235684822,-80505.4245143549,-2417.5753463567
5585454292,7957,1,0,-6720.1459491299,-80313.8562955745,-37396.9051420457,-12640.5335214815,-80544.4949888534,-42543.9017366343,-80475.4798124736,-80464.9790901154,-80506.1180730738,-2417.7456941122
5585454292,7957,1,0,-6719.8417567094,-80313.7711216967,-37378.5075844494,-12640.8255462053,-80546.0159509562,-42630.1950425026,-80476.4167251290,-80465.1981086583,-80506.3005885262,-2417.7578618090
5585454292,7957,1,0,-6719.7809182252,-80313.0410598874,-37382.1700611931,-12639.8034596721,-80546.1984664086,-42506.3035534514,-80475.5284832609,-80464.8574131472,-80505.3758435676,-2417.6483525376
5585454292,7957,1,0,-6719.4158873206,-80313.5642708508,-37406.5419579294,-12639.0977332564,-80543.9717778900,-42335.9923010206,-80475.6379925323,-80465.1859409614,-80505.5583590200,-2417.1616446647
5585454292,7957,1,0,-6718.6979932080,-80313.2965815207,-37417.5780589479,-12638.3433360534,-80542.7185051172,-42338.9125482582,-80474.6402413929,-80463.5554695872,-80504.3537570345,-2415.9813780729
5585463025,7958,1,0,-6719.4767258047,-80313.3695877016,-37404.0232446871,-12640.1563228800,-80544.1907964328,-42513.4459914864,-80476.5870728845,-80465.3562887170,-80506.2397500420,-2417.8065325963
5585463025,7958,1,0,-6719.8539244062,-80313.2844138238,-37381.3304901123,-12640.5456891783,-80545.7847647166,-42628.5037326442,-80475.5771540482,-80465.2954502328,-80505.7773775628,-2418.0012157455
5585463025,7958,1,0,-6720.0972783426,-80313.7102832126,-37382.4134151296,-12639.9373043372,-80546.1619633181,-42528.5339355469,-80476.5505697941,-80465.1251024773,-80506.2519177389,-2418.3175758629
5585463025,7958,1,0,-6719.4158873206,-80312.3840042589,-37403.9259031125,-12639.7304534912,-80544.5923304280,-42346.4200171979,-80475.0296076912,-80464.7114007853,-80504.7309556360,-2416.4315828553
5585463025,7958,1,0,-6718.9413471445,-80313.2479107334,-37419.2937041999,-12639.6939504007,-80543.0470329314,-42324.1409643151,-80475.7475018038,-80464.5288853330,-80505.6070298072,-2417.1981477552
5585463025,7958,1,0,-6719.7444151348,-80313.9293017554,-37407.9899138514,-12639.8277950658,-80543.3755607457,-42488.5995545740,-80475.4068062927,-80464.6992330885,-80505.4975205358,-2417.0764707870
5585463025,7958,1,0,-6718.1017760637,-80311.8486255987,-37382.6446013692,-12639.5966088262,-80544.7626781835,-42618.1368549510,-80475.4068062927,-80464.6627299980,-80505.1933281153,-2416.4315828553
5585463025,7958,1,0,-6719.4523904110,-80313.2235753397,-37379.9190372808,-12639.9008012467,-80545.6022492643,-42542.9526562821,-80476.5749051877,-80465.5144687757,-80505.7043713818,-2417.2224831488
5585468424,7959,1,0,-6720.3893030664,-80314.3673388411,-37400.7136311513,-12640.5213537847,-80545.7360939293,-42362.4448739137,-80477.1346192416,-80465.6118103502,-80506.8116317927,-2418.0742219264
5585468424,7959,1,0,-6720.1824522204,-80313.7589539999,-37418.5271393000,-12640.5091860879,-80544.3611441883,-42311.0363548368,-80476.2220419798,-80465.2224440519,-80506.2640854357,-2418.1107250169
5585468424,7959,1,0,-6720.3527999759,-80313.4790969730,-37409.5717144384,-12640.6186953593,-80544.3003057042,-42456.5863442328,-80476.3315512512,-80465.2954502328,-80505.6070298072,-2417.7700295059
5585468424,7959,1,0,-6718.8196701762,-80312.6395258922,-37384.3237435308,-12638.8300439263,-80544.3003057042,-42605.1295870473,-80474.7132475738,-80463.5798049808,-80505.2176635089,-2416.7357752759
5585468424,7959,1,0,-6719.8417567094,-80312.9437183128,-37378.7022675985,-12640.2049936673,-80546.7216773720,-42554.2442789338,-80476.4410605227,-80465.2832825360,-80505.8382160469,-2417.9403772614
5585468424,7959,1,0,-6719.0630241127,-80313.1140660683,-37396.5522788378,-12639.6696150071,-80544.8478520612,-42365.9248352051,-80475.9421849529,-80465.4171272011,-80505.8868868342,-2417.4780047821
5585468424,7959,1,0,-6718.6979932080,-80312.7246997700,-37415.7650721212,-12639.7304534912,-80543.1565422029,-42288.7938050444,-80475.3338001118,-80465.0034255091,-80505.3636758708,-2416.8574522441
5585468424,7959,1,0,-6719.2212041714,-80312.4205073494,-37409.1580127464,-12640.5456891783,-80543.7527593472,-42418.6231301452,-80475.5284832609,-80464.4437114552,-80505.4123466581,-2417.1859800584
5585481702,7960,1,0,-6719.5253965920,-80311.8486255987,-37383.8978741419,-12639.1829071342,-80544.3489764915,-42577.4967475624,-80475.1634523563,-80464.2611960029,-80504.9864772693,-2416.8452845473
5585481702,7960,1,0,-6720.3406322791,-80312.6638612859,-37373.9812012312,-12640.6795338434,-80546.0402863499,-42557.2862031395,-80476.2707127671,-80465.7456550153,-80506.2275823452,-2418.0620542296
5585481702,7960,1,0,-6719.9512659808,-80313.4182584889,-37390.3589211549,-12640.7282046307,-80545.5170753865,-42377.3503025218,-80476.0881973148,-80465.1494378710,-80506.1789115579,-2418.1837311978
5585481702,7960,1,0,-6718.6493224207,-80311.8486255987,-37409.2188512305,-12639.0612301659,-80542.9010205696,-42272.5864328763,-80475.0661107817,-80463.6893142522,-80504.7796264233,-2416.1517258284
5585481702,7960,1,0,-6719.6349058634,-80312.9072152223,-37406.7974795627,-12639.9738074277,-80543.9596101932,-42381.7915118622,-80475.8326756815,-80465.2467794455,-80505.4853528390,-2417.1251415743
5585481702,7960,1,0,-6717.5420620098,-80311.8364579019,-37382.4985890073,-12638.8300439263,-80544.1299579487,-42553.3317016720,-80474.4455582437,-80463.0809294111,-80504.5362724868,-2415.8962041951
5585481702,7960,1,0,-6718.8075024794,-80312.6638612859,-37370.2578860034,-12640.2901675451,-80545.4927399929,-42557.0428492030,-80475.1269492658,-80465.7334873185,-80505.7652098659,-2418.3297435597
5585481702,7960,1,0,-6719.5740673793,-80313.0045567969,-37383.3624954817,-12640.2049936673,-80544.8356843644,-42383.6044986888,-80475.7961725910,-80464.9547547218,-80505.8747191374,-2418.0985573201
5585547796,7961,1,0,-6719.8660921030,-80313.4669292762,-37406.3594424771,-12640.5335214815,-80544.8721874549,-42265.3101501762,-80476.2828804640,-80466.0985182232,-80507.2983396656,-2418.4270851343
5585547796,7961,1,0,-6719.1968687777,-80312.4205073494,-37406.6879702913,-12639.9129689436,-80544.6531689121,-42352.6498779712,-80475.3824708991,-80465.3562887170,-80505.2054958121,-2417.4293339948
5585547796,7961,1,0,-6719.4280550174,-80313.0167244937,-37384.3602466212,-12640.1684905768,-80544.7505104867,-42531.6732013272,-80475.6744956228,-80465.0034255091,-80505.7165390787,-2417.5023401758
5585547796,7961,1,0,-6718.6371547239,-80311.9946379606,-37369.1749609862,-12638.9882239850,-80545.9551124721,-42565.3533861331,-80475.4068062927,-80464.5410530298,-80505.1568250248,-2415.9692103761
5585547796,7961,1,0,-6719.3307134428,-80312.5908551049,-37382.1700611931,-12639.3167517992,-80545.7239262325,-42407.9763954252,-80475.5163155641,-80464.5532207266,-80505.3515081740,-2416.5897629140
5585547796,7961,1,0,-6719.5132288951,-80312.4935135303,-37406.9191565310,-12639.8764658531,-80544.5679950343,-42267.0866339123,-80475.8935141656,-80465.0764316900,-80505.5583590200,-2416.6262660045
5585547796,7961,1,0,-6718.0287698827,-80311.8607932955,-37413.0151726393,-12639.4384287675,-80541.4287292540,-42330.2004773329,-80474.7619183611,-80464.2855313965,-80505.1811604184,-2415.8840364983
5585547796,7961,1,0,-6718.6128193302,-80311.9216317797,-37393.6563669939,-12639.4749318579,-80543.3998961393,-42516.8164435064,-80474.8349245420,-80464.3342021838,-80504.1590738853,-2416.1760612221
5585552894,7962,1,0,-6719.1725333841,-80312.5421843176,-37377.2421439798,-12640.4361799069,-80545.5779138706,-42576.4746610293,-80474.7497506643,-80464.4923822425,-80505.1081542375,-2417.2346508457
5585552894,7962,1,0,-6720.0121044649,-80313.0775629778,-37386.1610657510,-12640.0589813054,-80544.9086905453,-42433.6745711152,-80476.2220419798,-80464.9790901154,-80505.6313652009,-2417.6848556281
5585552894,7962,1,0,-6719.7200797411,-80312.2258242002,-37410.3626147318,-12640.6795338434,-80543.7040885599,-42279.4490138844,-80474.7619183611,-80464.0421774601,-80505.4610174454,-2417.6605202345
5585552894,7962,1,0,-6719.4280550174,-80312.3231657748,-37419.9507598283,-12640.4118445133,-80542.5603250585,-42315.6722473263,-80475.4554770800,-80464.1030159442,-80504.6944525455,-2417.1859800584
5585552894,7962,1,0,-6719.0265210222,-80312.7246997700,-37402.8429780953,-12639.7547888849,-80544.2516349169,-42496.6910729612,-80475.0417753880,-80465.4779656852,-80505.3393404771,-2417.0521353933
5585552894,7962,1,0,-6719.4280550174,-80311.9824702638,-37383.9343772324,-12639.9373043372,-80545.2980568437,-42584.3228254801,-80476.0395265275,-80465.0155932059,-80506.2519177389,-2417.5388432662
5585552894,7962,1,0,-6720.0364398585,-80312.7490351636,-37390.0303933407,-12639.3410871929,-80545.4440692056,-42461.5872676271,-80476.1125327084,-80465.0399285996,-80505.6435328977,-2417.3928309044
5585552894,7962,1,0,-6719.3793842301,-80313.0532275842,-37414.3657869866,-12639.9129689436,-80543.7527593472,-42290.4729472060,-80475.8935141656,-80465.1494378710,-80505.3515081740,-2417.8795387773
5585564087,7963,1,0,-6719.7687505284,-80312.9680537064,-37425.4870618828,-12640.3510060292,-80543.5337408044,-42301.4117066498,-80475.5528186546,-80465.5753072598,-80505.2419989026,-2417.8917064741
5585564087,7963,1,0,-6719.6105704697,-80312.7246997700,-37410.7641487270,-12640.2779998482,-80544.0204486773,-42477.3444350128,-80476.1855388894,-80464.4680468489,-80505.0229803597,-2417.5266755694
5585564087,7963,1,0,-6719.7200797411,-80312.2744949875,-37389.2516607440,-12640.0589813054,-80545.2250506627,-42581.8406153282,-80475.7961725910,-80465.4292948979,-80505.1324896312,-2417.4780047821
5585564087,7963,1,0,-6718.0652729732,-80312.0311410511,-37389.2759961377,-12639.5479380389,-80545.1642121786,-42475.7382990321,-80475.5406509578,-80464.0665128537,-80505.0229803597,-2417.5631786599
5585564087,7963,1,0,-6718.9048440540,-80311.4714269972,-37410.9953349666,-12639.9373043372,-80542.6576666331,-42297.7613976030,-80474.8470922389,-80464.1273513378,-80505.7408744723,-2416.1882289189
5585564087,7963,1,0,-6718.7831670858,-80311.7026132368,-37425.4627264891,-12639.7669565817,-80542.4994865744,-42275.9447171994,-80474.7984214516,-80463.9083327950,-80504.9621418756,-2416.8452845473
5585564087,7963,1,0,-6719.8417567094,-80312.6273581954,-37411.9444153188,-12640.4848506942,-80543.6067469853,-42437.8602588223,-80476.5505697941,-80464.6018915139,-80505.8625514405,-2416.7236075791
5585564087,7963,1,0,-6719.9999367681,-80313.5156000635,-37389.3368346218,-12641.1905771100,-80545.7847647166,-42568.4318134293,-80476.9764391829,-80465.6239780471,-80506.5926132499,-2418.3175758629
5585595493,7964,1,0,-6720.0851106458,-80312.5421843176,-37385.3336623671,-12640.6795338434,-80545.6387523547,-42489.4512933516,-80476.3072158576,-80465.2832825360,-80506.0207314992,-2417.4536693885
5585595493,7964,1,0,-6718.1504468510,-80311.0942283957,-37404.8263126774,-12639.3654225865,-80543.6189146821,-42303.9547552858,-80474.4698936373,-80462.8862462619,-80504.2685831567,-2416.1760612221
5585595493,7964,1,0,-6719.1603656873,-80312.1771534129,-37423.5037273006,-12639.8156273690,-80541.8667663396,-42258.1677121411,-80474.8227568452,-80464.4193760616,-80505.2054958121,-2417.7943648995
5585595493,7964,1,0,-6718.0774406700,-80310.3398311927,-37413.1855203948,-12638.4650130216,-80542.7915112982,-42407.4775198554,-80474.3117135786,-80463.7136496459,-80504.1955769758,-2416.3464089776
5585595493,7964,1,0,-6719.4767258047,-80310.4128373736,-37389.9817225534,-12639.7669565817,-80543.5824115916,-42552.4799628944,-80474.6159059992,-80464.2125252156,-80504.2442477631,-2417.7943648995
5585595493,7964,1,0,-6719.3428811396,-80311.0820606989,-37383.7518617801,-12640.3631737260,-80544.1421256455,-42499.0881092354,-80473.7276641311,-80463.6649788586,-80504.0739000076,-2417.8187002932
5585595493,7964,1,0,-6718.4424715747,-80310.1329803467,-37402.6239595525,-12639.4870995548,-80543.0226975378,-42317.6799173021,-80473.9831857644,-80462.9105816555,-80503.6115275283,-2416.8574522441
5585595493,7964,1,0,-6717.7367451590,-80310.3519988895,-37421.9705975009,-12639.0368947723,-80542.1466233665,-42244.2965377630,-80473.9953534612,-80463.3972895285,-80502.8327949316,-2416.5410921267
5585672745,7965,1,0,-6719.6227381665,-80312.3596688653,-37416.7628232607,-12640.4970183911,-80543.6675854694,-42377.9586873630,-80475.2851293245,-80464.4072083648,-80505.9720607119,-2418.1837311978
5585672745,7965,1,0,-6719.4037196237,-80312.1893211098,-37393.8388824463,-12639.9981428213,-80544.4949888534,-42540.0324090446,-80475.4554770800,-80465.1129347805,-80505.2419989026,-2417.4901724789
5585672745,7965,1,0,-6720.1581168268,-80312.0189733542,-37384.7496129196,-12640.2171613641,-80546.2593048927,-42513.2148052468,-80475.4676447768,-80464.6627299980,-80505.6800359882,-2417.3928309044
5585672745,7965,1,0,-6718.9048440540,-80312.0919795352,-37401.0543266623,-12640.0346459118,-80544.2394672201,-42330.1031357583,-80475.2851293245,-80463.7258173427,-80504.5606078805,-2417.1859800584
5585672745,7965,1,0,-6719.0751918095,-80312.0068056574,-37421.5203927185,-12639.7669565817,-80543.0348652346,-42234.9517466029,-80473.9466826740,-80463.6163080713,-80504.9013033915,-2417.6605202345
5585672745,7965,1,0,-6718.8805086603,-80311.7026132368,-37418.9286732952,-12639.3775902833,-80542.7550082077,-42348.9387304403,-80473.6546579502,-80463.7988235236,-80503.7332044965,-2416.5167567331
5585672745,7965,1,0,-6718.4181361811,-80311.6904455400,-37395.8708878157,-12639.1829071342,-80545.2128829659,-42518.4590825775,-80475.0174399944,-80464.1151836410,-80505.1933281153,-2417.0643030901
5585672745,7965,1,0,-6720.1094460395,-80312.6516935890,-37383.0826384548,-12640.3023352419,-80545.8334355039,-42520.0165477708,-80476.0516942243,-80464.8939162377,-80505.6070298072,-2417.5145078726
5585681772,7966,1,0,-6720.6083216092,-80312.6881966795,-37396.8321358647,-12640.5943599656,-80545.5292430833,-42349.1212458926,-80476.0395265275,-80464.4558791521,-80506.0815699833,-2418.5244267089
5585681772,7966,1,0,-6720.2432907045,-80312.5786874081,-37419.1111887475,-12641.2514155941,-80543.4850700171,-42227.5781223282,-80475.1391169626,-80464.8209100567,-80505.6435328977,-2418.6217682835
5585681772,7966,1,0,-6718.6979932080,-80310.8265390656,-37418.8069963270,-12639.4749318579,-80541.3800584667,-42314.5163161282,-80474.1413658231,-80463.7136496459,-80503.8548814647,-2416.3707443712
5585681772,7966,1,0,-6719.3550488364,-80310.9482160338,-37396.4427695664,-12640.5456891783,-80543.7162562567,-42494.9875954060,-80473.8250057057,-80463.1174325015,-80504.2199123694,-2416.7601106696
5585681772,7966,1,0,-6719.9756013744,-80311.2402407576,-37380.6977698775,-12640.3510060292,-80544.9208582422,-42522.2310685926,-80475.4798124736,-80465.4292948979,-80504.8282972106,-2417.7335264154
5585681772,7966,1,0,-6720.0121044649,-80312.0919795352,-37391.4296784753,-12640.0103105181,-80545.9064416848,-42358.2226831162,-80475.5041478673,-80465.0764316900,-80505.4975205358,-2417.7335264154
5585681772,7966,1,0,-6719.0143533254,-80311.1428991830,-37413.7574021454,-12639.7426211880,-80543.6067469853,-42220.5816966550,-80475.0417753880,-80463.6406434649,-80503.8427137679,-2416.8939553346
5585681772,7966,1,0,-6719.3428811396,-80311.6661101464,-37416.4829662338,-12640.0954843959,-80542.6211635426,-42285.9343962911,-80475.4068062927,-80463.8718297046,-80505.5705267168,-2417.6118494472
5585700840,7967,1,0,-6719.6105704697,-80311.3132469385,-37394.9096397667,-12639.9251366404,-80543.7405916503,-42464.5318502582,-80474.0440242485,-80463.4702957094,-80504.5727755773,-2417.4049986012
5585700840,7967,1,0,-6719.5497319856,-80310.7291974910,-37374.7112630406,-12639.9981428213,-80544.6166658216,-42519.2499828710,-80474.6280736960,-80464.6627299980,-80504.8039618169,-2417.6118494472
5585700840,7967,1,0,-6720.1702845236,-80311.7269486305,-37382.4985890073,-12640.3996768165,-80545.0181998168,-42374.6125707367,-80475.5406509578,-80465.8551642867,-80505.7165390787,-2418.4757559216
5585700840,7967,1,0,-6719.5375642888,-80311.7269486305,-37403.8528969316,-12639.3532548897,-80543.0713683251,-42216.4446797352,-80474.6159059992,-80463.0930971079,-80504.5971109709,-2417.2346508457
5585700840,7967,1,0,-6718.6128193302,-80310.3763342831,-37411.1048442380,-12639.1220686501,-80541.7694247650,-42254.9067693926,-80474.3968874564,-80464.2490283061,-80504.2807508535,-2416.5410921267
5585700840,7967,1,0,-6719.3672165333,-80311.0942283957,-37392.6586158545,-12639.4019256770,-80543.3755607457,-42438.7241652967,-80474.6280736960,-80463.3486187412,-80504.2564154599,-2417.0399676965
5585700840,7967,1,0,-6719.4280550174,-80311.6296070559,-37372.3872329474,-12639.8034596721,-80545.5049076897,-42517.5465053158,-80474.6645767865,-80464.6140592108,-80505.2419989026,-2418.3419112565
5585700840,7967,1,0,-6718.8440055699,-80311.4227562099,-37375.0519585517,-12639.2924164056,-80544.4341503693,-42385.2714731536,-80474.9444338134,-80464.2733636997,-80504.5362724868,-2416.6262660045
5585721278,7968,1,0,-6719.9025951935,-80311.5687685718,-37398.0610732439,-12640.2901675451,-80545.6874231420,-42219.0485668553,-80475.2851293245,-80464.4437114552,-80505.9963961056,-2417.1373092711
5585721278,7968,1,0,-6719.1603656873,-80311.9337994765,-37409.4743728638,-12640.0833166991,-80543.7892624376,-42230.9607420450,-80474.5185644246,-80464.4923822425,-80505.2054958121,-2417.5510109631
5585721278,7968,1,0,-6719.0873595063,-80312.0676441415,-37392.3787588275,-12640.6795338434,-80544.3976472788,-42403.3161675420,-80476.2342096767,-80465.3197856265,-80506.5196070690,-2417.3319924202
5585721278,7968,1,0,-6718.6858255112,-80310.6926944005,-37369.2236317735,-12639.5601057357,-80544.7870135771,-42508.3112234271,-80475.0052722976,-80463.7379850395,-80505.0229803597,-2416.9061230314
5585721278,7968,1,0,-6719.0630241127,-80311.9946379606,-37370.5864138176,-12639.3775902833,-80546.0159509562,-42402.8294596691,-80475.5649863514,-80464.7114007853,-80505.4001789613,-2417.3806632075
5585721278,7968,1,0,-6718.7588316921,-80311.4349239067,-37393.1574914242,-12638.7570377454,-80544.3854795820,-42220.1193241758,-80475.0539430848,-80464.0786805505,-80505.0351480566,-2416.2368997062
5585721278,7968,1,0,-6718.1139437605,-80310.2668250117,-37406.6758025945,-12639.2194102246,-80542.3778096062,-42203.2548963792,-80474.3360489723,-80464.0421774601,-80504.8891356947,-2416.4194151585
5585721278,7968,1,0,-6721.1802033599,-80312.1284826256,-37394.2160810478,-12640.8985523862,-80544.8235166676,-42372.0938574943,-80475.5893217451,-80465.3562887170,-80506.1424084675,-2418.2445696820
5585764057,7969,1,0,-6718.6979932080,-80310.6440236132,-37371.5719972603,-12639.3410871929,-80542.6698343299,-42496.6667375676,-80474.4942290310,-80463.4824634062,-80504.0130615234,-2416.8817876378
5585764057,7969,1,0,-6719.6835766507,-80311.0820606989,-37369.9415258860,-12640.8255462053,-80544.7748458803,-42415.5933736363,-80475.0661107817,-80463.8718297046,-80505.1446573280,-2417.6483525376
5585764057,7969,1,0,-6719.5375642888,-80311.1185637893,-37391.2593307198,-12639.9738074277,-80543.7649270440,-42232.9319089303,-80474.9931046007,-80464.6140592108,-80504.7309556360,-2417.5753463567
5585764057,7969,1,0,-6718.5641485429,-80310.9238806402,-37408.1359262132,-12639.6087765230,-80542.1952941538,-42188.6658278885,-80474.9931046007,-80464.0300097633,-80504.6701171519,-2416.9669615156
5585764057,7969,1,0,-6718.5884839366,-80310.4615081609,-37398.9614828088,-12639.8034596721,-80542.3778096062,-42338.1946541456,-80474.1413658231,-80463.9935066728,-80504.1834092790,-2417.0764707870
5585764057,7969,1,0,-6720.1094460395,-80310.6196882196,-37376.4877467768,-12640.3145029387,-80544.3854795820,-42486.2390213903,-80474.6889121802,-80464.1516867315,-80505.2663342962,-2418.0498865328
5585764057,7969,1,0,-6718.8805086603,-80309.9261295007,-37371.7301773190,-12639.4019256770,-80544.3976472788,-42431.1071870856,-80474.5672352119,-80463.5311341935,-80504.5727755773,-2417.4293339948
5585764057,7969,1,0,-6719.2455395650,-80311.0577253052,-37393.5955285098,-12639.7426211880,-80544.1056225550,-42245.9635122277,-80473.7641672216,-80463.4824634062,-80505.2298312057,-2417.2589862393
5585800177,7970,1,0,-6719.6957443475,-80311.2767438480,-37413.9764206883,-12639.8521304594,-80543.4120638361,-42180.1971108997,-80475.2729616276,-80464.4923822425,-80506.1545761643,-2417.1251415743
5585800177,7970,1,0,-6719.1968687777,-80311.9824702638,-37409.9975838272,-12640.1198197895,-80544.7505104867,-42317.7529234831,-80474.7132475738,-80464.9182516313,-80506.1667438611,-2417.9890480487
5585800177,7970,1,0,-6719.9512659808,-80312.4448427430,-37389.8478778884,-12640.7768754180,-80545.0181998168,-42476.4196900542,-80476.9277683956,-80465.7699904089,-80506.3249239198,-2417.7821972027
5585800177,7970,1,0,-6719.3185457460,-80312.0068056574,-37382.4499182200,-12639.6209442198,-80545.6022492643,-42448.1906334250,-80475.3703032022,-80464.7235684822,-80505.5826944136,-2417.2468185425
5585800177,7970,1,0,-6719.6714089538,-80312.4813458335,-37403.2688474841,-12640.7525400243,-80545.8577708975,-42273.3286623825,-80475.6866633196,-80465.4657979884,-80506.2884208293,-2417.4901724789
5585800177,7970,1,0,-6719.6957443475,-80311.7512840241,-37427.2878810126,-12639.9616397308,-80542.7550082077,-42182.2169485723,-80474.7619183611,-80464.8574131472,-80505.3636758708,-2416.4315828553
5585800177,7970,1,0,-6718.3207946065,-80311.0455576084,-37425.8520927874,-12638.6231930803,-80541.6477477968,-42297.4937082729,-80474.4090551532,-80463.4824634062,-80504.4876016995,-2416.1517258284
5585800177,7970,1,0,-6719.1603656873,-80311.9946379606,-37406.2742685993,-12640.2901675451,-80544.7261750930,-42470.9928972712,-80475.4676447768,-80464.5288853330,-80505.7895452596,-2417.0399676965
5585826705,7971,1,0,-6719.9025951935,-80312.2136565034,-37395.2138321873,-12640.1076520927,-80546.8311866434,-42471.9784807138,-80475.8813464688,-80465.0885993868,-80505.9355576215,-2417.1008061806
5585826705,7971,1,0,-6719.9999367681,-80312.8828798287,-37412.0660922871,-12640.2658321514,-80545.8212678071,-42296.8974911285,-80476.5140667036,-80466.3175367660,-80506.3370916166,-2418.4392528311
5585826705,7971,1,0,-6719.9634336776,-80313.7224509095,-37435.9634488473,-12640.6551984498,-80545.3345599342,-42182.1196069977,-80476.4288928258,-80465.5631395629,-80507.3470104529,-2417.1616446647
5585826705,7971,1,0,-6719.3793842301,-80313.3695877016,-37438.3361497278,-12640.2536644546,-80544.3124734010,-42276.9303006421,-80476.2098742830,-80464.8452454504,-80505.2298312057,-2416.8574522441
5585826705,7971,1,0,-6719.1603656873,-80312.7246997700,-37416.3491215687,-12639.0125593787,-80544.6653366089,-42453.0820475478,-80475.8691787720,-80465.5023010788,-80505.4001789613,-2417.5266755694
5585826705,7971,1,0,-6719.2820426555,-80312.4205073494,-37400.9326496941,-12639.6087765230,-80545.1033736945,-42479.0357448712,-80475.8691787720,-80465.1251024773,-80505.5948621104,-2417.6848556281
5585826705,7971,1,0,-6718.8318378731,-80312.7855382541,-37414.1102653533,-12639.6452796135,-80545.8334355039,-42318.5924945638,-80475.6379925323,-80465.1251024773,-80505.7773775628,-2417.1251415743
5585826705,7971,1,0,-6719.3672165333,-80312.9558860096,-37438.8958637816,-12639.4384287675,-80544.5314919438,-42182.8740042007,-80476.5140667036,-80465.3806241106,-80505.3028373867,-2416.4072474617
5585881484,7972,1,0,-6719.8904274966,-80311.9581348701,-37442.8990360364,-12638.8422116231,-80544.4584857629,-42252.7530870549,-80476.6844144591,-80466.1593567073,-80506.3005885262,-2417.0034646060
5585881484,7972,1,0,-6718.9778502349,-80312.5908551049,-37424.0391059608,-12639.8277950658,-80544.3124734010,-42439.3082147442,-80475.4068062927,-80464.8574131472,-80505.5096882327,-2418.3054081661
5585881484,7972,1,0,-6719.7200797411,-80312.4813458335,-37409.4865405606,-12639.5479380389,-80546.3688141641,-42493.9168380856,-80476.3558866449,-80465.6604811375,-80506.6169486436,-2417.8308679900
5585881484,7972,1,0,-6718.3816330906,-80311.8242902051,-37418.1256053049,-12639.9616397308,-80544.8965228485,-42345.3249244838,-80475.5041478673,-80464.0421774601,-80504.5484401837,-2417.3319924202
5585881484,7972,1,0,-6719.5253965920,-80312.6638612859,-37442.0594649556,-12640.5700245720,-80543.1930452933,-42194.7253409063,-80475.6866633196,-80464.2855313965,-80505.2906696899,-2416.6749367918
5585881484,7972,1,0,-6720.5596508219,-80311.6661101464,-37451.4407592061,-12640.9472231735,-80542.8645174791,-42238.4803786816,-80475.1391169626,-80465.2346117487,-80505.5218559295,-2417.8430356868
5585881484,7972,1,0,-6719.3672165333,-80310.7657005815,-37432.9945308225,-12639.2559133151,-80543.5824115916,-42415.4838643649,-80475.0417753880,-80463.3242833475,-80505.2176635089,-2417.5023401758
5585881484,7972,1,0,-6718.6736578144,-80310.1816511340,-37412.2121046489,-12639.0733978628,-80543.5824115916,-42491.4832987210,-80474.4577259405,-80462.8254077778,-80504.9864772693,-2416.5897629140
5585890292,7973,1,0,-6719.9634336776,-80312.2744949875,-37419.0138471730,-12640.5456891783,-80544.8478520612,-42364.8540778847,-80475.5528186546,-80464.5167176362,-80505.7773775628,-2418.0377188360
5585890292,7973,1,0,-6718.9656825381,-80312.0311410511,-37443.0815514887,-12639.7182857944,-80544.3489764915,-42200.4198230194,-80475.3703032022,-80464.2733636997,-80505.7165390787,-2417.5875140535
5585890292,7973,1,0,-6718.9656825381,-80312.4570104399,-37454.3245033531,-12640.5091860879,-80543.4363992298,-42215.9336364687,-80476.4897313100,-80465.0399285996,-80505.8625514405,-2416.8574522441
5585890292,7973,1,0,-6719.0143533254,-80311.7877871146,-37437.9467834295,-12639.8764658531,-80544.2881380074,-42395.4315000007,-80475.7961725910,-80464.7965746631,-80504.8282972106,-2417.1981477552
5585890292,7973,1,0,-6719.9877690712,-80311.9459671733,-37416.1666061164,-12640.4240122101,-80544.8843551517,-42496.7519114454,-80475.6379925323,-80464.7600715726,-80505.4123466581,-2417.3928309044
5585890292,7973,1,0,-6718.7101609048,-80311.6052716623,-37417.3712081019,-12639.4992672516,-80545.4684045992,-42383.8721880189,-80475.5163155641,-80464.3950406679,-80504.9256387852,-2417.4049986012
5585890292,7973,1,0,-6719.1968687777,-80311.6904455400,-37440.1491365544,-12639.0003916818,-80544.2759703106,-42207.7447765068,-80474.9444338134,-80465.1737732646,-80505.4731851422,-2417.2346508457
5585890292,7973,1,0,-6719.1238625968,-80312.6030228017,-37454.4096772309,-12639.1342363469,-80543.5824115916,-42194.9565271459,-80475.4798124736,-80465.0155932059,-80504.8404649074,-2416.3950797649
5585922555,7974,1,0,-6719.3063780491,-80310.4858435545,-37441.4997509018,-12640.4240122101,-80543.9717778900,-42360.0113345491,-80475.8691787720,-80464.4923822425,-80504.5241047900,-2417.3076570266
5585922555,7974,1,0,-6719.1725333841,-80313.1140660683,-37418.9408409920,-12640.7403723275,-80545.4562369024,-42484.8275685589,-80476.3680543417,-80465.1372701741,-80505.7287067755,-2418.3784143470
5585922555,7974,1,0,-6719.8295890125,-80313.1262337651,-37416.9210033194,-12640.1563228800,-80545.9429447753,-42396.9524621036,-80476.3437189481,-80465.6604811375,-80506.8481348832,-2418.2202342883
5585922555,7974,1,0,-6718.7588316921,-80311.7147809337,-37437.2532247105,-12639.1464040437,-80543.3877284425,-42209.6186018176,-80475.4311416863,-80464.1881898220,-80504.4024278218,-2416.5532598236
5585922555,7974,1,0,-6719.4402227142,-80312.7855382541,-37453.4727645755,-12639.8277950658,-80544.3611441883,-42169.9154070843,-80475.8326756815,-80465.7091519248,-80506.2397500420,-2417.2224831488
5585922555,7974,1,0,-6719.5253965920,-80312.3596688653,-37443.3249054252,-12639.9373043372,-80543.6797531662,-42327.8521118461,-80476.0030234370,-80465.1494378710,-80504.6579494551,-2417.6970233249
5585922555,7974,1,0,-6719.7200797411,-80311.6661101464,-37419.4397165618,-12639.6209442198,-80543.9109394059,-42471.1632450267,-80475.0539430848,-80463.9813389760,-80504.8526326042,-2417.5753463567
5585922555,7974,1,0,-6719.5618996824,-80312.2988303812,-37414.5969732262,-12640.0589813054,-80545.3953984183,-42413.0746603940,-80476.2585450703,-80465.0277609027,-80505.6070298072,-2418.0133834423
5585943101,7975,1,0,-6718.4424715747,-80311.9581348701,-37433.6029156637,-12639.5844411293,-80544.3976472788,-42232.2505179082,-80476.1003650116,-80464.0543451569,-80505.1933281153,-2416.6019306109
5585943101,7975,1,0,-6719.6592412570,-80312.6881966795,-37454.6530311674,-12640.4361799069,-80544.5436596407,-42168.0659171672,-80476.3315512512,-80465.9646735581,-80506.2032469516,-2417.4293339948
5585943101,7975,1,0,-6719.1968687777,-80312.4448427430,-37447.2064007117,-12639.4992672516,-80544.0691194646,-42302.5311347576,-80476.0273588307,-80463.9083327950,-80505.1933281153,-2416.8574522441
5585943101,7975,1,0,-6719.8904274966,-80312.2379918971,-37422.1044421660,-12640.8742169926,-80544.7383427898,-42461.1613982382,-80475.5163155641,-80465.1007670837,-80505.1203219343,-2417.7943648995
5585943101,7975,1,0,-6719.7930859221,-80311.1915699703,-37412.2121046489,-12639.7426211880,-80545.3710630246,-42428.3572876036,-80475.4311416863,-80464.5897238171,-80504.6336140614,-2417.8917064741
5585943101,7975,1,0,-6718.6493224207,-80311.2402407576,-37429.3320540788,-12640.5456891783,-80544.1299579487,-42243.7611591027,-80474.0683596422,-80463.0565940174,-80503.7210367997,-2416.3585766744
5585943101,7975,1,0,-6719.4158873206,-80310.8752098529,-37449.4817600176,-12640.2293290610,-80542.2317972443,-42151.8098742118,-80474.5185644246,-80463.6284757681,-80504.4876016995,-2417.3928309044
5585943101,7975,1,0,-6720.7056631838,-80311.5809362686,-37445.7584447898,-12640.7890431148,-80544.0082809805,-42270.1285581181,-80475.2242908404,-80465.2954502328,-80506.1667438611,-2417.5266755694
5586000578,7976,1,0,-6719.4402227142,-80310.6926944005,-37420.8024986059,-12639.3410871929,-80542.9496913569,-42436.2054520544,-80474.4577259405,-80463.5554695872,-80504.9256387852,-2416.3950797649
5586000578,7976,1,0,-6718.8440055699,-80311.5687685718,-37407.6978891276,-12640.2293290610,-80545.7847647166,-42429.3672064399,-80475.2607939308,-80464.5045499393,-80505.3393404771,-2417.4293339948
5586000578,7976,1,0,-6720.3771353696,-80312.2988303812,-37422.5059761611,-12641.1054032322,-80545.9186093817,-42255.0406140576,-80475.3459678086,-80465.0642639932,-80505.5096882327,-2418.6582713739
5586000578,7976,1,0,-6718.6736578144,-80311.0333899116,-37443.8237809949,-12639.6574473103,-80543.7892624376,-42138.8391093985,-80474.7619183611,-80464.3342021838,-80504.3902601250,-2417.4049986012
5586000578,7976,1,0,-6719.0021856286,-80311.4105885131,-37441.7674402319,-12639.8034596721,-80543.0592006283,-42230.5470403530,-80475.1999554467,-80464.4315437584,-80505.2785019930,-2416.9426261219
5586000578,7976,1,0,-6719.2333718682,-80311.8729609924,-37418.4784685127,-12639.5357703420,-80544.3976472788,-42408.5239417822,-80475.4919801705,-80464.0178420664,-80505.2054958121,-2416.8209491537
5586000578,7976,1,0,-6718.7709993889,-80310.4858435545,-37403.0863320317,-12639.3654225865,-80544.2394672201,-42429.7444050414,-80473.8250057057,-80463.4702957094,-80504.0495646139,-2417.1981477552
5586000578,7976,1,0,-6719.3307134428,-80310.3398311927,-37414.3536192898,-12639.6087765230,-80543.2782191711,-42263.3024802004,-80474.5185644246,-80463.5067987999,-80504.4389309122,-2417.3563278139
5586013215,7977,1,0,-6719.7444151348,-80310.8630421561,-37436.9368645932,-12640.8377139021,-80542.8401820854,-42131.9643606935,-80475.9665203466,-80464.2368606092,-80504.0373969171,-2417.4658370853
5586013215,7977,1,0,-6718.4789746652,-80310.5223466450,-37439.8327764370,-12640.0468136086,-80541.3070522858,-42205.3599079295,-80474.0926950358,-80462.8254077778,-80504.6822848487,-2416.2368997062
5586013215,7977,1,0,-6720.3284645823,-80311.6661101464,-37418.3932946350,-12640.7647077212,-80544.7626781835,-42384.3223928014,-80475.1877877499,-80464.2246929124,-80505.5948621104,-2417.9525449582
5586013215,7977,1,0,-6720.0972783426,-80311.1915699703,-37399.5942030435,-12640.0468136086,-80545.3953984183,-42431.3383733252,-80474.9809369039,-80464.2855313965,-80504.7552910296,-2417.8187002932
5586013215,7977,1,0,-6719.2455395650,-80311.1307314862,-37407.7100568244,-12639.7426211880,-80544.7505104867,-42282.1259071855,-80474.2752104882,-80463.1661032888,-80504.7187879392,-2416.4802536426
5586013215,7977,1,0,-6719.8295890125,-80310.3641665863,-37431.6074133847,-12639.1950748310,-80542.6333312395,-42132.9377764394,-80473.6059871629,-80462.7645692937,-80504.0860677044,-2417.4293339948
5586013215,7977,1,0,-6719.3915519269,-80310.1573157403,-37437.7642679771,-12640.4361799069,-80541.7694247650,-42179.8685830855,-80474.0075211581,-80462.6672277191,-80504.2685831567,-2416.5897629140
5586013215,7977,1,0,-6719.5984027729,-80310.1329803467,-37419.0746856571,-12639.9373043372,-80542.7063374204,-42363.8806621388,-80473.6668256470,-80463.1904386825,-80503.9400553425,-2417.4415016916
5586046610,7978,1,0,-6719.1725333841,-80310.5466820387,-37399.4116875912,-12639.7061180976,-80544.2516349169,-42438.5659852380,-80473.8615087962,-80462.7280662032,-80504.1955769758,-2417.6240171440
5586046610,7978,1,0,-6720.5718185187,-80311.3497500290,-37405.4346975186,-12640.1076520927,-80544.2394672201,-42304.8916679412,-80475.1756200531,-80464.2125252156,-80504.9743095725,-2418.8042837358
5586046610,7978,1,0,-6720.4623092473,-80312.3961719558,-37429.1738740201,-12641.2879186845,-80544.6531689121,-42140.4330776823,-80475.8570110752,-80465.1859409614,-80505.1203219343,-2418.0377188360
5586046610,7978,1,0,-6718.9900179317,-80311.3254146353,-37439.0175407499,-12639.2802487088,-80543.1930452933,-42161.7508825161,-80475.1877877499,-80463.6893142522,-80504.4754340027,-2416.6019306109
5586046610,7978,1,0,-6719.2820426555,-80312.3231657748,-37423.0656902150,-12639.6696150071,-80543.3998961393,-42340.9567213244,-80475.2121231435,-80464.3585375775,-80504.4997693964,-2417.2468185425
5586046610,7978,1,0,-6719.5132288951,-80311.8486255987,-37401.8573946526,-12639.4992672516,-80545.0060321199,-42441.6809156247,-80477.0007745765,-80464.3707052743,-80505.6313652009,-2417.5875140535
5586046610,7978,1,0,-6718.4546392715,-80310.7535328847,-37404.6194618314,-12639.3775902833,-80545.1033736945,-42332.6461843943,-80475.1269492658,-80464.1395190347,-80504.9499741788,-2417.3441601171
5586046610,7978,1,0,-6719.9025951935,-80311.9337994765,-37428.9183523868,-12640.2901675451,-80543.7040885599,-42158.4047658898,-80475.8813464688,-80464.3098667902,-80505.0229803597,-2417.3076570266
5586070579,7979,1,0,-6719.2333718682,-80311.2402407576,-37441.8404464128,-12640.3996768165,-80542.7063374204,-42148.9626331552,-80474.7984214516,-80463.4581280126,-80504.6579494551,-2416.5532598236
5586070579,7979,1,0,-6719.5132288951,-80311.5200977845,-37429.4172279566,-12640.2049936673,-80545.0668706040,-42320.6366676301,-80475.3338001118,-80464.4923822425,-80506.1180730738,-2417.7943648995
5586070579,7979,1,0,-6719.4158873206,-80311.5079300877,-37407.6613860372,-12640.5091860879,-80546.0037832594,-42443.2262131212,-80474.5794029087,-80464.3707052743,-80506.1789115579,-2417.9160418677
5586070579,7979,1,0,-6719.6349058634,-80311.5931039654,-37406.3716101739,-12640.8133785085,-80546.0037832594,-42351.7373007095,-80476.1855388894,-80464.7235684822,-80505.9598930151,-2417.3076570266
5586070579,7979,1,0,-6719.3793842301,-80312.0189733542,-37427.9206012474,-12640.6917015402,-80544.7140073962,-42172.7504804441,-80476.0395265275,-80465.6604811375,-80504.8039618169,-2417.6118494472
5586070579,7979,1,0,-6719.9147628903,-80313.3695877016,-37445.5880970343,-12640.6917015402,-80543.7892624376,-42135.3469804103,-80476.5870728845,-80465.7699904089,-80505.7165390787,-2418.0985573201
5586070579,7979,1,0,-6718.8805086603,-80311.4470916036,-37433.6272510573,-12639.0977332564,-80543.1808775965,-42284.2065833422,-80474.8835953293,-80464.2003575188,-80504.7309556360,-2416.3950797649
5586070579,7979,1,0,-6719.4402227142,-80312.3840042589,-37411.7618998665,-12640.4970183911,-80546.4418203450,-42423.8795751728,-80476.2220419798,-80465.1007670837,-80506.8116317927,-2417.8187002932
5586113520,7980,1,0,-6719.3793842301,-80311.9703025669,-37406.8583180468,-12639.5601057357,-80546.0281186531,-42364.5255500704,-80475.4433093832,-80464.5410530298,-80506.1910792547,-2417.2711539361
5586113520,7980,1,0,-6718.9170117508,-80312.2014888066,-37428.7723400250,-12639.3897579802,-80544.3124734010,-42186.6824933063,-80475.9543526497,-80465.2102763551,-80505.8138806532,-2416.9426261219
5586113520,7980,1,0,-6718.7588316921,-80312.7246997700,-37449.3844184430,-12640.2171613641,-80544.0082809805,-42131.7331744539,-80475.6014894419,-80465.0155932059,-80506.5561101594,-2416.5045890363
5586113520,7980,1,0,-6718.2964592128,-80311.2280730607,-37441.6700986573,-12639.6939504007,-80543.9839455868,-42278.6581135909,-80474.9931046007,-80464.4802145457,-80505.0716511470,-2416.1152227379
5586113520,7980,1,0,-6719.6105704697,-80311.4957623909,-37420.8511693932,-12640.5700245720,-80544.4828211565,-42435.7917503624,-80475.7718371974,-80465.1129347805,-80505.4975205358,-2416.9182907283
5586113520,7980,1,0,-6719.1725333841,-80311.3132469385,-37411.9809184093,-12639.2924164056,-80545.4440692056,-42395.7843632086,-80475.0296076912,-80464.7357361790,-80505.4488497485,-2417.9768803519
5586113520,7980,1,0,-6718.3086269097,-80311.5687685718,-37429.0765324455,-12639.5844411293,-80544.1542933423,-42213.2202400772,-80475.4433093832,-80465.3562887170,-80504.9986449661,-2416.7601106696
5586113520,7980,1,0,-6718.1504468510,-80310.4736758577,-37450.1753187365,-12638.5745222930,-80542.3534742125,-42123.8241715190,-80474.7497506643,-80464.4315437584,-80504.5849432741,-2416.1395581316
5586153688,7981,1,0,-6719.0143533254,-80309.7922848356,-37445.9044571517,-12639.7791242785,-80543.9231071027,-42242.8850849315,-80474.7010798770,-80464.3950406679,-80505.4245143549,-2416.2003966157
5586153688,7981,1,0,-6719.8417567094,-80310.9360483370,-37423.3698826356,-12640.8985523862,-80543.9839455868,-42411.3468474451,-80475.6501602292,-80464.0543451569,-80505.3880112644,-2418.1228927137
5586153688,7981,1,0,-6721.0828617853,-80311.3619177258,-37412.5406324632,-12641.0202293544,-80546.1132925308,-42400.5784357568,-80475.5893217451,-80465.1616055678,-80505.3028373867,-2418.5122590121
5586153688,7981,1,0,-6719.0995272032,-80310.3154957990,-37427.9084335505,-12639.6817827039,-80544.4098149756,-42218.7565421316,-80474.6159059992,-80464.9182516313,-80505.5461913231,-2416.9669615156
5586153688,7981,1,0,-6719.6592412570,-80311.7147809337,-37450.4186726730,-12640.3266706355,-80544.0204486773,-42107.4707869890,-80475.6136571387,-80464.4437114552,-80505.4001789613,-2416.8574522441
5586153688,7981,1,0,-6720.1702845236,-80312.2014888066,-37451.1974052696,-12640.2658321514,-80543.8622686186,-42208.3653290448,-80476.2220419798,-80464.9669224186,-80505.2541665994,-2417.2954893298
5586153688,7981,1,0,-6718.9656825381,-80311.3740854226,-37427.9327689442,-12639.3532548897,-80543.4972377139,-42386.7802675596,-80475.2486262340,-80463.2877802571,-80504.3659247313,-2417.2103154520
5586153688,7981,1,0,-6719.0265210222,-80310.6683590069,-37413.4288743312,-12639.5114349484,-80544.9451936358,-42405.4455144860,-80474.9566015103,-80463.8231589173,-80504.6214463646,-2416.7114398823
5586173288,7982,1,0,-6719.2212041714,-80312.3109980780,-37427.2513779221,-12640.3996768165,-80545.5657461738,-42246.9977664576,-80475.5528186546,-80464.3707052743,-80505.1933281153,-2418.0133834423
5586173288,7982,1,0,-6720.6691600933,-80312.9802214033,-37452.8157089471,-12641.2635832909,-80544.5314919438,-42118.7502419438,-80476.4532282195,-80466.3783752501,-80506.8481348832,-2418.2689050756
5586173288,7982,1,0,-6719.4523904110,-80312.6760289827,-37455.8819685465,-12640.4240122101,-80544.3976472788,-42193.8127636446,-80476.7574206400,-80465.9038350740,-80506.1545761643,-2416.9182907283
5586173288,7982,1,0,-6719.1360302936,-80311.9094640828,-37435.2820578252,-12639.8521304594,-80545.9064416848,-42375.3913033333,-80477.1102838479,-80466.1471890104,-80506.2154146484,-2417.1981477552
5586173288,7982,1,0,-6719.3672165333,-80313.0410598874,-37418.5028039064,-12640.0346459118,-80545.8821062912,-42421.6528866542,-80477.0007745765,-80466.0376797390,-80506.2275823452,-2417.7700295059
5586173288,7982,1,0,-6719.3915519269,-80312.2379918971,-37429.0400293551,-12641.1175709290,-80545.8091001102,-42268.3642420787,-80476.0516942243,-80465.5023010788,-80506.6047809467,-2417.6240171440
5586173288,7982,1,0,-6719.1603656873,-80310.9725514275,-37452.6575288884,-12639.0247270755,-80543.4485669266,-42121.1472782180,-80475.3459678086,-80463.4094572253,-80505.4245143549,-2416.4194151585
5586173288,7982,1,0,-6718.5519808461,-80311.9216317797,-37459.8729731044,-12640.0346459118,-80543.4485669266,-42171.3146922189,-80475.5163155641,-80464.5897238171,-80505.5705267168,-2416.3099058871
5586193093,7983,1,0,-6719.1847010809,-80312.0311410511,-37441.0982169066,-12640.2901675451,-80543.9717778900,-42352.4916979126,-80475.2121231435,-80464.8574131472,-80505.4001789613,-2417.7821972027
