steady_timestamp,sequence,battery,flags,EEG-ch1,EEG-ch2,EEG-ch3,EEG-ch4,EEG-ch5,EEG-ch6,EEG-ch7,EEG-ch8,EEG-ch9,EEG-ch10
9641849858,22020,-2,0,17171.2849427754,44227.8258030517,40871.6464914700,58104.7555018028,66569.7370076458,55547.8235237329,56762.9505669560,56457.7360598494,60300.8422628915,11883.7149467914
9641849858,22020,-2,0,17283.1669150623,44233.8609806758,40895.4221710621,58099.6085660467,66568.3255548143,55554.5279246824,56755.5647749845,56449.3890198288,60289.4411309684,11886.4405108797
9641849858,22020,-2,0,17119.1098587986,44203.1983846820,40842.5048575791,58071.5620248698,66527.1257333718,55566.6104476276,56739.6737629338,56404.3928769776,60270.5081947119,11890.9547264010
9641849858,22020,-2,0,16928.2351987371,44185.2145287777,40798.5551366546,58070.4060936716,66509.2635544358,55566.7321245958,56747.0717226021,56399.8908291531,60279.3297749085,11890.4315154376
9641849858,22020,-2,0,16968.2425858910,44199.7670941780,40820.1284631217,58092.6121403735,66534.1951652260,55548.6630948137,56763.9848211860,56432.1230580371,60293.2496200740,11881.8776245711
9641849858,22020,-2,0,17145.9396302932,44220.1844894469,40857.1790999476,58102.0907761986,66557.6423170038,55538.8559311744,56768.4138628295,56449.5958706748,60285.1702693835,11875.9032854310
9641849858,22020,-2,0,17242.0035967103,44220.4765141706,40863.0317621194,58091.4683768721,66554.0893495315,55528.9757613542,56758.0834882269,56436.4912611965,60268.7560463694,11875.0880497439
9641849858,22020,-2,0,17144.9418791537,44192.1744513604,40834.6201900378,58070.1992428256,66521.0175495667,55537.0307766510,56739.0897134863,56407.6173166357,60257.5374298986,11877.2052289911
9641885390,22021,-2,0,16938.5777410366,44158.9201359433,40784.7082976701,58055.4884973667,66487.5320479100,55553.6518505111,56729.3312206343,56379.9114709698,60257.5252622018,11877.1930612943
9641885390,22021,-2,0,16898.4851800050,44170.1509201109,40787.9327373282,58071.5741925666,66503.5082338385,55559.0908109910,56742.2898177507,56399.3676181897,60277.6749681406,11878.5315079448
9641885390,22021,-2,0,17109.5338813990,44211.8982879104,40853.6504678689,58104.4148062918,66550.5972205433,55535.9478516337,56763.7658026432,56446.7486296183,60293.8701726119,11878.6045141257
9641885390,22021,-2,0,17265.9861271483,44222.0218116671,40881.3806489284,58098.1727778216,66553.9676725632,55528.3673765131,56755.5039365004,56442.6967865762,60275.6672981648,11875.9884593088
9641885390,22021,-2,0,17147.3754185183,44196.3236359771,40833.7441158666,58068.2889144244,66515.6759306615,55549.1011318993,56737.3010620533,56397.4451220917,60255.3472444705,11881.5247613632
9641885390,22021,-2,0,16945.6228374971,44174.5556263608,40792.0819219448,58060.3920791863,66496.2319511384,55565.4788518230,56737.3010620533,56386.6523750097,60266.9552272396,11888.1318207381
9641885390,22021,-2,0,16928.3325403117,44186.9910125139,40805.2595376041,58079.8238910126,66520.3969970288,55563.5806911187,56756.2583337034,56416.2807167736,60288.8935846114,11892.9258932863
9641885390,22021,-2,0,17087.7902071764,44217.7022792950,40845.0965770024,58098.5013056358,66554.3935419521,55557.3264949517,56770.8474021941,56444.5219410997,60293.7728310374,11892.4756885039
9641947639,22022,-2,0,17245.7390796350,44234.5058686075,40874.4085586489,58103.9524338125,66570.3332247901,55549.8311937087,56778.3670388307,56452.5891240933,60289.2221124256,11888.9835595157
9641947639,22022,-2,0,17206.2792388382,44213.5774300720,40858.0551741188,58085.3601930670,66543.5277886892,55555.1363095235,56761.9163127261,56429.0324630440,60275.8741490108,11887.0732311145
9641947639,22022,-2,0,16987.9299193505,44178.3884508601,40804.2009479805,58063.7625312063,66501.9629363420,55570.3337628554,56745.8427852230,56394.5613779447,60267.5879474744,11888.0953176476
9641947639,22022,-2,0,16890.5640093733,44178.7534817647,40788.9183207709,58071.7567080190,66503.8489293496,55563.5685234218,56750.4665100157,56402.3973746986,60282.6272207475,11885.1020642292
9641947639,22022,-2,0,17065.1217879952,44210.4259965949,40840.7770446302,58095.4593814301,66545.1704277603,55544.7815995272,56764.0456596701,56443.6215315348,60296.0360226464,11878.7505264876
9641947639,22022,-2,0,17250.1072827944,44227.9839831104,40874.9439373091,58097.7590761296,66561.5724830776,55546.1443815714,56762.8897284719,56447.5395299117,60283.2599409823,11879.4562529033
9641947639,22022,-2,0,17190.6315807239,44210.0974687806,40847.5301163670,58078.7653013890,66532.7228739104,55555.4770050346,56748.4953431304,56411.7786689491,60263.9619738211,11886.8663802685
9641947639,22022,-2,0,16991.2882036736,44179.5322143614,40801.1955268652,58064.2979098665,66497.9354286936,55549.5635043786,56740.8661972224,56389.5969576409,60263.0250611658,11884.2138223611
9641952950,22023,-2,0,16903.3644264310,44173.8985707324,40796.1824357742,58069.6151933781,66498.7019935935,55552.1917268924,56746.7066916974,56401.5334682242,60273.7569697636,11876.7306888150
9641952950,22023,-2,0,17017.7042734762,44198.9153554004,40831.5660981353,58085.4088638543,66527.3204165210,55554.1872291713,56757.0005632096,56427.0247930683,60281.1549294320,11873.5914230347
9641952950,22023,-2,0,17213.8962170493,44230.6365410178,40877.9493584243,58103.5387321205,66561.0492721142,55557.7280289468,56767.7446395043,56452.0659131299,60287.1414362689,11879.6022652652
9641952950,22023,-2,0,17243.9869312925,44228.7748834039,40877.1219550404,58098.7933303596,66552.7022320937,55557.3264949517,56761.8798096356,56441.0784828988,60276.1783414314,11889.5067704791
9641952950,22023,-2,0,17032.3420127542,44191.6512403971,40811.3798891060,58070.7346214858,66505.5645746016,55568.1922482145,56743.6647674917,56396.4108678617,60261.8934653612,11893.8506382449
9641952950,22023,-2,0,16886.8041910550,44185.2145287777,40784.8664777288,58074.6161167724,66502.1697871880,55572.9011468850,56753.8856328230,56401.3266173782,60280.6803892559,11899.1070832724
9641952950,22023,-2,0,17025.7471210762,44217.5197638426,40838.3921760529,58104.0497753871,66545.6814710268,55559.5531834703,56776.1768534026,56448.1357470561,60306.1473787063,11896.0164882794
9641952950,22023,-2,0,17228.9719934130,44241.2346049506,40890.3239060933,58112.8105170996,66572.3530624627,55557.6550227659,56777.9168340483,56461.7513998009,60301.2681322803,11892.1106575992
9641980486,22024,-2,0,17227.2928512514,44226.6333687630,40871.7438330446,58091.1885198452,66548.9424137754,55555.8298682424,56763.9726534892,56430.5290897533,60280.4126999258,11889.6649505378
9641980486,22024,-2,0,17056.9937665175,44191.7364142748,40821.0045372930,58069.5665225908,66507.7182569392,55557.3021595580,56748.9455479128,56399.7691521849,60270.7758840420,11889.7866275060
9641980486,22024,-2,0,16921.1049283989,44175.6385513781,40792.8119837542,58065.5268472456,66491.0728476855,55564.5419391677,56746.5971824260,56396.5082094363,60274.8642301745,11892.5851977753
9641980486,22024,-2,0,16979.9357425378,44193.4033887396,40811.5502368615,58078.3637673938,66513.2180559032,55560.9768039985,56754.3358376054,56415.7453381134,60284.3793690900,11889.8109628996
9641980486,22024,-2,0,17186.1903713835,44222.8735504447,40866.1588602029,58095.3498721587,66549.1857677118,55547.7505175520,56764.5201998462,56445.0938228503,60292.8480860788,11880.6851902824
9641980486,22024,-2,0,17263.6377616615,44215.1470629622,40876.0633654168,58082.2939334676,66539.8896473391,55530.0343509778,56751.5007642457,56428.7039352298,60272.7957217146,11869.9289462910
9641980486,22024,-2,0,17067.2876380297,44167.2550082671,40807.7539154528,58045.3406382164,66487.0696754307,55533.0397720931,56725.7295823747,56373.1949023236,60242.2304672954,11860.0366087739
9641980486,22024,-2,0,16874.8433450781,44143.9173657607,40753.5954968939,58036.7867473498,66464.0483930417,55530.7400773935,56724.6101542670,56359.7130942437,60245.1993853202,11853.2592016435
9642013932,22025,-2,0,16951.2321457325,44166.7926357878,40788.5776252598,58062.1563952257,66497.3148761556,55524.2060241996,56737.8851115008,56397.0314203997,60267.1620780856,11847.3457009876
9642013932,22025,-2,0,17154.8342166708,44199.8644357525,40846.9825700099,58076.7211283227,66530.8247132060,55528.0875194861,56744.8085309930,56418.8481008032,60269.5591143597,11853.3930463086
9642013932,22025,-2,0,17215.8430485410,44204.6950113913,40857.1547645539,58068.8607961751,66527.4177580956,55529.8153324350,56739.7102660242,56403.6384797746,60257.2089020844,11869.3813999339
9642013932,22025,-2,0,17090.3819265996,44184.2654484255,40825.7499390539,58056.2672299634,66502.7051658482,55539.7806761330,56734.0887900920,56385.2530898751,60253.4369160693,11886.0876476718
9642013932,22025,-2,0,16915.7998125841,44163.9575624280,40780.5712807503,58050.2198846424,66482.3972798507,55548.4319085741,56732.6895049574,56377.4535962116,60255.8826231307,11893.0354025577
9642013932,22025,-2,0,16921.2631084576,44181.8562444546,40784.0025712544,58069.6760318623,66506.5988288315,55553.2138134255,56749.3470819080,56405.7313236281,60277.0787509963,11895.4446065287
9642013932,22025,-2,0,17134.6723430352,44221.6324453688,40843.2470870853,58096.0069277871,66551.9113318002,55539.5859929838,56765.2137585651,56448.1235793592,60293.5416447977,11891.7942974818
9642013932,22025,-2,0,17266.9230398037,44224.9298912078,40872.2427086144,58089.1321790821,66551.2056053844,55533.6359892374,56754.0438128817,56440.3605887862,60278.7578931578,11882.0114692361
9642067899,22026,-2,0,17120.1441130286,44191.5052280352,40827.2100626727,58059.8932036166,66504.7858420049,55557.8862090055,56732.7625111383,56393.9773284972,60257.6226037764,11885.2602442879
9642067899,22026,-2,0,16916.7732283299,44170.4916156220,40787.3243524871,58054.8314417383,66484.9403284867,55568.0340681559,56734.5998333586,56385.1922513910,60266.8578856650,11897.5496180790
9642067899,22026,-2,0,16943.2258012230,44194.3646367886,40815.2370489989,58083.5837093309,66517.8417806959,55558.4337553625,56758.8987239140,56425.6133402368,60290.1833604746,11904.5582114491
9642067899,22026,-2,0,17127.7610912397,44223.5062706795,40857.0817583730,58101.2390374210,66548.7477306262,55542.8712711260,56770.5432097736,56448.5372810512,60289.4046278779,11897.7686366219
9642067899,22026,-2,0,17244.1937821385,44230.4296901718,40867.5459776407,58095.6905676697,66549.4047862546,55540.9001042407,56764.5932060271,56438.9004651675,60275.0224102332,11888.8497148506
9642067899,22026,-2,0,17170.0195023058,44211.0708845265,40844.1109935597,58076.4291035990,66523.0495549362,55546.7771018062,56750.8072055267,56413.2996310520,60266.0426499779,11889.3242550267
9642067899,22026,-2,0,16963.1564886190,44180.3109469581,40796.0729265027,58052.7751009752,66487.2278554894,55552.3377392543,56736.1086277646,56385.5816176893,60257.0385543289,11890.3828446503
9642067899,22026,-2,0,16891.2088973049,44180.4204562295,40787.2878493966,58059.1753095041,66496.5604789526,55559.6626927417,56743.3605750711,56398.4185378375,60270.5933685897,11889.1052364839
9642078049,22027,-2,0,17085.4296739927,44218.5175149821,40848.6130413842,58094.3886241096,66548.7355629294,55556.2557376312,56767.1605900568,56448.4277717798,60296.9729353018,11892.2931730515
9642078049,22027,-2,0,17265.8887855738,44235.9903276199,40888.3162361175,58103.5143967269,66566.3178848385,55549.7703552246,56769.8861541451,56457.4927059129,60288.5772244940,11896.6248731205
9642078049,22027,-2,0,17168.9122418949,44203.0645400170,40840.8378831144,58069.5300195004,66518.9612088037,55541.8491845929,56742.2046438729,56404.9647587283,60259.7519507204,11889.8961367774
9642078049,22027,-2,0,16954.7972809016,44166.4884433672,40780.8511377773,58051.6800082611,66479.2215109799,55540.0727008567,56730.4141456515,56372.9515483871,60251.7334385141,11884.8952133832
9642078049,22027,-2,0,16909.9593181091,44167.4496914162,40782.8344723594,58062.3267429812,66485.1228439390,55527.6129793100,56736.8265218772,56387.7231323302,60261.5771052439,11880.2958239841
9642078049,22027,-2,0,17053.2826189865,44192.1014451795,40819.6295875520,58076.3560974181,66511.6849261035,55522.2470250111,56741.3772404890,56410.4888930859,60262.7817072293,11873.9442862425
9642078049,22027,-2,0,17206.7902821047,44208.9780406729,40854.1615111355,58077.6093701908,66528.3546707510,55522.9284160332,56741.8761160587,56418.7994300160,60259.1800689697,11872.2773117778
9642078049,22027,-2,0,17196.7032614385,44203.4904094058,40855.1105914877,58071.3065032365,66516.5520048327,55539.4643160156,56741.1460542493,56412.1923706411,60256.2354863386,11885.6009397989
9642108447,22028,-2,0,17000.1949577480,44177.0500042095,40809.0193559224,58055.8778636650,66487.1670170053,55556.4139176899,56735.2690566839,56385.6911269607,60254.4590026024,11901.5162872433
9642108447,22028,-2,0,16882.4481555924,44170.1630878077,40779.8777220314,58055.5250004572,66483.8452357726,55548.0425422758,56738.6151733102,56388.1733371126,60264.2783339385,11899.9101512627
9642108447,22028,-2,0,17046.2375225260,44204.4516574548,40827.9157890884,58086.7351428080,66531.5547750154,55537.9311862159,56759.6166180266,56436.5764350743,60288.5893921908,11898.7542200645
9642108447,22028,-2,0,17253.0762008192,44227.6676229930,40873.8975153823,58096.6883188092,66555.9510071454,55539.1114528077,56764.8852307509,56450.2650940001,60285.2676109581,11898.6812138836
9642108447,22028,-2,0,17212.7524535480,44209.7446055728,40847.7978056971,58071.9878942586,66528.1478199050,55553.6518505111,56747.8017844115,56414.7354192771,60265.7627929509,11904.0958389698
9642108447,22028,-2,0,17016.5726776717,44182.0752629974,40806.9143443720,58058.7372724184,66497.2905407620,55562.7776231283,56743.5552582203,56393.5392914115,60268.6708724916,11909.5347994496
9642108447,22028,-2,0,16908.9980700600,44174.9936634465,40797.2653607914,58061.0856379053,66493.4820516564,55551.5468389608,56745.6481020738,56402.8962502684,60279.7556442973,11898.4013568566
9642108447,22028,-2,0,16996.7758349408,44193.4398918300,40821.0045372930,58071.6350310507,66514.3009809205,55539.1114528077,56749.6512743286,56421.3059755615,60281.0940909478,11883.1674004343
9642139825,22029,-2,0,17191.9335242839,44228.0569892913,40865.6599846332,58090.5557996104,66546.9104084060,55536.7387519272,56761.0889093421,56444.1690778918,60285.0364247185,11884.2503254516
9642139825,22029,-2,0,17248.2212897868,44228.1908339564,40874.8100926440,58088.6333035124,66540.7778892072,55537.0064412573,56755.3214210481,56431.9892133720,60273.9516529128,11890.1881615012
9642139825,22029,-2,0,17057.7968345078,44192.7463331111,40822.7323502418,58062.6796061891,66496.9133421605,55549.1498026866,56740.1848062003,56389.3901067949,60255.9921324021,11893.3760980688
9642139825,22029,-2,0,16883.7014283652,44175.0666696274,40784.2824282813,58059.2483156850,66480.2922683003,55554.7834463157,56743.5552582203,56382.5761965741,60263.2075766181,11891.8916390564
9642139825,22029,-2,0,16989.5603907247,44200.6310006524,40824.0464614987,58082.8901506120,66519.3140720115,55543.2971405148,56760.2615059582,56427.1829731270,60284.2698598186,11884.2624931484
9642139825,22029,-2,0,17198.5649190524,44225.5626114426,40870.6365726337,58091.2980291166,66546.7157252568,55529.6328169826,56760.5535306819,56445.4953568455,60277.4559495978,11876.7185211182
9642139825,22029,-2,0,17216.6339488345,44214.4900073337,40854.7455605830,58069.6881995591,66528.1478199050,55533.1249459708,56744.7233571153,56412.9589355409,60252.3296556584,11872.6666780761
9642139825,22029,-2,0,17054.3047055196,44189.8139181768,40811.3555537124,58054.4055723495,66499.5050615838,55543.8811899623,56738.0554592563,56388.0151570539,60248.9348682448,11879.9916315635
9642196050,22030,-2,0,16910.2148397423,44180.7124809532,40787.0201600665,58059.2726510786,66492.0219280376,55553.3354903937,56743.8107798536,56390.1323363011,60262.5505209897,11886.9150510558
9642196050,22030,-2,0,16952.1082199037,44202.4926582663,40811.1852059568,58079.3736862301,66521.3704127746,55568.2530866987,56762.4395236895,56419.8458519427,60281.2036002193,11892.0011483278
9642196050,22030,-2,0,17159.6282892190,44245.0430940561,40876.0877008104,58110.3404746445,66569.0556166237,55564.5054360772,56785.4243029880,56462.3354492484,60301.0369460407,11894.9092278685
9642196050,22030,-2,0,17263.3092338473,44249.7763281202,40896.2495744460,58106.4954824485,66570.6617526043,55549.7825229214,56781.5914784888,56459.8167360061,60292.4587197805,11896.6978793014
9642196050,22030,-2,0,17091.3796777391,44206.7270167607,40835.7761212360,58070.1870751288,66520.3118231510,55554.0412168095,56756.3556752780,56406.9602610072,60265.6776190732,11896.3693514872
9642196050,22030,-2,0,16883.3363974605,44178.4492893442,40782.8344723594,58056.9486209855,66492.2409465805,55559.5896865607,56750.6368577712,56387.4189399096,60270.7880517388,11895.5906188905
9642196050,22030,-2,0,16940.7314233743,44196.8103438500,40810.9783551109,58083.1091691548,66522.3073254300,55550.7437709704,56765.3597709270,56425.3943216940,60292.3978812964,11890.6870370709
9642196050,22030,-2,0,17154.5421919470,44232.3521862698,40867.7163253962,58106.5076501453,66560.3070426080,55550.9627895133,56779.2552806988,56456.0204145973,60298.7859221284,11891.7456266945
9642201495,22031,-2,0,17241.7845781675,44237.4504512386,40876.2093777786,58102.7843349175,66562.3147125838,55560.9037978176,56776.3958719454,56446.0185678089,60289.3437893938,11894.3738492083
9642201495,22031,-2,0,17127.5907434842,44214.5265104242,40844.1109935597,58084.0095787197,66536.0811582335,55562.0353936221,56766.5157021252,56419.1401255270,60283.6858103711,11897.5374503822
9642201495,22031,-2,0,16942.2280500835,44186.4434661568,40802.2176133983,58068.6904484196,66508.8620204406,55558.8839601450,56758.5823637966,56401.5821390115,60283.5397980093,11894.6537062352
9642201495,22031,-2,0,16909.5091133266,44189.9355951450,40797.2288577009,58074.1172412026,66519.3140720115,55557.2778241644,56765.5544540762,56415.9035181721,60292.3248751154,11891.9524775405
9642201495,22031,-2,0,17103.0484989923,44224.3336740635,40848.9780722889,58100.0709385260,66560.7815827841,55551.6441805353,56783.7086577360,56458.6364694143,60306.2082171904,11890.8695525232
9642201495,22031,-2,0,17264.7693574660,44237.6329666910,40886.8317771051,58105.7654206391,66572.0853731326,55548.4927470582,56782.5892296283,56465.2556964859,60299.2482946077,11895.9069790079
9642201495,22031,-2,0,17143.9927988015,44204.5976698167,40845.0844093056,58075.2610047040,66526.3104976847,55553.8221982667,56759.6652888138,56413.0562771155,60271.2869273086,11895.1404141081
9642201495,22031,-2,0,16921.5794685750,44171.0513296758,40784.0634097385,58055.5980066381,66489.4423763112,55547.8965299139,56748.0938091352,56383.5861154104,60266.3346747016,11887.6572805620
9642243889,22032,-2,0,16907.1242447493,44177.6462213539,40788.9548238613,58068.8121253878,66502.0116071293,55538.3692233015,56755.3335887449,56409.8926759416,60282.9800839554,11878.5315079448
9642243889,22032,-2,0,17081.2804893761,44205.4737439879,40837.5526049722,58084.3624419275,66536.3731829573,55534.2200386849,56763.4616102226,56439.0951483166,60288.6137275844,11875.3679067708
9642243889,22032,-2,0,17211.5356838657,44217.1303975443,40860.9632536595,58083.5472062404,66543.6372979606,55531.9081762885,56759.7626303884,56434.8607898222,60278.7943962483,11874.9542050788
9642243889,22032,-2,0,17153.0820683283,44198.4773183147,40839.4142625861,58067.7535357642,66519.8616183686,55533.3439645136,56749.9798021428,56410.9877686556,60270.8975610102,11876.8523657832
9642243889,22032,-2,0,16956.0992244617,44166.4519402767,40787.8962342377,58049.6358351949,66485.9015765357,55543.7230099036,56739.6980983274,56383.0020659629,60264.6068617528,11880.1619793191
9642243889,22032,-2,0,16869.7572478061,44166.4762756704,40769.2309873113,58055.1234664620,66489.9412518809,55551.5590066576,56748.4223369495,56391.5559568294,60277.0787509963,11884.3354993293
9642243889,22032,-2,0,17046.2131871324,44204.9383653277,40826.5773424379,58085.2628514924,66539.1960886202,55542.2142154976,56769.4967878468,56437.9635525121,60299.3334684854,11886.2214923369
9642243889,22032,-2,0,17238.5114677221,44223.0560658971,40872.5103979445,58086.7351428080,66556.9000874976,55528.2943703321,56765.0190754159,56447.7098776673,60287.7133180195,11882.2791585662
9642249788,22033,-2,0,17165.3957775131,44194.7174999964,40832.1014767955,58055.3668203985,66520.8350341144,55536.3128825384,56742.6305132617,56402.6042255446,60259.3990875125,11877.2782351720
9642249788,22033,-2,0,16949.7963575074,44161.0981536747,40770.6667755364,58040.3275471253,66486.6559737387,55547.3368158600,56734.2956409380,56377.4049254243,60257.4887591113,11876.5481733626
9642249788,22033,-2,0,16890.1016368940,44167.6443745654,40776.1909098941,58058.6034277534,66502.8755136037,55549.2836473517,56750.5881869839,56404.4293800681,60282.9192454713,11884.5180147817
9642249788,22033,-2,0,17030.2004981134,44200.1442927795,40820.7976864470,58078.4854443621,66538.1740020871,55545.7063444857,56767.2944347218,56434.7877836413,60293.4564709200,11892.0498191151
9642249788,22033,-2,0,17193.3814802058,44222.0704824544,40853.5166232039,58084.4476158053,66557.2164476150,55540.9731104216,56771.1637623115,56445.0816551535,60291.9111734234,11894.9944017462
9642249788,22033,-2,0,17195.9853673260,44212.8352005658,40844.1961674375,58072.2677512855,66540.6197091485,55535.9965224210,56761.6121203055,56429.3731585551,60281.6659726985,11898.1336675265
9642249788,22033,-2,0,16997.1773689359,44172.2924347518,40786.7281353427,58044.4888994388,66495.0151814561,55540.9852781184,56741.4259112763,56391.8479815531,60263.9254707307,11896.8925624506
9642249788,22033,-2,0,16849.7778896228,44157.9467201975,40751.8676839450,58040.9480996633,66482.9934969950,55541.3503090231,56740.9148680097,56383.7564631659,60270.6420393769,11893.5586135211
9642323948,22034,-2,0,16983.7563993402,44188.2929560739,40800.2099434226,58067.6926972801,66523.6701074741,55525.5079677597,56757.7549604126,56426.3677374398,60292.1058565726,11886.0268091877
9642323948,22034,-2,0,17198.4067389937,44210.8518659837,40853.4436170229,58074.3605951391,66543.9901611684,55511.7219672593,56755.0780671116,56439.4236761308,60281.7146434858,11874.7351865360
9642323948,22034,-2,0,17184.2070368014,44195.7152511359,40834.4255068887,58049.0274503537,66516.3816570772,55530.7522450904,56736.4736586693,56405.9746775646,60255.9677970085,11878.6410172162
9642323948,22034,-2,0,17000.0976161734,44171.9882423312,40788.1152527805,58037.4194675846,66488.9069976510,55551.6076774449,56733.1397097398,56385.4964438116,60258.7663672777,11890.1151553202
9642323948,22034,-2,0,16897.8646274671,44172.4992855977,40778.0282321143,58053.6876782369,66495.9642618083,55550.8776156355,56748.4588400399,56405.0742679997,60279.2324333339,11903.3171063731
9642323948,22034,-2,0,16983.4035361323,44195.5570710772,40807.4253876386,58071.4038448111,66523.2564057821,55540.7662595756,56760.1641643836,56428.1685565696,60286.9710885133,11900.9687408863
9642323948,22034,-2,0,17169.3746143742,44220.2088248405,40851.3264377757,58079.9942387681,66548.9789168658,55525.9338371485,56763.1330824084,56444.0352332267,60285.8273250120,11893.6802904893
9642323948,22034,-2,0,17233.7295628707,44215.4025845954,40856.3760319572,58069.4691810163,66540.0234920042,55532.2732071932,56751.7562858789,56431.8918717974,60271.9074798465,11890.4923539217
9642333825,22035,-2,0,17063.3574719559,44184.4357961811,40804.9066743962,58050.4024000947,66502.0237748261,55551.6685159290,56738.7611856720,56395.1575950890,60261.3702543979,11900.5063684070
9642333825,22035,-2,0,16876.2061271222,44166.1112447657,40754.6419188206,58045.3041351259,66481.8984042810,55548.3589023931,56735.6219198917,56384.3283449166,60266.8700533618,11902.7695600161
9642333825,22035,-2,0,16956.3790814886,44184.3141192128,40779.1111571316,58065.3078287028,66510.6020010863,55521.9063295001,56748.0451383479,56419.9431935173,60282.1891836619,11890.8087140391
9642333825,22035,-2,0,17172.8667433624,44209.5255870300,40825.5065851174,58078.9964876286,66540.1573366692,55513.8391465065,56750.2839945634,56440.8959674464,60274.3653546048,11883.0943942534
9642333825,22035,-2,0,17215.9282224188,44207.3597369955,40826.5043362569,58066.6219399597,66530.1068190935,55536.6779134431,56739.7467691147,56418.7264238350,60257.1358959035,11888.8983856379
9642333825,22035,-2,0,17063.9658567970,44189.7530796927,40785.0733285748,58056.3037330538,66503.9949417114,55548.8334425692,56734.5268271777,56397.6884760281,60257.6104360796,11902.0273305099
9642333825,22035,-2,0,16910.8840630676,44176.2834393097,40755.7856823220,58055.4519942762,66491.2553631378,55549.1498026866,56736.5588325471,56395.6929737492,60267.8678045013,11910.3743705304
9642333825,22035,-2,0,16936.2415432466,44190.6048184703,40774.8281278499,58068.3862559990,66506.9151889489,55550.9506218164,56746.6823563038,56416.9864431893,60278.4293653436,11910.3987059241
9642351806,22036,-2,0,17135.8769450206,44224.6013633936,40830.1181422133,58090.5557996104,66547.6404702153,55545.0371211605,56761.5269464278,56450.8004726603,60292.2883720250,11910.9219168875
9642351806,22036,-2,0,17266.1199718134,44233.5567882553,40862.0340109799,58091.5535507499,66553.3592877221,55539.6224960743,56757.8523019872,56451.3358513205,60285.6083064692,11909.3644516941
9642351806,22036,-2,0,17118.4893062606,44194.4376429695,40808.2041202352,58056.0360437237,66505.1995436969,55537.0307766510,56732.9450265907,56400.6573940529,60257.9511315906,11903.6699695810
9642351806,22036,-2,0,16895.1877341660,44158.9809744275,40743.7883332546,58035.9593439659,66470.4972723579,55533.1979521518,56720.7894974646,56373.3530823823,60251.7212708173,11893.0354025577
9642351806,22036,-2,0,16919.8759910198,44172.4749502041,40759.0831281610,58056.2915653570,66493.5915609278,55523.6584778426,56737.3375651438,56405.8286652027,60270.1674992008,11884.5545178721
9642351806,22036,-2,0,17126.2157937432,44205.1452161737,40815.5899122067,58078.8504752668,66530.6056946632,55528.4890534813,56751.9996398154,56436.2235718664,60275.7768074362,11885.9538030068
9642351806,22036,-2,0,17232.4154516138,44216.9722174856,40833.9266313189,58080.6877974870,66536.2393382922,55546.1443815714,56751.5859381234,56428.6674321394,60271.5546166387,11898.7177169740
9642351806,22036,-2,0,17142.5691782732,44201.2150500999,40811.5502368615,58070.9414723318,66514.9702042457,55552.2282299828,56748.1303122257,56408.7975832275,60271.6762936069,11913.8178287313
9642382098,22037,-2,0,16960.4065891370,44172.9251549866,40772.7961224805,58056.4254100221,66490.7078167808,55547.7626852488,56740.8783649192,56394.3058563114,60267.9286429854,11917.3951315973
9642382098,22037,-2,0,16904.5690284165,44168.8611442477,40764.1083869489,58056.6809316554,66492.1192696122,55542.4575694340,56741.1460542493,56398.9539164977,60269.8024682962,11909.0115884863
9642382098,22037,-2,0,17078.4210806227,44197.4308963880,40814.7138380355,58075.9545634229,66530.9220547806,55530.2777049143,56752.6201923534,56433.0478029956,60279.5244580577,11897.6956304409
9642382098,22037,-2,0,17252.6503314304,44215.1713983558,40851.1317546266,58082.0019087439,66547.3849485820,55524.1573534123,56751.7927889694,56439.3019991626,60272.1386660862,11890.2003291980
9642382098,22037,-2,0,17154.2988380106,44185.7377397411,40802.6069796967,58052.4222377673,66507.6452507583,55528.8905874764,56729.2217113629,56391.3612736802,60243.3133923126,11886.8663802685
9642382098,22037,-2,0,16925.1446037441,44153.6271878254,40742.2308680612,58033.5866430854,66472.8213024510,55537.0186089542,56718.9643429411,56363.2538940192,60240.1497911386,11888.3265038873
9642382098,22037,-2,0,16895.9056282786,44165.4785245309,40757.8906938724,58054.5272493177,66494.4311320086,55538.7099188126,56734.5511625713,56399.0999288596,60269.0115680027,11894.3860169051
9642382098,22037,-2,0,17072.1668844557,44199.1587093368,40812.9373542993,58076.4291035990,66534.0248174704,55536.1425347829,56746.5485116387,56435.9193794458,60281.6781403954,11895.8826436143
9642455415,22038,-2,0,17216.1959117489,44214.4413365464,40844.1961674375,58078.0960780637,66544.0631673494,55539.8901854044,56744.5043385725,56437.0753106440,60276.0323290695,11900.1170021087
9642455415,22038,-2,0,17174.4728793430,44195.6909157423,40828.4755031422,58061.2073148735,66516.3938247740,55536.2520440543,56730.8278473435,56412.9711032378,60264.3391724227,11895.9921528857
9642455415,22038,-2,0,16978.8771529142,44158.4090926768,40777.4320149700,58039.1837836240,66475.6198727203,55536.8117581082,56718.1734426476,56382.7465443296,60251.2832337316,11890.5653601027
9642455415,22038,-2,0,16867.1046898987,44148.2368981328,40754.5324095492,58044.3672224705,66470.8379678689,55548.5170824519,56724.3302972400,56384.6568727308,60258.6933610968,11888.3873423714
9642455415,22038,-2,0,17021.0017193152,44186.5408077314,40807.1090275212,58077.4998609194,66519.2775689210,55542.2993893753,56751.3060810965,56433.2668215384,60284.1360151536,11895.4932773160
9642455415,22038,-2,0,17232.5857993694,44213.8451194021,40861.2187752928,58089.6918931360,66544.9270738238,55528.4525503908,56753.5814404024,56455.3146881816,60280.7655631336,11901.3216040942
9642455415,22038,-2,0,17192.7730953647,44192.8801777762,40831.1158933528,58062.2415691034,66513.1328820255,55531.8473378044,56731.1077043704,56416.3902260450,60254.4590026024,11903.8768204270
9642455415,22038,-2,0,16977.3926939018,44157.8615463197,40765.5076720835,58038.9160942939,66470.8988063530,55535.5341499418,56718.3559581000,56380.7632097474,60247.3408999610,11903.0007462557
9642459132,22039,-2,0,16895.2485726501,44152.9822998938,40755.6761730506,58048.4799039967,66477.9073997230,55538.6977511157,56728.8323450645,56397.4086190012,60266.7483763936,11903.3171063731
9642459132,22039,-2,0,17024.2018235797,44183.5110512225,40798.3726212023,58070.7832922731,66514.2644778300,55541.3016382358,56745.6237666802,56429.9207049121,60281.8728235445,11903.0007462557
9642459132,22039,-2,0,17194.4887406167,44209.2944007903,40840.3146721510,58078.7896367826,66539.8044734614,55538.1988755460,56750.1988206856,56440.4944334513,60279.6339673291,11896.9047301474
9642459132,22039,-2,0,17208.9074613519,44198.5746598893,40837.3214187325,58062.2902398907,66523.4997597186,55526.8342467134,56736.7170126058,56418.2032128716,60265.7871283446,11890.1638261075
9642459132,22039,-2,0,17018.6776892220,44160.5019365303,40780.0480697869,58033.4649661172,66479.3188525545,55532.3340456773,56718.0761010730,56377.6604470576,60249.3485699368,11892.7433778340
9642459132,22039,-2,0,16852.6251306794,44141.1309631882,40734.1393496740,58029.1697691387,66462.2232385183,55534.0618586262,56717.4798839287,56365.0182100586,60250.4679980445,11892.8528871054
9642459132,22039,-2,0,16963.7648734601,44171.3433543996,40772.0417252774,58061.2681533576,66503.6299108067,55528.0266810020,56741.0122095843,56411.8638428269,60276.6042108202,11893.6194520052
9642459132,22039,-2,0,17199.9885395807,44209.4039100617,40836.7008661946,58086.3092734192,66544.1970120144,55530.5818973348,56755.3579241385,56445.8968908406,60282.9800839554,11900.0074928373
9642482804,22040,-2,0,17222.3040955540,44205.4250732006,40837.0415617056,58070.7832922731,66530.5326884823,55541.6423337469,56742.6305132617,56421.1721308964,60264.9353895670,11909.0480915767
9642482804,22040,-2,0,17035.2379245981,44176.5997994271,40786.1562535921,58044.9026011307,66493.7254055929,55544.3800655321,56729.5867422675,56390.5947087804,60257.3792498399,11913.8908349123
9642482804,22040,-2,0,16902.5491907439,44166.3911017926,40765.3738274185,58045.8638491798,66487.4712094259,55546.5824186570,56733.2857221017,56397.3721159108,60268.9142264281,11915.8133310103
9642482804,22040,-2,0,16970.5787836810,44188.0130990470,40790.2689351182,58065.2348225219,66514.2644778300,55546.4729093856,56745.9036237071,56422.6565899088,60280.7898985273,11913.7083194599
9642482804,22040,-2,0,17150.1739887876,44215.0497213876,40831.6999428003,58078.7531336922,66544.9757446111,55535.6436592132,56752.6323600502,56441.4070107130,60281.9701651191,11909.7051472052
9642482804,22040,-2,0,17229.5560428605,44210.5841766536,40839.9983120336,58067.4006725564,66538.2105051775,55518.1708465754,56741.1338865525,56429.8111956407,60267.2715873570,11902.1855105686
9642482804,22040,-2,0,17069.3318110960,44169.0314920032,40790.8164814752,58036.4582195356,66493.4698839596,55528.2091964544,56716.2022757623,56387.1877536699,60245.9294471295,11900.2265113801
9642482804,22040,-2,0,16868.0659379477,44146.1927250665,40743.9100102228,58026.0670064488,66470.8866386562,55545.9375307254,56713.1846869502,56373.6207717124,60250.9182028269,11899.9466543532
9642511665,22041,-2,0,16928.2717018276,44170.8688142235,40772.8691286614,58052.5925855228,66506.9273566458,55536.5075656876,56733.3708959795,56416.6214122846,60276.9570740280,11899.6302942358
9642511665,22041,-2,0,17157.1825821576,44207.3354016018,40831.0793902624,58076.6967929291,66545.3529432126,55526.3110357500,56746.9013748466,56448.1600824497,60278.3928622532,11900.6888838594
9642511665,22041,-2,0,17228.2906023909,44207.2015569368,40833.0140540572,58064.3222452602,66532.8080477882,55526.3110357500,56733.3587282826,56424.5912537037,60256.8803742702,11900.6037099816
9642511665,22041,-2,0,17080.6356014445,44175.0058311433,40786.2049243793,58041.9945215901,66494.5771443705,55526.0555141167,56716.2509465496,56389.4509452790,60246.2214718533,11897.1845871744
9642511665,22041,-2,0,16908.5478652776,44149.9525433848,40742.0361849121,58031.5059669287,66468.3679254139,55517.6233002184,56709.0963408177,56378.1714903242,60248.0101232863,11889.0565656966
9642511665,22041,-2,0,16904.5568607197,44157.4721800214,40742.6445697532,58042.0918631646,66479.1120017085,55522.9284160332,56721.3735469121,56395.4496198127,60253.1570590424,11886.1606538528
9642511665,22041,-2,0,17089.6640324871,44195.6179095613,40794.4911259158,58068.7026161164,66522.7575302124,55528.1605256671,56745.0883880200,56432.2812380958,60266.7848794841,11891.8186328754
9642511665,22041,-2,0,17245.1063594002,44222.2286625131,40842.5170252759,58081.6368778392,66546.6183836822,55534.8770943133,56754.9320547497,56449.9609015795,60268.3058415869,11905.5802979822
9642556680,22042,-2,0,17131.2897233184,44197.2118778451,40809.0801944065,58055.9143667555,66510.5898333895,55535.0231066752,56738.6760117943,56408.5177262006,60249.2268929686,11911.6519786968
9642556680,22042,-2,0,16898.3269999463,44158.2874157086,40739.6999871221,58029.5834708307,66466.2385784698,55528.1118548798,56722.2252856897,56370.1773135115,60239.0181953341,11905.7993165250
9642556680,22042,-2,0,16895.6136035548,44166.1355801594,40748.6797473774,58045.3041351259,66484.8429869121,55528.5012211781,56736.5223294566,56399.9516676372,60261.6866145153,11900.6037099816
9642556680,22042,-2,0,17104.1679271000,44201.5192425205,40815.7602599623,58072.6571175839,66530.4231792109,55536.9456027732,56753.9464713071,56441.1271536861,60278.4293653436,11902.3923614146
9642556680,22042,-2,0,17224.9079826741,44213.5165915879,40834.5958546442,58071.6715341412,66539.5367841312,55537.6634968858,56750.8072055267,56434.6539389762,60269.0845741836,11907.0890923882
9642556680,22042,-2,0,17137.6899318472,44190.0086013260,40799.6137262782,58053.3226473322,66511.3077275020,55535.4733114577,56737.5687513834,56406.7655778581,60257.2940759622,11909.5591348433
9642556680,22042,-2,0,16955.2596533809,44158.4334280704,40754.4107325810,58040.9602673601,66480.7546407796,55541.3746444168,56729.6110776612,56392.4198633038,60253.1935621328,11908.9629176990
9642556680,22042,-2,0,16884.4314901745,44153.0431383779,40740.6368997774,58039.8651746460,66478.6252938356,55534.5120634086,56730.5723257102,56395.4496198127,60255.7366107688,11901.4919518497
9642570259,22043,-2,0,17042.2100148776,44184.5939762398,40786.2657628635,58060.6719362133,66517.8782837864,55531.0686052078,56747.1933995703,56431.0157976262,60269.5956174502,11896.8682270570
9642570259,22043,-2,0,17238.7061508713,44210.0001272061,40837.2362448548,58074.6647875597,66547.2389362202,55528.4160473004,56758.3146744665,56450.9464850222,60272.8078894114,11903.7673111556
9642570259,22043,-2,0,17173.3534512353,44189.6922412086,40810.8931812331,58049.1369596251,66515.9436199916,55535.1082805530,56738.6881794911,56411.3284641667,60248.2169741323,11908.9629176990
9642570259,22043,-2,0,16937.6408283813,44156.6691120311,40747.8280085998,58026.4807081408,66477.5058657279,55544.5990840749,56724.1356140909,56375.0808953311,60238.9695245468,11910.5447182859
9642570259,22043,-2,0,16874.4539787797,44161.3780107016,40746.4530588588,58040.2545409444,66487.7145633623,55541.4719859914,56735.3663982584,56401.2901142877,60260.3968386520,11906.7727322708
9642570259,22043,-2,0,17038.1460041388,44191.1401971305,40796.0120880186,58060.8057808783,66524.1446476502,55534.2930448658,56746.7310270911,56438.3407511136,60271.3234303990,11900.1778405928
9642570259,22043,-2,0,17189.6825003717,44206.0577934354,40823.8396106527,58059.3091541691,66535.9594812653,55524.1330180187,56744.3096554233,56436.2114041696,60259.7397830236,11896.0773267635
9642570259,22043,-2,0,17163.7288030483,44192.0406066954,40807.5835676972,58045.7178368179,66515.3108997568,55523.8896640822,56733.4195667668,56412.7642523918,60248.4359926751,11899.4964495707
9642608131,22044,-2,0,16981.4080338534,44160.2950856843,40761.1151335304,58028.7560674467,66480.5721253273,55529.4381338335,56720.4001311662,56384.8272204863,60241.7437594225,11902.3558583241
9642608131,22044,-2,0,16856.0442534866,44147.6041778980,40727.1429240008,58025.9331617838,66468.5504408662,55528.1483579702,56719.4753862077,56377.5022669989,60243.3377277063,11897.9998228615
9642608131,22044,-2,0,16982.1624310564,44174.4582847862,40756.7590980678,58051.0959588136,66503.7394200781,55514.3866928635,56734.8553549919,56414.9544378199,60260.7618695567,11886.8298771780
9642608131,22044,-2,0,17203.6510163244,44205.8752779831,40810.5646534189,58072.8031299458,66539.3907717694,55509.7873034644,56746.6093501228,56441.9667247668,60266.1764946429,11886.8420448749
9642608131,22044,-2,0,17193.1867970567,44190.6169861671,40799.2243599799,58053.7363490242,66514.6295087347,55523.3542854220,56730.7183380721,56408.0431860245,60244.7370128409,11893.1327441323
9642608131,22044,-2,0,16982.6734743230,44158.4820988577,40746.4895619493,58033.9030032028,66475.4495249648,55538.3570556047,56719.6457339632,56374.5698520646,60240.9528591290,11900.9565731895
9642608131,22044,-2,0,16880.0511193183,44156.9854721485,40735.6968148673,58048.1878792729,66482.9934969950,55538.2597140301,56732.0567847226,56394.4275332796,60260.2021555029,11907.5879679580
9642608131,22044,-2,0,16997.6884122025,44188.4998069199,40778.5271076841,58073.5696948456,66522.7453625156,55536.9699381669,56748.3858338590,56433.8143678955,60274.6208762380,11911.4937986381
9642657158,22045,-2,0,17174.0105068637,44218.4080057107,40819.4957428869,58085.2385160988,66552.2885304017,55537.4809814334,56750.6490254680,56448.7562995940,60275.7768074362,11908.9385823053
9642657158,22045,-2,0,17211.1098144769,44211.5819277930,40815.0545335465,58073.9468934471,66539.4029394662,55523.6219747521,56737.3740682342,56432.7557782719,60261.0660619773,11905.4099502267
9642657158,22045,-2,0,17039.9833263590,44172.9008195929,40758.3530663516,58048.3947301189,66494.1391072848,55530.6914066062,56719.1955291807,56393.7704776512,60243.0213675889,11903.0007462557
9642657158,22045,-2,0,16865.0483491356,44155.8295409503,40716.6787047331,58044.2455455023,66472.9064763288,55542.6765879768,56722.0671056310,56382.1138240948,60249.0687129099,11902.1976782654
9642657158,22045,-2,0,16949.8206929010,44187.0031802107,40755.7126761410,58075.8328864547,66510.6263364799,55539.9388561917,56745.8306175262,56422.7052606961,60275.9349874949,11900.9079024022
9642657158,22045,-2,0,17185.5211480582,44225.5382760490,40826.5773424379,58101.0565219686,66552.4223750667,55531.8960085917,56761.0280708580,56458.9284941380,60282.6880592317,11902.3193552336
9642657158,22045,-2,0,17227.0251619213,44220.9753897403,40825.8472806285,58083.3768584849,66538.7823869282,55536.2033732670,56745.9279591008,56433.4371692940,60258.9610504269,11905.2396024711
9642657158,22045,-2,0,17042.2708533617,44190.8725078004,40776.1665745004,58056.2915653570,66503.1310352370,55545.0492888573,56730.5966611038,56397.0435880965,60247.5842538975,11911.9926742079
9642674850,22046,-2,0,16890.3206554368,44173.0589996516,40746.4773942524,58051.4244866278,66487.1061785212,55538.2840494238,56730.4871518324,56396.2040170157,60254.6780211452,11911.0557615525
9642674850,22046,-2,0,16939.8431815062,44184.6913178143,40758.8276065277,58065.1253132505,66504.2869664352,55530.4115495793,56740.3186508654,56414.2243760105,60260.3360001679,11903.1832617081
9642674850,22046,-2,0,17120.6064855078,44209.8176117537,40795.9999203218,58081.0284929981,66531.3600918662,55524.2181918964,56748.6291877954,56435.2866592110,60261.1877389455,11896.8438916633
9642674850,22046,-2,0,17223.7155483854,44213.0542191086,40813.6309130183,58078.3637673938,66532.5768615485,55517.7936479739,56743.9932953059,56435.4326715729,60254.6901888421,11895.9678174921
9642674850,22046,-2,0,17092.2192488199,44184.2897838192,40775.3270034196,58055.0139571906,66496.0129325956,55534.1713678976,56727.3600537489,56402.2270269431,60241.7924302097,11905.9696642805
9642674850,22046,-2,0,16876.6076611174,44156.7542859089,40724.0888320982,58041.6903291695,66464.7054486702,55543.6986745100,56720.7286589804,56379.2057445541,60242.6563366842,11909.3887870878
9642674850,22046,-2,0,16905.6276180401,44175.5898805908,40741.6103155233,58066.0743936027,66493.7010701992,55534.5607341959,56738.2014716182,56413.7620035313,60266.9430595428,11907.1986016596
9642674850,22046,-2,0,17130.4988230249,44210.4503319885,40801.7309055254,58089.2295206567,66537.0302385857,55521.3101123557,56752.1334844805,56447.1501636134,60272.1021629957,11899.7884742945
9642699366,22047,-2,0,17222.9489834856,44213.5774300720,40811.6354107393,58078.9234814477,66534.7305438862,55525.4349615787,56743.7012705821,56427.8156933618,60252.1471402061,11899.7154681135
9642699366,22047,-2,0,17089.2259954015,44182.4767969926,40767.8317021767,58052.1788838309,66498.3247949919,55521.0059199352,56730.1342886246,56388.8182250442,60235.0880292603,11902.3193552336
9642699366,22047,-2,0,16911.1274170041,44153.2621569207,40725.5246203233,58039.6218207096,66472.6509546955,55519.9594980084,56723.6854093084,56377.0642299133,60237.0713638424,11898.6203753995
9642699366,22047,-2,0,16887.8749483754,44157.3018322659,40726.1086697708,58046.9346065002,66480.5112868431,55525.6661478184,56728.1509540424,56394.3058563114,60248.3629864941,11894.7267124161
9642699366,22047,-2,0,17058.5268963172,44194.6201584219,40777.4563503636,58070.3087520971,66523.7431136551,55532.0663563472,56742.6548486554,56431.8310333133,60264.4486816941,11897.1480840839
9642699366,22047,-2,0,17223.5208652363,44218.7121981313,40822.9148656942,58079.9699033745,66545.0609184889,55525.8851663612,56747.0473872085,56443.8162146839,60264.8258802956,11903.3901125541
9642699366,22047,-2,0,17132.8836916022,44192.9410162603,40788.2612651424,58054.1135476257,66506.0634501713,55528.1605256671,56728.4064756757,56403.0179272366,60240.7460082830,11905.2396024711
9642699366,22047,-2,0,16901.8799674186,44160.8304643445,40723.6264596190,58038.1373616972,66469.2196641915,55546.3390647205,56722.0427702373,56375.3120815708,60239.0790338182,11907.8434895913
9642730409,22048,-2,0,16879.9294423500,44173.7768937642,40731.0974254682,58061.6453519591,66492.8858345121,55541.5693275660,56745.2465680787,56410.4280546018,60269.0967418804,11910.1675196844
9642730409,22048,-2,0,17081.9253773077,44210.7666921059,40791.7290587370,58086.7473105048,66535.9959843558,55537.3958075557,56759.8234688725,56449.2795105574,60280.3883645321,11911.6519786968
9642730409,22048,-2,0,17217.0476505265,44224.5161895158,40818.1816316300,58082.4034427391,66545.4746201808,55540.6810856979,56755.4065949258,56442.7089542730,60269.1089095772,11915.0102630200
9642730409,22048,-2,0,17139.7219372167,44205.9239487704,40789.8065626389,58062.9107924287,66516.1018000503,55539.9388561917,56742.2168115697,56412.6547431204,60256.6491880306,11913.7934933377
9642730409,22048,-2,0,16951.5971766372,44172.5844594755,40741.0749368630,58044.7079179816,66479.4040264323,55533.5751507533,56732.6043310796,56390.4973672058,60249.3485699368,11905.6411364663
9642730409,22048,-2,0,16864.2452811453,44163.7142084916,40718.9540640389,58043.4303098152,66473.3080103240,55530.3263757016,56731.9107723607,56390.2905163598,60249.5189176923,11899.5937911453
9642730409,22048,-2,0,17006.5099923991,44192.6003207492,40760.3242332369,58067.3033309818,66511.6970938004,55528.2700349385,56750.6368577712,56423.2406393563,60262.4045086278,11898.3526860694
9642730409,22048,-2,0,17211.5843546530,44220.0019739945,40811.6962492234,58086.1389256637,66541.2767647769,55521.6508078668,56762.5003621736,56444.7896304298,60265.0935696257,11898.3405183725
9642778232,22049,-2,0,17173.2439419639,44197.8932688672,40787.6285449076,58061.9860474702,66510.6871749640,55523.6949809330,56745.6481020738,56406.8994225231,60240.2714681069,11896.6857116046
9642778232,22049,-2,0,16940.5854110124,44159.7718747210,40717.8589713249,58035.0832697946,66465.2529950272,55530.8495866649,56728.8931835486,56364.4584960047,60224.3682883593,11894.8727247780
9642778232,22049,-2,0,16857.0420046261,44162.2784202665,40712.2374953927,58047.7011714000,66472.0912406417,55527.3939607672,56737.7512668357,56384.0971586769,60243.4107338872,11895.0065694430
9642778232,22049,-2,0,17010.0751275682,44198.9275230972,40766.0187153501,58074.5309428946,66515.7976076297,55526.8707498038,56752.5958569597,56425.7958556891,60259.1070627888,11901.3337717910
9642778232,22049,-2,0,17173.0005880274,44218.3471672266,40799.5163847036,58077.0861592274,66535.0955747909,55522.7824036713,56748.7021939764,56429.7016863693,60251.0763828857,11900.7375546467
9642778232,22049,-2,0,17164.2398463149,44204.7801852690,40785.6452103255,58062.0833890447,66517.8904514832,55520.8477398765,56737.2645589628,56408.8462540148,60239.1155369087,11898.8393939423
9642778232,22049,-2,0,16991.7505761529,44169.2383428492,40741.0384337726,58045.2554643386,66481.4603671953,55532.6747411884,56726.7638366046,56382.0529856107,60230.8901738564,11899.8249773849
9642778232,22049,-2,0,16851.8098949922,44155.7200316789,40709.8282914217,58043.2599620596,66469.1831611010,55542.9807803974,56732.2027970845,56377.7699563290,60237.3512208694,11902.4166968082
9642783966,22050,-2,0,16956.3669137918,44184.4357961811,40748.7649212551,58070.0045596765,66504.0922832860,55534.9744358879,56755.8446320114,56419.3591440698,60259.9709692632,11903.2806032826
9642783966,22050,-2,0,17186.1660359898,44217.4589253585,40810.2969640888,58090.9816689992,66540.7170507231,55525.3132846105,56769.1439246389,56452.4309440346,60265.5072713177,11902.7573923193
9642783966,22050,-2,0,17204.5392581925,44207.2137246336,40805.2595376041,58073.5696948456,66521.9787976157,55537.3228013747,56755.1510732925,56423.0946269945,60244.7491805377,11903.2806032826
9642783966,22050,-2,0,16993.0768551066,44171.8178945757,40743.4598054403,58049.4898228330,66478.7226354102,55545.3778166715,56739.9292845670,56381.5784454346,60237.3633885662,11902.0760012972
9642783966,22050,-2,0,16861.5440524506,44160.1490733225,40717.7859651439,58053.2374734545,66473.0038179034,55532.6382380979,56745.1248911104,56385.9223132004,60250.6140104064,11896.0164882794
9642783966,22050,-2,0,16958.3259129803,44178.6196370997,40744.9685998464,58068.6052745418,66498.3491303856,55514.0581650493,56751.1965718251,56415.2221271500,60256.4301694877,11890.6627016773
9642783966,22050,-2,0,17137.5804225758,44201.7139256696,40775.8745497767,58074.6769552565,66520.2266492732,55509.3492663788,56748.9455479128,56428.0103765109,60249.1173836972,11888.4481808555
9642783966,22050,-2,0,17195.6325041181,44200.4728205937,40777.2373318208,58065.4051702774,66512.1838016733,55514.3380220762,56737.8972791976,56416.2077105927,60238.0812826788,11889.2755842394
9642824221,22051,2,0,17050.4353779299,44175.0788373242,40738.7265713762,58046.3505570527,66481.3751933176,55533.6116538437,56726.4718118809,56388.5262003205,60232.0826081450,11895.8826436143
9642824221,22051,2,0,16867.1533606860,44158.9566390338,40697.0643774545,58040.8385903919,66465.0948149685,55551.3521558116,56727.7737554409,56374.8618767883,60238.5193197644,11901.2242625196
9642824221,22051,2,0,16921.8471579051,44183.3650388606,40726.7292223088,58066.6097722629,66500.7461666597,55531.6039838680,56749.2740757271,56410.2698745431,60261.2972482169,11898.4986984312
9642824221,22051,2,0,17148.0811449340,44210.7301890154,40790.8286491721,58082.8901506120,66535.9108104780,55502.4015114929,56758.6918730680,56439.5696884927,60261.3702543979,11889.4824350854
9642824221,22051,2,0,17211.2558268388,44201.2758885840,40792.5199590304,58065.2226548251,66521.3217419873,55508.6922107504,56742.7400225331,56414.1026990423,60234.2241227859,11888.3751746745
9642824221,22051,2,0,17042.2465179681,44172.0125777248,40741.5008062519,58044.3915578642,66485.0011669708,55536.9942735605,56732.5434925955,56379.1935768573,60226.8383308144,11894.3616815114
9642824221,22051,2,0,16897.3900872910,44168.1310824383,40717.7372943567,58056.0482114206,66480.9614916256,55547.6896790679,56741.7422713937,56389.4022744917,60249.2268929686,11902.1611751749
9642824221,22051,2,0,16934.8909288993,44186.0297644649,40734.9302499675,58074.7864645279,66501.4640607723,55536.2763794480,56752.7418693216,56416.0130274435,60261.2972482169,11898.7298846709
9642890705,22052,2,0,17102.8659835400,44210.8153628932,40774.4144261579,58084.3746096244,66526.7120316799,55530.3263757016,56755.5404395909,56434.7756159445,60263.9376384275,11893.0840733450
9642890705,22052,2,0,17216.3419241107,44217.3980868744,40796.3406158329,58080.0672449490,66532.6255323358,55525.0577629772,56750.9653855854,56436.6737766489,60258.6568580063,11892.2566699611
9642890705,22052,2,0,17102.8903189336,44186.2122799172,40760.4824132956,58054.5637524082,66494.7961629133,55525.2524461264,56733.4439021604,56400.3897047228,60237.2173762043,11890.8695525232
9642890705,22052,2,0,16882.6915095288,44153.7366970968,40699.8264446333,58035.8985054818,66457.1128058526,55532.2245364059,56723.1256952546,56369.2038977656,60228.1646097680,11888.7523732761
9642890705,22052,2,0,16879.6739207168,44168.3379332843,40711.6777813388,58054.7341001637,66482.3607767602,55522.3687019794,56739.3208997259,56397.5789667567,60248.1804710418,11884.9925549578
9642890705,22052,2,0,17095.8938932604,44200.3268082318,40773.2949980502,58075.3461785817,66522.7818656061,55500.3208353362,56751.2087395219,56432.6219336068,60254.5441764802,11877.1200551133
9642890705,22052,2,0,17204.3324073465,44197.7350888085,40785.3166825113,58056.7174347458,66517.4889174881,55497.1694018590,56734.1374608793,56410.4888930859,60228.7608269124,11872.1191317191
9642890705,22052,2,0,17076.9001185198,44166.0260708879,40738.4102112588,58026.6632235932,66478.0290766913,55503.6547842657,56713.7930717914,56367.7559418437,60211.2271757905,11867.8482701342
9642895530,22053,2,0,16894.6888585963,44135.8380150702,40691.8444355174,58012.7190430341,66450.7004296269,55494.0179683819,56705.4338640740,56351.4390604041,60210.1685861669,11864.0519487255
9642895530,22053,2,0,16863.8437471501,44136.9209400875,40691.5159077032,58022.5140389765,66458.4269171095,55506.9400624079,56713.4523762803,56363.6797634080,60217.6517197130,11866.4368173028
9642895530,22053,2,0,17035.3230984758,44180.8098225278,40749.3246353090,58055.1599695525,66505.9782762936,55521.1154292066,56737.6660929580,56408.3595461419,60241.9384425716,11884.2989962389
9642895530,22053,2,0,17213.0079751813,44209.0997176412,40800.7696574764,58071.0874846937,66531.5426073186,55514.9464069174,56748.0573060448,56431.8432010101,60246.7325151199,11897.1967548712
9642895530,22053,2,0,17155.9293093848,44188.7553285532,40774.8889663340,58052.8481071561,66502.9241843910,55514.1311712302,56735.3907336521,56401.7038159797,60223.9667543641,11903.9863296984
9642895530,22053,2,0,16916.4203651220,44149.3684939373,40697.2468929068,58025.4464539109,66455.3606575101,55515.8711518759,56719.8647525060,56361.1002116816,60208.8058041227,11898.0971644361
9642895530,22053,2,0,16856.4701228754,44153.5541816444,40692.3919818745,58039.3176282890,66468.7816271058,55519.4849578323,56733.6507530064,56387.3094306382,60232.3746328688,11894.7632155066
9642895530,22053,2,0,17049.9973408443,44191.1280294337,40756.5035764345,58066.7922877152,66514.9337011553,55513.0360785162,56752.4255092042,56435.2866592110,60253.2300652233,11895.3837680446
9642943647,22054,2,0,17204.2715688624,44205.2547254451,40788.5654575630,58067.4371756468,66525.8359575086,55515.7373072108,56751.6102735171,56434.7147774604,60244.6396712663,11895.7001281620
9642943647,22054,2,0,17146.3411642884,44185.7742428316,40761.4193259510,58048.4677362999,66499.2495399505,55518.8887406880,56738.3231485864,56402.6772317256,60229.6490687804,11891.0399002788
9642943647,22054,2,0,16964.2637490299,44154.3694173316,40716.9098909727,58032.3090349190,66466.2385784698,55521.0302553288,56729.0270282137,56379.4125954001,60228.4566344918,11887.0853988113
9642943647,22054,2,0,16867.7739132239,44152.4469212335,40700.6538480172,58037.2856229196,66466.3602554381,55533.7820015993,56733.5655791286,56385.3869345402,60241.0502007035,11891.8186328754
9642943647,22054,2,0,16993.4175506176,44186.8936709393,40740.5517258997,58061.4141657195,66504.7371712176,55528.0145133052,56749.9676344460,56422.9242792389,60259.7276153268,11893.8749736385
9642943647,22054,2,0,17202.5315882167,44217.3372483903,40795.9877526250,58079.3371831397,66537.7968034856,55523.0379253046,56759.4584379679,56449.2065043765,60265.6654513764,11895.7487989492
9642943647,22054,2,0,17189.2322955892,44203.4295709217,40781.8002181294,58059.0658002327,66513.9359500158,55525.6904832120,56745.0762203231,56416.4267291355,60242.7901813492,11895.5419481033
9642943647,22054,2,0,16950.9766240992,44157.9710555912,40707.9301307174,58023.5847962969,66459.2664881903,55523.5246331775,56724.5858188733,56364.7991915157,60222.6891461977,11886.0633122782
9642980610,22055,2,0,16836.2230753620,44146.2778989443,40685.2860469299,58029.4739615593,66456.5287564051,55518.4872066928,56727.7372523505,56374.9348829692,60234.4188059350,11880.0889731381
9642980610,22055,2,0,16982.7221451103,44174.0080800038,40737.6923171463,58057.5205027361,66496.1467772606,55517.8423187612,56743.9081214281,56416.1103690181,60248.8740297607,11884.6396917499
9642980610,22055,2,0,17167.5007890635,44202.5778321441,40781.3743487406,58071.8053788063,66526.1158145355,55521.4561247176,56750.6246900744,56430.2005619390,60244.4328204203,11895.1404141081
9642980610,22055,2,0,17182.5643977303,44198.2339643783,40776.0692329258,58064.9062947077,66516.4424955613,55519.8013179497,56745.0640526263,56415.8548473848,60235.5625694364,11904.0836712730
9642980610,22055,2,0,17019.3834156378,44169.4816967857,40730.2091836002,58045.8395137861,66480.4747837527,55519.3632808641,56732.0202816321,56385.1192452101,60225.9744243399,11906.4685398503
9642980610,22055,2,0,16858.9158299368,44149.3928293310,40692.1972987253,58034.6695681027,66457.5143398478,55524.9725890995,56723.3933845847,56370.1529781178,60221.9347489947,11904.2296836348
9642980610,22055,2,0,16932.2505386887,44171.5988760328,40718.1388283518,58055.0991310684,66486.9723338561,55516.5403752012,56736.8508572708,56398.4915440185,60239.1033692119,11894.5685323574
9642980610,22055,2,0,17160.9058973854,44204.3543158802,40779.8168835473,58077.9378980050,66526.7363670735,55504.4456845592,56748.4710077367,56432.6584366973,60248.2534772227,11886.7447033003
9643012121,22056,2,0,17209.2724922566,44201.3123916745,40780.7902992931,58067.2789955881,66517.0022096152,55516.6133813821,56738.5543348260,56411.9611844015,60233.1898685559,11889.6162797505
9643012121,22056,2,0,17006.0476199198,44164.9309781739,40715.8999721364,58034.5357234376,66473.1985010526,55525.6783155152,56718.6601505205,56366.1376381663,60218.9658309699,11896.7465500887
9643012121,22056,2,0,16849.0721632071,44144.3675705431,40682.6578244161,58026.5780497154,66457.7211906938,55512.1600043449,56712.5763021091,56363.1078816573,60225.6580642225,11890.1273230170
9643012121,22056,2,0,16928.5758942482,44161.7673769999,40712.9432218084,58041.6538260790,66481.5942118604,55501.1239033265,56719.2320322712,56392.3590248197,60234.3701351478,11885.3210827720
9643012121,22056,2,0,17111.9187499763,44190.8360047099,40757.2093028503,58056.9486209855,66510.8940258100,55508.8017200218,56725.7052469810,56412.0950290665,60235.5990725269,11889.2147457553
9643012121,22056,2,0,17191.7753442252,44200.3998144128,40774.5482708230,58057.1798072251,66514.6416764315,55517.7328094898,56727.1166998125,56411.5718181031,60234.7716691429,11901.0539147640
9643012121,22056,2,0,17067.3849796043,44178.8629910361,40741.6589863106,58039.0134358684,66485.4757071469,55525.0090921899,56718.1247718603,56386.9322320367,60227.9820943157,11910.0215073226
9643012121,22056,2,0,16867.6644039525,44149.4536678151,40689.7029208766,58021.4311139593,66452.8662796614,55524.0113410504,56707.9404096195,56361.6477580386,60220.9613332489,11905.9574965837
9643019238,22057,2,0,16884.1759685412,44159.2608314544,40699.8507800269,58036.3487102642,66471.6410358592,55513.3524386335,56721.1666960661,56386.5428657383,60234.9663522921,11894.6172031447
9643019238,22057,2,0,17110.4221232670,44193.8292581284,40760.0443762100,58062.7161092795,66511.8917769495,55509.0572416550,56733.7724299746,56424.2383904958,60246.2944780342,11888.2048269190
9643019238,22057,2,0,17210.2337403056,44202.0181180902,40774.2197430087,58058.9076201740,66514.6903472188,55518.2803558468,56726.9828551474,56411.9733520983,60233.6157379447,11891.3684280930
9643019238,22057,2,0,17060.2912123565,44183.2920326797,40730.6228852921,58041.0697766315,66484.4657883106,55539.5373221965,56718.0274302857,56378.5851920161,60228.3592929172,11903.7308080651
9643019238,22057,2,0,16895.7474482199,44170.3456032601,40699.4127429413,58045.4866505782,66474.5491153999,55541.2286320549,56728.0901155583,56381.4689361632,60244.4328204203,11909.6929795083
9643019238,22057,2,0,16923.0152568001,44184.4114607874,40717.7737974471,58064.3344129570,66495.0030137593,55528.1848610607,56742.8860348950,56406.8994225231,60255.3350767737,11905.2396024711
9643019238,22057,2,0,17091.6838701597,44205.9361164672,40753.7050061653,58076.0762403911,66522.0639714935,55513.4132771177,56747.1203933894,56426.5989236795,60254.6658534484,11895.4567742255
9643019238,22057,2,0,17216.5974457440,44215.3174107177,40779.7682127600,58077.7432148559,66532.5890292453,55513.5349540859,56746.6215178197,56432.7557782719,60250.8330289492,11893.5221104306
9643052914,22058,2,0,17125.5100673275,44190.7021600449,40755.4571545078,58057.6665150980,66504.4694818875,55525.8486632707,56734.5146594808,56408.5420615942,60237.7527548645,11897.1845871744
9643052914,22058,2,0,16901.2837502743,44155.4523423488,40694.5456642121,58037.0544366799,66465.1556534526,55534.9866035847,56725.0725267462,56376.4801804658,60229.8680873233,11895.2742587732
9643052914,22058,2,0,16870.0492725298,44160.0395640511,40695.2270552342,58047.8958545492,66479.0024924371,55530.3385433984,56736.8630249677,56396.8610726442,60247.8397755307,11888.6063609142
9643052914,22058,2,0,17087.6685302081,44199.0370323686,40761.3098166796,58076.5507805672,66527.3204165210,55523.5368008743,56757.9983143491,56442.7332896667,60265.5802774986,11890.5775277995
9643052914,22058,2,0,17227.3171866450,44209.7081024823,40786.6672968586,58073.6913718138,66535.0104009131,55517.6233002184,56753.3745895564,56436.6494412552,60250.1516379271,11891.1007387629
9643052914,22058,2,0,17117.8809214195,44183.5475543130,40747.3778038173,58049.6114998012,66499.6267385520,55523.1474345760,56736.8995280581,56397.4937928790,60230.5859814358,11892.2201668706
9643052914,22058,2,0,16927.4808015341,44154.7101128426,40699.0963828239,58037.7966661862,66467.4918512426,55514.7517237682,56726.3014641253,56378.6095274098,60229.1136901202,11889.3364227236
9643052914,22058,2,0,16875.1840405891,44157.3626707500,40692.0999571507,58046.2532154781,66475.3643510870,55523.0257576078,56732.5799956860,56390.7650565359,60239.1885430896,11889.5067704791
9643075241,22059,2,0,17022.8877123228,44194.7296676933,40736.1226842561,58071.6106956571,66516.5763402264,55531.3362945379,56750.9410501918,56427.0004576746,60258.9367150333,11893.7289612766
9643075241,22059,2,0,17207.5081762173,44222.4963518432,40786.1440858952,58084.5449573799,66541.7026341657,55527.0045944689,56758.7162084617,56449.2551751638,60266.8457179682,11899.6059588421
9643075241,22059,2,0,17173.9618360764,44203.7215956454,40772.5162654535,58063.6408542381,66514.0089561967,55527.2357807085,56741.7057683032,56419.6876718840,60250.0421286557,11902.2706844463
9643075241,22059,2,0,16940.4759017410,44161.1711598556,40703.7444430103,58033.1607736966,66465.3260012081,55530.1560279460,56722.9310121054,56370.5423444162,60233.0316884972,11896.8438916633
9643075241,22059,2,0,16848.7558030897,44156.1093979772,40685.5415685631,58037.7723307925,66465.4963489636,55526.6517312610,56729.9639408690,56382.3085072439,60247.3043968705,11891.1372418534
9643075241,22059,2,0,17021.6587749437,44191.9189297272,40734.5530513660,58063.2879910302,66509.7502623087,55514.7638914650,56747.8382875020,56427.6696809999,60264.5946940559,11891.1007387629
9643075241,22059,2,0,17189.7798419463,44210.3529904139,40766.4324170421,58062.5335938272,66526.2374915038,55511.7341349561,56744.9058725676,56432.2082319148,60250.1759733208,11889.5189381759
9643075241,22059,2,0,17149.3587531004,44196.6399960945,40748.6310765901,58043.6858314484,66505.2847175747,55515.9198226632,56731.1563751577,56404.9647587283,60233.8225887907,11888.1804915254
9643121484,22060,2,0,16967.1353254801,44161.0129797969,40700.6781834109,58021.0904184482,66470.7527939912,55506.5993668968,56715.8615802513,56377.4049254243,60225.0983501687,11883.5932698231
9643121484,22060,2,0,16848.9139831484,44146.0102096142,40674.0187596718,58014.2643405306,66458.8527864983,55517.2095985264,56714.9368352927,56371.6739402207,60224.9888408973,11882.5711832900
9643121484,22060,2,0,16956.3790814886,44179.6173882392,40711.6656136420,58041.1184474188,66499.8822601853,55531.2267852665,56735.4272367426,56406.9359256136,60250.5045011350,11888.5820255205
9643121484,22060,2,0,17173.6089728686,44214.2344857004,40776.8236301289,58063.6773573285,66536.5191953192,55517.4529524629,56748.2641568908,56435.7003609030,60259.6424414490,11890.8573848264
9643121484,22060,2,0,17192.2255490077,44198.3799767401,40774.4996000357,58044.0995331404,66512.3663171256,55506.7697146523,56728.6985003995,56405.9503421709,60234.1267812113,11892.2688376579
9643121484,22060,2,0,16967.8532195926,44153.6636909158,40703.3307413183,58011.3440932931,66456.1393901068,55512.1478366481,56701.5036980002,56356.1236236810,60210.9351510668,11891.0277325819
9643121484,22060,2,0,16833.4245050928,44144.9516199906,40675.4910509874,58015.5176133033,66452.9271181455,55519.6431378910,56704.7159699614,56366.6243460392,60226.7044861493,11889.8839690806
9643121484,22060,2,0,16960.1754028973,44177.6827244443,40726.3763591009,58044.9026011307,66499.6875770361,55523.2569438474,56723.2595399196,56414.7840900644,60250.4071595604,11893.5221104306
9643165433,22061,2,0,17149.7359517020,44207.6882648097,40775.8623820798,58061.0978056021,66532.5160230644,55524.1695211091,56734.1374608793,56432.7314428782,60252.3539910521,11895.1647495017
9643165433,22061,2,0,17178.7802440183,44202.2128012394,40768.8172856194,58055.9143667555,66521.5285928333,55513.3646063304,56731.1928782482,56414.2243760105,60238.1299534660,11890.2611676821
9643165433,22061,2,0,17022.9850538974,44167.1454989957,40717.7737974471,58034.6817357995,66479.6108772782,55506.4533545349,56719.8160817187,56380.7145389601,60224.2709467847,11882.9727172852
9643165433,22061,2,0,16857.2731908657,44146.8254453013,40675.9047526794,58025.8479879060,66456.6869364638,55525.0699306740,56717.4677162319,56364.4706637015,60226.5341383938,11887.2314111732
9643165433,22061,2,0,16910.6650445248,44168.5691195239,40699.3762398508,58047.7376744905,66486.1692658658,55529.3651276525,56735.1230443220,56397.1165942775,60250.6505134968,11894.1913337559
9643165433,22061,2,0,17138.1279689329,44203.8311049168,40763.0376296285,58071.6593664444,66525.3249142421,55512.6588799146,56747.8139521083,56433.4858400812,60262.5991917770,11893.6802904893
9643165433,22061,2,0,17209.0413060170,44196.8103438500,40769.7907013652,58057.8246951567,66511.6484230131,55507.2320871316,56737.1672173882,56411.6934950714,60240.1862942291,11888.5455224301
9643165433,22061,2,0,17019.0427201267,44158.8471297624,40707.1270627270,58024.2418519254,66464.9609703034,55519.5457963164,56716.6889836352,56367.4395817263,60218.9658309699,11892.4635208071
9643171390,22062,2,0,16856.5674644500,44145.5843402254,40669.4680410600,58026.3711988694,66453.8153600136,55525.1672722486,56721.1666960661,56373.0732253553,60234.4309736319,11899.3139341184
9643171390,22062,2,0,16923.6723124285,44168.7881380668,40699.9237862079,58049.9278599186,66483.3220248093,55521.2006030843,56736.3398140043,56409.2356203131,60252.4269972330,11904.8137330823
9643171390,22062,2,0,17109.5217137021,44202.3588136012,40752.7559258131,58070.2965844002,66520.0806369114,55528.8784197796,56748.7630324605,56433.7900325018,60258.3404978889,11907.2959432342
9643171390,22062,2,0,17198.6379252334,44210.4746673822,40773.0638118106,58069.0189762338,66525.7264482372,55527.0410975594,56748.5196785240,56431.0766361103,60252.9623758932,11903.7551434587
9643171390,22062,2,0,17082.8622899631,44184.5209700588,40743.6788239832,58047.3483081922,66494.4919704927,55527.6738177942,56733.4560698572,56402.2878654272,60241.2205484591,11901.8448150575
9643171390,22062,2,0,16878.7856788487,44155.2819945933,40693.1098759870,58026.2860249916,66463.0993126895,55530.8252512713,56726.0337747952,56375.3242492676,60234.4553090255,11901.2851010037
9643171390,22062,2,0,16878.9803619978,44172.0734162089,40701.8827853964,58042.4690617662,66483.9304096504,55527.7833270656,56741.7909421809,56399.9029968499,60251.3197368221,11902.2828521432
9643171390,22062,2,0,17107.4653729391,44209.8541148442,40766.7609448563,58070.4790998526,66530.5083530886,55512.0504950735,56758.7040407648,56442.6237803953,60264.5946940559,11899.8128096881
9643189503,22063,2,0,17232.5857993694,44214.3196595782,40783.6740434402,58065.1374809473,66532.1753275534,55524.0600118377,56750.9532178886,56432.3177411862,60247.6450923816,11899.6424619326
9643189503,22063,2,0,17091.4648516169,44186.1149383426,40735.9888395911,58038.8430881129,66494.3459581308,55545.1222950383,56735.2082181997,56392.5415402720,60234.6378244779,11907.0890923882
9643189503,22063,2,0,16904.1553267245,44168.5812872208,40701.2257297679,58034.5722265281,66477.3233502755,55549.0524611121,56737.7877699262,56392.5415402720,60249.5797561764,11913.8543318218
9643189503,22063,2,0,16903.6442834580,44179.5930528455,40713.7219544051,58050.1955492487,66496.6943236177,55540.1700424313,56750.5273484998,56420.5515783585,60266.8335502714,11914.9859276263
9643189503,22063,2,0,17059.5124797598,44201.5192425205,40749.0326105853,58061.8156997146,66521.4069158651,55525.5201354565,56753.2407448913,56436.1505656855,60264.8623833860,11905.3247763489
9643189503,22063,2,0,17198.4675774778,44209.6837670887,40775.3391711165,58062.3145752844,66527.1135656750,55513.5349540859,56748.3249953749,56435.3109946047,60253.9966301232,11896.8073885728
9643189503,22063,2,0,17128.9656932252,44180.9071641024,40745.4066369320,58036.9205920149,66491.3648724092,55512.4520290686,56726.3623026095,56397.3842836076,60229.2962055726,11891.9403098437
9643189503,22063,2,0,16908.4870267935,44149.2833200596,40685.1643699616,58015.2985947605,66455.5431729625,55527.9050040338,56712.3937866567,56363.9109496477,60220.1095944713,11897.7443012282
9643257138,22064,2,0,16850.5809576131,44160.7696258604,40681.4897255211,58030.7637374225,66472.3467622750,55527.2601161022,56726.3014641253,56386.6888781002,60241.1353745813,11903.7186403683
9643257138,22064,2,0,17048.3912048637,44198.8301815226,40742.0361849121,58056.8877825013,66517.3064020357,55507.0739070729,56740.6350109828,56430.5899282374,60257.1967343876,11902.8425661970
9643257138,22064,2,0,17206.0358849017,44210.2313134457,40770.3017446318,58052.6290886133,66527.2230749464,55503.5087719038,56731.5944122433,56425.6620110241,60239.1642076960,11903.4144479477
9643257138,22064,2,0,17118.9030079526,44188.1834468025,40736.1835227402,58029.3766199847,66494.0782688007,55514.9950777046,56715.0341768673,56387.9543185698,60218.6738062462,11906.5293783344
9643257138,22064,2,0,16927.8823355293,44161.3050045206,40693.9129439773,58016.5518675333,66466.0803984111,55519.2781069863,56707.6970556831,56371.6496048270,60221.2046871853,11906.1400120360
9643257138,22064,2,0,16862.1889403822,44160.6844519827,40690.6763366224,58021.8813187417,66472.6631223923,55521.6264724731,56713.0508422852,56387.2242567604,60233.3845517051,11905.7141426472
9643257138,22064,2,0,16990.5094710769,44188.0861052279,40728.7612276782,58039.2081190176,66507.6817538488,55525.0334275836,56728.8688481550,56418.7020884414,60246.7933536040,11904.9110746569
9643257138,22064,2,0,17178.8897532897,44215.2079014463,40776.0205621385,58057.7881920662,66537.5169464586,55519.9108272211,56742.2898177507,56443.1469913587,60253.4490837661,11907.0647569946
9643264263,22065,2,0,17172.5868863354,44200.8865222857,40770.9222971697,58047.9445253365,66519.6182644321,55525.1916076423,56733.3465605858,56422.8634407548,60241.2448838527,11910.2405258654
9643264263,22065,2,0,16946.7179302112,44158.6281112196,40707.6137706000,58018.7663883551,66472.6509546955,55529.2312829875,56712.7223144709,56378.7068689844,60227.4710510491,11909.6808118115
9643264263,22065,2,0,16826.0508808181,44146.4725820935,40682.6578244161,58018.4986990250,66463.7928714084,55521.5899693827,56713.2698608280,56380.7510420506,60238.0447795883,11902.7087215320
9643264263,22065,2,0,16981.2255184010,44174.7259741163,40733.2632755027,58039.9868516143,66500.7096635692,55514.3866928635,56725.0116882621,56421.6588387693,60256.2476540354,11900.2386790769
9643264263,22065,2,0,17165.0672496989,44198.6720014639,40779.9142251219,58048.5042393903,66524.1568153470,55529.2921214716,56730.3046363801,56432.3055734894,60251.7212708173,11903.1954294049
9643264263,22065,2,0,17144.9418791537,44190.5561476830,40761.7965245525,58034.4870526503,66507.1950459759,55529.4503015303,56726.8490104824,56408.0675214181,60237.8379287423,11904.6190499332
9643264263,22065,2,0,16974.9226514467,44163.6898730979,40712.3348369673,58020.6523813626,66476.0457421091,55530.7035743031,56722.3226272642,56385.1070775132,60234.6986629620,11902.7330569256
9643264263,22065,2,0,16859.5607178684,44153.9922187301,40687.1720399374,58025.9696648742,66469.4386827343,55532.0906917409,56730.4019779547,56387.0052382176,60241.1597099750,11902.9885785589
9643297236,22066,2,0,16945.7323467685,44179.0211710948,40713.5029358623,58049.4411520457,66499.5293969774,55529.0000967478,56747.5462627782,56414.6745807930,60255.1768967150,11900.0561636246
9643297236,22066,2,0,17161.0884128378,44212.2024803310,40771.7010297664,58070.4912675494,66538.3321821458,55528.9027551733,56760.7603815279,56448.5372810512,60265.2882527748,11901.3094363973
9643297236,22066,2,0,17214.2734156508,44213.1393929864,40785.6938811128,58064.1762328983,66533.2947556611,55538.6125772380,56756.0149797670,56437.8905463311,60254.6658534484,11909.5104640560
9643297236,22066,2,0,17016.6578515494,44177.4393705079,40724.7093846362,58036.4338841420,66487.4955448195,55546.5094124761,56740.7931910415,56391.9818262182,60239.0303630309,11909.8146564766
9643297236,22066,2,0,16862.6148097710,44159.3946761194,40686.8556798200,58032.6253950364,66472.2494207004,55535.8626777560,56738.7976887625,56389.1954236457,60245.0412052615,11901.9664920258
9643297236,22066,2,0,16966.5026052453,44182.4159585084,40723.5047826507,58052.1545484372,66505.0778667287,55516.2726858711,56750.3448330475,56426.5380851953,60256.7708649988,11896.7222146951
9643297236,22066,2,0,17153.3984284457,44205.9726195577,40766.3229077707,58057.4839996457,66529.5471050396,55513.4011094208,56751.8536274535,56436.6981120425,60246.7081797262,11891.7577943913
9643297236,22066,2,0,17191.5076548951,44201.1298762221,40762.9524557507,58045.1216196736,66519.3384074052,55521.6021370795,56742.8373641077,56417.2663002163,60230.9875154310,11888.8618825475
9643314946,22067,2,0,17057.5534805713,44179.5322143614,40728.9437431306,58031.9318363175,66492.4964682138,55535.8261746655,56738.6030056133,56398.7105625613,60229.2353670885,11898.3648537662
9643314946,22067,2,0,16896.6965285721,44164.7241273279,40693.0977082902,58030.4230419114,66475.1088294538,55543.6256683290,56739.4182413005,56389.4144421886,60233.2628747369,11905.7871488282
9643314946,22067,2,0,16926.5682242724,44182.8296602004,40706.1536469812,58048.2973885443,66495.3923800576,55534.8892620102,56752.9365524708,56412.5817369394,60247.5964215943,11901.7353057861
9643314946,22067,2,0,17146.4263381661,44217.1790683316,40769.7541982747,58071.5011863857,66538.8553931092,55521.0180876320,56767.0389130886,56449.5715352812,60261.0417265836,11899.7884742945
9643314946,22067,2,0,17251.7499218655,44222.1434886354,40787.9205696314,58066.5854368692,66537.8698096665,55519.1442623213,56759.1785809409,56438.5597696564,60246.3918196088,11906.1400120360
9643314946,22067,2,0,17081.7306941585,44185.3362057460,40728.5665445291,58034.7790773741,66491.1458538664,55524.2668626837,56737.7390991389,56387.1390828827,60223.0663447992,11908.8534084276
9643314946,22067,2,0,16893.0097164347,44158.2752480117,40684.0206064603,58027.1742668597,66464.8271256384,55525.5688062438,56733.4682375541,56374.7888706074,60226.5584737874,11903.9254912143
9643314946,22067,2,0,16933.9175131534,44169.9684046586,40705.4235851718,58044.6470794975,66485.3418624819,55511.8071411370,56741.5232528508,56404.0156783761,60238.0082764978,11897.6469596536
9643380985,22068,2,0,17114.2671154631,44197.4430640848,40747.7306670252,58057.9220367313,66515.4447444218,55511.4299425355,56745.6359343770,56425.0171230925,60239.5170709039,11896.0164882794
9643380985,22068,2,0,17216.1959117489,44205.2303900515,40762.1980585477,58054.3082307749,66518.5840102021,55505.5164418796,56739.9536199607,56420.6245845394,60233.3723840083,11896.3693514872
9643380985,22068,2,0,17118.0147660845,44180.4204562295,40734.4313743977,58032.3942087968,66486.4126198023,55511.2230916895,56721.9575963596,56395.9728307761,60220.8274885838,11898.1701706170
9643380985,22068,2,0,16913.3541055227,44151.6803563337,40686.0526118297,58015.0065700368,66455.0199619991,55529.8518355255,56712.3816189599,56372.4891759078,60219.4768742365,11904.2905221190
9643380985,22068,2,0,16878.7005049709,44164.1157424867,40688.9971944609,58030.0701787036,66474.9628170919,55533.2101198486,56726.5204826682,56396.7515633728,60243.2038830412,11906.2495213074
9643380985,22068,2,0,17085.4175062959,44202.9793661392,40749.9938586343,58060.8666193624,66523.7309459582,55517.0635861645,56745.7089405579,56442.5872773048,60263.0128934690,11902.4045291114
9643380985,22068,2,0,17233.5105443279,44215.9014601652,40781.0214855328,58063.3001587270,66534.5601961307,55515.6399656363,56747.2785734481,56442.3560910652,60249.3729053304,11903.6821372778
9643380985,22068,2,0,17112.8313272380,44185.5430565919,40737.9843418700,58038.0643555163,66496.1832803511,55521.6143047763,56731.5579091529,56397.6033021504,60226.6558153620,11901.9178212385
9643384629,22069,2,0,16917.2234331124,44156.5109319724,40690.7858458938,58025.0084168252,66468.2827515361,55523.7071486299,56725.5470669223,56379.4004277033,60227.6779018951,11897.6469596536
9643384629,22069,2,0,16899.8236266556,44164.0670716995,40702.1018039392,58036.6285672911,66483.0908385696,55527.2722837990,56733.8819392460,56402.1053499749,60244.8343544155,11899.1679217565
9643384629,22069,2,0,17058.6120701949,44197.4552317816,40750.5170695977,58060.3069053086,66521.0905557477,55531.3362945379,56748.5075108272,56430.4925866628,60255.7244430720,11904.2783544221
9643384629,22069,2,0,17204.6122643734,44214.5995166051,40779.4518526426,58066.0257228154,66535.5822826638,55517.1365923455,56748.7995355510,56438.4380926882,60254.9335427785,11903.3292740699
9643384629,22069,2,0,17150.4903489050,44187.0031802107,40758.1705508993,58045.4258120941,66504.7493389145,55511.1379178118,56729.3677237247,56408.5542292910,60237.0348607520,11900.6523807689
9643384629,22069,2,0,16927.5416400182,44144.8056076287,40694.6065026962,58020.7983937245,66459.6558544886,55521.1032615098,56710.8484891602,56366.7581907042,60222.0564259629,11902.8303985002
9643384629,22069,2,0,16839.1798256900,44144.8786138097,40681.4045516433,58032.1143517698,66465.4963489636,55524.9360860090,56719.9499263838,56380.0939864222,60242.4129827477,11905.3977825298
9643384629,22069,2,0,17024.8832146017,44183.3893742543,40741.1844461345,58063.8720404777,66511.7457645876,55511.4177748387,56741.6205944254,56426.5624205890,60262.7938749261,11904.9475777474
9643415421,22070,2,0,17204.3202396497,44200.7648453174,40780.1210759679,58061.7548612305,66526.9310502227,55509.2884278947,56738.2379747087,56428.5457551711,60250.9668736142,11903.6212987937
9643415421,22070,2,0,17136.2054728348,44180.2136053835,40749.3733060963,58034.7304065868,66495.5505601163,55523.0987637887,56721.9940994500,56388.0394924476,60229.5638949027,11900.6888838594
9643415421,22070,2,0,16941.9238576629,44150.4879220450,40698.8408611906,58018.6203759932,66462.1380646405,55519.3146100768,56714.8151583245,56364.3733221269,60226.0717659145,11898.2918475852
9643415421,22070,2,0,16863.9654241183,44147.4094947488,40683.6555755556,58026.9552483169,66463.4521758974,55514.4840344381,56722.2739564770,56378.6095274098,60234.7108306588,11899.2895987247
9643415421,22070,2,0,16981.9434125136,44176.1739300383,40714.1113207034,58050.2685554297,66498.4951427475,55515.1897608538,56738.5543348260,56409.6006512178,60245.3088945916,11902.2950198400
9643415421,22070,2,0,17178.2570330549,44208.5765066778,40768.8659564067,58071.2456647524,66534.4750222529,55520.0811749766,56752.8027078057,56440.6282781163,60256.1016416735,11910.4838798018
9643415421,22070,2,0,17203.8335317768,44206.6905136702,40777.4563503636,58063.0933078810,66527.2352426432,55523.0257576078,56744.9423756581,56425.8810295669,60246.3066457311,11918.9769321842
9643415421,22070,2,0,16989.1953598201,44169.1166658810,40715.3889288698,58029.5956385275,66479.3553556450,55527.9901779115,56721.7629132104,56381.0308990775,60228.0672681935,11919.1594476366
9643453424,22071,2,0,16841.8202159006,44155.6956962853,40680.2729558388,58019.0705807756,66464.9001318193,55529.5354754081,56714.4501274198,56379.6924524270,60236.5238174854,11912.4915497776
9643453424,22071,2,0,16981.2863568851,44187.9887636534,40733.1172631408,58045.6569983338,66504.7371712176,55522.4052050698,56730.4141456515,56427.9130349363,60259.9466338696,11908.4883775229
9643453424,22071,2,0,17177.5634743360,44212.9203744436,40781.1674978946,58053.7485167210,66527.1744041591,55516.7350583503,56733.2613867081,56441.5530230749,60253.7167730962,11906.3468628820
9643453424,22071,2,0,17174.0348422574,44201.5679133078,40763.6825175601,58038.2955417559,66506.5258226506,55521.8211556223,56718.7696597919,56411.4258057413,60234.3336320573,11904.6798884173
9643453424,22071,2,0,17002.2634662079,44168.0337408637,40714.0139791288,58017.4157740077,66472.7847993606,55517.1365923455,56707.2346832038,56382.7830474200,60224.4899653275,11901.8813181480
9643453424,22071,2,0,16862.2254434727,44149.2711523628,40683.4243893160,58015.7001287557,66460.2399039361,55522.9284160332,56706.5046213944,56379.7411232143,60226.7774923302,11900.7253869498
9643453424,22071,2,0,16924.3658711474,44173.6430490991,40708.6601925267,58037.6506538243,66491.1701892601,55530.9955990268,56722.2739564770,56409.9900175161,60242.2669703858,11904.7893976887
9643453424,22071,2,0,17143.3844139604,44215.8284539842,40773.0516441137,58068.4592621800,66536.3731829573,55529.8640032223,56741.1338865525,56449.8757277018,60259.7397830236,11913.3919593425
9643485482,22072,2,0,17226.7331371975,44222.2895009972,40792.7024744828,58069.2988332607,66536.5435307128,55531.3484622347,56740.7323525574,56443.4146806888,60254.2034809691,11919.4393046635
9643485482,22072,2,0,17040.0928356304,44187.3560434186,40736.6093921290,58040.9237642696,66490.1724381206,55545.9983692095,56726.6421596364,56400.0976799991,60238.4098104930,11922.1040302677
9643485482,22072,2,0,16864.1479395707,44171.7813914852,40697.9769547162,58038.6605726606,66479.7690573369,55549.1984734739,56733.3830636763,56396.8975757347,60253.6315992185,11922.8340920771
9643485482,22072,2,0,16946.9369487540,44196.7616730627,40733.0807600504,58062.0103828638,66516.1018000503,55534.0861940198,56753.0703971358,56436.6372735584,60274.9250686586,11922.1161979646
9643485482,22072,2,0,17140.6466821752,44218.6148565567,40775.9840590481,58067.3154986786,66538.4903622045,55516.3091889615,56753.8734651261,56446.5052756818,60266.1886623397,11918.2712057685
9643485482,22072,2,0,17188.4535629926,44207.5422524478,40771.6280235855,58047.2509666176,66515.3839059377,55509.1059124423,56738.4083224642,56415.9521889594,60243.5080754618,11912.0170096015
9643485482,22072,2,0,17049.0847635826,44169.4451936952,40722.6530438731,58018.9854068979,66471.4706881037,55499.7124504950,56716.3847912146,56378.1714903242,60223.7355681245,11900.2751821674
9643485482,22072,2,0,16861.9090833553,44134.0980344245,40663.9925774897,57997.7406082450,66436.2817088918,55495.2104026705,56700.0922451687,56350.7333339884,60211.1298342159,11888.8132117602
9643516448,22073,2,0,16856.9081599610,44141.2404724596,40660.1354175968,58007.6451134589,66449.1307967368,55491.4627520491,56705.4338640740,56365.4197440537,60216.9338256005,11881.2327366395
9643516448,22073,2,0,17071.1204625289,44176.4537870652,40717.9198098090,58035.7646608167,66494.7839952165,55491.4262489586,56720.1689449266,56406.3762115597,60231.8514219054,11883.3742512803
9643516448,22073,2,0,17212.6307765797,44192.4178052969,40754.0578693731,58042.4568940693,66509.7745977023,55502.3650084024,56723.5150615529,56413.4091403234,60227.8604173475,11897.5374503822
9643516448,22073,2,0,17075.8658642899,44169.6642122380,40714.5128546986,58020.7862260277,66475.2183387252,55515.1045869760,56713.7444010041,56376.1151495611,60212.6872994093,11911.5424694254
9643516448,22073,2,0,16878.6153310932,44146.7646068172,40669.2368548204,58014.2521728338,66449.3741506732,55511.2109239927,56713.4645439771,56365.0060423617,60220.2799422268,11914.3288719979
9643516448,22073,2,0,16900.8822162791,44154.5154296934,40682.4388058733,58032.8322458824,66466.4819324063,55494.3099931056,56723.7827508830,56393.2472666878,60230.6346522231,11908.8412407307
9643516448,22073,2,0,17074.5274176394,44174.0567507911,40722.9572362937,58042.9436019423,66490.9998415045,55484.2959786204,56727.9927739837,56409.3694649782,60223.7355681245,11900.6280453752
9643516448,22073,2,0,17183.4161365079,44178.1450969236,40736.0253426815,58036.5677288070,66492.2044434900,55482.6290041556,56721.6899070294,56398.6375563803,60214.4272800550,11897.7199658346
9643547182,22074,2,0,17102.6713003908,44153.8583740650,40709.0860619155,58017.6347925505,66463.8172068021,55486.2914808993,56706.3221059421,56373.6086040155,60204.6322841125,11898.6203753995
9643547182,22074,2,0,16901.5636073012,44122.8064117728,40661.0236594649,57999.0060487146,66428.1293520204,55495.2712411547,56693.9962290604,56346.5719816750,60197.4655106838,11897.3549349299
9643547182,22074,2,0,16844.0469044192,44126.7000747562,40654.3679293028,58007.2192440701,66436.0991934394,55496.5245139274,56703.7182188220,56361.8546088846,60212.2249269300,11892.1714960833
9643547182,22074,2,0,17044.3758649121,44165.5515307118,40712.2496630895,58037.6141507338,66486.3152782277,55491.0003795698,56725.0481913526,56413.0197740251,60234.4796444192,11893.7897997608
9643547182,22074,2,0,17212.6672796702,44183.8517467336,40749.7140016073,58041.1062797220,66506.2216302300,55494.0909745628,56722.6998258658,56422.5227452438,60230.5859814358,11902.5505414733
9643547182,22074,2,0,17110.0570923623,44159.6623654495,40713.5272712559,58015.6149548779,66472.9673148129,55513.0847493034,56701.3090148510,56379.8871355762,60213.2226780695,11907.8191541976
9643547182,22074,2,0,16906.8322200256,44136.2273813686,40675.5275540779,58008.4481814492,66449.0577905558,55526.1163526008,56699.9584005037,56367.1475570026,60225.3903748924,11910.2040227749
9643547182,22074,2,0,16875.3665560414,44146.1562219761,40691.8809386079,58030.3378680337,66468.9763102550,55519.5822994069,56719.8404171124,56396.1066754412,60248.1196325577,11911.7858233619
9643598995,22075,2,0,17024.7737053303,44174.8233156909,40726.5467068565,58047.7741775810,66502.4739796086,55509.5926203153,56733.8454361556,56420.8679384759,60252.0376309347,11913.6718163694
9643598995,22075,2,0,17178.5855608692,44187.6967389296,40746.7450835825,58045.2311289450,66514.4956640696,55492.0468014966,56732.4583187177,56421.1599631996,60241.2935546400,11911.2747800953
9643598995,22075,2,0,17148.9450514085,44162.7894635330,40723.8211427681,58021.6501325021,66485.0255023645,55476.6546650156,56713.7809040945,56390.9475719882,60217.6152166226,11903.6943049746
9643598995,22075,2,0,16928.3325403117,44113.3886144319,40653.1146565300,57986.9113580726,66431.1104377420,55480.4631541211,56689.2751626931,56343.5300574692,60191.9535440230,11893.8384705480
9643598995,22075,2,0,16815.4649845821,44108.0591632235,40633.1961368308,57994.6865163425,66430.2708666612,55497.3154142209,56695.5050234665,56350.1371168441,60207.4308543818,11899.4234433898
9643598995,22075,2,0,16988.3436210425,44149.1981461818,40697.3564021782,58033.3919599362,66483.4802048680,55497.7656190034,56722.9431798022,56405.8164975059,60238.6288290358,11908.4883775229
9643598995,22075,2,0,17191.8605181030,44178.3276123759,40747.3899715142,58047.2874697080,66512.9990373604,55497.7656190034,56730.2681332896,56425.5281663590,60239.1520399992,11913.0390961346
9643598995,22075,2,0,17150.3930073304,44160.5627750144,40716.2893384347,58024.0350010794,66484.3806144328,55494.4681731643,56713.1725192534,56388.3923556554,60216.4349500307,11907.8069865008
9643615836,22076,2,0,16956.0383859775,44125.7144913135,40662.2890999345,58004.4085061040,66445.2371337534,55487.6055921562,56701.6862134525,56359.6035849723,60208.9518164846,11899.3747726025
9643615836,22076,2,0,16860.8869968221,44118.0488423151,40647.6635283533,58010.5531929996,66441.0149429559,55489.8687837653,56706.3464413357,56365.7847749584,60214.9991618056,11897.0264071157
9643615836,22076,2,0,16967.3178409324,44147.0322961473,40679.2508693057,58032.6497304300,66474.1354137079,55502.9855609404,56723.8557570639,56394.9142411525,60229.4422179345,11898.8637293359
9643615836,22076,2,0,17162.0374931899,44183.3893742543,40730.8419038350,58048.7719287204,66513.4005713556,55512.0139919830,56739.2113904545,56425.7593525987,60246.9637013595,11905.0935901093
9643615836,22076,2,0,17206.2670711413,44186.1514414331,40742.9244267801,58045.2919674291,66511.1130443529,55510.6025391516,56738.0797946500,56419.0914547397,60244.1286279998,11912.5158851713
9643615836,22076,2,0,17009.2355564874,44149.9647110817,40684.8845129347,58017.0507431030,66466.5671062841,55515.0924192792,56719.7795786282,56374.9835537565,60224.9280024132,11915.4483001056
9643615836,22076,2,0,16842.7936316464,44132.5649046249,40646.4345909742,58009.5919449506,66449.8243554557,55516.7107229567,56717.0053437526,56368.8997053451,60228.1281066776,11911.1896062176
9643615836,22076,2,0,16963.0469793476,44161.5361907603,40691.9296093952,58036.8597535308,66489.1138484970,55505.8449696938,56736.0721246742,56417.4609833654,60250.2854825922,11903.4874541286
9643642983,22077,2,0,17177.7703251820,44192.8923454730,40747.9496855680,58052.5560824324,66521.0662203540,55500.7223693313,56743.0563826505,56440.9446382337,60247.7059308657,11901.9908274194
9643642983,22077,2,0,17197.4211555511,44189.4123841816,40744.1411964624,58042.1648693456,66508.8741881374,55506.7575469555,56734.8188519014,56418.4465668081,60232.1191112355,11905.8236519186
9643642983,22077,2,0,17032.8043852335,44159.4920176940,40694.1441302170,58024.9962491284,66475.1331648474,55498.7025316587,56723.2352045260,56389.2684298267,60223.2366925548,11907.2959432342
9643642983,22077,2,0,16885.0520427125,44139.1476286061,40657.0448226038,58019.5086178613,66458.2809047476,55499.8584628569,56722.5781488975,56380.0574833317,60225.6702319194,11905.7019749504
9643642983,22077,2,0,16927.1157706294,44154.0530572142,40671.1471832216,58029.9119986449,66478.2967660214,55504.3848460750,56733.2248836176,56398.1873515979,60233.9807688494,11902.3436906273
9643642983,22077,2,0,17129.7444258219,44186.0054290712,40723.4074410761,58047.2996374049,66513.6074222016,55494.8697071595,56744.3218231201,56424.7859368528,60243.6905909141,11900.7497223435
9643642983,22077,2,0,17223.0219896665,44187.7940805042,40741.5494770391,58039.5366468318,66512.0499570082,55491.7426090760,56734.1861316666,56415.4776487833,60230.9266769469,11900.2265113801
9643642983,22077,2,0,17049.4497944873,44153.4811754635,40688.9728590672,58011.9159750437,66469.1101549201,55513.8391465065,56714.1946057865,56373.4869270473,60212.9793241330,11906.6753906962
9643735609,22078,2,0,16858.5629667290,44140.7415968899,40649.8658814783,58009.1539078649,66456.5287564051,55527.1627745276,56716.9566729653,56370.6396859907,60229.1745286044,11912.6253944427
9643735609,22078,2,0,16928.4542172799,44169.2748459397,40682.5604828415,58040.6439072427,66493.3968777787,55508.2906767552,56738.0676269531,56413.7985066217,60255.1647290182,11910.8854137970
9643735609,22078,2,0,17131.7277604040,44196.1289528279,40728.3231905926,58053.8215229020,66523.8039521392,55491.8764537411,56741.8517806651,56430.1762265454,60250.1881410176,11898.6568784899
9643735609,22078,2,0,17203.8822025640,44192.6368238397,40729.3331094289,58040.2058701571,66514.7390180061,55493.9936329882,56731.0103627958,56411.9246813110,60231.1821985801,11888.7037024888
9643735609,22078,2,0,17087.8997164478,44167.7660515336,40696.0301232245,58023.6821378715,66484.3076082519,55502.8395485785,56721.0450190978,56387.6014553619,60219.8540728380,11892.6095331689
9643735609,22078,2,0,16907.4041017762,44139.2449701806,40649.9145522656,58011.6239503200,66456.4557502242,55510.5173652738,56717.0783499336,56370.9195430177,60216.5079562117,11895.9313144016
9643735609,22078,2,0,16889.5419228402,44150.1472265340,40651.9100545445,58024.1566780476,66471.6167004656,55511.4786133228,56729.3312206343,56387.5041137873,60229.7707457487,11896.0164882794
9643735609,22078,2,0,17090.5157712647,44188.3902976485,40710.8868810453,58048.2973885443,66515.3230674536,55495.7457813307,56744.5286739661,56426.1365512002,60243.5932493395,11892.4391854134
9643738942,22079,2,0,17239.9959267345,44201.0568700412,40747.3413007269,58048.5285747840,66526.5538516212,55491.4140812618,56740.5498371050,56427.4019916698,60232.5936514116,11892.2445022642
9643738942,22079,2,0,17108.6091364404,44167.9607346828,40700.5686741395,58014.5076944670,66482.9326585109,55500.3208353362,56718.0639333762,56376.3098327102,60203.7805453349,11891.0642356724
9643738942,22079,2,0,16893.6789397600,44138.1985482539,40646.6049387297,58002.1574821918,66452.4039071822,55508.8868938995,56712.0165880552,56356.9753624586,60206.0315692471,11893.6194520052
9643738942,22079,2,0,16897.0980625672,44155.0264729600,40658.9429833082,58027.5758008549,66476.6176238598,55498.4713454191,56731.7039215147,56392.6753849371,60228.7486592156,11896.7465500887
9643738942,22079,2,0,17076.0118766518,44184.4236284842,40703.2455674405,58050.2198846424,66512.0256216146,55497.0112218003,56744.6138478439,56419.7971811554,60234.2241227859,11899.1922571501
9643738942,22079,2,0,17205.0989722463,44201.3488947649,40728.7003891941,58056.4619131125,66523.3902504472,55500.4911830917,56747.3394119322,56420.7827645981,60231.7662480276,11898.5595369153
9643738942,22079,2,0,17142.4353336082,44181.3817042785,40707.8449568396,58041.4226398394,66497.6312362730,55496.7070293798,56734.9891996569,56398.1143454170,60221.1681840949,11891.4536019707
9643738942,22079,2,0,16940.9869450076,44146.0710480983,40655.2683388677,58020.9565737832,66461.3714997407,55508.8747262027,56723.3690491910,56370.0799719369,60211.9207345094,11889.1539072712
9643766008,22080,2,0,16863.9167533310,44149.6970217516,40642.9546296828,58030.9949236621,66469.6211981866,55518.7548960229,56734.2713055444,56383.8659724373,60228.6756530346,11898.7055492772
9643766008,22080,2,0,17046.9189135481,44190.8968431940,40702.0653008487,58063.6530219349,66518.3771593561,55506.0396528430,56754.7252039037,56431.0157976262,60251.6604323331,11908.2450235864
9643766008,22080,2,0,17236.1387668417,44211.4845862185,40749.2272937344,58068.9338023561,66538.4781945077,55500.5155184853,56754.2384960308,56439.4845146150,60243.2647215253,11911.6641463937
9643766008,22080,2,0,17158.5088611113,44188.1347760152,40716.4961892807,58038.8674235066,66502.6929981514,55514.0703327461,56735.2690566839,56397.6398052409,60220.9735009457,11912.7592391077
9643766008,22080,2,0,16947.4966628078,44159.7353716305,40662.2647645409,58021.3094369911,66469.8767198199,55523.6584778426,56726.0946132794,56374.5698520646,60223.7720712150,11912.3942082030
9643766008,22080,2,0,16888.7023517594,44160.5749427113,40663.7127204628,58031.4694638382,66477.9439028135,55517.5016232502,56733.1518774367,56393.7704776512,60241.1718776718,11910.7394014351
9643766008,22080,2,0,17021.5857687627,44183.8152436431,40699.3640721540,58045.3893090037,66505.2360467874,55511.2109239927,56740.3551539558,56417.4488156686,60246.9637013595,11910.1675196844
9643766008,22080,2,0,17188.6725815354,44209.5864255141,40737.1326030924,58054.3203984717,66528.9508878953,55515.8833195727,56747.5705981718,56432.5002566386,60250.1759733208,11917.9670133479
9643782864,22081,2,0,17193.8195172915,44201.3975655522,40732.6670583584,58042.4082232820,66513.1572174191,55510.4686944865,56739.8806137797,56419.1279578302,60240.8068467671,11923.5033154024
9643782864,22081,2,0,16991.2273651895,44161.1711598556,40674.8826661462,58010.9303916011,66469.2439995851,55512.9630723352,56718.9156721538,56378.4756827447,60220.6449731315,11919.6339878127
9643782864,22081,2,0,16849.6318772609,44147.5311717171,40640.1803948072,58008.2900013905,66458.0010477207,55520.8234044828,56719.4145477236,56378.0498133559,60229.8680873233,11914.3653750883
9643782864,22081,2,0,16989.5968938152,44180.1040961121,40685.6997486218,58039.3784667731,66503.0701967529,55504.2631691068,56737.5687513834,56426.3312343494,60252.9502081964,11913.0269284378
9643782864,22081,2,0,17197.8226895462,44203.5390801931,40738.3737081684,58049.4289843489,66526.9067148290,55497.9237990621,56737.3619005374,56442.1979110065,60248.3143157068,11913.4649655234
9643782864,22081,2,0,17178.5612254755,44186.5164723378,40723.4439441666,58028.0503410310,66503.3622214766,55511.1379178118,56720.8381682518,56404.0521814665,60227.0695170540,11916.6407343942
9643782864,22081,2,0,16988.7694904313,44153.4568400698,40670.5144629868,58011.3805963835,66466.8347956142,55509.8603096454,56710.8241537666,56373.3530823823,60223.2366925548,11914.5235551470
9643782864,22081,2,0,16878.3233063694,44142.7614345625,40650.1335708084,58014.3981851956,66462.9167972372,55510.4565267897,56717.4677162319,56380.3981788427,60234.1876196954,11909.3887870878
9643794140,22082,2,0,16965.2858355630,44167.7782192304,40681.1855331005,58033.1972767871,66491.3405370156,55514.3866928635,56730.2194625023,56407.7146582103,60245.5035777407,11908.0990112245
9643794140,22082,2,0,17155.9414770817,44199.8887711462,40733.2997785932,58047.5794944318,66522.5628470632,55512.3546874941,56737.2523912660,56433.0112999051,60251.4414137903,11909.4861286623
9643794140,22082,2,0,17215.7822100569,44198.2948028624,40743.2407868975,58038.2833740591,66516.1139677471,55505.7597958160,56725.9242655238,56420.5880814489,60237.9352703169,11910.8245753129
9643794140,22082,2,0,17032.0013172432,44162.0837371173,40690.2869703241,58009.6527834347,66470.5824462356,55513.7904757192,56705.4338640740,56374.7767029105,60218.9049924858,11916.0445172499
9643794140,22082,2,0,16842.8057993432,44138.0038651047,40647.2254912677,57997.9839621815,66447.6828408149,55509.4101048629,56701.5523687875,56356.9753624586,60220.4502899823,11913.5379717044
9643794140,22082,2,0,16929.9143408987,44153.9435479428,40677.1215223617,58019.7033010104,66476.2160898647,55486.4496609580,56717.5528901096,56394.8534026684,60236.1831219744,11901.1025855513
9643794140,22082,2,0,17147.6674432421,44176.8431533635,40724.3565214283,58035.1197728851,66505.2360467874,55476.0706155681,56726.3014641253,56417.0472816734,60231.0970247024,11890.1029876234
9643794140,22082,2,0,17186.1660359898,44166.2329217339,40708.8913787664,58019.8614810691,66489.6492271572,55477.0927021012,56715.4235431656,56391.3856090739,60205.2771720441,11880.3079916809
9643870860,22083,2,0,17028.9837284311,44135.7163381020,40661.7293858806,57999.9307936731,66455.5310052657,55481.3635636860,56706.7844784213,56362.5968383908,60194.8007850795,11878.5315079448
9643870860,22083,2,0,16868.3701303682,44110.9672427641,40625.0924507468,57988.5053263564,66430.0153450279,55477.9566085756,56699.9462328068,56350.8915140471,60195.0076359255,11875.3557390740
9643870860,22083,2,0,16893.6181012758,44126.5297270007,40641.4823383673,58004.5788538595,66448.6562565607,55500.0531460061,56710.4226197714,56373.4747593505,60210.3754370129,11880.4296686492
9643870860,22083,2,0,17105.8105661711,44174.6894710259,40709.3537512456,58042.1283662551,66500.3081295741,55513.1455877876,56737.9337822881,56421.4154848329,60237.0956992361,11897.5374503822
9643870860,22083,2,0,17238.1342691206,44192.9896870476,40746.5382327366,58050.0982076741,66515.7611045392,55505.0053986130,56740.8053587383,56431.6485178610,60236.6941652409,11908.7073960657
9643870860,22083,2,0,17090.9294729567,44160.1004025352,40698.1351347749,58017.5982894601,66473.4175195954,55502.4380145834,56718.0152625889,56387.0782443985,60211.6773805730,11910.1553519876
9643870860,22083,2,0,16875.6342453715,44133.2097925565,40639.7423577216,58000.1376445191,66442.7184205111,55505.9058081779,56709.0841731209,56367.7802772374,60209.8400583527,11906.0305027646
9643870860,22083,2,0,16909.5821195075,44154.3450819379,40667.2291848446,58022.9764114558,66470.4972723579,55503.0220640309,56726.1189486730,56406.9359256136,60234.0781104240,11903.3292740699
9643876343,22084,2,0,17115.4717174486,44189.8382535704,40729.5642956685,58044.7565887689,66509.8354361864,55503.1194056055,56737.1307142978,56437.8905463311,60241.6464178479,11901.0904178545
9643876343,22084,2,0,17209.1751506820,44196.2141267057,40743.6058178022,58038.9404296875,66509.8232684896,55500.6128600599,56728.4186433725,56422.4254036692,60228.3106221299,11898.2066737075
9643876343,22084,2,0,17100.2012579358,44169.5181998761,40700.0697985697,58018.9610715042,66477.6275426961,55494.4073346802,56714.7908229308,56389.8768146678,60214.6341309009,11893.6802904893
9643876343,22084,2,0,16914.4613659335,44138.9042746696,40647.9190499866,58002.2183206759,66448.0235363259,55501.7566235613,56709.4370363287,56368.1696435357,60207.4308543818,11891.4901050612
9643876343,22084,2,0,16876.6319965110,44147.5920102012,40643.2953251939,58013.6802910831,66459.3394943712,55506.1734975080,56721.5803977580,56382.0043148234,60220.7666500997,11894.2278368464
9643876343,22084,2,0,17065.3651419317,44186.4556338537,40697.3442344814,58040.5830687586,66505.7105869635,55490.6961871492,56740.1969738971,56423.3866517182,60237.1808731139,11896.4423576682
9643876343,22084,2,0,17231.0039987824,44198.7206722512,40732.6792260552,58041.4713106267,66514.6538441283,55473.0773621496,56734.3686471190,56424.4452413418,60229.2231993916,11899.6059588421
9643876343,22084,2,0,17118.2581200210,44157.8737140166,40683.3635508318,58003.2647426026,66461.9068784009,55470.8871767215,56700.8709777654,56366.8190291883,60193.4136676417,11898.5717046122
9643894106,22085,2,0,16890.6856863415,44121.4192943350,40622.0140234506,57984.7211726445,66423.1284286262,55488.4086601465,56688.8006225170,56340.1352700556,60191.8927055389,11903.8403173365
9643894106,22085,2,0,16873.5292338212,44136.7140892415,40639.9857116580,58009.7257896156,66449.6905107906,55505.5772803637,56709.8994088080,56382.2355010630,60221.1803517917,11914.9980953231
9643894106,22085,2,0,17059.6463244249,44183.9855913986,40705.1437281449,58042.4690617662,66505.2968852715,55513.4862832986,56736.9481988454,56429.4339970392,60243.5932493395,11930.2198840486
9643894106,22085,2,0,17202.2882342802,44206.3376504624,40735.2952808722,58047.2753020112,66523.4510889313,55502.1094867691,56743.0077118632,56432.3420765799,60239.8942695054,11934.4177394526
9643894106,22085,2,0,17151.0743983525,44184.0464298827,40711.2762473437,58025.2274353680,66493.2630331136,55486.6808471977,56727.7859231377,56402.8597471779,60223.0906801929,11926.3140533685
9643894106,22085,2,0,16946.9004456635,44140.8511061613,40649.1601550625,57996.6455155310,66447.6341700276,55481.5582468352,56705.8475657660,56364.4098252174,60204.3402593887,11917.8575040765
9643894106,22085,2,0,16838.3524223060,44127.5761489274,40615.8450011613,57990.6590086941,66434.4443866715,55480.1832970942,56700.8588100686,56357.2187163950,60206.4696063327,11907.5636325643
9643894106,22085,2,0,16992.8091657765,44156.9976398453,40664.7834777832,58012.8407200023,66474.1475814048,55471.8484247705,56712.7709852582,56399.8543260626,60224.7333192640,11903.5604603096
9643915798,22086,2,0,17191.9456919807,44178.9725003076,40714.6832024541,58022.7208898225,66498.7506643807,55464.8033283100,56711.2500231554,56416.8525985243,60220.4137868918,11903.3414417668
9643915798,22086,2,0,17135.2320570890,44153.7975355809,40683.2905446509,57995.7572736629,66465.3503366018,55476.7763419838,56691.2463295784,56374.9348829692,60192.9999659497,11904.0471681825
9643915798,22086,2,0,16916.8827376013,44117.0510911756,40620.1767012303,57974.1596118022,66423.6029688023,55476.4599818664,56679.4314959634,56338.6751464369,60184.8719444720,11898.8028908518
9643915798,22086,2,0,16839.2163287805,44112.7193911066,40613.6548157332,57981.4602298959,66426.4258744652,55475.6812492697,56689.6280259010,56352.9843579007,60197.8305415885,11898.8028908518
9643915798,22086,2,0,16974.4481112707,44143.8686949734,40663.5423727073,58006.4770145639,66459.0596373443,55482.8966934857,56707.5753787148,56384.4500218848,60211.5313682111,11903.4996218255
9643915798,22086,2,0,17150.3930073304,44173.6308814023,40709.9621360868,58020.0196611278,66484.7821484280,55479.9521108546,56717.6380639874,56400.9007479894,60214.0014106661,11906.1886828233
9643915798,22086,2,0,17174.7405686731,44168.8368088540,40714.2329976716,58013.9236450195,66473.9285628619,55478.5893288104,56712.4302897472,56389.9133177583,60205.6787060393,11907.0525892978
9643915798,22086,2,0,16987.5527207490,44132.8569293486,40657.8357228973,57989.2232204690,66428.5308860155,55476.9345220425,56693.0836517987,56350.6359924138,60185.4681616164,11906.8579061486
9643974464,22087,2,0,16826.6227625687,44114.0700054540,40610.2113575323,57981.4723975927,66411.6421228253,55480.9985327813,56691.1489880039,56341.3033689506,60188.1937257047,11904.3878636935
9643974464,22087,2,0,16942.5930809882,44140.4739075598,40648.8559626420,58008.9835601094,66454.1803909183,55475.1580383063,56707.0886708419,56384.3283449166,60213.7458890329,11902.7208892288
9643974464,22087,2,0,17166.5395410144,44173.4605336468,40713.5759420432,58027.3446146152,66494.0417657103,55479.3558937102,56714.5596366912,56414.5407361279,60221.5818857868,11908.8655761244
9643974464,22087,2,0,17174.6432270985,44167.3401821448,40707.9422984142,58009.7014542220,66476.3621022265,55486.8511949532,56700.2869283179,56386.9200643398,60204.3159239951,11914.4627166629
9643974464,22087,2,0,16982.9289959562,44133.5018172802,40650.9244711019,57986.0109485077,66435.6246532633,55478.9178566246,56682.9966311325,56352.2421283945,60194.3019095098,11908.1841851023
9643974464,22087,2,0,16849.7535542291,44116.1871847012,40622.0505265410,57982.8960181210,66419.1009209778,55469.2202022567,56680.7942780075,56346.3772985258,60197.0031382045,11897.5252826854
9643974464,22087,2,0,16916.2500173665,44133.5748234612,40636.4692472762,57996.8280309833,66440.1632041783,55472.4568096116,56690.8934663706,56366.5756752519,60203.2938374620,11890.5531924059
9643974464,22087,2,0,17113.9020845584,44172.6696333533,40688.7538405244,58020.1778411865,66481.5212056795,55491.8642860442,56711.0918430967,56400.2680277546,60218.4669554002,11900.0683313214
9643985446,22088,2,0,17206.4009158064,44183.8395790367,40716.6543693394,58024.3270258031,66491.2796985314,55487.9341199704,56717.4190454446,56406.0720191392,60220.7423147061,11913.2702823743
9643985446,22088,2,0,17040.5917112002,44143.5888379464,40667.2170171478,57990.1844685180,66443.2903022618,55482.3004763414,56695.1156571681,56358.9100262534,60196.9788028109,11912.2968666284
9643985446,22088,2,0,16839.9342228930,44117.3187805057,40617.4633048388,57981.1682051722,66416.8620647623,55488.0801323323,56691.4166773340,56338.6508110432,60197.8183738916,11906.7240614835
9643985446,22088,2,0,16912.4658636546,44143.8443595797,40650.5716078940,58015.2134208828,66456.3340732560,55488.5790079020,56714.7908229308,56386.3360148923,60228.2619513426,11903.7916465492
9643985446,22088,2,0,17143.0558861462,44181.3573688848,40713.7706251924,58044.9512719180,66503.3013829925,55485.8777792073,56732.1054555099,56425.8323587796,60237.6554132899,11905.2517701680
9643985446,22088,2,0,17207.7880332442,44183.4015419511,40717.8833067185,58031.8466624397,66495.3315415735,55490.6353486651,56722.0062671468,56406.8872548263,60219.5620481142,11909.8389918702
9643985446,22088,2,0,17060.7170817453,44154.0773926078,40673.0331762292,58002.2426560695,66456.2610670750,55484.2716432267,56702.0269089636,56372.4161697269,60204.6201164157,11907.8556572881
9643985446,22088,2,0,16899.0570617557,44131.0926133093,40636.9559551491,57991.3282320193,66434.8215852730,55485.8412761169,56694.3734276619,56360.7108453832,60206.8103018438,11904.0471681825
9644016705,22089,2,0,16906.2116674876,44143.7591857020,40640.3872456532,58004.4693445881,66451.3696529522,55485.7926053296,56703.4383617950,56375.5189324168,60217.8950736495,11900.3238529547
9644016705,22089,2,0,17093.5333600768,44179.4713758773,40689.4839023338,58031.0070913589,66489.3572024334,55486.3401516866,56721.6290685453,56411.0607748366,60230.8901738564,11899.5086172675
9644016705,22089,2,0,17234.6908109197,44196.9563562119,40726.9482408516,58039.5001437414,66506.2824687141,55489.9417899462,56728.4794818567,56422.8999438453,60233.2020362527,11904.0593358793
9644016705,22089,2,0,17108.5848010468,44167.1454989957,40688.7173374339,58010.2003297917,66464.7906225479,55489.2482312273,56708.2811051306,56380.9457251998,60209.9982384114,11902.3071875368
9644016705,22089,2,0,16878.9803619978,44129.4743096318,40624.7639229326,57986.7653457107,66425.5984710812,55483.0427058476,56696.5636130901,56346.8153356114,60202.8558003763,11892.2688376579
9644016705,22089,2,0,16878.4084802472,44136.0083628257,40637.0411290269,58000.6608554825,66442.5237373619,55480.5726633925,56705.8597334628,56377.0033914291,60219.3186941778,11882.5225125027
9644016705,22089,2,0,17082.6919422075,44170.3091001696,40701.1892266774,58025.8358202092,66483.7965649853,55481.7042591971,56719.8525848092,56411.0851102302,60229.4543856313,11887.0245603272
9644016705,22089,2,0,17192.1890459172,44180.0919284153,40714.5006870017,58022.3680266147,66487.6780602719,55479.0517012897,56713.8782456691,56400.3045308451,60216.8973225100,11894.0574890909
9644039345,22090,2,0,17094.4824404290,44153.5055108571,40677.6447333251,58001.0623894777,66458.5242586841,55477.8592670010,56700.9074808559,56368.4008297753,60204.1212408459,11898.3161829789
9644039345,22090,2,0,16906.6497045732,44120.7379033130,40632.5269135056,57982.7500057592,66427.7643211157,55485.8899469042,56691.3436711530,56346.0122676211,60197.4655106838,11899.6789650231
9644039345,22090,2,0,16850.0699143465,44126.2620376706,40628.4750704635,57991.1335488702,66436.8292552488,55497.5587681574,56701.0656609146,56360.0294543611,60210.1807538637,11899.9466543532
9644039345,22090,2,0,17025.3942578683,44170.4429448347,40687.3058846025,58023.3049392700,66483.6748880171,55498.2888299667,56724.6101542670,56409.9900175161,60238.3246366152,11898.0971644361
9644039345,22090,2,0,17215.3198375776,44197.6377472339,40738.4832174398,58039.0012681716,66511.7579322845,55492.2779877362,56736.5588325471,56432.0135487657,60242.7050074715,11902.9885785589
9644039345,22090,2,0,17140.9508745958,44172.6574656564,40703.5984306484,58014.6537068289,66475.3156802998,55494.9305456436,56720.8868390391,56389.5361191568,60218.1992660701,11907.2837755374
9644039345,22090,2,0,16908.4383560062,44133.9155189722,40636.8829489682,57987.7752645470,66431.5728102213,55502.0608159819,56702.1607536286,56354.7730093336,60209.9982384114,11908.4762098260
9644039345,22090,2,0,16864.2452811453,44141.0579570073,40645.5463491061,58002.6806931551,66452.0023731870,55508.5948691758,56712.9900038010,56384.1093263737,60234.9176815048,11910.9584199779
9644095679,22091,2,0,17034.8607259966,44176.6241348207,40701.0797174060,58028.2085210897,66495.3072061798,55513.8999849906,56724.5128126924,56423.6786764420,60252.9015374091,11916.8110821498
9644095679,22091,2,0,17188.7455877163,44199.7427587843,40732.7157291457,58035.5699776675,66516.3694893804,55522.1131803461,56726.1432840666,56433.5466785654,60252.1593079029,11926.7885935446
9644095679,22091,2,0,17165.3836098163,44190.1546136878,40719.2339210659,58026.0913418425,66503.8367616527,55521.2979446589,56720.6313174059,56420.0892058792,60248.8983651543,11931.2419705818
9644095679,22091,2,0,16976.7113028797,44152.3617473558,40664.1020867611,58002.6320223678,66461.8825430072,55518.1708465754,56704.7889761424,56386.8592258557,60235.8545941601,11928.2730525570
9644095679,22091,2,0,16846.8333069916,44134.9497732021,40627.7328409573,57996.8523663769,66447.6585054212,55512.6832153083,56702.9759893158,56376.6626959181,60233.4575578860,11921.6903285758
9644095679,22091,2,0,16970.6031190746,44159.4433469067,40664.9416578419,58019.4599470740,66481.8375657969,55491.8886214379,56717.8814179239,56411.3527995603,60244.8830252028,11911.9075003301
9644095679,22091,2,0,17173.1344326925,44179.4835435741,40714.0869853098,58030.6663958479,66505.7227546603,55467.4558862174,56722.7971674403,56426.2095573811,60236.1344511871,11903.2319324954
9644095679,22091,2,0,17135.7796034460,44152.9214614096,40684.7628359665,58001.2205695364,66469.1588257073,55470.3031272740,56700.9196485527,56378.7312043780,60200.9941427624,11898.2188414043
9644101206,22092,2,0,16914.8750676255,44114.3863655714,40616.8914230881,57975.4007168781,66423.0919255357,55477.3360560376,56688.4477593092,56339.3565374590,60188.1937257047,11897.3184318394
9644101206,22092,2,0,16815.0269474965,44110.8212304023,40601.2681003675,57983.0907012702,66425.4646264162,55483.6145875983,56699.4595249339,56353.8482643751,60207.6742083182,11897.2210902648
9644101206,22092,2,0,16939.9040199903,44150.4514189546,40651.9465576350,58014.4103528925,66473.4540226859,55506.4533545349,56724.4276388146,56397.9196622678,60234.6378244779,11909.1210977577
9644101206,22092,2,0,17123.8917636500,44190.5683153798,40706.8715410938,58036.1661948119,66510.8453550227,55507.6214534299,56740.3794893495,56427.8886995427,60248.1196325577,11919.5609816317
9644101206,22092,2,0,17158.8252212287,44186.9788448171,40706.3970009177,58028.3301980579,66499.3590492219,55483.9917861998,56731.1198720672,56419.4321502507,60234.3701351478,11916.0080141594
9644101206,22092,2,0,16977.8915694715,44139.6100010853,40644.0862254874,57991.8027721954,66444.8477674551,55464.1949434689,56702.8786477412,56370.3963320543,60204.1334085427,11903.3171063731
9644101206,22092,2,0,16798.8682461156,44109.9694916247,40589.1612420286,57975.1330275480,66415.1829226008,55475.1702060032,56690.9543048547,56350.1492845409,60199.1081497549,11895.2012525922
9644101206,22092,2,0,16896.0029698531,44141.3378140342,40631.9063609676,58007.2314117669,66458.8406188015,55489.4672497701,56715.7277355862,56395.3887813286,60230.9023415532,11902.9155723780
9644132436,22093,2,0,17138.7120183804,44186.3582922791,40709.0373911282,58038.2103678781,66508.6795049883,55492.9715464551,56737.3375651438,56436.7102797393,60247.7302662593,11913.3067854648
9644132436,22093,2,0,17179.8631690356,44185.7012366506,40710.6070240184,58025.5681308791,66500.0404402440,55504.4578522560,56728.4186433725,56414.3582206756,60231.8149188149,11919.1959507271
9644132436,22093,2,0,17004.0277822472,44157.5695215960,40659.3810203938,58005.3089156689,66465.1799888462,55510.5295329706,56717.2608653859,56381.4689361632,60226.1569397923,11920.8994282823
9644132436,22093,2,0,16867.7252424366,44139.5126595108,40625.4818170451,58005.4914311212,66453.0244597201,55500.5520215758,56720.1202741393,56384.6325373371,60234.6499921747,11914.4992197534
9644132436,22093,2,0,16922.8692444382,44150.9502945243,40638.6472650075,58019.3626054994,66469.4265150375,55493.4339189344,56727.4695630203,56404.4415477649,60240.9528591290,11905.6289687695
9644132436,22093,2,0,17103.1336728701,44174.5921294513,40680.4676389880,58028.3910365420,66492.9953437835,55479.1612105611,56731.6309153338,56421.4276525297,60236.5359851822,11898.1580029202
9644132436,22093,2,0,17199.8911980061,44177.2203519651,40702.0044623646,58023.9863302921,66491.8515802821,55478.8448504437,56724.8170051129,56415.4776487833,60224.5386361148,11897.3792703235
9644132436,22093,2,0,17062.2258761514,44146.5090851839,40664.0412482770,58001.1718987491,66454.1925586151,55494.0179683819,56708.0742542846,56379.4612661874,60206.2870908804,11901.0539147640
9644201798,22094,2,0,16860.4489597365,44127.9898506194,40618.1081927704,57995.4774166360,66434.6147344270,55513.5714571764,56707.0765031451,56363.1322170510,60213.4173612186,11906.7240614835
9644201798,22094,2,0,16905.3234256195,44154.2112372729,40647.6635283533,58022.4288650988,66470.8014647784,55509.7751357676,56729.6719161453,56406.5100562248,60241.4152316082,11909.8754949607
9644201798,22094,2,0,17132.3483129420,44193.5250657078,40712.8458802338,58047.1049542557,66517.1117188866,55497.6196066415,56748.7386970668,56448.4399394766,60253.5585930375,11911.4086247604
9644201798,22094,2,0,17209.4063369217,44194.1212828521,40717.2749218774,58033.0269290316,66510.5898333895,55489.9417899462,56740.7810233446,56430.9549591421,60232.3502974751,11907.8556572881
9644201798,22094,2,0,17061.6904974911,44160.1004025352,40665.6595519545,58004.6153569500,66469.4021796438,55489.2847343178,56723.1256952546,56390.8502304137,60214.1474230280,11900.6158776784
9644201798,22094,2,0,16888.9700410895,44135.9718597353,40631.8090193930,58000.5148431207,66449.2889767955,55499.6394443141,56719.4997216013,56382.1989979725,60219.1970172095,11898.2675121916
9644201798,22094,2,0,16881.9736154163,44147.9813764995,40641.2268167340,58016.1746689318,66464.9853056971,55505.5651126669,56728.6985003995,56400.2923631483,60233.9442657589,11897.6347919568
9644201798,22094,2,0,17060.8995971977,44185.3483734428,40687.8777663532,58041.0454412379,66506.0756178681,55499.7854566760,56743.8837860345,56436.8562921012,60246.9393659659,11901.4067779719
9644207958,22095,2,0,17217.6316999740,44202.6995091123,40722.4948638144,58048.3460593316,66522.1369776744,55492.0468014966,56746.4633377610,56448.8293057750,60243.0335352857,11905.7993165250
9644207958,22095,2,0,17118.8786725590,44168.9706535191,40682.0007687877,58016.9655692253,66481.2291809557,55486.4618286548,56721.8480870881,56404.8917525473,60214.8166463533,11904.3270252094
9644207958,22095,2,0,16882.1196277782,44125.3129573184,40611.4646303051,57986.7775134075,66436.7440813710,55491.8399506506,56703.2436786459,56366.0524642885,60200.9819750656,11897.4766118981
9644207958,22095,2,0,16866.3016219083,44133.2827987374,40618.3515467069,58005.1142325197,66454.9834589086,55493.2757388757,56716.1779403687,56397.5911344536,60225.8527473717,11895.5784511937
9644207958,22095,2,0,17070.7310962306,44175.2735204734,40680.6623221371,58033.1242706061,66502.2549610657,55498.7512024460,56733.7724299746,56440.1294025466,60242.3034734763,11900.6523807689
9644207958,22095,2,0,17204.8434506131,44196.2262944025,40704.8395357243,58033.5744753886,66515.7367691456,55503.4114303292,56732.1054555099,56438.4502603850,60237.3998916567,11907.0039185105
9644207958,22095,2,0,17129.8417673964,44183.0608464401,40675.8074111048,58014.9457315527,66490.2819473920,55501.0630648424,56719.6822370537,56410.7079116287,60226.5584737874,11909.0237561831
9644207958,22095,2,0,16945.2334711988,44153.7123617031,40627.8058471383,57996.5360062596,66459.9843823028,55491.4749197459,56707.5510433212,56385.5329469020,60216.6418008767,11904.0836712730
9644229336,22096,2,0,16864.2939519326,44147.1418054187,40605.4537880745,57994.2363115600,66457.1858120336,55499.7489535855,56707.0156646610,56385.6667915671,60219.3308618746,11898.9732386073
9644229336,22096,2,0,17027.9616418980,44190.6169861671,40659.6122066335,58030.7150666352,66509.0445358930,55514.1190035334,56731.8864369671,56432.8531198464,60247.6085892911,11907.0160862073
9644229336,22096,2,0,17231.3081912030,44221.2795821609,40716.0216491046,58052.3613992832,66540.8265599945,55505.2730879431,56744.6138478439,56456.2516008370,60254.3251579374,11910.0093396257
9644229336,22096,2,0,17176.4318785315,44195.8612634978,40690.7493428034,58027.0039191042,66505.8079285381,55499.5177673459,56724.3059618464,56415.5019841769,60228.3836283109,11905.6046333758
9644229336,22096,2,0,16938.5534056430,44154.4180881189,40621.8071726046,57999.1277256828,66458.8649541951,55508.5948691758,56708.8529868812,56374.5333489741,60215.4858696785,11902.8669015907
9644229336,22096,2,0,16864.2331134484,44151.8993748765,40618.7530807020,58008.8983862317,66466.6401124650,55505.5529449700,56718.6114797332,56392.6510495434,60233.9686011526,11903.3901125541
9644229336,22096,2,0,17018.3004906205,44177.3785320238,40667.7158927175,58026.6388881995,66499.4320554028,55490.5988455746,56729.9396054754,56423.5326640801,60242.4616535350,11900.8105608276
9644229336,22096,2,0,17174.9595872159,44189.8625889641,40698.6826811319,58023.2441007859,66509.7624300055,55487.2040581610,56725.8269239493,56425.1266323639,60230.2452859248,11898.6933815804
9644254508,22097,2,0,17163.3881075373,44179.9337483566,40690.6641689256,58014.5320298607,66495.5018893290,55492.1441430712,56721.9332609659,56411.7543335555,60223.6747296404,11903.6578018842
9644254508,22097,2,0,16985.3625353208,44145.4139924699,40647.3836713264,57994.8811994916,66455.7500238085,55493.2270680884,56709.9115765048,56382.2598364567,60210.3876047097,11902.2950198400
9644254508,22097,2,0,16842.1609114116,44128.0506891035,40610.6128915275,57987.8482707280,66441.7815078557,55490.8543672079,56707.5510433212,56373.5599332283,60207.7472144992,11894.0453213940
9644254508,22097,2,0,16948.6769293997,44156.7177828184,40641.0564689785,58010.1638267012,66480.0610820607,55484.0161215934,56723.3568814942,56411.0607748366,60227.1911940222,11889.0322303030
9644254508,22097,2,0,17169.3746143742,44189.0595209738,40696.7723527307,58026.3711988694,66514.3374840109,55476.6546650156,56731.4970706687,56440.3970918767,60235.1367000476,11891.1250741565
9644254508,22097,2,0,17180.0821875784,44180.7976548310,40685.5415685631,58010.3828452441,66496.9498452509,55492.1319753743,56718.0274302857,56412.7399169981,60215.0843356834,11896.9534009347
9644254508,22097,2,0,16980.4711211980,44155.6105224075,40632.6729258675,57996.0127952962,66464.8757964257,55511.3812717482,56712.2599419917,56381.5662777378,60210.6917971303,11904.0106650920
