steady_timestamp,sequence,battery,flags,EEG-ch1,EEG-ch2,EEG-ch3,EEG-ch4,EEG-ch5,EEG-ch6,EEG-ch7,EEG-ch8,EEG-ch9,EEG-ch10
8272044022,6822,-2,0,58603.4607237879,62457.3110031247,41978.8095607832,61691.5856743601,57989.7951022196,63618.0484415492,68603.1173268181,59106.9113475339,70586.6587598036,27010.1210968968
8272044022,6822,-2,0,58603.5093945752,62549.0919402601,42019.5956805337,61762.3529990823,58118.8943655111,63596.4142765980,68621.6608967763,59213.1961792823,70581.0007807810,27006.7749802704
8272044022,6822,-2,0,58589.3461954733,62580.2412441269,42016.1765577264,61762.8153715616,58192.4359251089,63585.5363556383,68604.2975934099,59236.3756417300,70563.7469866860,27015.5965604671
8272044022,6822,-2,0,58574.6476177112,62515.0223891559,41977.2399278930,61697.4383365319,58121.8146127486,63599.9672440703,68571.2622965356,59141.5771157825,70561.3377827151,27026.5718230014
8272044022,6822,-2,0,58580.7071307290,62435.7011735671,41953.5372544819,61647.4656056801,57997.2539003721,63639.8407865591,68566.5168947747,59035.6816503324,70583.6168355979,27027.7885926837
8272044022,6822,-2,0,58596.5859750829,62452.0423904003,41980.0628335559,61680.2940517084,57990.4156547576,63652.7507128883,68598.3719250571,59057.7295169756,70611.8458922271,27020.2932914407
8272044022,6822,-2,0,58593.2398584566,62545.5998112719,42026.4582615418,61758.3863299181,58121.6199295994,63617.8172553096,68625.3720443073,59183.3001481884,70610.3249301242,27014.5988093276
8272044022,6822,-2,0,58568.8314586298,62586.3129248415,42027.2126587448,61771.0772377044,58215.7735676153,63583.8815488704,68605.3683507303,59236.2296293682,70580.7939299350,27019.1981987267
8272095029,6823,-2,0,58550.1053732193,62513.3310792975,41973.6626250271,61693.3499903994,58141.9034802032,63578.6494392365,68559.2406120746,59143.1102455822,70557.3832812476,27019.2955403013
8272095029,6823,-2,0,58553.0012850632,62418.1918578389,41936.0279387537,61632.8522017958,57999.6509366462,63618.6203232999,68548.3626911148,59034.1606882296,70569.5509780706,27019.2955403013
8272095029,6823,-2,0,58576.4606045378,62429.9215175762,41965.2790819161,61670.9735959420,57980.9613543262,63634.7546892871,68585.5593403026,59056.3545672346,70594.3487441957,27019.0035155775
8272095029,6823,-2,0,58583.1893408809,62521.6781193180,42010.5429140974,61747.1677134473,58099.8032491959,63607.7667377338,68615.3701975188,59164.9634290762,70591.3919938678,27008.8191533367
8272095029,6823,-2,0,58571.7760412610,62576.7004443514,42017.0039611104,61767.5851087162,58196.7797928747,63572.2979014950,68603.5796992974,59225.9114224623,70563.4549619623,27003.4775344314
8272095029,6823,-2,0,58552.4537387061,62526.3383472012,41974.6968792570,61706.7587922983,58152.1121778377,63566.7250963501,68564.0833554101,59170.5605696148,70540.4458472701,27005.6798875564
8272095029,6823,-2,0,58552.6119187648,62430.4568962364,41934.5313120445,61636.4903431458,58009.9934789457,63601.1110075717,68542.5465320335,59065.3221597931,70548.9388996525,27012.4329592931
8272095029,6823,-2,0,58574.4285991684,62420.9174219273,41953.3425713328,61655.2164285563,57963.8049018058,63632.0777959861,68579.4511564975,59064.3000732600,70585.5149963023,27016.1927776114
8272112216,6824,-2,0,58585.1118369789,62515.3265815765,42009.4843244738,61745.0140311096,58080.5052820347,63617.8537584001,68628.0367699115,59188.4105808540,70601.0653128420,27014.1364368483
8272112216,6824,-2,0,58571.8977182292,62584.6216149831,42027.9427205542,61779.5702900868,58201.5495300293,63584.0275612323,68623.5590574806,59260.9908924029,70581.4144824729,27012.9440025597
8272112216,6824,-2,0,58553.3054774837,62537.5204605815,41986.9984207450,61715.7142171600,58164.7057440494,63579.9513827966,68578.3803991771,59182.0225400220,70561.6784782261,27008.6853086716
8272112216,6824,-2,0,58555.6416752737,62441.3956556803,41946.4799903246,61643.6449488777,58029.1210983514,63611.5022206585,68554.2275209835,59055.3446483983,70570.0498536403,27011.3865373663
8272112216,6824,-2,0,58576.8013000488,62424.5433955805,41960.1808169473,61659.6576378967,57972.9550098167,63631.0192063625,68583.6003411141,59047.2774654047,70598.0598917267,27012.4086238995
8272112216,6824,-2,0,58587.3871962848,62500.1534636382,42003.3396375782,61730.7291550395,58061.6818550496,63609.8230784969,68619.8600776465,59152.9174092215,70601.8197100450,27008.7461471558
8272112216,6824,-2,0,58578.7481315405,62572.7337751871,42023.5136789107,61772.7928829564,58180.5115822224,63583.3583379070,68621.6973998667,59250.6726854970,70581.5361594412,27008.5514640066
8272112216,6824,-2,0,58560.5209216997,62547.4127980986,41993.6663186040,61729.6583977191,58174.8049324125,63568.6597601449,68586.9221223468,59219.4868785398,70555.2174312131,27009.9507491412
8272136022,6825,-2,0,58558.5497548144,62450.3997513292,41945.5552453661,61651.6026225999,58042.8340926708,63596.3412704171,68555.1279305484,59088.4164483631,70554.2805185578,27010.6321401633
8272136022,6825,-2,0,58575.6332011538,62410.3436933881,41943.3163891507,61645.3484264329,57954.8616446410,63627.0403695014,68575.4114811523,59031.1430994175,70578.4698998418,27007.0305019037
8272136022,6825,-2,0,58597.1091860463,62493.7532551094,41998.3508818808,61731.9824278123,58043.5276513898,63615.3228774609,68624.2282808059,59134.2399945983,70596.4902588366,27004.9133226565
8272136022,6825,-2,0,58586.3286066612,62574.8022836470,42022.2117353506,61782.1133387228,58172.8094301335,63571.9085351966,68625.5180566691,59233.4918975830,70574.1625351665,27005.1080058057
8272136022,6825,-2,0,58564.6701063164,62555.1757886716,41993.3742938802,61738.4556425221,58176.9829501438,63567.4794935531,68586.2528990215,59206.7229645725,70548.2696763272,27013.4793812199
8272136022,6825,-2,0,58564.7309448005,62469.6368800063,41953.7562730247,61667.5666408316,58065.5876857297,63606.3187818119,68562.2095300994,59104.5386466535,70557.1277596143,27025.7809227079
8272136022,6825,-2,0,58590.0884249795,62431.5276535569,41958.5260101793,61662.9064129484,57985.0375327619,63644.2698282027,68582.4930807032,59070.2987477937,70591.0391306599,27031.1955477941
8272136022,6825,-2,0,58606.5756541746,62491.0763618083,42002.3783895292,61727.1153490831,58045.0729488863,63636.1661421186,68620.7361518177,59147.8921504336,70607.6480368232,27021.2058687025
8272169411,6826,-2,0,58596.6954843543,62578.6837789335,42033.7710473324,61783.5612946447,58172.4078961384,63591.2673408419,68629.4603904398,59250.6848531938,70591.1121368408,27007.8822406813
8272169411,6826,-2,0,58568.7462847520,62573.9018740821,42007.3914806203,61752.1443014479,58201.7442131785,63571.9207028934,68593.6995294771,59245.7447682837,70559.0502557124,27000.3382686511
8272169411,6826,-2,0,58565.1446464925,62481.3300366532,41958.4286686048,61670.5355588564,58087.8424032189,63603.3741991808,68560.1896924267,59134.0209760555,70557.7361444555,27003.4897021283
8272169411,6826,-2,0,58592.6436413123,62428.9602695272,41954.4985025309,61653.8171434217,57985.4877375443,63657.3257668937,68580.4489076370,59080.1302468267,70596.3077433842,27012.0800960853
8272169411,6826,-2,0,58626.6401862356,62501.1877178682,42013.0737950366,61736.8495065415,58049.8548537377,63658.1166671872,68637.8561012476,59178.1775478259,70628.9658416570,27011.2770280949
8272169411,6826,-2,0,58622.1016353206,62594.4287786224,42050.4164565862,61799.2211204559,58184.6485991422,63608.4359610591,68649.7439410436,59293.5638167979,70612.1379169509,27004.6821364169
8272169411,6826,-2,0,58595.5760562466,62591.7153822309,42022.7957847981,61765.1028985643,58216.3089462755,63581.7400342296,68610.2232617627,59286.6890680929,70575.4158079392,27001.9930754190
8272169411,6826,-2,0,58578.0059020343,62505.1178839420,41972.2268368020,61684.5892486869,58109.9146052557,63597.4363631312,68571.6759982276,59178.6885910925,70564.4283777081,27008.5879670971
8272201673,6827,-2,0,58585.4647001868,62434.3140561293,41951.2497274792,61648.4268537291,57992.4598278239,63628.0016175504,68574.6084131619,59100.9126730002,70582.8137676076,27013.6010581881
8272201673,6827,-2,0,58600.9663459392,62469.1380044366,41982.9952484903,61699.0323048158,58009.9934789457,63634.4748322602,68614.3724463793,59148.9264046636,70602.4645979766,27014.6231447212
8272201673,6827,-2,0,58598.0217633080,62562.5250775527,42022.6741078299,61770.9920638266,58140.2851765258,63602.6441373714,68637.5519088270,59264.5803629656,70593.5578439022,27012.3112823249
8272201673,6827,-2,0,58579.2226717166,62588.0894085777,42013.2684781858,61767.6581148971,58207.9375708613,63574.8044470405,68616.4652902329,59292.2618732378,70562.6153908815,27015.1585233815
8272201673,6827,-2,0,58566.3005776906,62502.4653260346,41960.4850093678,61683.7861806966,58112.7618463123,63581.5331833836,68573.1361218464,59180.1000439239,70547.4787760337,27014.5623062371
8272201673,6827,-2,0,58575.8400519998,62417.1454359121,41934.0081010811,61632.7548602212,57978.4913118711,63620.3359685519,68570.2767130930,59076.2487515401,70568.2855376010,27011.0336741585
8272201673,6827,-2,0,58596.9145028972,62450.8012853244,41972.6283707971,61688.7140979099,57995.2827334868,63635.1683909791,68612.2674348289,59115.8546046988,70599.2888291058,27011.0336741585
8272201673,6827,-2,0,58604.2029532941,62549.0554371697,42021.4086673603,61768.3395059192,58128.9935538741,63606.4647941738,68637.1625425287,59215.2403523486,70598.4127549346,27013.8809152150
8272233588,6828,-2,0,58583.5908748760,62579.3408345620,42014.7894402886,61766.7212022418,58200.0407356233,63577.0311355591,68610.9411558752,59232.9686866196,70568.8695870485,27009.7438982952
8272233588,6828,-2,0,58570.0482283121,62514.2801596497,41971.1317440879,61701.4171733930,58131.0742300308,63589.2840062598,68574.5475746778,59154.9859176814,70555.0105803672,27012.7128163200
8272233588,6828,-2,0,58583.4813656046,62436.3460614987,41948.2808094544,61654.4741990501,58009.1417401681,63633.6839319667,68575.8738536315,59074.3627585326,70576.2067082327,27019.1008571521
8272233588,6828,-2,0,58615.5554144299,62455.9117179900,41983.5549625441,61698.0588890699,58002.3156622504,63659.0779152362,68622.6464802189,59116.9862005033,70613.3181835427,27027.0220277838
8272233588,6828,-2,0,58625.5085904311,62557.3781417965,42037.4213563793,61782.2471833879,58132.8750491606,63622.5626570705,68661.1450729667,59253.7876158837,70615.6300459390,27023.0675263164
8272233588,6828,-2,0,58600.0416009807,62604.3819546236,42037.2145055333,61791.2877821273,58226.6149854846,63577.2014833146,68638.8903554775,59310.0023752057,70583.1301277250,27018.3099568586
8272233588,6828,-2,0,58572.6521154322,62534.6610518281,41981.6689695366,61706.5154383619,58156.9184180828,63576.5322599893,68583.1014655444,59217.0168360847,70555.7771452670,27013.2968657675
8272233588,6828,-2,0,58576.8499708361,62440.7020969614,41946.8571889261,61641.5156019337,58016.0894950540,63623.5360728164,68566.5412301683,59107.6170739497,70571.1084432639,27016.5334731224
8272259899,6829,-2,0,58602.5238111325,62447.0292993093,41974.1615005968,61678.7122511214,57992.8613618190,63643.5397663933,68602.4237680992,59135.4080934933,70602.9999766368,27017.2026964477
8272259899,6829,-2,0,58611.3575590260,62535.8048153295,42019.1941465385,61756.2204798836,58105.4125574312,63617.9024291874,68632.8551778534,59255.1869010183,70603.9247215954,27013.8444121246
8272259899,6829,-2,0,58595.4665469752,62593.3458536052,42028.1130683097,61777.1002476317,58206.5017826362,63586.4611005969,68620.4197917003,59321.7320349430,70578.0075273625,27012.2747792344
8272259899,6829,-2,0,58574.9883132222,62550.5885669693,41989.7483202270,61720.9219914002,58169.2686303580,63580.1460659458,68581.6291742288,59261.9399727550,70553.3801089929,27012.7858225010
8272259899,6829,-2,0,58571.9463890165,62454.3299174030,41946.0906240263,61648.8527231179,58030.3743711242,63611.8550838663,68558.9364196540,59144.7893877438,70557.4197843381,27011.0701772489
8272259899,6829,-2,0,58593.1425168820,62436.4068999829,41960.9473818471,61661.6288047820,57974.7801643401,63645.9368026674,68589.2704878336,59130.6505240355,70590.7592736330,27014.2581138166
8272259899,6829,-2,0,58605.7360830938,62528.9909051086,42017.3446566214,61747.1677134473,58086.6986397175,63633.7082673604,68632.8308424597,59246.3653208217,70607.6723722169,27015.0490141100
8272259899,6829,-2,0,58593.0208399138,62604.0534268094,42040.6336283405,61787.7104792613,58216.5157971215,63602.3034418603,68630.2391230364,59330.2737581127,70591.4163292614,27019.4780557536
8272286227,6830,-2,0,58571.3136687817,62561.6368356846,42002.4635634070,61725.2658591660,58190.8176214315,63592.6179551893,68586.0217127819,59261.7331219091,70568.4072145692,27017.6772366238
8272286227,6830,-2,0,58563.1491442135,62458.0167295404,41953.0748820027,61644.5453584426,58047.8836868524,63613.9235923262,68557.8899977272,59126.8663703236,70567.3972957329,27014.2216107261
8272286227,6830,-2,0,58582.6052914334,62430.1648715127,41959.6697736807,61652.2475105315,57979.2700444678,63637.0543839867,68584.4885829822,59096.8973330487,70592.4505834913,27012.6884809264
8272286227,6830,-2,0,58599.5670608046,62506.3711567148,42003.8506808448,61725.9715855817,58063.0081340033,63626.7848478681,68625.4450504882,59187.3884943209,70602.0508962847,27010.6929786474
8272286227,6830,-2,0,58594.1524357183,62583.3805099072,42028.7822916350,61773.3647647071,58187.5445109861,63593.0803276685,68629.5698997112,59276.6385505172,70584.6510898278,27012.9926733470
8272286227,6830,-2,0,58570.7417870310,62562.4520713717,41997.2679568636,61733.2478682819,58190.3430812554,63576.0942229037,68592.9086291836,59244.1507999999,70555.0714188513,27016.9350071176
8272286227,6830,-2,0,58564.3415785021,62466.2055895022,41950.3614856111,61653.8293111185,58062.0590536511,63602.4372865254,68560.3722078791,59118.2029701856,70552.6257117899,27025.1360347763
8272286227,6830,-2,0,58584.5399552282,62424.2757062504,41955.5935952450,61643.1217379143,57973.4538853864,63639.7921157718,68582.0915467080,59069.0211396273,70582.3027243410,27028.9931946691
8272324000,6831,-2,0,58603.9474316608,62499.8979420050,42011.4068205718,61724.2437726329,58054.4055723495,63628.3423130614,68625.6519013342,59170.1347002259,70601.8318777418,27026.2554628840
8272324000,6831,-2,0,58588.8959906908,62583.0398143961,42039.9644050153,61778.3778557981,58187.6783556511,63589.0771554138,68628.5964839653,59274.8985698715,70581.0251161746,27020.7434962232
8272324000,6831,-2,0,58564.7187771036,62564.5449152253,42007.7200084345,61737.4457236858,58199.2498353298,63578.4669237842,68589.5260094669,59236.7163372411,70553.1124196628,27018.9426770934
8272324000,6831,-2,0,58561.3969958710,62474.7838157624,41958.1609792746,61664.1110149339,58080.0064064649,63608.4481287559,68563.9981815323,59111.0240290601,70555.3269404845,27019.1008571521
8272324000,6831,-2,0,58584.1870920204,62428.3275492924,41953.6224283597,61655.4597824928,57989.8924437942,63640.3153267352,68584.3182352266,59047.8858502459,70586.4154058672,27020.8165024041
8272324000,6831,-2,0,58604.2881271719,62483.9947622574,41994.1530264769,61719.1820107545,58041.1914535997,63630.9096970911,68625.7614106056,59111.9852771091,70608.4997756008,27018.7358262474
8272324000,6831,-2,0,58598.1191048826,62571.4926701112,42028.5754407890,61779.9109855978,58171.1181202751,63602.7779820364,68638.5861630570,59217.4913762608,70599.3740029836,27016.5456408193
8272324000,6831,-2,0,58579.9040627387,62580.6184427284,42013.3049812762,61761.9149619967,58214.3256116934,63585.2808340050,68609.1281690486,59229.5738992060,70576.3527205946,27023.8705943067
8272354723,6832,-2,0,58570.1942406740,62491.3318834416,41963.5756043609,61677.6779968915,58102.5288132842,63605.0776767360,68566.7480810143,59121.3909067532,70568.1273575423,27028.5551575835
8272354723,6832,-2,0,58582.9216515508,62418.6298949245,41944.9103574345,61637.2812434393,57980.7910065707,63634.7790246808,68567.8675091220,59041.1692815996,70587.3036477352,27021.6195703944
8272354723,6832,-2,0,58600.4066318853,62467.4588622750,41987.7771533417,61699.5798511728,58020.1535057929,63636.8231977470,68609.1646721391,59114.5526611388,70609.0473219578,27010.1819353809
8272354723,6832,-2,0,58595.3327023102,62560.2740536404,42028.6241115763,61768.0474811955,58159.5953113838,63605.1385152201,68627.3553788894,59228.9411789712,70596.2834079906,27008.2472715860
8272354723,6832,-2,0,58575.5723626697,62574.7779482534,42014.7529371982,61752.0469598733,58210.1034208958,63586.3759267191,68598.4570989349,59233.9055992750,70567.2269479774,27017.6285658365
8272354723,6832,-2,0,58568.4420923315,62501.1755501714,41973.6017865430,61681.7420076303,58117.4585772860,63606.0145893913,68566.8210871953,59135.0795656791,70561.1187641723,27031.0617031290
8272354723,6832,-2,0,58589.6503878939,62437.5019926969,41961.7869529279,61654.4620313533,58006.2701637179,63643.9047972980,68579.3659826197,59064.6529364679,70587.5348339749,27043.4605861916
8272354723,6832,-2,0,58613.9736138429,62467.9455701479,41993.1187722470,61704.0210605132,58016.3815197778,63637.9304581579,68621.8677476223,59107.4345584973,70610.6777933321,27038.0216257118
8272393749,6833,-2,0,58606.5878218714,62548.8850894141,42025.3875042214,61768.8748845794,58136.3428427552,63590.9509807245,68642.3946521625,59217.3696992926,70595.2856568511,27018.6019815823
8272393749,6833,-2,0,58576.1199090267,62568.1343857880,42006.9899466251,61760.4426706811,58201.0749898532,63556.2852124760,68611.7928946529,59245.3310665917,70557.5414613063,27009.2815258160
8272393749,6833,-2,0,58560.2532323696,62487.6572390011,41950.9577027555,61680.3305547989,58113.1633803075,63570.3267346096,68565.1784481242,59139.6667873813,70538.8153758958,27017.4825534746
8272393749,6833,-2,0,58572.1654075593,62408.0318309918,41922.5948014612,61630.2604823725,57981.9104346784,63616.9046780479,68563.3776289944,59041.3639647488,70563.8443282606,27026.2554628840
8272393749,6833,-2,0,58594.6026405008,62438.2320545063,41955.7152722132,61679.9898592878,57987.0330350408,63625.5194073985,68604.9181459479,59092.0789251068,70594.4947565576,27026.8516800283
8272393749,6833,-2,0,58592.0109210775,62532.2761832508,41999.1904529616,61751.6697612718,58115.0007025277,63589.5273601962,68623.7659083266,59212.1010865683,70587.1089645861,27018.3464599491
8272393749,6833,-2,0,58569.9995575248,62570.5557574558,42000.0908625265,61751.8766121178,58195.5265201019,63564.8026002520,68600.0632349155,59249.1517233941,70558.8920756537,27014.5501385403
8272393749,6833,-2,0,58556.3352339926,62513.6474394149,41964.7802063463,61687.4121543498,58137.7299601930,63582.5917730072,68563.7913306863,59173.9431893315,70545.1790813342,27015.9980944622
8272430868,6834,-2,0,58570.3037499454,62436.1270429559,41942.6228304317,61640.5665215815,58017.9024818806,63633.3432364557,68563.6331506276,59080.7386316678,70567.5433080948,27023.4812280083
8272430868,6834,-2,0,58598.8491666920,62449.3411617056,41971.1682471784,61676.0110224267,57999.5657627685,63657.8611455539,68608.3859395424,59098.5278044229,70603.1703243924,27022.6051538371
8272430868,6834,-2,0,58607.2570451967,62543.6651474771,42020.8124502160,61758.1673113752,58117.6410927383,63623.3657250609,68647.6510971901,59214.7293090820,70607.0639873757,27012.5059654741
8272430868,6834,-2,0,58581.5223664161,62590.8514757565,42018.3789108514,61772.2210012057,58211.1133397321,63571.9328705903,68626.6131493832,59272.8300614116,70570.4878907259,27005.6190490723
8272430868,6834,-2,0,58560.6912694553,62525.9124778124,41970.8032162737,61696.8421193876,58148.8999058764,63574.4637515294,68574.6570839492,59190.5520954949,70544.5950318867,27015.4140450147
8272430868,6834,-2,0,58567.2253226492,62430.9922748966,41935.9184294823,61628.5448371204,58008.3995106619,63613.1691951232,68556.1865201720,59079.2663403522,70561.0700933850,27027.2410463266
8272430868,6834,-2,0,58590.7333129111,62428.5587355321,41957.5404267367,61657.7594771923,57974.4029657386,63628.0016175504,68590.4872575159,59092.6386391606,70592.1463910708,27025.2333763509
8272430868,6834,-2,0,58598.3989619096,62515.0223891559,42000.1882041011,61734.2456194213,58081.3205177218,63599.0059960213,68621.3445366589,59204.3502636921,70594.0323840783,27011.1918542172
8272451339,6835,-2,0,58581.8995650176,62571.3953285366,42005.1891274953,61758.9703793656,58184.8432822914,63564.0238676554,68609.8825662516,59270.1410004137,70567.7501589408,27004.4996209646
8272451339,6835,-2,0,58564.2442369276,62529.5506191625,41964.7558709527,61707.2211647776,58153.5357983660,63558.3415532390,68570.9581041151,59217.2236869307,70543.0253989966,27012.4086238995
8272451339,6835,-2,0,58568.7097816616,62435.5429935084,41920.7939823314,61639.4592611706,58018.4986990250,63583.0541454864,68549.9931624891,59097.1771900756,70546.5053602879,27026.6448291823
8272451339,6835,-2,0,58588.2267673656,62402.2765103945,41921.9134104391,61640.3231676451,57945.6385304492,63600.6364673956,68574.7665932206,59058.7637712056,70565.4747996349,27028.3848098280
8272451339,6835,-2,0,58599.1168560221,62481.9262537975,41965.3155850065,61719.0481660895,58037.8453369734,63577.2136510114,68613.7032230540,59153.6231356372,70571.2666233226,27022.2766260229
8272451339,6835,-2,0,58584.2844335949,62558.8382654153,41982.3990313460,61760.2479875320,58163.4889743671,63535.9529910848,68611.6590499878,59237.0692004490,70543.8771377742,27015.2680326529
8272451339,6835,-2,0,58559.5961767412,62520.9480575087,41943.1947121824,61699.6528573537,58146.2838510595,63531.5239494413,68563.5723121435,59177.3014736547,70515.4655656926,27013.4672135231
8272451339,6835,-2,0,58556.0553769657,62422.1463593064,41901.0093072973,61619.6015799556,58014.4103528925,63566.3600654454,68534.5158521303,59058.0580447898,70522.2186374293,27013.6983997627
8272483820,6836,-2,0,58574.2217483224,62392.1408189410,41910.5366139097,61621.3415606013,57941.3920042580,63591.7783841085,68557.5006314289,59035.6816503324,70552.0659977360,27007.5658805639
8272483820,6836,-2,0,58585.5377063677,62466.0839125340,41957.5039236462,61694.7006047468,58021.4432816561,63587.1789947094,68595.8045410275,59135.5054350679,70563.9295021384,26999.9367346560
8272483820,6836,-2,0,58584.2722658981,62551.8783428326,41987.2904454688,61748.3479800391,58150.3600294952,63557.4411436742,68606.0132386620,59235.3413875001,70550.7032156918,26997.0651582057
8272483820,6836,-2,0,58569.3059988059,62543.3487873597,41964.1596538084,61720.6664697669,58164.8639241081,63540.8200698140,68577.2366356757,59216.3476127595,70524.7495183685,27005.6190490723
8272483820,6836,-2,0,58565.0838080083,62449.0248015882,41916.9611578322,61644.9347247409,58040.7412488173,63567.6011705213,68544.2743449823,59096.1429358456,70520.0041166076,27014.9881756259
8272483820,6836,-2,0,58584.6251291060,62400.1228280568,41914.9413201596,61629.4817497758,57941.1121472310,63604.1164286870,68561.1631081726,59036.9592584988,70547.0529066450,27019.8795897488
8272483820,6836,-2,0,58605.3832198859,62474.0902570435,41968.7468755106,61709.2653378438,58008.8862185348,63599.9550763735,68609.7487215866,59132.6946971018,70570.8285862370,27017.7380751079
8272483820,6836,-2,0,58597.0118444717,62566.3092312646,42002.4635634070,61768.8505491858,58142.7552189808,63559.2662981976,68619.5437175291,59247.9349537118,70553.1489227532,27012.1774376598
8272517872,6837,-2,0,58571.9585567133,62553.9590189893,41972.7622154622,61728.7579881542,58161.2379504549,63539.1530953493,68579.2564733483,59227.2863722033,70524.1533012242,27010.7051463443
8272517872,6837,-2,0,58559.0607980810,62454.9504699410,41921.4753733535,61642.8175454938,58039.0256035653,63562.8557687604,68544.1283326205,59109.5152346541,70521.7562649501,27014.7691570831
8272517872,6837,-2,0,58575.4385180047,62398.9182260714,41914.8196431913,61625.1257143132,57937.8755398761,63605.9902539977,68561.5646421677,59054.5172450144,70553.6112952325,27020.9381793724
8272517872,6837,-2,0,58594.8216590436,62447.9540442678,41955.2407320371,61686.9376141737,57983.1393720575,63593.8833956589,68602.7279605198,59124.4206632622,70573.5176472349,27015.0246787164
8272517872,6837,-2,0,58589.9789157081,62534.0039961997,41983.1655962458,61745.3547266207,58112.0074491093,63552.0508539816,68614.5306264380,59233.5162329767,70555.6919713892,27008.6366378844
8272517872,6837,-2,0,58570.3767561263,62545.3564573355,41964.2934984734,61729.7435715969,58163.5984836385,63530.2341735781,68585.3889925471,59252.1571445094,70525.7716049016,27006.3856139721
8272517872,6837,-2,0,58563.5871812991,62463.6382054726,41914.3085999248,61652.4665290744,58063.2636556366,63553.8881762019,68548.5208711735,59148.8168953922,70517.3028879129,27012.8101578946
8272517872,6837,-2,0,58578.5656160882,62390.2913290239,41896.7262780156,61614.2842964440,57943.7160343512,63596.4994504758,68552.3050248855,59065.9548800279,70545.4954414516,27016.5091377288
8272556149,6838,-2,0,58596.4764658115,62435.3239749656,41941.8440978351,61674.6239049889,57975.6440708146,63601.5003738700,68590.3047420635,59133.1814049747,70574.4302244966,27010.7294817379
8272556149,6838,-2,0,58586.7544760500,62528.7110480817,41982.0705035317,61740.4389771042,58111.5694120236,63561.3956451416,68603.6770408719,59249.7357728416,70561.3012796246,27004.9133226565
8272556149,6838,-2,0,58558.3794070589,62540.1000123080,41965.1452372510,61716.7363036931,58164.0608561178,63534.2616812264,68566.0423545986,59256.7565339085,70528.2781504471,27004.2319316345
8272556149,6838,-2,0,58542.9872705779,62460.9248090811,41917.9954120621,61638.8387086327,58071.4403479016,63550.2013640645,68526.1079736257,59156.3121966351,70516.4024783480,27008.4906255225
8272556149,6838,-2,0,58557.9170345796,62391.4959310094,41900.6564440894,61600.1332650389,57950.7976339021,63588.0185657902,68531.8024557388,59072.0752315299,70536.9537182819,27012.0557606916
8272556149,6838,-2,0,58585.1726754630,62425.1274450280,41938.1937887882,61646.6016992057,57958.2929351450,63606.1240986627,68570.8607625405,59114.3701456864,70565.5843089063,27014.3554553911
8272556149,6838,-2,0,58599.1046883253,62535.4641198184,41994.4572188975,61731.7755769663,58098.2822870930,63589.3083416534,68608.8118089312,59241.2913912465,70570.8285862370,27016.1197714305
8272556149,6838,-2,0,58584.0167442648,62580.7036166061,41998.5090619395,61743.4930690068,58189.7103610206,63554.0585239574,68592.5922690662,59288.1613594085,70545.6292861167,27019.9404282329
8272575897,6839,-2,0,58566.4344223557,62507.5757587002,41949.1812190193,61666.4958835112,58113.3093926693,63553.2189528766,68549.0197467433,59189.3353258126,70522.3281467007,27021.8872597245
8272575897,6839,-2,0,58573.7107050558,62412.0471709433,41913.1770041202,61609.6484039544,57969.3655392539,63588.7121245091,68542.6925443954,59074.8616341023,70538.3651711134,27019.9890990202
8272575897,6839,-2,0,58595.5030500657,62425.0787742407,41942.5376565540,61655.2529316468,57958.4024444165,63598.3246049992,68587.5061717943,59107.7630863115,70566.1926937474,27013.2360272834
8272575897,6839,-2,0,58595.1015160705,62517.1639037967,41984.1998504757,61730.6196457681,58082.0262441375,63561.8458499241,68613.4111983303,59227.6879061985,70558.4905416585,27004.8524841724
8272575897,6839,-2,0,58571.1798241166,62555.6138257572,41976.8018908074,61734.2821225118,58165.8130044603,63529.2364224386,68589.1731462590,59270.2383419883,70525.0658784859,26999.5838714481
8272575897,6839,-2,0,58555.4104890341,62496.9168562833,41932.9981822448,61670.9127574579,58111.7032566887,63540.9660821759,68550.2365164256,59191.7445297835,70506.2789545913,27004.5117886614
8272575897,6839,-2,0,58569.7318681947,62415.9164985330,41907.7502113372,61622.5339948899,57991.7541014081,63592.0339057418,68546.5132011978,59092.8576577034,70530.8333667800,27019.5753973282
8272575897,6839,-2,0,58600.0050978902,62422.4018809397,41935.2370384602,61654.4133605660,57963.7075602313,63620.5184840043,68583.6733472950,59099.2091954450,70571.4978095622,27022.5078122625
8272634104,6840,-2,0,58606.0889463017,62514.2923273465,41987.7649856449,61735.0486874117,58080.6512943965,63590.9266453309,68620.1034315829,59212.1862604460,70582.1202088887,27013.5280520072
8272634104,6840,-2,0,58584.0532473553,62574.5954328010,42001.7335015976,61761.8176204221,58194.3219181165,63560.1180369752,68606.9501513173,59285.0464290218,70559.4882927980,27009.4153704810
8272634104,6840,-2,0,58565.1203110988,62525.7177946633,41962.3953377690,61698.5334292460,58154.4605433245,63561.6268313812,68562.8544180310,59214.5832967202,70540.0564809718,27012.3234500217
8272634104,6840,-2,0,58564.6822740132,62426.9404318546,41922.2176028597,61625.8192730321,58010.5896960900,63597.8135617327,68543.8484755935,59091.9937512290,70554.0128292277,27011.9584191170
8272634104,6840,-2,0,58582.7026330080,62416.0503431981,41940.5786573655,61647.8063011912,57963.9022433804,63622.2706323468,68578.9279455341,59092.6751422511,70585.4906609086,27011.6420589996
8272634104,6840,-2,0,58593.7387340264,62501.9664504649,41989.8699971952,61731.0576828537,58070.8441307573,63606.6716450198,68614.3967817730,59208.7671376388,70592.5600927628,27008.9529980018
8272634104,6840,-2,0,58587.0465007738,62571.7116886540,42009.5816660484,61769.1182385159,58192.5454343803,63587.3371747681,68613.2651859684,59289.6214830272,70576.4378944724,27019.4415526631
8272634104,6840,-2,0,58574.3190898969,62542.7038994281,41981.6324664461,61724.8764928677,58178.6985953958,63573.8066959010,68579.4389888006,59242.4229870511,70556.2030146558,27028.0076112265
8272638577,6841,-2,0,58565.5948512749,62440.6290907804,41932.3411266164,61643.6936196650,58040.8994288760,63588.0672365775,68545.6127916329,59112.1069540773,70552.6987179708,27025.2333763509
8272638577,6841,-2,0,58575.0126486159,62400.9867345313,41929.4573824693,61627.6930983428,57955.4456940885,63614.1426108691,68556.2108555656,59062.7061049762,70573.2864609952,27020.9503470692
8272638577,6841,-2,0,58581.5710372034,62479.7604037630,41977.7874742501,61699.9570497743,58043.3086328469,63604.7613166186,68590.5480960000,59161.5443062690,70585.1986361849,27015.5357219830
8272638577,6841,-2,0,58570.0238929185,62569.6188448004,42008.7664303613,61752.4241584748,58181.9717058412,63581.8252081073,68594.6729452230,59266.0769896748,70571.0597724766,27016.7403239684
8272638577,6841,-2,0,58558.3307362716,62554.2023729258,41984.5162105931,61714.6799629301,58188.3840820669,63579.9270474029,68562.4042132485,59236.7406726347,70552.6257117899,27026.1581213094
8272638577,6841,-2,0,58560.1923938855,62456.7269536772,41940.1771233703,61642.2334960463,58057.7516889758,63596.7914751995,68538.1783288741,59118.0812932174,70555.5337913305,27027.2897171139
8272638577,6841,-2,0,58571.9828921069,62408.6280481361,41934.2879581080,61637.5124296790,57966.3844535323,63608.4359610591,68557.5127991257,59071.6006913538,70573.8096719586,27019.3563787854
8272638577,6841,-2,0,58580.4881121862,62465.4633599960,41970.4503530658,61703.7533711830,58030.9340851780,63593.8955633557,68594.1984050469,59147.3324363798,70578.7010860814,27013.9174183055
8272668766,6842,-2,0,58568.9653032949,62546.1108545385,41995.7956655480,61753.6895989444,58157.7336537699,63565.0581218853,68602.1925818595,59232.9200158323,70557.6753059714,27013.2481949803
8272668766,6842,-2,0,58551.3708136889,62545.1861095800,41978.6270453308,61728.0522617385,58184.0888850884,63555.0806104905,68575.6913381792,59215.5810478596,70533.8996263794,27020.8530054946
8272668766,6842,-2,0,58549.8863546765,62460.6327843573,41937.9747702454,61655.3137701309,58073.4358501805,63578.3939176033,68548.1680079657,59101.6305671128,70532.4395027606,27031.4510694274
8272668766,6842,-2,0,58567.7241982189,62402.5685351183,41928.9950099901,61629.9319545583,57967.3822046718,63611.2101959347,68560.4817171505,59031.5446334126,70557.0547534334,27032.0229511781
8272668766,6842,-2,0,58584.0289119617,62461.8252186460,41974.1980036873,61694.1895614802,58024.1080072603,63611.0641835729,68600.6959551503,59111.8392647472,70577.3869748245,27021.5465642135
8272668766,6842,-2,0,58574.9639778286,62558.4488991170,42014.0350430856,61755.1375548663,58169.2077918739,63580.5354322441,68610.0285786135,59229.7320792647,70567.3729603393,27010.9485002807
8272668766,6842,-2,0,58553.8773592344,62561.7706803496,41992.9605921883,61724.6088035376,58206.6477949981,63568.8544432941,68571.4934827753,59221.9569209949,70543.7797961996,27011.7150651806
8272668766,6842,-2,0,58546.9539397422,62477.7770691809,41948.3051448481,61648.1226613086,58099.5355598658,63593.5427001478,68538.6285336565,59109.5152346541,70544.4611872217,27026.3771398522
8272703945,6843,-2,0,58564.4389200767,62422.0368500350,41940.3718065195,61628.8733649347,57995.6234289978,63629.2062195359,68554.3978687390,59046.4013912335,70575.9998573867,27035.7219310122
8272703945,6843,-2,0,58581.7048818685,62465.2321737564,41976.5220337805,61686.2197200612,58026.0305033584,63619.3138820188,68590.7914499365,59102.1294426825,70595.0666383083,27029.3825609675
8272703945,6843,-2,0,58574.6354500143,62549.7733312822,42006.4667356617,61744.0162799702,58146.0404971230,63581.5940218677,68604.8938105542,59203.5471957018,70578.2387136022,27013.6862320659
8272703945,6843,-2,0,58551.2978075079,62563.1943008779,41989.4319601096,61730.3276210444,58196.1349049431,63550.7732458152,68576.6282508345,59213.5247070966,70543.2079144489,27004.4387824804
8272703945,6843,-2,0,58538.7894151740,62479.6508944916,41938.0721118200,61652.1136658665,58098.5013056358,63572.8089447615,68535.3554232111,59096.0942650584,70528.5093366868,27005.1323411994
8272703945,6843,-2,0,58562.8449517929,62410.6478858087,41926.8048245619,61618.0562824591,57980.6693296024,63633.1242179128,68547.5352877309,59002.6950242454,70562.7614032434,27017.7137397143
8272703945,6843,-2,0,58595.7585716990,62460.5597781764,41982.4233667396,61686.9254464769,58015.2012531859,63647.0440630783,68601.1826630232,59068.6074379353,70602.2577471306,27031.4632371242
8272703945,6843,-2,0,58591.6945609601,62557.4268125838,42030.2545829506,61758.0578021038,58155.2149405275,63611.4900529617,68622.1354369523,59198.7287877599,70593.8498686260,27035.5029124694
8272730148,6844,-2,0,58562.5650947660,62575.0334698866,42015.4464959171,61738.6868287617,58213.8024007300,63569.8886975240,68586.0703835692,59214.9726630185,70557.3954489445,27033.3979009190
8272730148,6844,-2,0,58535.8570002396,62486.4404693188,41954.1091362326,61647.1249101691,58116.4243230560,63565.4109850932,68531.8389588293,59093.2470240018,70533.3520800223,27024.9413516271
8272730148,6844,-2,0,58536.4045465967,62397.2390839098,41918.0197474558,61589.7907227394,57983.2123782384,63592.8734768226,68514.9623633359,58982.3506351575,70544.5341934026,27020.7556639200
8272730148,6844,-2,0,58552.9526142759,62411.1832644689,41940.8098436051,61624.1279631737,57974.8410028242,63604.0312548092,68543.4226062047,59003.6319369008,70567.2026125837,27013.7349028532
8272730148,6844,-2,0,58556.4082401736,62503.0007046948,41982.5207083142,61700.4437576472,58096.7248218997,63576.0455521164,68569.8630114010,59126.5986809935,70563.3819557813,27005.0715027152
8272730148,6844,-2,0,58539.3978000151,62547.8386674874,41984.0173350234,61718.4641166420,58186.5102567561,63544.5555527387,68557.7074822749,59194.7012801115,70535.1894022426,27006.6289679086
8272730148,6844,-2,0,58525.9889981162,62480.5026332692,41938.1694533946,61651.5904549031,58118.3224837604,63551.5763138055,68520.6081746617,59117.8622746746,70514.6624977023,27012.1896053567
8272730148,6844,-2,0,58540.5172281228,62389.4274225495,41906.2414169312,61598.3446136059,57980.9005158421,63595.6720470918,68522.1291367646,59014.7288764033,70533.0600552986,27018.7723293379
8272800083,6845,-2,0,58572.5061030703,62405.7686393827,41938.7169997516,61647.7697981007,57966.8224906179,63615.1403620085,68573.8053451716,59054.0670402319,70566.2535322316,27022.7755015926
8272800083,6845,-2,0,58580.8653107877,62503.8767788661,41986.8402406863,61734.7444949911,58091.6508923245,63585.8162126652,68611.8172300465,59184.1397192692,70565.9006690237,27021.9237628150
8272800083,6845,-2,0,58561.8837037439,62553.7156650528,41990.7582390633,61746.3646454570,58187.2768216560,63552.5375618545,68595.6341932720,59242.7636825621,70538.3286680229,27020.0742728979
8272800083,6845,-2,0,58540.8214205434,62499.0705386210,41947.3803998895,61678.1160339771,58134.6393651999,63558.0860316058,68553.0472543917,59176.1577101533,70517.6800865144,27022.0454397832
8272800083,6845,-2,0,58542.2328733749,62410.3436933881,41912.7754701251,61610.9260121208,58001.0380540840,63586.8504668952,68533.7127841400,59071.8075421998,70530.1884788484,27019.6727389028
8272800083,6845,-2,0,58558.0143761542,62397.6771209954,41925.2960301559,61620.9278589093,57951.6980434670,63608.9591720225,68553.8868254725,59064.5312594996,70558.2836908125,27013.5767227945
8272800083,6845,-2,0,58569.9265513439,62488.3021269327,41976.7897231106,61698.5455969428,58060.2217314308,63594.9663206761,68586.5935945325,59182.1077138997,70569.2954564373,27012.5546362613
8272800083,6845,-2,0,58563.4533366341,62564.4719090443,42001.3684706929,61741.2663804882,58187.8365357098,63575.0478009769,68584.5980922536,59279.8751578721,70555.6189652083,27013.9660890928
8272824275,6846,-2,0,58556.8097741687,62531.7164691970,41973.9546497508,61693.5325058518,58169.9621890769,63579.8297058284,68550.3581933938,59231.0340228248,70542.1249894317,27030.0031135054
8272824275,6846,-2,0,58559.6205121348,62434.4965715817,41929.7129041026,61615.1116998279,58025.8114848155,63602.4616219190,68525.0007132148,59103.0176845506,70550.7032156918,27037.5349178388
8272824275,6846,-2,0,58571.1189856325,62411.6821400386,41932.9616791543,61620.6236664887,57961.7120579523,63611.5873945362,68548.3383557212,59080.5196131250,70572.7145792445,27031.0495354322
8272824275,6846,-2,0,58570.9851409675,62488.2169530549,41968.7468755106,61688.3734023989,58051.4366543247,63587.9090565188,68578.5872500230,59170.3902218592,70572.9701008778,27014.9030017482
8272824275,6846,-2,0,58550.9814473905,62548.3253753603,41979.4666164116,61716.0914157615,58157.3929582588,63549.0697682600,68569.6318251614,59233.7474192163,70544.3030071630,27007.2981912338
8272824275,6846,-2,0,58528.8727422633,62513.4284208721,41948.8648589019,61666.1673556970,58140.4920273718,63541.2094361123,68531.7416172547,59184.0545453914,70517.0230308859,27013.8687475182
8272824275,6846,-2,0,58529.8583257059,62421.4893036779,41911.0354894794,61596.4829559920,58014.5807006480,63579.6958611633,68508.9150180149,59074.1437399898,70523.2163885688,27025.5740718619
8272824275,6846,-2,0,58556.8949480465,62388.4783421973,41919.7597281014,61598.7339799042,57941.4406750453,63617.8902614905,68537.2900870060,59041.9601818931,70560.0845099423,27031.9742803908
8272838397,6847,-2,0,58579.0279885674,62469.7828923682,41973.8329727826,61681.4864859971,58031.8101593493,63610.9790096951,68586.3502405961,59146.5172006926,70581.9620288300,27027.5574064440
8272838397,6847,-2,0,58570.3037499454,62561.1014570244,42004.9336058620,61737.3727175048,58172.4687346225,63567.1996365262,68593.4318401470,59251.8042813015,70563.5523035369,27021.1328625215
8272838397,6847,-2,0,58545.2139590965,62542.5700547630,41970.8153839705,61690.1255507414,58176.7274285105,63548.4248803283,68550.1513425478,59214.6319675074,70533.4129185064,27023.4325572211
8272838397,6847,-2,0,58540.9552652084,62443.4519964433,41921.3536963852,61609.5145592894,58044.5619056197,63587.7143733696,68520.3891561189,59088.3312744853,70534.4350050396,27030.3316413197
8272838397,6847,-2,0,58560.7156048489,62399.1494123110,41920.2342682775,61606.1319395726,57953.2798440540,63613.5220583311,68543.1792522683,59046.5352358985,70559.8898267932,27030.2829705324
8272838397,6847,-2,0,58572.9928109433,62460.3164242399,41959.7184444680,61676.9479350821,58015.2255885796,63601.1231752685,68582.5295837937,59132.1714861384,70569.0886055913,27022.6051538371
8272838397,6847,-2,0,58562.6137655533,62538.9197457161,41986.4022036007,61731.0211797633,58139.2022515085,63564.1942154109,68591.6796918045,59229.3305452696,70548.9754027430,27017.5068888683
8272838397,6847,-2,0,58543.6564939031,62536.4010324738,41968.8807201757,61708.3892636726,58165.8130044603,63549.8971716439,68564.8620880068,59220.3142819238,70518.9211915903,27016.0711006432
8272849260,6848,-2,0,58536.9642606505,62448.7327768645,41925.6488933637,61635.7116105492,58055.6953482127,63573.9770436565,68533.7249518368,59109.5882408350,70513.6160757755,27018.6871554601
8272849260,6848,-2,0,58556.2500601149,62382.9298724460,41913.0918302425,61606.8498336851,57943.7282020480,63610.9303389078,68544.0918295300,59037.3851278877,70539.0952329227,27021.7777504531
8272849260,6848,-2,0,58579.7215472863,62439.5583334600,41958.1853146683,61676.3760533314,57992.1191323128,63616.7586656860,68590.9617976920,59115.6112507623,70567.7014881535,27022.2279552356
8272849260,6848,-2,0,58578.7237961469,62539.8688260683,42000.8087566391,61750.8423578878,58136.0994888187,63579.3673333491,68611.8293977433,59244.3333154523,70560.6198886025,27023.1405324973
8272849260,6848,-2,0,58559.2919843206,62547.6804874287,41982.9465777030,61726.7138150879,58181.8743642666,63556.0661939332,68580.9599509035,59246.2071407630,70534.3254957681,27027.3870586885
8272849260,6848,-2,0,58543.3888045730,62456.9338045232,41931.9760957117,61637.3055788330,58069.0433116275,63565.5935005455,68534.9417215191,59126.0511346364,70523.0582085101,27027.5939095345
8272849260,6848,-2,0,58550.6407518795,62388.6851930433,41917.2045117686,61598.5514644519,57954.7643030664,63600.5877966083,68536.8155468299,59050.8547682706,70544.4855226153,27024.0166066686
8272849260,6848,-2,0,58566.5926024144,62429.7755052144,41952.1744724378,61650.1668343748,57982.8108442433,63611.7212392013,68570.0333591565,59104.8063359836,70566.4847184712,27017.5555596556
8272907296,6849,-2,0,58569.3059988059,62527.8593093041,41990.9772576061,61720.2892711654,58117.0327078971,63585.3295047923,68589.7206926160,59218.6838105495,70561.8853290721,27017.4217149905
8272907296,6849,-2,0,58551.6019999285,62561.2353016894,41983.6158010282,61722.1874318698,58187.2038154750,63565.7881836947,68569.0964465011,59249.7722759321,70536.1749856852,27029.3217224834
8272907296,6849,-2,0,58544.0823632919,62489.7014120673,41939.1063660499,61651.0915793334,58105.5342343995,63576.7999493195,68532.2283251276,59154.1828496911,70527.5480886378,27038.8976998830
8272907296,6849,-2,0,58556.3352339926,62405.0994160574,41911.8993959538,61599.7073956501,57972.5291404279,63614.1304431722,68530.1354812741,59053.1666306670,70548.4156886891,27034.5294967236
8272907296,6849,-2,0,58576.5457784156,62429.6538282461,41942.6349981286,61645.4822710980,57975.9239278415,63616.3692993877,68570.6904147850,59091.0933416641,70572.9335977873,27024.1382836368
8272907296,6849,-2,0,58572.1775752561,62520.9602252055,41982.7153914633,61715.7142171600,58106.3494700866,63577.1041417400,68590.1222266112,59206.2727597901,70561.9461675562,27010.8511587061
8272907296,6849,-2,0,58547.3554737373,62544.7967432816,41969.2214156867,61706.2599167286,58174.8657708966,63543.0102552421,68556.9044142846,59225.0475159879,70525.5647540556,27007.9552468623
8272907296,6849,-2,0,58529.4081209235,62468.8703151065,41919.8814050697,61630.2361469788,58093.2083575178,63552.6470711259,68513.6847551695,59127.8762891599,70509.6250712176,27015.2558649560
8272932229,6850,-2,0,58537.5483100980,62386.5558460993,41892.6866026704,61584.7411285579,57963.9387464709,63586.8504668952,68510.9713587780,59035.6816503324,70528.1443057821,27020.1351113820
8272932229,6850,-2,0,58559.0607980810,62402.2278396072,41920.8669885123,61624.4808263816,57952.3550990954,63603.5810500267,68549.8349824304,59065.5898491232,70555.1565927290,27021.1450302183
8272932229,6850,-2,0,58568.6246077838,62498.7663462004,41970.4625207626,61707.3671771395,58076.2830912371,63582.9203008214,68588.2118982100,59188.9824626047,70560.3643669693,27020.8530054946
8272932229,6850,-2,0,58557.6006744622,62555.6989996350,41982.9952484903,61735.5962337687,58179.7206819289,63555.5186475761,68584.2087259552,59259.8836319920,70536.9050474946,27021.7534150595
8272932229,6850,-2,0,58545.1652883092,62499.2287186797,41942.9270228523,61676.0231901236,58127.1562316538,63560.5682417576,68549.2022621956,59186.2203954259,70520.5029921773,27025.5132333778
8272932229,6850,-2,0,58551.8818569554,62400.0133187854,41902.0192261336,61611.6439062334,57982.5553226100,63587.0329823475,68536.6695344680,59069.7877045272,70530.8577021736,27025.2455440477
8272932229,6850,-2,0,58565.9720498764,62394.8177122420,41914.7344693136,61635.6021012777,57944.0202267717,63594.1145818985,68569.6196574645,59079.9477313743,70557.4197843381,27013.6983997627
8272932229,6850,-2,0,58563.8183675388,62481.7680737388,41958.1488115778,61710.1292443183,58054.7584355573,63564.3158923791,68596.9969753162,59202.2817552322,70552.8325626358,27006.4951232435
8272944470,6851,-2,0,58543.9241832332,62535.3667782438,41964.0136414465,61722.9053259824,58154.8012388356,63533.9088180186,68577.1879648884,59263.5096056452,70523.1433823879,27002.8813172871
8272944470,6851,-2,0,58522.7645584581,62486.4769724093,41925.3325332464,61658.2705204589,58113.4310696376,63535.0890846104,68530.4275059978,59197.3295026252,70503.2491980824,27006.4829555467
8272944470,6851,-2,0,58525.9646627226,62402.7023797833,41892.0295470420,61596.2152666619,57985.2322159110,63579.3916687427,68511.6284144064,59092.9671669749,70518.1911297809,27019.6362358123
8272944470,6851,-2,0,58557.6493452495,62400.5973682329,41918.8836539302,61620.8670204252,57946.6241138918,63626.2129661174,68547.4379461563,59092.3466144369,70560.7780686612,27039.1288861226
8272944470,6851,-2,0,58582.2402605287,62499.7519296431,41981.9244911699,61711.3460140006,58058.7372724184,63618.8271741459,68597.8243787001,59206.8933123281,70582.4974074902,27046.0036348276
8272944470,6851,-2,0,58576.7647969584,62579.1339837160,42007.9633623710,61758.4228330085,58189.8320379888,63576.7026077449,68603.0808237276,59294.8414249643,70565.0124271556,27038.8003583084
8272944470,6851,-2,0,58553.1351297282,62534.6732195249,41963.1010641848,61698.2049014318,58164.1703653892,63551.9656801038,68556.2716940498,59231.6424076659,70529.5922617040,27030.6358337402
8272944470,6851,-2,0,58546.8079273803,62422.9737626903,41907.3851804325,61611.1450306636,58016.1503335381,63576.3984153243,68525.0980547894,59095.8022403346,70527.9982934202,27028.3239713439
8272978501,6852,-2,0,58568.1257322141,62397.4946055431,41918.4091137541,61622.8868580978,57951.2235032909,63612.4269656170,68558.1090162700,59079.9598990711,70560.9849195072,27028.4943190994
8272978501,6852,-2,0,58581.5588695066,62481.0623473231,41971.8618058973,61708.3405928853,58048.2852208475,63604.5666334694,68605.1493321875,59194.4214230845,70577.7155026388,27026.1094505221
8272978501,6852,-2,0,58571.2041595103,62555.5043164858,41990.5635559141,61747.5814151393,58170.1325368325,63565.8976929661,68605.4656923049,59283.0752621365,70555.7528098734,27022.6781600180
8272978501,6852,-2,0,58542.5248980986,62523.6736215970,41951.1158828142,61693.1796426439,58158.5853925475,63540.5888835744,68561.0901019916,59235.8402630698,70519.9797812139,27018.7723293379
8272978501,6852,-2,0,58530.2841950947,62424.5920663678,41900.9971396005,61607.6772370691,58025.1544291871,63559.6678321927,68524.2584837086,59111.2552152997,70513.4335603232,27016.9350071176
8272978501,6852,-2,0,58543.5226492381,62372.1371253641,41895.8380361475,61588.0507420937,57925.6835076596,63593.9929049303,68534.0534796511,59055.1864683396,70534.7391974601,27012.8344932883
8272978501,6852,-2,0,58563.7575290546,62442.3934068197,41946.5286611119,61661.2881092710,57995.1610565186,63595.8423948474,68576.5795800473,59149.5469572015,70558.2715231157,27009.1963519382
8272978501,6852,-2,0,58556.6029233227,62535.0747535201,41981.2674355414,61721.3600284858,58137.2067492296,63553.5961514781,68583.7828565664,59269.1919200615,70542.8550512410,27005.1688442898
8273027931,6853,2,0,58535.5649755159,62526.8737258614,41957.2849051034,61685.1002919535,58158.1473554619,63543.7524847483,68544.9192329140,59253.0697217711,70518.7021730475,27015.4383804084
8273027931,6853,2,0,58532.0850142245,62435.4943227211,41913.5055319345,61602.8466614304,58034.1341894424,63571.0567964190,68509.5112351592,59128.3873324264,70519.7120918838,27023.6880788543
8273027931,6853,2,0,58552.0157016205,62388.5878514687,41911.8750605602,61592.3702744658,57940.5280977836,63601.4273676891,68528.0061343301,59072.2820823759,70549.2187566794,27028.0927851042
8273027931,6853,2,0,58570.9608055738,62447.8201996028,41952.7220187948,61664.7680705623,57996.7915278928,63588.9919815360,68573.6593328098,59147.8678150400,70564.6838993414,27026.3406367617
8273027931,6853,2,0,58561.1171388441,62528.0783278469,41977.1669217121,61721.8832394492,58121.0602155455,63551.8196677419,68585.2308124884,59243.6762598238,70544.5706964931,27022.2644583261
8273027931,6853,2,0,58542.6100719764,62529.8426438862,41957.8081160668,61702.3419183516,58154.2171893881,63529.8448072797,68559.7273199475,59238.0547838916,70514.0419451643,27025.7687550111
8273027931,6853,2,0,58533.2044423322,62443.4276610497,41909.5875335575,61629.0558803870,58044.0021915658,63548.0598494237,68524.8790362466,59128.3021585487,70502.8598317840,27031.2563862782
8273027931,6853,2,0,58551.6385030190,62378.7928555262,41896.2882409300,61598.3567813027,57929.8448599730,63598.7139712976,68537.4969378520,59051.2684699626,70530.6630190244,27039.5304201178
8273039717,6854,2,0,58579.6363734086,62435.9566952004,41943.7665939331,61668.2480318537,57974.5124750100,63606.3187818119,68588.5769291147,59127.9857984313,70562.4328754291,27037.1820546310
8273039717,6854,2,0,58577.0446539853,62537.1797650705,41984.5892167741,61738.5894871871,58121.7051034772,63558.4875656009,68606.0132386620,59250.4414992574,70549.9731538825,27024.9170162335
8273039717,6854,2,0,58549.6795038305,62543.7138182644,41962.2979961945,61710.1535797119,58167.8328421329,63527.9101434849,68565.5191436352,59247.3144011739,70514.4799822499,27014.4771323594
8273039717,6854,2,0,58534.0440134130,62452.8819614811,41910.0255706431,61621.3415606013,58058.6155954502,63549.7024884948,68518.7708524415,59125.7834453063,70503.7115705616,27014.9395048386
8273039717,6854,2,0,58548.6330819037,62385.1808963583,41898.7217802946,61589.4865303188,57945.0544810017,63595.9154010283,68528.1764820856,59050.4654019723,70531.7946148290,27026.4623137300
8273039717,6854,2,0,58569.9387190407,62425.4559728422,41940.7125020305,61647.7211273134,57967.9662541193,63602.4616219190,68572.5277370052,59108.1767880035,70560.2061869106,27034.5416644204
8273039717,6854,2,0,58572.9198047623,62521.7267901053,41984.9299122851,61723.5867170044,58099.4382182912,63575.1694779452,68600.2579180647,59225.1813606529,70555.3391081814,27036.3546512470
8273039717,6854,2,0,58557.5155005845,62557.5971603394,41980.1966782210,61729.1595221494,58174.3182245396,63546.7822412572,68583.0041239698,59264.3370090292,70529.6044294008,27039.5912586019
8273074006,6855,2,0,58541.6731593210,62482.5833094259,41927.5227186745,61654.8148945612,58092.3444510434,63549.1671098345,68540.4780235736,59167.9445147978,70508.5421462003,27042.0126302697
8273074006,6855,2,0,58551.1274597524,62393.0290608091,41895.1931482159,61596.4829559920,57952.5741176383,63585.8770511494,68532.7637037878,59058.5934234500,70523.4962455957,27041.6354316682
8273074006,6855,2,0,58574.3555929874,62411.2684383467,41923.7507326594,61639.9338013467,57947.4515172758,63598.3367726961,68574.5110715874,59085.6543811843,70550.3381847871,27036.5371666994
8273074006,6855,2,0,58573.7837112367,62507.5027525193,41970.6815393055,61714.9963230474,58078.3150966065,63564.7904325552,68598.4449312381,59204.3502636921,70547.4544406401,27033.3370624349
8273074006,6855,2,0,58544.6420773458,62538.6642240829,41962.5900209182,61708.6082822154,58153.5479660628,63526.5473614407,68568.1351984521,59230.0727747758,70514.6868330959,27028.3239713439
8273074006,6855,2,0,58521.9128196805,62466.6922973752,41915.0264940373,61626.7805210811,58075.1514954326,63532.1201665856,68519.9267836396,59131.2224057862,70497.4817097883,27025.2090409572
8273074006,6855,2,0,58529.0065869283,62382.0537982748,41887.9046978190,61573.9848845664,57943.0954818132,63570.6309270302,68510.8131787193,59033.1142663028,70515.5872426608,27023.8462589130
8273074006,6855,2,0,58554.2667255327,62392.5910237234,41915.8660651181,61608.2612865166,57925.4401537231,63597.6797170676,68545.9048163566,59054.4564065302,70545.8848077499,27022.2766260229
8273107769,6856,2,0,58566.6291055048,62487.6085682138,41964.9870571923,61690.4175754651,58045.4866505782,63575.2911549134,68581.6291742288,59176.2550517279,70555.8258160543,27019.4293849663
8273107769,6856,2,0,58552.3442294347,62546.7070716828,41973.4192710906,61719.5713770529,58153.7791523024,63537.9363256670,68576.3240584140,59253.3860818885,70532.9018752399,27023.0918617100
8273107769,6856,2,0,58534.3968766209,62492.7676716667,41926.8169922587,61660.4728735838,58109.4035619892,63533.2882654806,68538.4460182042,59185.9527060958,70509.9535990318,27032.9598638334
8273107769,6856,2,0,58542.6344073700,62396.2413327703,41886.1525494765,61595.5095402462,57971.6652339535,63579.1239794126,68527.6167680317,59068.4370901798,70524.3236489797,27041.0027114334
8273107769,6856,2,0,58568.1622353045,62393.2602470487,41909.0643225941,61625.3569005528,57936.8291179494,63601.5490446573,68568.6097386282,59070.0553938573,70555.8379837511,27036.7196821517
8273107769,6856,2,0,58573.7107050558,62485.5643951475,41961.1785680867,61708.2310836139,58050.5727478502,63571.8476967125,68605.3683507303,59185.8066937339,70559.2206034679,27027.6547480186
8273107769,6856,2,0,58550.5799133954,62540.4650432127,41969.2335833835,61726.3609518801,58154.2536924785,63529.5527825560,68584.1965582584,59242.4473224447,70525.6620956302,27022.2522906292
8273107769,6856,2,0,58528.4347051776,62494.6658323711,41928.9220038091,61662.6995621024,58118.1156329144,63526.2796721106,68538.2756704486,59178.2748894005,70501.3997081653,27023.7732527321
8273145445,6857,2,0,58534.0440134130,62407.1070860332,41893.6113476289,61600.6564760023,57991.0848780829,63565.6786744233,68521.6059258012,59075.2388327038,70513.3240510517,27028.5064867962
8273145445,6857,2,0,58559.4988351666,62390.8388753809,41909.0643225941,61613.1405329426,57935.6245159639,63601.3056907209,68549.5186223130,59063.9228746585,70544.2665040725,27028.6281637644
8273145445,6857,2,0,58576.5092753251,62477.1686843397,41960.0104691917,61690.8799479444,58032.3333703126,63582.7499530659,68589.7693634033,59170.8404266417,70560.0115037614,27020.7556639200
8273145445,6857,2,0,58558.9147857191,62549.2379526220,41973.3462649097,61728.7093173669,58147.9629932211,63530.9764030842,68583.6490119014,59257.9733035908,70529.8477833373,27012.9440025597
8273145445,6857,2,0,58525.6117995147,62506.1521381720,41926.1842720240,61668.2115287632,58122.7758607976,63508.8311948665,68531.5104310151,59199.9820605326,70489.9742408485,27008.2594392828
8273145445,6857,2,0,58519.6617957683,62401.0719084090,41874.1673681059,61587.1868356193,57977.4692253380,63542.4505411883,68502.6121510606,59068.8629595686,70488.4654464425,27011.4473758505
8273145445,6857,2,0,58544.3743880157,62371.8329329435,41883.2931407231,61597.7605641584,57906.4220435888,63577.7368619748,68534.5280198272,59045.0142737956,70520.0041166076,27017.7137397143
8273145445,6857,2,0,58563.3803304531,62456.1672396233,41938.1207826073,61680.9146042464,58001.3544142014,63568.1243814847,68580.7287646639,59155.4482901607,70536.4183396217,27019.8674220519
8273168008,6858,2,0,58551.8210184713,62537.7029760338,41964.2204922925,61723.6475554886,58132.0233103830,63537.1697607671,68580.0595413386,59249.5045866020,70518.9455269840,27016.4361315479
8273168008,6858,2,0,58531.0385922977,62517.7357855474,41940.9558559670,61682.4477340461,58141.1247476066,63529.4067701941,68541.8894764050,59223.3075353422,70498.5159640182,27020.3541299248
8273168008,6858,2,0,58524.6505514657,62424.0323523139,41898.2959109058,61606.3631258122,58021.0052445705,63554.0220208669,68509.6937506115,59106.1569503309,70501.6187267081,27025.3793887127
8273168008,6858,2,0,58542.1720348907,62372.3318085132,41892.9542920005,61586.0187367243,57922.3982295174,63587.8725534283,68522.7618569994,59043.1769515754,70533.9361294698,27027.1315370552
8273168008,6858,2,0,58563.6966905705,62436.8936078558,41936.7580005631,61655.1312546786,57983.2002105416,63583.5651887530,68568.2933785108,59122.9848750371,70555.7406421765,27024.1991221209
8273168008,6858,2,0,58560.6060955775,62531.7408045906,41971.1925825720,61724.1464310583,58122.7150223135,63545.9305024796,68585.7175203613,59241.0845404005,70541.4070953191,27021.3762164580
8273168008,6858,2,0,58540.1156941277,62525.7177946633,41944.4601526520,61695.8443682481,58151.6863084489,63519.0398925009,68551.6966400443,59230.2187871376,70509.5520650366,27024.2599606050
8273168008,6858,2,0,58527.3517801604,62422.7425764507,41887.5518346111,61607.8719202183,58027.1134283756,63540.7227282394,68512.9790287537,59107.5197323751,70500.7061494464,27023.1892032846
8273213805,6859,2,0,58539.8723401912,62364.9095134512,41879.2534653779,61588.8294746904,57925.6470045691,63578.8562900825,68525.9741289606,59050.1855449454,70527.9617903298,27016.8011624525
8273213805,6859,2,0,58557.7101837336,62424.7867495169,41925.4298748209,61659.6211348062,57980.1096155486,63579.9027120093,68571.4083088975,59133.7654544222,70549.8149738238,27012.4207915963
8273213805,6859,2,0,58555.0576258262,62519.2445799534,41963.4417596958,61724.1951018456,58114.4653238675,63548.8750851108,68585.7296880581,59240.1719631388,70539.8374624289,27015.7060697385
8273213805,6859,2,0,58530.4788782439,62528.3338494802,41945.6160838502,61702.3905891389,58156.1640208797,63522.7632077288,68553.9233285629,59242.4838255352,70509.9414313350,27017.3365411128
8273213805,6859,2,0,58513.6144504473,62442.9409531768,41897.0791412235,61622.9355288851,58054.2473922908,63535.5149539992,68514.0254506805,59133.5829389698,70495.7660645362,27022.2522906292
8273213805,6859,2,0,58528.3738666935,62371.4070635547,41880.3485580919,61585.6050350323,57932.7286041200,63580.5841030314,68517.9434490575,59047.5208193412,70521.8171034342,27027.0706985711
8273213805,6859,2,0,58549.1076220798,62414.5293810952,41922.0715904978,61645.8351343058,57961.3348593508,63587.4588517363,68563.7669952927,59104.2587896265,70552.8690657263,27024.4546437542
8273213805,6859,2,0,58544.3378849252,62512.3941666421,41963.2714119403,61720.4474512241,58101.5797329320,63544.9205836433,68586.3380728992,59227.6757385016,70543.1592436616,27016.9836779049
8273232637,6860,2,0,58522.3386890693,62531.8624815588,41949.9842870096,61709.7885488072,58168.7940901819,63519.8429604913,68557.1356005242,59243.5424151588,70513.7499204406,27017.8354166825
8273232637,6860,2,0,58507.3359188867,62445.9463742920,41896.9817996489,61625.7706022448,58068.9459700529,63528.9930685021,68513.9524444996,59133.8141252095,70497.8345729961,27016.9350071176
8273232637,6860,2,0,58517.3742687656,62366.6129910065,41873.7901695044,61581.5166888998,57941.6231904976,63562.9774457286,68514.4269846757,59051.0007806325,70516.4876522257,27019.1008571521
8273232637,6860,2,0,58537.2197822838,62392.6883652980,41907.0931557088,61627.9121168857,57950.0675720927,63571.4583304142,68550.9300751445,59098.7346552689,70540.1416548495,27019.2590372108
8273232637,6860,2,0,58539.5073092865,62485.3453766047,41953.0018758217,61696.8177839940,58075.2975077945,63545.9183347828,68574.7665932206,59206.7716353598,70537.0632275533,27019.0521863648
8273232637,6860,2,0,58518.5545353574,62519.0985675916,41950.9942058459,61698.3265784000,58152.6475564979,63518.6505262026,68553.5217945678,59242.6055025034,70510.3307976333,27020.6583223454
8273232637,6860,2,0,58502.6026848225,62452.1275642781,41908.9791487163,61630.4064947344,58082.7684736437,63530.9277322970,68513.1980472966,59156.1905196669,70498.4794609278,27028.0684497106
8273232637,6860,2,0,58512.5193577332,62362.2204524534,41877.4039754608,61570.0547184926,57948.0599021169,63574.9017886151,68504.6563241268,59051.5726623832,70519.6634210965,27034.8093537505
8273265737,6861,2,0,58538.6312351153,62381.5062519177,41911.2788434159,61614.7831720137,57941.5988551040,63604.2502733520,68547.3649399754,59087.4186972236,70558.9894172283,27034.2496396966
8273265737,6861,2,0,58549.5821622559,62493.7775905030,41973.2002525478,61706.6006122396,58082.9509890961,63579.3429979554,68582.3349006445,59225.4977207703,70566.9470909505,27029.0175300628
8273265737,6861,2,0,58528.6415560236,62540.0756769143,41971.1925825720,61711.1513308514,58170.9721079132,63531.4022724731,68554.7507319469,59266.5636975478,70532.9992168145,27021.4735580326
8273265737,6861,2,0,58510.8645509653,62476.4507902272,41920.8426531187,61639.3375842024,58102.9546826730,63525.8294673281,68507.9659376627,59170.6579111893,70508.9923509828,27023.2865448592
8273265737,6861,2,0,58511.4364327160,62382.8325308714,41882.9889483025,61578.6207770559,57964.0482557423,63558.8769318993,68495.3602037541,59054.8701082222,70514.5164853404,27026.5231522141
8273265737,6861,2,0,58533.6911502051,62383.7207727395,41907.7745467308,61612.6173219792,57937.5835151524,63591.9000610767,68536.6086959839,59066.1617308739,70547.5031114274,27028.2144620725
8273265737,6861,2,0,58546.4063933851,62471.8392331313,41958.8423702967,61693.1674749471,58053.1766349703,63575.9360428450,68578.1005421501,59179.0536219972,70556.4585362891,27021.8507566341
8273265737,6861,2,0,58533.0827653640,62535.0625858233,41973.5287803620,61724.5723004471,58167.4069727441,63546.1616887193,68573.1361218464,59251.5365919714,70534.0213033476,27017.5555596556
8273294786,6862,2,0,58515.8533066627,62489.7622505515,41932.4384681910,61668.9415905726,58133.3982601240,63540.7835667235,68531.4495925310,59189.2014811475,70512.0099397949,27021.0841917342
8273294786,6862,2,0,58517.6176227020,62390.1453166620,41891.0439635993,61595.8259003636,57992.8126910317,63577.0189678623,68510.1317876972,59059.6641807705,70522.6201714245,27026.4014752459
8273294786,6862,2,0,58541.7339978051,62376.6026700981,41910.8894771175,61616.2311279356,57943.7160343512,63606.9393343499,68545.5762885424,59045.0264414925,70557.3224427635,27025.0751962922
8273294786,6862,2,0,58559.6570152253,62473.6887230483,41969.5986142882,61706.1747428508,58058.3600738169,63593.1411661527,68593.6630263867,59164.9025905921,70570.8042508433,27027.0585308743
8273294786,6862,2,0,58549.7768454051,62543.1784396042,41984.9055768915,61738.4313071284,58174.9387770775,63554.0463562606,68587.2506501610,59244.6253401760,70544.1813301947,27022.8850108640
8273294786,6862,2,0,58531.5861386548,62504.3634867390,41944.2898048965,61680.5860764322,58148.2550179448,63542.4383734915,68543.4104385079,59198.8382970313,70515.9157704750,27021.9359305118
8273294786,6862,2,0,58527.2787739795,62409.6136315787,41898.2837432090,61606.6308151423,58015.6271225747,63562.5150732493,68516.0817914436,59098.4182951515,70514.3096344944,27025.5862395587
8273294786,6862,2,0,58540.7119112720,62376.1889684061,41898.6731095073,61602.2991150734,57942.8886309672,63588.4079320885,68530.6830276311,59078.7066262984,70535.2015699394,27024.8318423557
8273323716,6863,2,0,58552.1617139824,62449.3046586152,41943.2920537570,61674.2953771747,58026.0548387520,63579.8783766157,68567.2347888872,59179.5524975669,70547.6247883956,27018.0666029221
8273323716,6863,2,0,58545.6641638789,62536.4862063516,41976.0596613012,61733.1626944041,58160.9459257311,63563.6710044475,68578.8062685659,59286.7012357897,70537.3187491866,27020.8530054946
8273323716,6863,2,0,58528.8240714760,62518.7822074742,41952.3204847996,61696.3797469083,58167.6746620742,63550.9192581771,68546.3428534422,59259.1170670921,70519.2375517077,27026.8881831188
8273323716,6863,2,0,58520.7203853919,62418.3865409881,41903.2238281191,61608.0666033674,58029.6078062243,63573.6241804487,68512.5531593649,59132.3053308034,70521.0627062312,27029.1270393342
8273323716,6863,2,0,58530.9047476327,62370.2511323565,41896.2639055363,61593.2828517276,57936.3302423796,63590.8414714531,68528.8213700172,59085.1920087050,70547.6369560925,27024.2842959987
8273323716,6863,2,0,58538.9840983231,62433.7786774691,41934.7746659810,61663.2836115499,58006.0754805687,63578.5764330556,68565.3609635765,59176.7174242072,70558.0403368761,27017.0931871763
8273323716,6863,2,0,58533.2652808163,62515.3752523638,41962.3101638913,61713.3901870668,58133.0453969161,63550.7489104215,68571.2866319293,59271.0779130691,70541.2732506540,27017.3487088096
8273323716,6863,2,0,58517.7758027607,62506.8456968909,41942.3429734048,61681.4378152098,58148.4131980035,63540.2968588506,68537.6794533043,59246.5965070613,70515.9644412623,27021.5222288199
8273372148,6864,2,0,58513.3710965108,62421.0147635018,41900.3644193657,61607.9935971865,58032.0535132857,63558.6214102660,68507.8807637849,59133.7532867254,70512.6669954233,27029.9544427181
8273372148,6864,2,0,58527.8749911238,62365.0433581163,41887.0529590414,61583.4513526946,57927.5451652735,63589.7220433454,68519.0993802557,59063.8498684776,70534.6175204919,27034.6146706013
8273372148,6864,2,0,58549.2658021385,62422.0490177318,41929.7494071931,61649.0595739639,57980.4989818469,63595.4043577617,68562.9030888183,59139.3625949607,70558.1498461475,27033.7507641269
8273372148,6864,2,0,58546.6010765343,62517.5897731855,41969.8419682247,61720.5204574051,58124.2846552036,63558.3780563295,68580.5949199988,59257.9489681971,70547.1137451291,27026.9733569965
8273372148,6864,2,0,58529.6149717695,62522.3595103401,41953.2573974550,61699.9813851679,58168.9401025438,63540.3211942443,68550.7232242985,59262.5848606867,70519.3835640696,27027.8737665614
8273372148,6864,2,0,58528.1670158475,62432.5619077868,41906.4969385644,61624.3348140197,58063.0689724874,63574.3055714707,68519.1845541334,59150.5568760378,70518.4831545047,27035.4664093789
8273372148,6864,2,0,58548.6087465101,62376.7973532473,41897.3711659472,61602.7858229463,57959.6678848860,63608.5089672400,68534.9538892160,59088.6963053900,70546.7000434371,27034.8701922346
8273372148,6864,2,0,58565.7773667272,62428.8750956495,41936.7093297758,61664.1353503276,58000.9042094190,63604.7248135281,68575.9103567220,59158.7579036965,70565.1097687302,27024.6493269033
8273386159,6865,2,0,58558.0508792447,62516.8110405889,41968.2358322440,61725.5335484961,58126.5965176000,63566.3600654454,68588.9297923225,59262.3658421439,70549.2430920731,27012.0800960853
8273386159,6865,2,0,58534.6037274669,62530.5483703020,41954.3889932595,61709.3626794184,58173.6490012143,63541.9273302249,68560.1045185490,59267.4762748095,70517.6679188175,27007.1035080847
8273386159,6865,2,0,58523.0809185755,62453.3199985667,41910.0620737336,61634.3609962018,58081.7342194138,63550.4812210914,68522.6280123343,59159.2324438726,70505.1351910899,27015.8885851908
8273386159,6865,2,0,58535.1756092175,62377.8559428709,41887.7221823666,61589.7785550426,57957.4533640643,63585.8892188462,68523.5770926865,59062.0977201350,70520.0527873948,27023.5542341893
8273386159,6865,2,0,58564.5971001354,62418.7394041959,41928.8003268409,61646.8085500517,57977.8099208490,63604.3962857139,68570.6052409072,59115.3192260386,70551.4819482885,27034.0671242443
8273386159,6865,2,0,58567.1888195587,62522.3108395528,41980.6712183971,61728.1252679194,58122.4229975897,63574.2082298962,68598.7247882650,59249.7357728416,70549.0727443176,27035.0648753838
8273386159,6865,2,0,58542.8412582160,62547.1086056780,41977.1547540153,61719.1941784514,58193.6040240039,63549.0819359568,68569.2181234694,59283.2212744984,70521.9752834929,27038.1798057705
8273386159,6865,2,0,58527.3882832509,62470.1844263633,41933.3023746654,61638.8873794199,58106.5076501453,63572.4804169473,68526.2783213812,59183.8355268486,70518.1302912968,27044.9328775072
8273455137,6866,2,0,58532.4135420387,62388.1011435958,41906.1075722661,61588.1602513651,57975.1938660321,63601.7923985938,68520.1823052729,59089.7792304072,70542.2466663999,27039.5425878146
8273455137,6866,2,0,58547.2946352532,62404.2963480671,41930.7714937262,61626.3303162987,57969.6940670681,63608.9713397193,68548.7520574132,59121.9992915944,70565.6573150872,27025.7444196174
8273455137,6866,2,0,58550.6650872732,62495.4567326646,41972.9203955209,61695.1508095292,58091.2250229357,63585.9622250271,68569.9968560660,59230.4621410741,70562.6032231847,27019.2712049076
8273455137,6866,2,0,58533.5086347528,62539.1752673494,41977.9213189151,61702.7191169531,58178.2483906134,63554.8737596445,68549.2996037702,59277.0522522091,70538.2678295388,27021.8020858468
8273455137,6866,2,0,58511.0835695081,62474.0050831657,41936.3808019616,61629.4574143822,58114.1611314469,63554.4113871652,68503.6707406842,59195.5165157986,70517.8260988762,27023.6029049766
8273455137,6866,2,0,58513.4562703886,62379.6324266070,41900.9484688132,61564.6887641936,57974.2569533767,63592.1312473164,68491.8194039786,59087.3456910427,70530.1884788484,27031.2563862782
8273455137,6866,2,0,58539.5438123770,62392.3963405743,41928.9220038091,61604.0877665063,57953.1703347826,63615.7244114560,68537.3022547028,59113.0560344295,70563.6983158987,27037.6809302007
8273455137,6866,2,0,58552.6605895521,62498.9001908655,41984.1633473853,61698.5942677301,58085.8347332431,63588.1889135457,68579.5363303752,59246.3653208217,70571.7046604082,27038.5691720688
8273463955,6867,2,0,58533.6181440242,62548.7147416586,41986.6698929308,61713.6822117906,58186.5102567561,63550.4082149105,68563.4871382658,59298.9541064904,70541.4557661064,27032.2541374177
8273463955,6867,2,0,58515.2570895184,62486.8176679203,41938.6318258738,61645.8594696995,58129.1639016296,63557.7696714884,68520.7663547204,59209.8500626560,70518.4223160206,27031.4875725178
8273463955,6867,2,0,58527.7289787619,62398.3463443207,41906.2779200216,61593.0273300943,57999.1155579860,63591.7175456244,68513.4170658394,59104.4899758662,70533.2060676604,27036.7318498485
8273463955,6867,2,0,58551.7601799872,62393.9416380708,41923.6777264784,61620.7940142442,57957.7453887880,63603.8730747505,68548.7885605037,59106.6193228102,70558.6365540204,27031.7187587575
8273463955,6867,2,0,58558.4767486335,62472.7274749993,41963.7702875100,61693.3013196121,58055.7318513032,63580.1217305521,68582.6877638524,59203.2551709780,70557.5292936095,27022.6416569276
8273463955,6867,2,0,58543.9728540205,62537.6908083370,41979.7708088322,61725.0468406232,58167.3461342600,63550.2865379423,68575.4358165459,59275.7989794364,70534.4593404332,27019.2347018171
8273463955,6867,2,0,58520.7933915728,62496.7586762247,41941.3573899622,61667.8221624649,58138.5938666674,63546.4537134430,68532.0458096753,59217.2601900212,70507.8364197846,27019.1251925457
8273463955,6867,2,0,58519.0047401399,62398.2368350493,41894.7794465239,61588.2697606365,57998.6896885972,63579.6350226792,68503.3300451731,59091.9450804417,70513.9202681961,27023.6150726734
8273496419,6868,2,0,58537.8159994281,62377.1623841520,41904.7812933124,61597.7848995520,57935.2351496656,63601.5612123541,68527.7627803936,59075.1901619165,70542.5021880332,27026.4136429427
8273496419,6868,2,0,58549.6673361337,62464.2100872233,41956.2871539639,61680.5130702512,58036.5190580197,63578.2357375446,68567.4781428237,59193.4236719451,70548.7685518970,27025.2577117445
8273496419,6868,2,0,58540.1765326118,62539.0292549876,41976.7167169296,61721.1288422462,58160.6660687042,63541.1972684155,68564.9229264909,59283.0144236524,70521.0992093216,27025.5862395587
8273496419,6868,2,0,58524.8817377053,62510.7271921774,41944.8738543440,61671.7766639324,58150.1896817397,63540.1143433983,68527.3977494889,59238.7970133978,70499.9882553338,27027.3748909917
8273496419,6868,2,0,58529.6271394663,62424.3365447345,41907.3851804325,61605.8034117584,58029.3036138037,63577.3353279797,68508.0754469341,59136.0529814249,70508.4813077162,27038.6178428561
8273496419,6868,2,0,58555.5321660023,62397.8961395382,41920.3194421553,61609.1373606879,57961.1645115953,63615.9190946052,68535.2702493334,59108.9068498129,70545.7874661754,27044.9328775072
8273496419,6868,2,0,58568.2474091823,62464.2100872233,41964.1231507179,61678.2863817326,58033.9881770806,63601.2813553272,68576.1172075680,59195.6990312510,70562.8222417275,27031.4023986401
8273496419,6868,2,0,58555.5808367896,62542.4240424012,41990.0890157380,61731.2401983061,58162.5885648022,63558.7795903247,68583.1866394221,59296.9099334242,70547.6856268797,27020.0012667170
8273504288,6869,2,0,58528.7023945077,62520.7533743595,41955.6422660323,61690.1255507414,58168.6115747296,63541.7691501662,68543.2522584492,59270.5547021057,70517.5097387588,27018.2369506777
8273504288,6869,2,0,58522.3751921598,62420.0170123624,41902.9683064858,61604.5501389856,58037.2734552228,63577.4326695542,68509.2435458291,59146.0791636070,70518.1181236000,27026.0851151285
8273504288,6869,2,0,58541.7339978051,62377.5882535408,41903.6862005983,61590.4112752773,57943.5456865956,63619.3625528061,68530.4275059978,59099.0388476895,70551.0560788997,27031.2928893687
8273504288,6869,2,0,58559.8760337681,62452.3709182146,41959.8766245267,61667.8586655554,58019.8979841596,63615.9434299989,68578.1005421501,59192.4137531088,70574.5275660711,27032.4001497796
8273504288,6869,2,0,58549.0346158989,62536.9850819213,41989.9065002857,61718.8778183340,58149.2284336907,63573.1861433630,68581.3979879891,59279.7899839943,70555.2295989100,27018.6019815823
8273504288,6869,2,0,58530.2598597011,62531.6434630160,41971.3020918434,61690.2593954064,58172.5660761971,63563.3303089365,68549.8228147336,59252.1328091158,70529.0690507406,27020.3906330153
8273504288,6869,2,0,58528.8605745664,62451.3853347719,41933.7525794478,61625.3569005528,58066.8774615930,63586.3515913255,68521.8979505250,59140.2873399193,70529.5557586136,27029.3703932706
8273504288,6869,2,0,58552.1373785887,62398.1029903842,41924.4564590751,61609.1008575974,57963.7075602313,63621.8690983516,68536.0124788396,59075.2510004006,70555.2904373941,27032.8868576525
8273559001,6870,2,0,58575.5723626697,62452.8697937843,41962.7116978864,61673.6383215463,58008.6185292047,63627.1498787728,68580.0473736418,59150.8245653679,70582.1810473728,27030.3924798038
8273559001,6870,2,0,58572.4087614957,62551.1847841137,42006.2963879062,61745.0261988065,58154.1806862976,63595.6233763045,68600.9393090868,59281.3717845813,70574.1625351665,27027.2775494171
8273559001,6870,2,0,58550.9449443001,62562.3790651908,41991.7073194155,61728.0035909512,58204.1047463621,63571.9328705903,68573.2577988146,59300.4385655028,70543.9258085615,27029.2608839992
8273559001,6870,2,0,58538.8502536581,62464.2952611010,41934.4583058636,61639.8242920753,58089.3146945345,63576.6052661703,68532.2891636117,59183.5556698217,70528.7040198360,27028.0806174074
8273559001,6870,2,0,58548.6817526910,62387.0668893658,41908.4802731466,61600.7294821832,57961.8702380110,63600.5391258210,68534.9052184287,59099.3308724133,70543.0619020870,27024.6249915097
8273559001,6870,2,0,58565.7286959400,62428.8750956495,41943.9612770823,61659.1222592365,57990.6225056036,63599.2858530482,68575.0951210349,59155.5699671289,70560.2548576978,27025.7200842238
8273559001,6870,2,0,58561.5673436265,62518.6970335964,41979.1745916879,61723.1973507061,58117.7627697065,63562.3325577970,68590.1952327921,59261.9034696646,70544.5950318867,27027.6912511091
8273559001,6870,2,0,58536.5018881712,62532.7872265174,41962.8820456419,61707.3063386553,58170.1447045293,63536.3788604736,68558.6078918398,59273.8764833384,70512.5453184551,27026.0972828253
8273576132,6871,2,0,58519.8443112206,62458.0532326309,41916.9976609226,61634.1663130526,58085.9199071209,63552.9390958497,68519.6834297032,59178.1653801291,70501.8620806445,27027.1558724489
8273576132,6871,2,0,58529.2742762584,62379.2430603087,41889.9610385821,61585.0209855848,57959.3758601623,63597.4728662216,68516.0939591404,59079.5218619855,70523.9951211655,27025.6227426492
8273576132,6871,2,0,58551.2613044175,62407.6181292998,41924.9431669480,61629.0680480838,57962.5516290331,63614.7753311039,68555.9918370228,59114.4066487769,70556.7383933160,27022.0211043896
8273576132,6871,2,0,58554.3640671073,62508.2449820255,41976.3760214186,61709.3505117216,58097.8929207947,63584.9158031004,68585.1213032170,59239.8312676278,70557.8334860301,27019.1616956362
8273576132,6871,2,0,58535.8326648460,62542.6795640344,41976.4976983868,61713.8525595461,58177.7130119532,63557.6966653074,68565.2879573956,59277.9039909867,70531.0888884133,27018.0300998317
8273576132,6871,2,0,58525.5387933338,62468.5296195954,41928.8003268409,61638.9847209945,58099.5720629562,63573.3808265122,68525.6334334496,59184.9914580468,70522.0361219770,27027.6547480186
8273576132,6871,2,0,58541.0161036926,62385.4120825979,41903.6253621142,61591.0074924217,57969.2803653762,63604.8464904963,68523.5770926865,59092.9793346717,70541.6626169524,27038.9585383671
8273576132,6871,2,0,58564.1955661403,62405.3427699939,41932.2924558291,61633.1442265195,57965.3867023928,63619.6789129235,68562.5258902168,59130.3341639181,70569.0399348040,27038.7760229148
8273632429,6872,2,0,58571.0581471484,62498.8150169877,41979.1867593847,61709.0341516042,58088.9253282361,63588.1889135457,68593.5048463280,59245.7812713742,70569.8308350975,27035.2473908361
8273632429,6872,2,0,58549.1927959576,62541.4749620490,41978.0308281865,61717.2716823533,58177.1532978993,63547.3176199175,68572.1018676164,59294.0626923676,70536.5400165899,27026.5474876077
8273632429,6872,2,0,58528.0210034857,62480.8919995675,41932.2681204354,61649.5341141400,58122.7515254039,63546.7700735604,68527.1300601588,59216.9803329943,70509.6129035208,27027.0463631775
8273632429,6872,2,0,58531.1481015692,62386.7748646421,41890.3139017899,61581.5166888998,57981.8617638911,63583.7477042054,68506.4449755598,59101.5210578414,70517.1082047637,27027.4600648694
8273632429,6872,2,0,58555.6295075769,62389.4274225495,41912.5321161886,61612.0819433190,57948.4736038089,63613.6437352993,68545.9899902344,59109.8924332556,70550.3868555744,27027.1315370552
8273632429,6872,2,0,58564.4997585608,62487.6937420916,41968.3818446059,61703.7655388799,58070.8928015445,63588.5174413599,68590.0127173398,59239.4419013294,70560.3156961820,27027.3627232949
8273632429,6872,2,0,58546.4428964756,62548.7025739618,41979.9654919814,61731.3862106680,58179.7571850194,63552.8539219719,68580.7287646639,59310.4890830786,70534.4715081300,27028.2387974661
8273632429,6872,2,0,58527.5829664000,62495.7609250852,41934.2636227144,61664.5733874132,58132.7533721924,63551.7831646515,68539.7966325515,59237.8601007424,70510.0996113937,27032.7773483811
8273632498,6873,2,0,58530.7830706645,62403.7244663164,41895.4973406365,61598.0282534885,57997.1930618880,63579.5620164983,68524.0638005594,59124.8100295605,70516.7310061622,27031.6822556670
8273632498,6873,2,0,58551.8818569554,62391.0700616206,41907.5920312785,61614.3451349281,57949.2888394961,63598.8234805690,68549.5916284940,59114.6986735006,70536.2236564725,27025.0021901112
8273632498,6873,2,0,58565.3149942480,62474.8689896402,41952.9775404281,61688.7384333035,58049.5506613171,63582.6282760976,68583.1501363316,59214.0114149695,70542.6116973046,27017.1296902668
8273632498,6873,2,0,58551.9183600459,62545.1374387927,41968.7347078138,61723.9760833028,58168.4655623677,63550.9314258739,68574.6570839492,59291.6048176094,70522.9852023292,27012.3842885058
8273632498,6873,2,0,58533.7033179020,62516.7867051952,41936.5024789298,61673.7113277272,58157.7701568604,63549.5443084361,68533.6519456559,59243.0192041954,70504.5511416424,27019.2833726044
8273632498,6873,2,0,58533.3017839068,62419.9318384846,41891.7983608023,61595.1810124319,58021.7718094703,63585.3781755796,68506.2259570170,59116.7428465669,70514.3339698881,27021.2910425802
8273632498,6873,2,0,58551.4681552635,62389.3300809749,41901.3986735956,61595.8989065445,57948.2667529629,63618.2431246984,68533.0192254211,59087.0901694094,70549.7054645523,27019.7822481742
8273632498,6873,2,0,58565.4853420035,62475.8180699924,41960.1808169473,61682.3017216842,58044.9634396149,63616.1867839353,68582.0672113144,59206.4431075456,70571.2179525353,27023.2622094655
8273661358,6874,2,0,58558.9634565064,62560.4444013959,41991.0989345744,61734.0144331817,58179.1488001783,63578.7346131143,68592.8599583964,59308.1650529854,70557.4684551254,27033.4709071000
8273661358,6874,2,0,58534.3847089241,62529.1977559546,41950.3493179143,61681.0971196987,58164.9490979859,63556.0296908427,68552.4388695505,59261.2829171266,70525.8567787794,27029.5650764198
8273661358,6874,2,0,58524.5532098911,62427.0742765197,41897.1886504949,61601.0945130879,58030.4108742146,63572.5777585219,68520.4134915126,59139.5451104131,70521.0018677470,27025.8904319793
8273661358,6874,2,0,58537.8890056091,62378.4521600152,41890.5937588169,61588.7564685094,57941.0026379596,63601.7802308969,68537.0345653727,59084.8026424067,70541.8086293143,27015.5600573766
8273661358,6874,2,0,58560.5574247902,62446.5425914364,41939.9581048275,61662.9915868262,58012.9137261832,63607.4017068292,68584.4034091044,59157.4194570460,70561.5446335611,27010.6808109506
8273661358,6874,2,0,58559.2189781397,62537.9219945767,41976.3151829345,61725.8864117040,58150.9075758522,63567.4308227658,68596.6806151988,59249.9547913845,70545.4224352707,27012.4329592931
8273661358,6874,2,0,58537.8281671249,62527.9931539691,41950.1668024620,61694.1530583897,58173.7950135762,63552.5740649450,68559.3622890428,59218.9880029701,70514.3826406754,27019.2468695140
8273661358,6874,2,0,58527.5342956127,62428.6074063194,41897.8578738201,61605.4383808537,58049.7210090726,63577.6760234907,68517.5662504560,59082.6002892817,70509.0410217701,27025.7200842238
8273696122,6875,2,0,58539.8601724944,62373.5485781955,41891.3846591103,61581.1881610856,57945.6628658428,63614.8970080721,68530.3666675137,59018.1479992106,70539.5211023116,27026.2676305808
8273696122,6875,2,0,58555.8120230293,62438.6579238951,41940.3718065195,61653.2330939742,58008.5211876301,63607.8032408243,68574.0730345017,59113.8225993294,70563.2237757226,27021.8020858468
8273696122,6875,2,0,58546.3455549010,62526.2896764139,41970.7302100927,61709.4478532962,58140.5163627654,63569.8035236463,68582.1767205858,59228.2111171619,70546.6148695593,27017.6163981397
8273696122,6875,2,0,58525.5631287274,62527.6037876708,41951.0185412396,61682.8736034349,58169.3294688422,63554.2288717129,68548.6547158386,59227.9434278317,70517.4245648811,27021.0111855533
8273696122,6875,2,0,58521.2800994458,62449.2316524342,41909.8308874939,61613.5664023314,58064.9062947077,63567.9905368196,68519.9754544269,59132.6095232240,70510.4159715111,27025.9512704634
8273696122,6875,2,0,58536.2098634475,62384.2804867934,41896.2152347490,61585.0209855848,57952.0022358876,63596.5846243536,68528.4928422030,59060.5402549417,70526.3191512587,27027.8372634710
8273696122,6875,2,0,58557.0531281052,62426.6727425245,41934.2757904112,61641.4182603591,57981.5819068642,63602.7414789460,68570.0211914597,59119.1277151442,70545.4589383611,27027.8737665614
8273696122,6875,2,0,58556.8097741687,62523.1869137241,41976.4125245091,61718.2694334928,58121.7294388708,63568.8057725068,68595.3543362451,59239.1985473930,70537.2700783993,27028.4091452216
8273743425,6876,2,0,58534.0805165035,62537.7029760338,41962.1519838326,61703.4491787625,58178.2848937038,63540.6253866648,68564.1806969847,59248.7501893990,70507.4470534863,27027.9102696519
8273743425,6876,2,0,58519.0169078367,62443.8291950449,41903.7227036888,61614.2356256567,58070.1140689479,63553.9976854733,68515.6072512675,59125.0290481033,70495.0846735142,27026.8395123315
8273743425,6876,2,0,58534.6645659510,62368.2069592903,41883.8285193833,61574.7271140726,57945.9913936571,63598.6653005103,68521.1557210188,59038.9425930810,70525.9784557476,27028.2996359502
8273743425,6876,2,0,58557.3451528289,62411.0737551975,41925.0283408258,61632.6818540402,57969.9860917919,63605.8564093326,68564.4848894053,59102.1659457730,70558.6365540204,27020.6096515581
8273743425,6876,2,0,58553.0621235473,62502.6721768806,41965.9361375445,61696.1728960624,58096.6883188092,63573.7458574169,68580.1933860037,59209.7162179910,70550.1556693348,27009.6343890238
8273743425,6876,2,0,58530.4545428502,62525.9976516902,41959.0370534459,61686.9376141737,58161.5421428755,63547.7313216094,68552.6457203965,59226.7631612399,70521.4885756200,27013.3455365548
8273743425,6876,2,0,58510.5846939384,62453.3199985667,41915.3915249420,61614.1747871726,58083.1943430325,63558.3658886327,68508.9880241958,59134.5076839284,70505.4272158137,27022.8850108640
8273743425,6876,2,0,58517.5689519147,62371.3948958579,41888.8659458680,61559.8581885549,57952.9878193302,63596.5846243536,68499.7770777008,59041.3517970519,70523.5205809894,27027.0828662679
8273759293,6877,2,0,58539.6776570420,62393.6131102566,41922.6069691580,61598.8556568725,57948.3154237502,63618.1457831238,68537.3874285806,59079.2785080490,70555.7649775702,27026.8395123315
8273759293,6877,2,0,58550.5920810922,62501.3580656237,41977.8483127342,61686.0615400025,58087.1123414095,63593.7982217811,68572.8197617290,59217.8807425592,70561.4837950770,27027.5817418377
8273759293,6877,2,0,58529.2864439552,62542.9350856677,41974.5143638047,61694.9196232896,58174.7684293220,63549.1671098345,68548.5452065672,59261.9399727550,70528.3754920217,27026.6691645760
8273759293,6877,2,0,58505.3160812140,62463.7842178345,41916.8029777735,61611.4857261747,58095.1308536158,63547.6704831253,68496.2362779254,59151.7371426297,70500.3897893290,27023.8462589130
8273759293,6877,2,0,58513.4197672981,62375.0695402984,41885.7996862686,61557.6436677332,57962.3569458839,63595.5503701236,68489.6778893378,59042.4955605533,70518.8725208030,27024.6614946002
8273759293,6877,2,0,58539.9818494626,62390.5103475667,41915.9755743895,61603.1630215478,57954.1802536189,63608.5819734210,68534.6496967954,59068.6074379353,70552.0538300392,27022.2766260229
8273759293,6877,2,0,58546.4672318692,62483.5445574749,41960.2781585218,61684.1998823886,58073.7887133884,63577.1649802241,68569.7778375232,59175.8900208232,70551.5914575599,27012.2869469312
8273759293,6877,2,0,58526.9989169525,62531.8016430747,41959.8644568299,61702.9259677991,58170.7652570673,63539.6154678285,68557.0382589496,59224.8650005355,70519.2862224950,27005.9110737960
8273790445,6878,2,0,58505.8636275711,62480.2227762423,41918.7619769620,61644.9468924378,58126.3653313603,63539.8223186745,68517.5662504560,59155.3631162829,70495.0725058173,27010.8511587061
8273790445,6878,2,0,58505.5350997569,62381.3115687686,41877.6229940036,61573.0236365174,57987.4102336423,63572.2492307077,68496.6378119205,59042.9701007294,70501.4848820430,27018.2369506777
8273790445,6878,2,0,58530.2963627915,62374.3516461859,41897.6388552773,61595.3391924906,57944.7867916716,63611.6238976267,68534.3333366780,59049.3094707741,70535.6152716314,27025.5254010746
8273790445,6878,2,0,58549.2049636544,62474.8324865497,41958.2461531524,61691.6708482379,58066.8409585025,63595.5868732141,68583.5760057204,59186.7192709956,70553.5382890516,27030.1369581705
8273790445,6878,2,0,58529.6636425568,62535.4276167280,41968.9780617502,61720.5812958892,58178.2970614007,63555.9566846618,68574.9491086730,59263.0837362564,70527.7914425742,27023.3717187369
8273790445,6878,2,0,58507.9321360310,62482.6319802132,41925.4298748209,61656.6278813878,58138.5573635769,63552.1360278593,68530.0503073963,59192.2555730501,70504.6971540043,27019.2590372108
8273790445,6878,2,0,58504.1479823190,62383.0758848079,41885.2399722148,61579.2656649875,57997.1930618880,63575.4980057594,68505.5202306013,59070.8949649380,70511.8882628266,27016.3144545796
8273790445,6878,2,0,58517.7514673671,62358.7404911620,41894.6699372525,61585.5563642450,57937.4375027905,63595.4043577617,68526.8258677382,59055.2959776110,70536.5643519836,27017.2148641445
8273866032,6879,2,0,58526.8164015002,62434.3992300071,41938.1816210914,61652.5151998616,58027.7826517009,63584.2465797751,68559.9341707935,59157.1517677159,70543.1714113584,27013.3212011612
8273866032,6879,2,0,58513.8821397774,62507.5027525193,41958.8180349031,61690.7947740666,58147.4641176513,63553.1216113020,68556.9895881623,59246.5478362740,70522.2794759134,27010.3401154396
8273866032,6879,2,0,58497.4922521569,62486.2822892601,41930.5646428802,61651.6269579936,58145.9553232453,63551.1504444167,68521.8371120408,59216.3111096690,70502.9571733586,27022.9093462577
8273866032,6879,2,0,58497.0420473744,62393.8442964962,41886.5175803812,61576.3454177500,58014.7145453130,63580.9004631488,68495.5183838128,59095.6318925791,70507.1550287625,27036.1478004010
8273866032,6879,2,0,58514.1498291075,62356.9396720322,41888.6712627188,61569.9330415243,57930.9642880807,63606.7446512007,68514.2688046170,59054.3590649557,70534.3741665554,27033.1058761953
8273866032,6879,2,0,58522.5333722185,62430.7367532634,41935.0910260984,61646.0663205455,58012.6095337627,63584.0762320196,68552.1346771300,59155.6429733098,70545.1182428501,27019.7092419932
8273866032,6879,2,0,58508.8568809895,62510.6906890869,41958.8788733872,61692.4739162282,58144.1180010250,63549.8241654630,68549.8106470368,59254.0674729106,70521.6467556787,27014.5988093276
8273866032,6879,2,0,58491.9316147088,62490.7721693878,41931.0756861468,61648.8527231179,58147.9264901306,63546.8309120445,68511.6527498000,59222.5653058360,70499.5502182482,27016.9350071176
8273885317,6880,2,0,58495.3629052129,62407.0097444586,41896.1908993554,61581.1516579951,58032.9417551538,63577.0311355591,68489.9577463647,59118.3489825475,70506.1694453199,27026.7665061505
8273885317,6880,2,0,58511.4851035033,62362.9261788691,41893.9277077463,61571.1863142971,57941.5866874071,63602.4859573127,68506.6396587090,59070.3717539747,70532.4516704574,27024.9291839303
8273885317,6880,2,0,58528.0088357888,62420.7957449590,41934.7503305873,61637.5854358599,58000.7703647539,63599.0181637181,68548.7277220195,59144.2783444772,70548.2210055399,27024.7953392652
8273885317,6880,2,0,58522.5212045217,62508.7316898984,41968.1749937599,61699.7988697156,58135.8683025791,63558.6457456596,68565.7624975717,59243.2868935255,70534.7270297633,27024.2721283018
8273885317,6880,2,0,58497.1272212522,62505.2638963039,41944.4358172584,61673.6748246367,58165.0099364700,63536.4640343514,68533.1043992989,59224.9136713228,70501.4970497399,27023.6637434607
8273885317,6880,2,0,58490.9095281757,62413.6654746208,41895.5095083333,61590.7641384852,58046.9224388034,63558.0251931216,68497.8302462092,59095.9604203933,70492.4807863941,27028.9931946691
8273885317,6880,2,0,58506.8127079233,62350.2474387796,41882.6117497010,61562.3525664036,57936.6100994066,63590.1965835215,68509.0975334672,59018.9875702914,70516.0131120496,27027.4965679599
8273885317,6880,2,0,58526.4878736860,62409.6014638819,41928.4109605426,61633.2172327005,57991.0605426892,63590.5129436389,68555.9188308419,59097.0920161978,70537.2457430057,27022.8241723799
8273897299,6881,2,0,58522.8253969423,62503.7307665042,41965.8874667572,61698.4725907619,58128.9935538741,63558.7917580215,68570.3375515771,59207.1123308709,70526.0514619286,27016.1806099146
8273897299,6881,2,0,58507.7496205786,62514.6451905544,41952.0284600759,61681.2796351511,58174.6589200506,63551.0044320548,68546.0629964153,59212.4052789889,70504.9770110312,27013.5888904913
8273897299,6881,2,0,58502.8947095463,62438.3902345650,41908.4316023593,61615.0386936470,58079.8968971935,63569.9130329177,68515.4612389056,59115.7085923369,70502.3609562143,27014.3554553911
8273897299,6881,2,0,58517.7271319735,62374.0717891589,41888.7807719902,61581.8330490172,57965.0216714881,63605.6860615771,68522.2386460360,59038.4923882985,70527.5724240314,27023.5664018861
8273897299,6881,2,0,58536.3193727189,62412.1688479116,41924.6633099211,61632.6818540402,57987.8969415153,63610.9060035142,68559.0459289254,59084.2550960496,70552.3458547629,27027.7277541996
8273897299,6881,2,0,58534.6645659510,62509.7416087347,41969.9149744056,61700.5289315250,58121.0237124551,63571.6165104729,68579.0252871087,59199.7630419898,70546.2741740483,27028.8958530946
8273897299,6881,2,0,58511.3025880509,62531.0959166590,41960.8987110598,61689.4563274161,58186.3764120911,63542.1706841614,68549.4942869194,59224.0497648484,70512.9590201471,27026.1702890062
8273897299,6881,2,0,58498.6846864455,62447.8688703901,41915.4401957293,61604.4041266237,58090.7748181532,63560.8724341782,68506.5909879217,59115.0150336180,70501.5822236176,27032.2298020240
8273913573,6882,2,0,58512.4706869459,62368.1947915934,41893.9398754432,61557.3516430094,57958.3416059323,63598.4584496643,68508.4526455356,59020.3625200324,70524.5913383098,27033.7142610364
8273913573,6882,2,0,58533.7763240829,62400.7920513821,41930.1266057946,61610.0621056464,57969.4628808285,63608.7036503892,68550.4677026652,59071.3816728110,70551.6036252567,27033.3248947381
8273913573,6882,2,0,58537.4144654330,62500.5306622398,41974.9037301030,61684.3823978409,58102.8695087952,63581.7765373200,68576.1902137489,59194.6282739305,70548.2940117209,27028.8228469136
8273913573,6882,2,0,58514.1133260170,62534.3811948012,41968.1749937599,61679.8560146228,58175.2673048917,63555.5429829698,68551.2951060492,59227.2133660224,70518.3493098396,27022.3983029911
8273913573,6882,2,0,58497.6504322156,62468.9068181969,41926.8413276524,61614.6371596518,58108.4301462433,63564.5349109219,68515.1692141819,59136.8317140216,70504.1374399504,27026.7300030601
8273913573,6882,2,0,58507.4697635517,62382.6743508127,41896.8601226807,61566.2097262965,57979.8784293089,63601.5003738700,68509.2070427386,59016.5418632300,70521.6832587691,27031.0738708259
8273913573,6882,2,0,58537.2562853743,62394.7568737579,41923.0571739405,61607.7989140373,57964.1212619232,63614.1912816563,68554.5317134041,59010.9203872978,70549.8758123079,27030.1491258673
8273913573,6882,2,0,58545.9075178154,62489.1538657103,41967.0920687427,61691.5735066633,58084.0460818101,63575.6805212117,68589.1366431685,59107.5440677687,70545.0695720628,27021.8629243309
8273966313,6883,2,0,58530.4180397598,62541.1951050220,41966.0578145127,61707.2333324744,58177.8833597087,63539.9439956428,68574.2433822572,59154.2680235688,70512.0829459758,27022.1184459642
8273966313,6883,2,0,58514.9772324915,62479.2006897091,41919.1391755635,61633.6917728765,58113.9056098136,63550.9070904802,68527.4585879730,59060.2360625211,70490.1445886040,27028.5308221899
8273966313,6883,2,0,58528.2886928158,62391.9948065791,41891.1413051739,61577.5986905228,57981.6305776514,63594.4917805000,68520.2309760602,58958.6236263528,70511.7544181616,27038.7030167338
8273966313,6883,2,0,58550.3365594589,62397.7014563891,41919.5407095586,61610.9138444240,57956.2852651693,63613.6072322089,68558.2063578446,58984.7598391284,70542.2344987031,27035.1257138679
8273966313,6883,2,0,58553.4879929361,62482.3034523990,41966.4958515984,61681.2187966670,58067.0964801358,63586.6314483524,68586.7639422881,59103.8572556314,70544.9843981851,27024.7588361748
8273966313,6883,2,0,58533.8371625670,62530.8647304194,41972.6405384939,61698.9714663316,58166.2997123332,63551.7953323483,68571.6881659244,59172.9089351016,70519.3592286759,27016.7159885748
8273966313,6883,2,0,58514.8677232201,62484.8586687318,41932.8765052766,61645.9203081836,58133.9093033906,63555.9810200554,68532.4595113673,59125.0533834970,70500.9130002923,27020.7799993137
8273966313,6883,2,0,58518.9195662621,62393.0898992932,41893.7938630813,61581.8695521076,58003.7271150819,63595.4895316395,68515.5950835707,59025.8501512995,70514.5894915213,27032.5826652319
8273982752,6884,2,0,58542.1963702844,62380.5085007783,41909.9038936749,61596.8966576840,57948.2910883566,63624.8015132860,68547.7056354864,59023.3436057540,70550.1435016380,27035.8679433741
8273982752,6884,2,0,58554.2788932296,62468.4444457177,41963.3322504244,61680.9876104273,58053.6025043592,63597.4485308280,68589.1731462590,59143.2805933377,70560.0236714582,27029.0783685469
8273982752,6884,2,0,58531.8659956817,62531.6799661065,41976.8262262010,61711.5163617561,58165.8738429444,63552.2333694339,68578.6359208103,59222.0542625694,70528.2538150535,27018.5046400078
8273982752,6884,2,0,58507.5671051263,62485.4548858761,41935.1031937952,61648.6093691815,58135.2234146474,63550.0431840058,68534.0048088638,59161.2644492420,70500.4506278131,27012.9805056501
8273982752,6884,2,0,58508.0294776056,62387.8091188720,41895.2296513064,61572.7802825809,57999.4319181034,63590.4034343675,68511.4702343477,59053.3369784225,70510.1117790905,27019.5388942377
8273982752,6884,2,0,58531.8659956817,62371.1272065278,41913.3716872694,61583.3540111200,57941.3920042580,63623.5847436037,68539.5897817055,59049.2242968964,70547.1989190068,27028.1901266788
8273982752,6884,2,0,58544.0215248078,62446.9806285220,41961.7869529279,61652.0771627760,58028.4275396325,63602.5346281000,68572.7102524576,59153.7569803023,70557.6022997904,27027.5939095345
8273982752,6884,2,0,58528.4468728745,62520.0598156406,41979.5031195021,61690.1498861350,58148.0238317052,63563.3546443301,68569.2789619535,59242.8853595303,70534.9338806093,27023.4203895242
8274011123,6885,2,0,58509.5626074053,62502.3801521568,41950.1302993715,61656.1898443022,58155.0689281657,63557.3438020996,68535.1364046683,59216.6883082705,70510.8418408999,27031.5849140924
8274011123,6885,2,0,58510.6698678161,62412.2540217893,41902.6519463684,61581.7235397458,58030.0093402195,63579.0996440190,68509.5234028560,59096.4106251757,70509.5398973398,27039.3600723623
8274011123,6885,2,0,58531.6956479262,62367.4525620872,41895.1566451255,61571.8920407128,57937.7660306047,63609.2511967462,68531.5956048928,59042.9092622453,70535.2745761203,27033.6290871587
8274011123,6885,2,0,58550.0932055225,62440.4222399344,41943.3163891507,61652.7585537981,58015.1647500955,63599.1155052927,68579.2686410451,59139.2652533861,70552.2850162788,27022.5443153530
8274011123,6885,2,0,58539.5681477706,62522.0918210100,41970.0853221611,61707.4280156236,58145.4807830692,63562.0161976796,68583.3934902681,59239.6487521754,70527.7914425742,27016.1927776114
8274011123,6885,2,0,58517.6906288830,62504.7163499469,41943.6084138744,61666.2038587874,58157.4781321366,63546.1373533256,68543.2522584492,59206.9663185090,70497.9684176612,27019.8795897488
8274011123,6885,2,0,58508.8447132927,62410.9642459261,41899.2449912580,61586.8096370178,58036.1661948119,63566.2383884771,68509.2192104354,59088.4042806662,70496.3014431965,27019.4415526631
8274011123,6885,2,0,58516.2791760515,62355.4552130198,41891.5550068659,61563.9221992938,57937.9972168444,63597.7283878549,68518.7221816542,59027.0425855882,70520.8923584756,27013.0291764374
8274054042,6886,2,0,58534.6037274669,62416.5248833742,41936.2469572965,61629.4817497758,57995.5139197264,63602.2304356794,68563.6818214149,59102.3606289222,70544.2908394661,27014.5744739340
8274054042,6886,2,0,58532.1336850118,62510.9340430234,41972.8960601272,61694.7857786245,58133.5564401827,63570.4484115779,68579.1591317737,59210.1055842893,70534.8852098220,27016.2414483987
8274054042,6886,2,0,58512.8722209411,62520.1328218215,41954.3646578659,61678.1647047644,58177.3358133516,63549.4834699519,68548.8493989878,59211.8820680255,70507.2767057308,27021.3518810643
8274054042,6886,2,0,58504.3061623777,62430.6272439920,41903.8322129602,61597.7605641584,58067.7048649769,63570.9472871476,68511.3242219858,59096.3254512980,70501.7039005859,27028.2144620725
8274054042,6886,2,0,58525.9159919353,62368.6328286791,41891.8348638928,61572.7802825809,57955.3970233012,63612.6216487662,68523.1512232977,59021.5914574115,70532.7558628780,27031.1590447036
8274054042,6886,2,0,58549.3144729258,62425.0179357566,41940.2257941576,61643.8883028142,58002.7171962456,63615.0673558276,68572.4303954306,59098.9658415086,70561.2769442310,27026.7056676664
8274054042,6886,2,0,58541.1986191449,62515.8619602367,41976.5585368709,61707.4766864109,58135.3085885252,63565.7638483010,68585.5350049089,59202.7076246210,70544.1691624979,27014.1607722420
8274054042,6886,2,0,58511.0105633272,62516.9327175571,41954.0361300517,61677.4224752582,58174.0383675126,63541.1729330219,68546.3428534422,59187.9725437684,70505.8287498088,27009.5005443588
8274113049,6887,2,0,58500.6315179372,62438.7796008633,41911.6073712301,61604.4284620174,58081.3083500250,63569.3289834702,68509.5234028560,59082.8314755213,70497.7250637247,27021.8142535436
8274113049,6887,2,0,58514.9163940073,62372.7576779020,41895.0106327636,61566.5747572012,57965.7882363880,63613.6315676025,68512.5531593649,59003.7657815659,70521.7806003437,27035.0770430806
8274113049,6887,2,0,58538.1445272423,62412.1080094274,41934.5191443477,61614.4424765027,57984.8185142191,63631.0313740593,68555.2617752135,59057.8268585502,70555.3999466655,27034.5051613299
8274113049,6887,2,0,58540.0791910372,62514.1463149846,41982.6302175856,61691.9263698712,58121.8632835359,63592.6422905829,68584.2330613489,59183.3366512788,70555.0592511545,27027.4600648694
8274113049,6887,2,0,58514.6243692836,62541.7426513791,41973.3584326065,61689.2616442669,58191.7788694805,63554.3262132875,68559.0824320159,59216.5057928182,70520.8071845979,27020.9746824628
8274113049,6887,2,0,58497.9667923330,62457.3718416088,41918.8471508397,61607.9084233087,58103.7455829665,63564.6200847997,68512.3584762158,59110.5859919745,70501.4240435589,27023.9070973972
8274113049,6887,2,0,58513.1155748776,62372.4534854815,41890.8127773597,61559.3714806820,57968.7571544128,63603.9217455378,68509.6815829147,59010.3363378503,70521.7806003437,27026.8151769378
8274113049,6887,2,0,58536.4897204744,62397.5067732399,41921.2563548107,61608.6628205118,57969.9617563982,63607.1583528927,68548.2410141466,59050.0882033708,70546.2863417451,27023.4690603115
8274122291,6888,2,0,58533.7763240829,62489.6770766737,41958.0514700032,61683.5428267601,58093.3665375765,63571.7381874411,68573.3794757828,59165.8395032475,70538.0366432992,27020.5853161645
8274122291,6888,2,0,58514.6000338900,62521.3739268975,41947.3560644959,61687.5216636212,58170.2177107102,63540.3820327284,68551.9764970713,59202.0140659021,70505.1838618772,27019.0400186680
8274122291,6888,2,0,58497.9181215457,62456.3619227725,41900.6686117862,61621.9621131392,58104.9015141647,63548.4613834188,68516.0939591404,59124.1529739321,70487.2000059729,27021.1937010056
8274122291,6888,2,0,58506.0948138107,62370.4944862930,41870.4562205749,61565.1146335825,57974.4394688291,63592.6301228861,68507.8685960881,59027.0304178913,70503.0058441459,27026.8881831188
8274122291,6888,2,0,58537.7916640345,62381.5549227050,41902.3720893415,61602.2504442861,57954.1680859221,63618.8636772364,68547.6691323959,59052.8137674591,70539.4845992211,27032.5704975351
8274122291,6888,2,0,58551.7236768967,62481.6463967706,41959.0370534459,61690.0038737731,58078.8139721763,63597.0226614392,68589.3799971050,59180.4529071318,70550.4111909681,27027.7520895932
8274122291,6888,2,0,58535.2364477017,62538.9805842003,41969.7324589533,61713.8647272429,58184.5147544772,63557.9278515471,68578.8671070500,59239.3810628453,70521.0140354438,27022.0332720864
8274122291,6888,2,0,58512.9573948189,62478.9451680759,41922.1932674660,61640.2014906768,58128.2391566711,63558.7309195374,68530.9628846580,59140.3846814939,70496.2284370155,27026.4014752459
8274137754,6889,2,0,58510.1344891559,62380.5085007783,41881.8695201948,61565.7108507268,57984.8428496127,63591.9730672577,68508.9758564990,59011.2732505056,70507.6782397259,27034.5173290268
8274137754,6889,2,0,58525.7578118766,62376.3593161616,41903.1873250286,61589.0971640205,57947.1594925521,63618.5716525126,68540.7092098132,59016.2498385062,70537.0875629470,27038.0216257118
8274137754,6889,2,0,58537.9741794868,62464.7576335803,41953.4155775137,61668.1871933696,58058.9319555676,63598.0569156691,68576.7864308932,59131.9889706860,70545.9943170214,27035.2960616234
8274137754,6889,2,0,58526.8650722875,62524.6957081301,41966.7757086253,61697.1463118082,58164.8030856240,63560.3127201244,68571.3961412007,59203.5350280049,70523.1312146910,27027.2775494171
8274137754,6889,2,0,58509.0880672292,62482.9118372401,41930.2847858533,61644.4601845649,58137.6204509216,63554.6912441922,68531.3644186532,59150.9219069425,70497.0923434899,27023.8949297003
8274137754,6889,2,0,58509.1854088037,62388.1619820799,41887.1503006160,61569.4706690451,58003.1795687249,63586.9843115602,68504.6441564300,59035.6938180293,70502.2027761556,27025.6957488301
8274137754,6889,2,0,58525.4779548497,62360.8333350156,41891.8226961960,61568.8866195976,57933.0936350247,63614.4589709865,68524.0516328626,59004.6905265244,70532.2934903987,27021.2058687025
8274137754,6889,2,0,58535.3094538826,62444.6565984288,41939.2523784118,61647.9766489467,58031.6763146842,63598.1177541532,68564.7647464322,59112.8005127962,70546.0429878086,27016.5091377288
8274168859,6890,2,0,58519.1264171081,62518.5023504472,41957.7229421890,61688.9331164527,58160.6052302201,63560.8359310877,68562.9639273024,59204.7274622936,70524.3966551606,27015.5965604671
8274168859,6890,2,0,58498.5143386900,62481.0866827167,41918.2265983017,61633.2050650036,58144.0693302377,63557.8426776693,68521.1922241092,59157.9305003125,70502.9328379650,27023.0918617100
8274168859,6890,2,0,58502.8217033653,62390.3399998112,41880.7135889966,61564.8712796460,58017.9024818806,63602.1087587112,68501.2737044101,59056.4762442029,70514.1514544357,27028.8228469136
8274168859,6890,2,0,58533.6303117210,62373.8040998288,41898.5636002359,61580.2755838238,57955.8837311741,63641.5564318112,68535.8299633872,59058.1675540612,70553.6721337166,27037.8756133499
8274168859,6890,2,0,58557.9657053669,62459.3551761909,41952.5638387361,61660.1686811633,58043.8075084167,63627.6000835552,68583.2231425126,59170.6457434925,70572.1670328875,27043.3510769202
8274168859,6890,2,0,58550.1418763098,62537.8124853053,41977.3372694676,61709.1314931788,58164.8760918050,63581.3385002344,68587.1411408896,59263.8137980658,70551.5427867726,27040.8201959810
8274168859,6890,2,0,58522.2291797979,62514.2436565592,41944.9711959186,61667.5179700443,58166.1658676682,63555.9445169649,68545.6614624202,59228.4301357047,70514.9545224260,27034.5416644204
8274168859,6890,2,0,58509.5626074053,62409.3337745518,41892.5770933990,61582.3684276774,58032.5402211586,63582.5552699167,68506.9195157359,59090.9716646959,70504.2226138282,27034.1157950316
8274213651,6891,2,0,58528.9092453537,62357.2316967560,41888.9146166553,61566.2583970838,57935.2108142719,63622.6478309483,68525.2075640608,59024.6455493140,70533.0357199049,27033.4344040095
8274213651,6891,2,0,58546.9904428326,62427.9016799036,41937.6949132185,61642.0753159876,58007.9736412731,63617.5739013731,68574.2190468636,59117.7040946159,70554.4873694038,27031.7795972416
8274213651,6891,2,0,58543.3644691794,62522.4325165211,41973.8086373890,61707.9633942838,58154.2901955690,63578.6494392365,68588.9541277162,59234.0759470305,70539.9834747908,27037.5714209293
8274213651,6891,2,0,58525.3441101846,62514.6695259480,41945.3362268233,61673.3341291257,58177.0072855374,63562.3447254938,68553.4852914773,59215.0821722899,70508.3109599607,27040.1631403526
8274213651,6891,2,0,58518.8343923843,62426.2833762262,41898.3932524804,61593.6600503291,58064.4195868347,63586.0230635112,68520.3283176348,59104.5264789566,70504.6119801265,27045.7724485880
8274213651,6891,2,0,58530.6492259994,62370.8230141072,41888.9267843521,61566.1610555092,57962.7584798791,63617.1236965907,68527.5559295476,59047.6424963094,70529.1177215279,27045.4074176833
8274213651,6891,2,0,58543.5348169349,62419.3842921276,41924.9918377353,61617.6060776766,58003.8366243533,63614.7631634070,68562.9152565151,59116.2196356035,70546.3228448356,27035.2352231393
8274213651,6891,2,0,58537.5483100980,62509.5104224951,41957.7716129763,61677.3373013804,58133.3860924272,63575.4858380626,68576.2388845362,59224.9745098070,70534.2403218904,27027.2288786298
8274241078,6892,2,0,58513.2859226331,62518.8673813519,41939.8120924657,61662.2980281073,58178.3335644911,63543.9228325039,68544.8218913394,59233.6257422481,70504.0400983758,27022.4834768689
8274241078,6892,2,0,58502.5053432479,62430.7124178697,41890.8614481470,61583.0863217899,58068.6904484196,63567.3578165848,68506.4328078630,59119.0547089632,70494.4154501889,27027.7277541996
8274241078,6892,2,0,58520.5743730300,62362.0136016074,41878.5112358717,61547.9703487589,57943.9228851971,63619.5329005616,68516.3008099864,59030.4617083954,70525.0172076986,27033.7142610364
8274241078,6892,2,0,58547.0026105294,62412.6190526940,41926.6466445032,61617.1315375005,57979.3187152551,63629.0967102645,68567.1496150095,59096.2159420266,70559.7803175217,27030.8426845862
8274241078,6892,2,0,58542.6100719764,62507.6609325780,41970.0853221611,61686.0980430930,58117.4585772860,63589.3570124407,68585.8391973295,59206.7594676630,70551.3237682298,27025.6349103460
8274241078,6892,2,0,58518.5180322669,62521.3252561102,41951.9797892886,61666.6905666604,58173.4908211556,63557.6723299138,68551.7209754380,59208.4507775214,70521.6467556787,27024.7831715684
8274241078,6892,2,0,58501.9699645877,62438.6092531078,41898.5027617518,61591.8470635024,58082.4156104359,63567.0779595579,68509.4138935846,59105.4633916120,70506.6318177991,27026.0972828253
8274241078,6892,2,0,58514.3566799535,62363.2790420770,41872.8045860617,61551.4624777471,57962.1257596443,63601.6950570192,68509.3043843132,59023.0272456366,70526.2339773809,27028.7255053390
8274262715,6893,2,0,58537.5726454917,62391.9826388823,41902.7249525493,61600.1576004325,57968.1852726621,63615.3107097641,68549.3117714670,59067.6340221895,70554.3291893451,27028.5551575835
8274262715,6893,2,0,58545.3599714583,62491.1372002924,41951.6269260807,61682.6424171952,58103.3318812745,63589.5516955899,68581.2398079304,59196.7941239650,70553.3679412961,27026.6569968791
8274262715,6893,2,0,58529.8583257059,62538.1896839068,41954.7661918610,61697.8520382239,58194.9181352608,63565.5204943646,68565.8111683590,59252.8507032283,70528.8500321978,27031.0130323417
8274262715,6893,2,0,58518.7735539002,62473.9199092880,41911.5952035333,61625.1257143132,58123.9804627830,63582.0198912565,68525.5604272687,59166.4965588759,70513.8472620151,27036.4276574280
8274262715,6893,2,0,58533.1314361513,62391.1430678015,41886.2498910511,61572.6221025222,57985.9014392363,63621.0660303613,68523.4919188088,59062.0003785605,70531.6607701639,27040.1144695653
8274262715,6893,2,0,58558.3064008780,62412.0958417306,41918.7011384778,61617.7277546449,57974.5611457973,63625.6775874572,68566.0910253859,59092.9428315812,70555.6433006020,27037.9972903181
8274262715,6893,2,0,58554.8751103739,62499.4599049193,41955.9342907560,61686.3779001199,58090.2881102803,63579.7445319506,68588.1997305132,59197.1956579602,70540.3971764828,27025.2333763509
8274262715,6893,2,0,58527.2422708890,62529.2707621356,41944.3019725933,61682.0462000509,58164.2312038733,63538.7393936573,68557.0017558591,59225.3882114989,70499.3190320086,27009.0868426668
8274293755,6894,2,0,58506.2773292631,62469.5030353413,41899.8290407055,61613.5907377250,58102.3706332255,63542.7790690025,68513.7820967440,59144.3148475677,70479.0598167984,27015.6208958607
8274293755,6894,2,0,58516.1818344769,62385.4485856884,41872.9262630299,61556.9987798015,57973.1131898754,63585.6823680002,68501.7117414957,59044.3693858640,70493.9895808001,27032.7895160779
8274293755,6894,2,0,58541.7705008956,62388.3323298354,41897.1521474044,61580.2390807334,57939.6763590059,63614.4468032896,68535.4892678762,59053.2883076352,70527.5480886378,27037.7661040785
8274293755,6894,2,0,58556.2987309022,62486.7933325267,41952.7950249757,61665.1331014670,58061.4871719004,63602.0844233175,68575.2776364872,59182.8256080123,70540.2268287273,27037.7539363817
8274293755,6894,2,0,58540.1400295213,62550.8440886026,41967.2867518919,61694.4572508103,58176.0217020948,63563.7683460221,68564.9229264909,59263.6677857039,70518.1789620841,27035.5759186503
8274293755,6894,2,0,58519.5766218905,62496.6491669532,41922.3879506152,61628.1433031253,58133.5321047891,63562.6610856112,68520.7055162363,59191.1726480328,70496.4352878615,27037.2185577214
8274293755,6894,2,0,58518.7127154161,62393.3819240169,41876.4548951086,61554.5287373465,57986.3394763219,63585.6823680002,68500.4463010261,59063.9107069617,70503.9184214076,27029.1392070310
8274293755,6894,2,0,58537.2806207679,62381.2628979813,41890.3990756677,61574.5080955298,57937.5470120619,63603.7635654791,68532.6785299101,59055.8921947553,70533.2912415382,27021.0963594310
8274341099,6895,2,0,58542.8290905192,62463.8207209249,41933.2658715749,61649.2299217194,58040.5952364554,63582.6161084008,68566.9549318603,59158.5267174569,70536.4791781058,27018.6141492792
8274341099,6895,2,0,58524.2125143801,62525.8881424188,41940.8341789988,61671.8618378101,58151.2969421505,63550.3352087295,68557.7196499717,59223.8185786088,70513.5795726850,27018.3342922522
8274341099,6895,2,0,58500.2908224262,62491.2223741702,41904.4162624077,61616.9976928355,58132.4126766813,63548.6682342648,68518.4544923241,59168.4555580644,70491.4343644673,27024.2477929082
8274341099,6895,2,0,58497.9302892425,62398.3706797143,41865.4796325743,61543.8698349296,58004.2746614389,63587.3980132522,68494.1556017687,59045.9755218447,70502.7381548158,27033.9941180634
8274341099,6895,2,0,58525.0399177640,62371.2245481024,41879.3386392556,61553.2997999674,57934.4807524625,63619.0096895982,68523.7109373516,59008.4990156300,70538.6206927467,27039.9684572034
8274341099,6895,2,0,58544.4230588030,62454.6584452173,41933.2902069686,61640.6638631561,58027.2351053438,63604.4084534107,68568.3542169950,59109.7464208937,70554.5238724942,27037.3767377801
8274341099,6895,2,0,58534.1656903812,62534.1013377743,41958.3313270302,61694.0557168152,58161.2501181517,63560.3492232148,68568.9382664424,59206.9419831154,70530.5535097530,27029.6380826008
8274341099,6895,2,0,58512.2395007063,62505.7506041768,41923.3126955737,61649.1204124480,58157.4902998334,63553.1581143925,68530.8168722962,59171.1811221527,70499.5867213387,27028.1049528011
8274373685,6896,2,0,58509.7451228576,62410.7087242928,41877.8785156369,61574.3742508647,58032.8809166697,63577.6638557939,68505.3742182394,59058.6420942373,70500.7304848400,27031.4145663369
8274373685,6896,2,0,58524.7113899498,62373.0618703226,41879.1682915001,61571.1133081162,57952.0995774622,63605.3940368534,68529.2959101933,59029.4882926496,70528.2659827503,27033.5925840682
8274373685,6896,2,0,58537.6456516726,62441.2253079247,41922.8989938818,61640.5786892783,58022.9520760622,63598.8843190531,68568.7800863837,59123.3012351544,70544.8748889136,27032.0594542685
8274373685,6896,2,0,58529.0065869283,62525.2310867903,41953.7441053279,61691.7925252061,58151.8566562044,63572.9671248202,68578.6480885072,59221.5432193029,70533.6319370492,27031.4632371242
8274373685,6896,2,0,58508.5648562658,62518.7092012932,41937.0256898932,61665.3764554035,58175.5228265250,63559.9841923101,68546.8903997993,59210.5071182845,70510.5498161761,27032.6921745033
8274373685,6896,2,0,58500.6801887245,62423.9228430425,41891.6401807436,61587.2355064066,58055.9630375428,63582.9324685182,68512.0177807047,59100.3651266432,70505.1351910899,27035.1622169584
8274373685,6896,2,0,58521.2679317489,62371.9424422149,41891.3481560199,61567.7915268835,57955.2996817266,63626.8213509586,68524.9033716402,59050.3437250041,70539.3385868592,27038.6786813402
8274373685,6896,2,0,58536.7939128950,62433.2676342025,41937.2447084360,61635.3952504318,58013.4491048434,63609.3850414113,68562.2703685835,59145.7628034896,70558.6973925045,27032.8138514715
8274389801,6897,2,0,58521.4626148981,62519.1594060757,41961.5679343851,61691.1841403650,58147.0990867466,63560.8237633909,68562.2338654930,59259.7011165396,70535.5179300568,27020.7069931327
8274389801,6897,2,0,58497.6625999124,62514.1584826815,41937.0500252868,61658.1245080970,58176.8126023883,63555.9566846618,68523.3337387501,59246.4869977899,70505.8895882929,27023.9922712749
8274389801,6897,2,0,58495.1195512764,62429.8363436985,41898.3080786026,61583.3296757264,58070.4547644589,63589.4908571058,68494.7883220034,59135.2864165250,70508.7855001368,27036.6101728803
8274389801,6897,2,0,58513.5536119632,62372.3561439069,41889.8515293107,61560.9046104817,57964.2551065883,63622.6599986451,68508.6473286848,59069.4470090161,70536.2966626535,27040.7350221033
8274389801,6897,2,0,58534.3238704399,62419.0314289197,41927.0116754079,61619.0540335985,57999.5900981621,63627.8799405822,68551.5384599856,59131.8916291114,70559.7803175217,27038.9707060640
8274389801,6897,2,0,58530.1625181265,62510.0092980648,41963.7337844196,61681.0971196987,58127.6064364363,63582.4944314326,68568.6219063250,59241.1210434910,70545.8969754468,27029.5285733293
8274389801,6897,2,0,58502.5418463384,62524.1359940763,41946.1271271168,61664.0015056625,58179.0514586037,63546.4415457462,68537.1075715536,59254.3716653312,70511.9004305235,27018.9548447902
8274389801,6897,2,0,58480.3601350302,62434.4357330975,41888.2697287237,61575.1651511582,58076.6602898386,63554.5939026176,68486.5386235575,59140.1534952542,70491.0206627753,27020.9503470692
8274434749,6898,2,0,58492.5399995500,62353.6665615868,41861.7076465592,61529.3051018325,57946.8066293442,63597.2051768915,68487.4390331224,59047.9710241236,70512.2289583377,27028.0927851042
8274434749,6898,2,0,58517.5689519147,62393.0655638995,41902.6154432779,61592.1634236199,57970.9838429314,63605.3210306724,68535.2459139397,59111.4864015394,70541.6504492556,27031.0252000386
8274434749,6898,2,0,58518.3111814209,62486.8055002235,41945.5187422756,61668.2967026410,58104.1106138712,63564.8391033425,68559.2406120746,59237.5924114123,70531.8311179195,27022.7511661990
8274434749,6898,2,0,58496.4701656238,62507.0038769496,41931.7327417752,61656.2263473926,58166.5187308761,63537.9363256670,68530.3788352105,59259.2752471508,70498.1509331135,27024.1504513336
8274434749,6898,2,0,58485.3975615149,62435.6768381735,41885.5198292417,61586.4446061131,58083.0848337611,63553.6326545686,68496.1146009571,59165.9855156093,70488.5627880171,27031.9499449971
8274434749,6898,2,0,58502.7486971844,62367.7445868110,41866.0028435377,61552.6549120358,57965.7882363880,63597.6188785835,68503.9749331048,59083.3911895752,70513.4092249295,27041.3555746412
8274434749,6898,2,0,58528.7997360823,62394.4770167310,41897.2859920695,61599.4518740168,57964.8878268231,63609.0200105066,68547.6691323959,59117.0592066843,70538.6571958371,27035.6124217408
8274434749,6898,2,0,58536.3802112030,62492.7190008794,41944.1802956251,61677.2521275027,58091.4318737817,63572.1153860426,68578.5142438421,59235.3778905906,70536.5886873772,27027.0828662679
8274444790,6899,2,0,58510.7307063003,62534.0526669870,41942.5863273413,61684.7960995329,58180.3777375574,63536.3545250800,68554.7750673405,59287.2609498436,70501.7282359795,27020.2324529566
8274444790,6899,2,0,58488.3543118429,62461.9955664015,41893.5383414480,61605.9615918171,58112.2142999553,63549.0454328663,68504.4251378872,59196.7332854809,70480.7146235663,27024.9778547176
8274444790,6899,2,0,58495.0830481860,62367.2213758476,41860.0771751849,61537.2384401611,57969.5358870094,63589.7707141327,68488.7896474697,59082.5881215849,70501.8742483414,27031.2077154909
8274444790,6899,2,0,58519.2480940763,62380.5693392624,41894.7186080398,61576.4914301119,57952.8783100588,63613.2178659105,68530.5248475724,59109.8315947715,70539.1804068005,27037.2185577214
8274444790,6899,2,0,58523.7258065072,62474.3701140704,41945.6769223343,61657.9419926447,58075.2975077945,63583.5043502689,68563.7426598991,59229.3792160569,70542.2466663999,27032.9720315302
8274444790,6899,2,0,58507.2507450089,62523.4546030542,41950.6413426381,61675.3783021920,58170.8747663387,63553.1581143925,68549.5551254035,59281.7003123955,70517.4854033652,27030.7940137989
8274444790,6899,2,0,58491.9924531929,62469.6368800063,41911.0476571762,61615.8417616373,58124.2359844163,63552.8782573655,68513.8916060155,59210.8599814923,70499.6718952164,27031.5362433051
8274444790,6899,2,0,58492.3818194913,62376.8703594282,41874.5080636169,61552.0100241041,57991.1822196575,63587.6778702792,68498.1952771139,59104.1979511424,70509.9535990318,27036.0261234328
8274478309,6900,2,0,58512.9817302125,62364.5201471529,41888.7077658093,61567.8280299740,57942.8034570894,63609.7257369223,68527.2760725207,59094.8653276792,70539.3020837687,27031.0860385227
8274478309,6900,2,0,58520.1120005507,62448.3190751725,41933.5822316923,61643.5841103936,58043.9778561722,63585.3416724892,68562.4407163390,59199.7752096866,70543.4025975981,27019.6240681155
